AF3,F7,F3,FC5,T7,P7,O1,O2,P8,T8,FC6,F4,F8,AF4
4139.615384,4136.025641,4157.051282,4139.487179,4139.230769,4144.615384,4140.51282,4134.871795,4129.230769,4145.769231,4107.820513,4297.435898,4265.25641,4156.153846
4128.974359,4140.897436,4153.205128,4143.461538,4139.358974,4147.179487,4140.25641,4141.025641,4129.743589,4146.794872,4107.435897,4295.897436,4249.74359,4148.076923
4117.820513,4138.974359,4143.846154,4141.282051,4141.923077,4143.205128,4132.307692,4140.25641,4129.615384,4147.948718,4103.717948,4287.692308,4240.128205,4139.615384
4114.615384,4135.51282,4136.282051,4138.333333,4141.410256,4137.051282,4123.846154,4136.538461,4128.333333,4145.769231,4094.615384,4284.230769,4240.641026,4133.589743
4123.974359,4145,4150.128205,4151.153846,4144.74359,4144.230769,4130.51282,4136.794872,4134.615384,4146.410256,4100.897436,4299.615385,4254.74359,4144.74359
4147.179487,4164.102564,4177.692308,4175.769231,4142.179487,4157.051282,4147.307692,4148.589743,4153.974359,4149.102564,4127.692307,4329.102564,4288.205128,4172.820513
4159.615384,4174.74359,4187.179487,4188.589743,4142.435897,4159.615384,4153.974359,4153.461538,4164.74359,4149.487179,4143.589743,4340.384616,4310.512821,4185.128205
4152.051282,4170.51282,4183.461538,4182.948718,4142.948718,4161.923077,4151.410256,4140.897436,4156.153846,4148.589743,4132.692307,4331.923077,4302.692308,4179.102564
4151.025641,4168.974359,4180.51282,4182.820513,4136.923077,4166.666666,4151.282051,4133.717948,4151.923077,4148.076923,4123.461538,4331.025641,4295.25641,4178.589743
4155.51282,4173.076923,4175.769231,4188.205128,4141.666666,4167.435897,4150.25641,4142.435897,4158.717949,4148.717949,4132.051282,4338.846154,4303.333333,4183.076923
4153.205128,4170.51282,4177.051282,4186.923077,4142.692307,4167.564102,4150.897436,4151.410256,4163.333333,4148.205128,4140.51282,4341.410257,4309.615385,4184.74359
4157.564102,4169.230769,4186.025641,4188.974359,4139.74359,4170.128205,4161.410256,4160.51282,4168.717949,4146.538461,4141.153846,4344.102564,4313.589744,4190.769231
4169.358974,4178.461538,4188.717949,4199.358974,4142.051282,4170.769231,4173.717949,4172.435897,4174.230769,4146.666666,4142.820513,4357.051282,4323.205128,4201.410256
4173.461538,4182.820513,4187.564102,4203.205128,4139.871795,4169.871795,4177.435897,4177.564102,4171.794872,4147.820513,4144.358974,4366.153846,4329.615385,4208.846154
4171.666667,4173.717949,4188.717949,4194.102564,4142.692307,4164.487179,4175.641026,4172.820513,4162.179487,4148.461538,4139.74359,4360.641026,4322.564103,4208.717949
4166.025641,4167.307692,4181.153846,4185.25641,4141.410256,4159.487179,4172.948718,4168.717949,4159.74359,4148.076923,4135.384615,4353.589744,4311.794872,4202.435897
4157.179487,4165.641025,4171.282051,4185.769231,4139.871795,4166.410256,4173.333333,4166.923077,4169.615384,4146.538461,4140.128205,4356.538462,4313.589744,4201.666667
4154.230769,4156.923077,4171.153846,4191.794872,4146.410256,4171.538461,4171.794872,4158.717949,4173.461538,4146.153846,4144.230769,4360.25641,4321.410257,4204.230769
4156.282051,4150.384615,4172.692308,4195.51282,4139.358974,4167.051282,4164.615384,4151.025641,4168.846154,4148.076923,4141.923077,4357.948718,4320,4200.128205
4157.692307,4155.641025,4173.461538,4200.641026,4135.897436,4167.307692,4161.666666,4150.128205,4170,4147.820513,4146.025641,4360,4315.128205,4199.358974
4158.717949,4158.589743,4175.641026,4203.717949,4139.871795,4171.282051,4160.769231,4151.794872,4173.205128,4145.384615,4150.641025,4363.205128,4314.230769,4203.076923
4158.205128,4150.641025,4172.820513,4193.974359,4138.717949,4170,4159.871795,4159.487179,4172.948718,4145,4143.846154,4359.74359,4307.948718,4203.589744
4154.102564,4145.641025,4169.230769,4190.51282,4141.025641,4167.564102,4164.615384,4169.102564,4172.820513,4147.307692,4137.948718,4354.871795,4299.230769,4198.846154
4150.641025,4149.871795,4169.487179,4198.717949,4140.51282,4167.051282,4165.897436,4167.692307,4170,4146.794872,4135.897436,4350.641026,4290.25641,4189.615384
4148.846154,4153.846154,4168.974359,4203.333333,4142.564102,4167.564102,4163.461538,4165.897436,4166.153846,4143.589743,4131.538461,4348.589744,4281.666667,4184.358974
4151.410256,4153.076923,4171.538461,4204.487179,4144.102564,4170.384615,4168.717949,4167.179487,4167.692307,4144.74359,4130.641025,4354.74359,4283.846154,4189.871795
4160.769231,4154.74359,4178.461538,4206.410256,4140.641025,4170.641026,4176.666667,4161.410256,4169.871795,4147.307692,4138.076923,4366.794872,4291.666667,4199.230769
4167.307692,4164.102564,4186.794872,4208.589744,4144.871795,4170.769231,4180,4159.358974,4170.25641,4147.051282,4146.025641,4374.48718,4296.153846,4210.128205
4174.230769,4173.846154,4197.179487,4214.74359,4139.74359,4178.717949,4184.487179,4166.538461,4175.641026,4147.435897,4154.74359,4381.153846,4307.435898,4221.410256
4184.615384,4179.487179,4204.487179,4221.282051,4136.666666,4185.51282,4183.076923,4171.153846,4183.461538,4148.974359,4166.025641,4391.410257,4322.051282,4230
4183.974359,4182.435897,4204.871795,4219.871795,4142.948718,4185.641026,4175.384615,4173.717949,4186.666667,4148.333333,4173.333333,4399.358975,4328.461539,4237.307692
4172.179487,4178.461538,4199.74359,4217.179487,4138.333333,4178.974359,4169.102564,4172.948718,4186.410256,4147.307692,4173.589743,4399.48718,4327.948718,4237.435897
4166.153846,4169.358974,4192.435897,4215.769231,4140.384615,4175.384615,4166.410256,4168.974359,4185.51282,4147.948718,4171.410256,4392.179487,4320.128205,4228.461538
4169.74359,4167.564102,4188.974359,4214.487179,4142.564102,4181.666667,4170.641026,4169.74359,4187.564102,4146.282051,4172.564102,4385.769231,4306.538462,4223.589744
4169.102564,4171.538461,4188.717949,4213.974359,4139.358974,4182.948718,4175.384615,4174.358974,4191.538461,4144.74359,4172.051282,4383.333334,4298.205128,4226.666667
4165.897436,4170.641026,4186.025641,4211.666667,4142.435897,4177.692308,4171.794872,4173.076923,4189.358974,4146.025641,4166.153846,4383.717949,4297.051282,4226.282051
4168.076923,4168.717949,4185.384615,4212.564103,4141.025641,4177.435897,4170.128205,4170,4181.666667,4146.282051,4161.923077,4386.538462,4301.025641,4221.282051
4172.820513,4172.179487,4190.128205,4216.666667,4143.333333,4181.923077,4180,4174.487179,4184.487179,4145.641025,4159.102564,4389.358975,4307.692308,4222.435897
4172.692308,4178.974359,4192.435897,4221.538461,4144.615384,4180.384615,4182.307692,4183.589743,4193.974359,4145.769231,4150.769231,4395.128205,4310.25641,4225.128205
4170,4179.358974,4189.487179,4221.153846,4141.153846,4173.461538,4172.051282,4187.179487,4191.153846,4146.025641,4136.538461,4396.923077,4309.48718,4221.282051
4170.128205,4175.51282,4187.435897,4217.051282,4142.692307,4170.384615,4172.435897,4184.871795,4183.717949,4146.410256,4130.897436,4392.820513,4307.435898,4216.153846
4172.051282,4179.487179,4192.179487,4222.307692,4138.846154,4178.589743,4183.974359,4184.615384,4188.076923,4147.692307,4135.769231,4390.512821,4306.538462,4215.51282
4178.076923,4188.974359,4200.25641,4233.589744,4142.307692,4187.564102,4187.820513,4185.641026,4192.564102,4147.307692,4137.692307,4398.333334,4310.769231,4220.384615
4181.410256,4191.538461,4203.846154,4235.641026,4147.564102,4185.25641,4180.51282,4185.51282,4189.230769,4145.769231,4138.846154,4407.820513,4321.153846,4224.871795
4175.384615,4188.846154,4197.307692,4229.487179,4140.384615,4184.230769,4179.74359,4185.51282,4183.974359,4147.307692,4143.205128,4407.948718,4325.128205,4224.102564
4169.102564,4186.410256,4190.51282,4227.435897,4141.538461,4182.435897,4180.769231,4182.564102,4178.717949,4147.435897,4148.846154,4406.923077,4319.358975,4222.435897
4170.51282,4182.948718,4191.538461,4227.051282,4141.025641,4173.076923,4173.205128,4182.051282,4177.179487,4146.923077,4151.153846,4408.205129,4336.923077,4222.179487
4176.794872,4184.871795,4198.974359,4226.794872,4138.974359,4169.74359,4169.230769,4180.769231,4182.820513,4148.461538,4155.128205,4411.153847,4376.282052,4229.102564
4185.769231,4195.897436,4210.25641,4235.512821,4142.435897,4173.846154,4174.230769,4173.333333,4188.717949,4148.076923,4163.589743,4419.871795,4394.48718,4240
4191.666667,4203.333333,4218.205128,4245.384615,4139.615384,4173.589743,4174.487179,4166.794872,4187.820513,4144.74359,4166.153846,4424.871795,4387.179487,4241.282051
4188.589743,4201.025641,4217.179487,4242.435897,4143.205128,4168.846154,4167.051282,4168.076923,4185.51282,4145.641025,4161.025641,4423.333334,4384.615385,4236.923077
4184.487179,4197.179487,4212.435897,4233.717949,4144.871795,4167.820513,4166.794872,4168.846154,4190.897436,4147.179487,4156.410256,4422.051282,4387.564103,4235.512821
4183.461538,4194.615384,4211.666667,4232.051282,4141.666666,4171.025641,4174.74359,4171.282051,4199.102564,4145.769231,4155.897436,4420.128205,4380,4233.717949
4180.769231,4188.461538,4209.358974,4231.410256,4142.948718,4175.25641,4179.102564,4180.769231,4201.666667,4145.897436,4153.974359,4413.461539,4367.435898,4227.692308
4180.897436,4185.51282,4205.51282,4231.923077,4141.025641,4177.179487,4180,4187.307692,4199.230769,4145,4150,4413.974359,4360.641026,4224.871795
4183.846154,4188.974359,4205.128205,4232.820513,4144.487179,4179.230769,4181.282051,4187.564102,4194.230769,4145,4144.102564,4417.820513,4355.897436,4228.461538
4176.410256,4186.410256,4201.666667,4223.461538,4143.076923,4183.076923,4179.102564,4183.974359,4184.358974,4147.179487,4128.974359,4406.538462,4339.74359,4225.128205
4167.435897,4175.641026,4196.666667,4211.282051,4138.333333,4184.487179,4175.641026,4184.487179,4181.923077,4145.769231,4116.410256,4396.410257,4328.461539,4218.717949
4174.230769,4171.153846,4197.307692,4211.025641,4143.205128,4182.435897,4176.666667,4191.794872,4195,4143.974359,4122.692307,4402.179488,4339.871795,4225.897436
4184.615384,4180.384615,4205.897436,4221.153846,4140,4182.564102,4177.948718,4193.717949,4207.307692,4145.25641,4143.076923,4416.794872,4353.333334,4241.153846
4192.179487,4193.461538,4217.948718,4231.666667,4139.230769,4185.384615,4175.897436,4186.923077,4206.794872,4146.025641,4156.923077,4433.974359,4358.205128,4251.794872
4198.974359,4200.25641,4229.74359,4240.512821,4142.051282,4186.666667,4172.948718,4182.307692,4199.74359,4145,4157.051282,4444.358975,4363.589744,4255.769231
4204.487179,4207.051282,4234.871795,4248.076923,4140.25641,4184.615384,4172.820513,4182.564102,4199.615384,4145.769231,4157.692307,4445.897436,4364.74359,4259.102564
4209.102564,4216.153846,4234.615385,4251.794872,4143.076923,4185.769231,4179.230769,4184.487179,4208.333333,4147.051282,4168.461538,4451.282052,4359.230769,4267.564103
4209.871795,4219.871795,4235.128205,4251.666667,4141.410256,4194.487179,4187.435897,4190.897436,4217.435897,4145.51282,4173.589743,4458.076924,4355.769231,4270.769231
4201.538461,4213.333333,4231.025641,4245.128205,4141.153846,4198.589743,4186.025641,4196.923077,4219.102564,4144.487179,4163.846154,4449.23077,4355.384616,4263.589744
4195.51282,4209.487179,4226.282051,4242.179487,4141.923077,4198.076923,4184.615384,4196.538461,4218.974359,4147.051282,4158.974359,4440.512821,4357.564103,4259.871795
4201.538461,4217.820513,4226.666667,4247.179487,4138.205128,4199.615384,4188.333333,4195.128205,4218.205128,4148.333333,4158.461538,4448.717949,4356.666667,4263.717949
4199.487179,4218.589744,4223.333333,4242.948718,4141.666666,4193.589743,4181.666667,4184.102564,4202.692308,4148.717949,4145.769231,4446.538462,4349.871795,4259.102564
4187.307692,4204.102564,4209.871795,4229.74359,4139.487179,4185.25641,4170,4167.948718,4188.333333,4148.589743,4131.025641,4428.461539,4346.923077,4245.769231
4181.794872,4195.641026,4202.435897,4226.794872,4140,4185.641026,4169.487179,4170,4191.153846,4148.589743,4124.743589,4421.923077,4346.282051,4241.410256
4188.205128,4205.51282,4208.333333,4230.897436,4145.25641,4185.51282,4172.692308,4179.615384,4191.538461,4148.846154,4119.871795,4428.333334,4340.512821,4245.128205
4199.487179,4215.25641,4218.589744,4233.333333,4140.641025,4184.487179,4171.025641,4177.179487,4186.666667,4147.692307,4121.794872,4434.871795,4336.025641,4249.358974
4200.128205,4211.794872,4222.564103,4235.384615,4143.461538,4185.128205,4169.615384,4170.897436,4185.769231,4146.153846,4124.487179,4433.974359,4333.461539,4249.871795
4191.153846,4205.25641,4212.051282,4232.948718,4143.846154,4177.948718,4166.538461,4165,4184.487179,4146.025641,4121.153846,4422.435898,4325.25641,4240.512821
4185.769231,4203.974359,4204.230769,4229.615385,4139.871795,4173.205128,4162.564102,4162.179487,4182.435897,4145.51282,4122.051282,4417.051282,4320.384616,4236.153846
4188.717949,4204.358974,4211.794872,4233.461538,4144.102564,4183.589743,4167.948718,4169.74359,4187.820513,4145.641025,4123.461538,4427.435898,4337.564103,4244.358974
4190.51282,4204.230769,4215.897436,4236.538462,4142.820513,4185.769231,4173.333333,4177.051282,4193.205128,4146.153846,4121.794872,4428.461539,4362.307693,4246.794872
4185.897436,4202.564103,4203.461538,4232.307692,4143.333333,4172.692308,4168.717949,4170.384615,4186.538461,4145.25641,4121.153846,4417.564103,4365,4242.820513
4183.076923,4199.487179,4200.128205,4229.871795,4143.333333,4171.794872,4166.410256,4167.564102,4181.923077,4145.897436,4117.692307,4422.307693,4356.538462,4245
4186.538461,4199.487179,4209.74359,4233.333333,4140.25641,4182.435897,4171.538461,4175,4189.358974,4148.076923,4108.589743,4432.435898,4359.615385,4243.974359
4189.871795,4202.179487,4207.435897,4233.461538,4144.102564,4186.538461,4173.717949,4174.615384,4191.923077,4146.666666,4105.384615,4425,4355.128205,4232.948718
4185.25641,4202.051282,4199.102564,4225.25641,4143.589743,4182.435897,4169.615384,4167.179487,4182.948718,4144.871795,4107.435897,4414.358975,4334.74359,4223.461538
4179.615384,4197.051282,4198.076923,4219.74359,4143.974359,4177.179487,4166.410256,4165,4181.923077,4147.307692,4105.51282,4412.820513,4325.512821,4222.564103
4182.692308,4194.102564,4200.384615,4226.025641,4143.589743,4173.205128,4167.564102,4168.974359,4193.076923,4149.102564,4110.384615,4415.128205,4330.384616,4225.384615
4188.205128,4198.205128,4201.923077,4229.102564,4139.102564,4173.846154,4167.564102,4171.282051,4193.205128,4146.794872,4122.051282,4417.820513,4331.666667,4227.435897
4188.333333,4201.025641,4203.205128,4223.717949,4145,4174.74359,4166.538461,4172.948718,4192.179487,4146.025641,4125.128205,4416.794872,4326.153846,4227.307692
4187.051282,4199.102564,4202.564103,4220.384615,4144.230769,4171.666667,4167.435897,4172.692308,4198.589743,4145.641025,4121.923077,4414.48718,4322.948718,4224.74359
4188.717949,4196.923077,4203.205128,4220.128205,4141.666666,4177.179487,4169.102564,4170.25641,4196.153846,4146.153846,4129.743589,4416.025641,4326.923077,4224.871795
4187.820513,4196.025641,4202.051282,4215.51282,4145,4180.897436,4169.102564,4174.230769,4190.897436,4147.564102,4139.358974,4416.666667,4329.615385,4227.435897
4186.538461,4197.307692,4199.230769,4211.410256,4141.794872,4171.410256,4169.230769,4183.974359,4195.897436,4147.179487,4139.487179,4417.179488,4330.641026,4227.948718
4194.230769,4202.051282,4207.692308,4216.153846,4144.615384,4171.282051,4172.692308,4196.025641,4207.307692,4146.923077,4145.641025,4425.256411,4336.923077,4235.25641
4198.589743,4204.615385,4212.948718,4218.205128,4144.102564,4180.641026,4173.205128,4200.384615,4210.25641,4147.435897,4154.102564,4428.589744,4331.794872,4240.769231
4192.051282,4201.410256,4204.487179,4215.128205,4141.538461,4178.076923,4171.923077,4191.282051,4205.897436,4147.692307,4153.333333,4420.512821,4314.102564,4233.846154
4187.948718,4198.974359,4201.153846,4214.871795,4145.769231,4171.538461,4173.205128,4183.461538,4201.410256,4148.589743,4151.153846,4420.256411,4306.410257,4230.769231
4190,4201.153846,4207.820513,4215.128205,4143.846154,4173.461538,4172.564102,4185.897436,4201.410256,4147.948718,4153.076923,4424.74359,4310.641026,4233.589744
4189.102564,4199.358974,4207.948718,4209.230769,4144.487179,4171.410256,4167.564102,4187.051282,4203.205128,4145.384615,4149.74359,4418.846154,4311.153846,4231.153846
4180.25641,4190.769231,4195.384615,4200.897436,4143.205128,4166.666666,4161.282051,4182.948718,4198.974359,4147.051282,4142.051282,4411.794872,4308.589744,4224.871795
4171.666667,4187.564102,4188.717949,4199.615384,4141.538461,4168.589743,4158.205128,4183.974359,4197.307692,4150.769231,4141.153846,4412.564103,4311.282051,4222.307692
4175.769231,4189.871795,4195.384615,4201.666667,4147.179487,4168.333333,4157.692307,4185.769231,4199.74359,4148.717949,4148.076923,4415.256411,4312.564103,4225
4182.435897,4187.948718,4197.179487,4196.666667,4144.102564,4166.794872,4158.333333,4178.589743,4193.717949,4145.641025,4154.230769,4414.48718,4311.025641,4224.487179
4176.794872,4184.487179,4186.410256,4188.076923,4144.74359,4169.230769,4161.666666,4168.846154,4185.51282,4146.923077,4153.846154,4411.923077,4311.025641,4221.794872
4170.25641,4185.25641,4182.692308,4187.051282,4146.666666,4170.769231,4163.333333,4167.307692,4183.717949,4149.102564,4151.794872,4409.48718,4307.307692,4221.153846
4173.076923,4185.641026,4188.461538,4187.692308,4140,4169.487179,4162.307692,4168.461538,4178.589743,4147.692307,4154.358974,4407.307693,4301.794872,4218.717949
4176.410256,4185.128205,4187.179487,4184.102564,4142.820513,4168.974359,4156.282051,4166.923077,4170.384615,4145.769231,4156.025641,4406.923077,4311.282051,4215
4179.615384,4189.230769,4185.51282,4185.897436,4142.948718,4170.641026,4145.641025,4167.948718,4175.128205,4145.25641,4144.871795,4408.974359,4329.230769,4217.051282
4183.589743,4198.333333,4190.25641,4197.307692,4143.076923,4170.769231,4136.282051,4170,4185.897436,4143.846154,4123.461538,4412.948718,4331.282051,4223.333333
4184.358974,4201.666667,4190.897436,4202.179487,4146.794872,4172.179487,4135,4170.51282,4187.435897,4144.615384,4107.179487,4416.538462,4327.564103,4227.435897
4183.333333,4194.230769,4184.615384,4193.589743,4142.435897,4169.615384,4136.153846,4171.282051,4184.615384,4148.205128,4098.076923,4414.615385,4327.820513,4227.307692
4183.205128,4194.487179,4182.307692,4190,4146.410256,4161.153846,4133.333333,4169.74359,4181.923077,4149.487179,4091.666666,4414.23077,4317.179487,4225.769231
4185.128205,4202.435897,4192.435897,4199.615384,4146.282051,4160.769231,4131.794872,4167.948718,4181.410256,4147.051282,4088.589743,4421.282052,4307.051282,4226.282051
4188.846154,4205.128205,4201.538461,4207.435897,4142.179487,4169.102564,4133.717948,4170.384615,4184.230769,4146.025641,4089.871795,4430.769231,4309.230769,4229.230769
4188.589743,4208.589744,4199.230769,4212.820513,4144.871795,4170.769231,4136.538461,4169.487179,4184.102564,4147.564102,4091.025641,4437.179488,4305.384616,4230.128205
4186.282051,4216.666667,4198.846154,4224.871795,4140.897436,4169.102564,4141.282051,4168.461538,4181.410256,4145.769231,4090.51282,4445.769231,4293.974359,4227.564103
4190.641026,4223.205128,4209.74359,4233.974359,4145.128205,4175.51282,4149.74359,4176.794872,4183.589743,4144.871795,4092.179487,4460.384616,4293.974359,4232.820513
4200.769231,4230.25641,4222.307692,4239.74359,4147.948718,4183.461538,4154.871795,4184.230769,4190.897436,4146.410256,4101.923077,4476.666667,4306.282051,4244.74359
4209.615385,4241.282051,4231.794872,4253.974359,4140,4183.589743,4155.384615,4187.820513,4196.923077,4148.076923,4121.923077,4490.512821,4314.48718,4255
4218.333333,4251.538462,4246.153846,4268.846154,4142.820513,4184.871795,4162.307692,4198.205128,4206.025641,4148.717949,4139.102564,4502.435898,4311.410257,4265.512821
4229.74359,4260.128205,4261.282051,4277.564103,4144.615384,4193.589743,4170.641026,4206.153846,4219.102564,4146.923077,4144.871795,4516.666667,4311.282051,4275
4236.282051,4266.282051,4267.692308,4280.384615,4145.384615,4202.307692,4167.564102,4201.282051,4217.051282,4146.666666,4142.307692,4525.384616,4313.333333,4277.435898
4234.358974,4265.384615,4263.461538,4276.794872,4144.487179,4209.487179,4168.333333,4198.461538,4206.410256,4147.692307,4131.153846,4515.897436,4303.333333,4269.871795
4230.384615,4258.333333,4254.487179,4263.717949,4141.025641,4214.74359,4179.871795,4202.051282,4209.615385,4145.51282,4124.487179,4498.076924,4292.564103,4261.153846
4228.846154,4248.461538,4249.487179,4253.846154,4144.871795,4211.410256,4178.589743,4202.435897,4217.948718,4144.74359,4132.435897,4490.512821,4294.615385,4261.794872
4229.74359,4246.923077,4250.25641,4255.512821,4143.717949,4209.615385,4171.538461,4201.923077,4216.794872,4148.076923,4142.692307,4490.384616,4299.871795,4266.153846
4230.25641,4250.384615,4248.461538,4256.410256,4142.692307,4212.307692,4177.692308,4204.358974,4215.128205,4147.051282,4146.538461,4482.692308,4300.769231,4265.25641
4230,4248.076923,4243.076923,4245.769231,4142.179487,4210.128205,4182.435897,4207.820513,4220.641026,4143.717949,4153.461538,4469.615385,4307.820513,4260.641026
4228.717949,4244.358974,4240.769231,4234.74359,4138.205128,4202.948718,4178.205128,4213.589744,4227.051282,4146.923077,4158.461538,4460.897436,4315.512821,4258.846154
4228.461538,4243.589744,4237.051282,4231.794872,4144.487179,4203.846154,4179.871795,4217.692308,4229.74359,4150.897436,4161.153846,4459.102565,4314.48718,4263.846154
4233.717949,4245.128205,4235.384615,4234.358974,4145.641025,4211.794872,4187.435897,4218.974359,4233.205128,4148.717949,4167.948718,4459.23077,4315.128205,4271.025641
4235.128205,4244.487179,4238.461538,4233.589744,4142.692307,4215.897436,4188.589743,4220.641026,4233.461538,4146.666666,4164.358974,4453.333334,4311.794872,4270.641026
4225.897436,4238.974359,4232.948718,4225.769231,4143.974359,4211.410256,4183.333333,4218.589744,4226.538461,4147.820513,4153.461538,4441.923077,4297.179487,4262.435897
4214.358974,4227.435897,4221.794872,4216.410256,4142.820513,4203.333333,4173.461538,4207.564103,4217.692308,4147.435897,4152.435897,4429.74359,4291.794872,4253.461538
4207.948718,4217.051282,4212.692308,4208.717949,4147.051282,4199.74359,4162.692307,4193.205128,4210.897436,4145,4151.923077,4415.897436,4301.538462,4247.435897
4203.846154,4216.025641,4203.974359,4201.923077,4144.230769,4197.820513,4157.820513,4183.461538,4203.076923,4146.025641,4144.74359,4402.820513,4298.717949,4240.769231
4200.897436,4212.948718,4199.230769,4197.051282,4140.769231,4196.666667,4159.871795,4183.974359,4200.897436,4148.974359,4140.25641,4393.974359,4280.769231,4233.717949
4199.487179,4206.794872,4198.717949,4196.410256,4148.333333,4198.076923,4165.384615,4190.769231,4201.666667,4146.794872,4140.25641,4386.410257,4268.333333,4230.128205
4198.076923,4206.923077,4193.333333,4195.25641,4145.25641,4198.589743,4168.717949,4193.333333,4199.871795,4144.358974,4139.102564,4382.307693,4261.153846,4230.25641
4199.230769,4209.358974,4186.538461,4191.282051,4146.666666,4195.641026,4170.384615,4191.666667,4201.538461,4147.820513,4136.794872,4383.205128,4257.692308,4232.435897
4196.025641,4205.769231,4185.25641,4188.846154,4149.358974,4188.461538,4166.025641,4190.51282,4202.051282,4149.615384,4135.51282,4380.128205,4246.538462,4227.307692
4190.51282,4200.51282,4183.974359,4185.897436,4144.102564,4183.846154,4155.769231,4188.461538,4198.717949,4146.794872,4136.282051,4372.692308,4222.692308,4223.461538
4191.153846,4203.717949,4184.230769,4188.205128,4145.128205,4183.717949,4152.051282,4184.358974,4200.128205,4147.307692,4137.307692,4374.358975,4212.307692,4229.487179
4190,4207.820513,4182.948718,4191.153846,4141.538461,4183.974359,4154.74359,4177.435897,4201.538461,4149.615384,4139.102564,4375.769231,4215.128205,4228.076923
4183.846154,4205.897436,4176.538461,4190.51282,4142.948718,4184.871795,4153.333333,4167.692307,4197.051282,4147.051282,4139.615384,4363.589744,4208.205128,4221.794872
4182.307692,4203.205128,4169.74359,4192.179487,4145.384615,4185.128205,4153.333333,4164.230769,4195.128205,4145.384615,4138.974359,4353.205128,4199.487179,4220.128205
4185,4202.307692,4169.871795,4194.871795,4140.128205,4186.025641,4161.282051,4176.410256,4200.641026,4148.846154,4144.615384,4356.923077,4202.051282,4221.923077
4187.051282,4204.230769,4178.974359,4190.384615,4143.333333,4185.641026,4169.615384,4189.615384,4203.846154,4151.153846,4154.358974,4361.538462,4203.717949,4226.025641
4191.538461,4205.51282,4183.717949,4190,4143.461538,4183.589743,4171.282051,4183.076923,4199.102564,4147.051282,4155.128205,4356.794872,4195.25641,4225.51282
4198.205128,4204.230769,4183.974359,4197.692308,4142.948718,4181.794872,4171.410256,4173.589743,4191.025641,4145.769231,4153.717949,4355.25641,4188.333333,4222.692308
4196.923077,4201.282051,4182.179487,4194.358974,4145.769231,4181.410256,4172.051282,4179.74359,4185.897436,4150.128205,4157.564102,4356.025641,4186.282051,4225
4188.589743,4198.461538,4175.769231,4182.820513,4141.923077,4181.538461,4171.282051,4183.076923,4182.564102,4148.974359,4155.128205,4347.179487,4187.307692,4226.025641
4187.820513,4200.897436,4176.538461,4184.871795,4143.846154,4183.461538,4175.769231,4182.948718,4186.923077,4145.897436,4153.461538,4343.974359,4192.820513,4226.282051
4196.666667,4208.717949,4186.410256,4196.282051,4143.846154,4187.564102,4183.974359,4191.923077,4198.717949,4146.794872,4163.461538,4350.769231,4194.871795,4230.897436
4201.410256,4210.51282,4188.717949,4198.461538,4142.564102,4189.487179,4185.897436,4194.102564,4203.333333,4146.282051,4175.25641,4348.717949,4197.435897,4230.384615
4200.384615,4203.205128,4183.205128,4194.487179,4147.051282,4187.051282,4179.615384,4187.179487,4200.897436,4145.769231,4180.384615,4341.923077,4202.051282,4224.487179
4198.333333,4200.641026,4183.205128,4198.205128,4144.487179,4185.641026,4174.871795,4184.615384,4200.897436,4147.051282,4183.076923,4348.717949,4153.461538,4222.948718
4196.794872,4206.153846,4185.25641,4203.717949,4145.641025,4190.897436,4180,4186.282051,4201.794872,4147.692307,4190.641026,4355.512821,4030.76923,4225
4197.307692,4207.179487,4185.25641,4202.179487,4147.948718,4197.820513,4187.435897,4188.076923,4205.25641,4146.923077,4197.820513,4351.153846,3912.564102,4227.948718
4199.487179,4203.846154,4186.666667,4199.358974,4145.128205,4200.25641,4186.153846,4192.692308,4208.846154,4147.564102,4204.615385,4351.410257,3843.974358,4232.179487
4200.641026,4208.846154,4192.307692,4202.179487,4145.25641,4200.51282,4181.538461,4197.179487,4207.307692,4147.692307,4211.538461,4358.974359,3817.051281,4237.051282
4205.641026,4219.871795,4201.025641,4206.025641,4142.692307,4200.769231,4184.102564,4201.410256,4210.51282,4145.769231,4219.358974,4362.820513,3833.461538,4240.384615
4211.923077,4224.74359,4203.846154,4208.333333,4146.025641,4202.179487,4186.666667,4202.564103,4218.589744,4146.794872,4228.461538,4359.358975,3868.846153,4243.333333
4212.948718,4220.641026,4201.025641,4206.025641,4146.410256,4204.102564,4185,4199.230769,4217.820513,4149.487179,4231.538461,4356.410257,3892.179486,4242.820513
4212.179487,4212.564103,4198.974359,4201.538461,4141.410256,4204.615385,4189.102564,4199.487179,4213.846154,4149.102564,4230.897436,4356.410257,3918.205128,4240.25641
4213.589744,4209.358974,4199.74359,4203.076923,4146.538461,4203.205128,4195.384615,4202.564103,4217.820513,4147.692307,4238.461538,4364.102564,3949.871794,4242.948718
4215.384615,4214.358974,4203.333333,4207.179487,4145,4201.282051,4191.923077,4201.282051,4220,4148.589743,4249.358974,4374.358975,3961.538461,4243.717949
4212.435897,4213.846154,4201.666667,4202.179487,4143.461538,4198.846154,4187.051282,4195.641026,4211.025641,4150.128205,4245.769231,4372.051282,3958.717948,4241.410256
4210.25641,4209.102564,4199.230769,4196.794872,4147.435897,4199.74359,4192.948718,4198.589743,4209.615385,4149.230769,4241.538462,4366.923077,3964.615384,4240.25641
4212.435897,4210.641026,4198.589743,4202.179487,4143.846154,4201.923077,4196.282051,4204.102564,4219.358974,4146.025641,4247.179487,4368.461539,3975.128205,4238.717949
4208.461538,4210,4192.307692,4204.230769,4145.897436,4200.51282,4190.128205,4192.307692,4215.641026,4146.153846,4244.487179,4368.205128,3972.179487,4236.666667
4201.153846,4208.076923,4189.74359,4198.589743,4146.410256,4193.974359,4184.615384,4177.820513,4204.230769,4148.461538,4241.538462,4364.230769,3969.871794,4233.205128
4205.128205,4215.51282,4194.871795,4201.923077,4144.358974,4188.974359,4185.51282,4182.051282,4207.820513,4146.923077,4248.717949,4361.923077,3983.717948,4235.641026
4209.102564,4217.435897,4192.307692,4207.179487,4147.307692,4194.615384,4188.076923,4183.717949,4211.282051,4146.153846,4251.153846,4360.641026,3993.717948,4239.871795
4197.948718,4207.820513,4180.25641,4197.307692,4144.871795,4197.051282,4182.948718,4173.205128,4202.179487,4148.205128,4245.512821,4357.307693,3989.999999,4235.25641
4188.205128,4202.179487,4176.538461,4188.333333,4147.179487,4190.769231,4174.102564,4175.641026,4197.051282,4148.974359,4242.564103,4356.025641,3991.666666,4229.74359
4190.384615,4201.410256,4179.487179,4192.051282,4146.666666,4189.615384,4170.641026,4188.974359,4201.410256,4147.307692,4245.641026,4357.692308,4004.615384,4233.461538
4189.615384,4200.51282,4177.692308,4190.897436,4144.358974,4189.358974,4168.461538,4190.897436,4200.769231,4146.538461,4247.692308,4359.230769,4009.230769,4234.871795
4185.128205,4197.948718,4171.794872,4184.487179,4148.717949,4183.333333,4165.384615,4184.871795,4195.25641,4146.538461,4245,4355,4005.897435,4225.51282
4184.102564,4195.641026,4169.102564,4189.102564,4143.846154,4181.025641,4167.435897,4183.333333,4191.282051,4145.51282,4244.358974,4348.461539,4010.641025,4218.333333
4187.435897,4197.051282,4172.820513,4191.282051,4145.25641,4183.717949,4169.358974,4184.74359,4189.487179,4146.153846,4247.179487,4346.794872,4019.487179,4220.769231
4191.923077,4198.974359,4174.74359,4187.179487,4146.794872,4181.666667,4168.974359,4181.794872,4189.871795,4146.794872,4250,4347.051282,4026.153846,4224.74359
4200.384615,4200.641026,4181.153846,4192.692308,4140.25641,4185,4180.769231,4182.820513,4194.230769,4146.153846,4259.358974,4353.717949,4039.743589,4233.076923
4211.025641,4206.282051,4190.769231,4201.153846,4145.51282,4193.461538,4193.461538,4192.179487,4201.666667,4147.179487,4275.641026,4365.897436,4059.871794,4246.282051
4218.589744,4216.025641,4200.51282,4206.282051,4144.102564,4195,4194.102564,4199.871795,4211.923077,4147.948718,4291.410256,4380,4077.564102,4256.282051
4224.487179,4221.794872,4210.641026,4212.051282,4142.307692,4194.615384,4194.230769,4201.153846,4215.128205,4147.307692,4297.051282,4389.615385,4089.743589,4261.923077
4223.974359,4214.615385,4209.74359,4209.230769,4147.179487,4196.410256,4196.923077,4198.589743,4206.282051,4149.358974,4281.538462,4380.769231,4084.615384,4256.666667
4216.666667,4202.820513,4201.025641,4192.948718,4144.102564,4198.205128,4196.923077,4200.769231,4201.666667,4149.615384,4260.641026,4367.307693,4070.76923,4245.897436
4214.102564,4199.74359,4199.358974,4183.717949,4146.153846,4198.076923,4196.666667,4211.923077,4213.846154,4146.923077,4262.564103,4368.205128,4076.794871,4245.641026
4214.487179,4201.410256,4202.948718,4191.923077,4145.25641,4197.948718,4198.205128,4220.51282,4224.871795,4146.410256,4266.282051,4368.717949,4091.410256,4247.564103
4208.333333,4202.948718,4201.794872,4201.153846,4143.205128,4199.615384,4199.230769,4218.717949,4221.794872,4148.076923,4253.076923,4359.102564,4084.743589,4239.230769
4202.179487,4207.051282,4198.974359,4199.230769,4147.051282,4201.282051,4198.589743,4215.384615,4218.974359,4150,4251.025641,4358.589744,4077.948718,4234.487179
4208.461538,4210.128205,4202.179487,4196.794872,4144.871795,4202.820513,4197.820513,4220.769231,4226.666667,4149.230769,4261.282051,4367.435898,4098.461538,4242.692308
4214.487179,4211.923077,4209.487179,4202.435897,4147.051282,4202.179487,4198.974359,4225,4234.615385,4148.076923,4264.230769,4368.589744,4109.358974,4247.564103
4210.641026,4212.692308,4213.717949,4203.589744,4146.153846,4201.025641,4202.307692,4221.282051,4232.307692,4146.923077,4260.128205,4364.871795,4103.717948,4239.358974
4206.923077,4210.25641,4211.666667,4199.487179,4142.820513,4199.871795,4196.538461,4218.076923,4231.025641,4145.51282,4252.564103,4364.871795,4121.282051,4231.025641
4211.666667,4209.74359,4213.846154,4204.230769,4146.923077,4197.948718,4188.974359,4216.666667,4234.74359,4147.051282,4246.923077,4370.128205,4147.564102,4235.769231
4214.615385,4214.74359,4217.948718,4208.589744,4145,4190.769231,4189.615384,4209.102564,4228.205128,4148.589743,4249.74359,4371.794872,4141.410256,4237.948718
4213.974359,4217.435897,4216.410256,4206.794872,4144.358974,4184.358974,4188.589743,4198.076923,4216.153846,4145.641025,4258.333333,4369.871795,4125.128205,4236.282051
4218.717949,4216.794872,4217.564103,4207.692308,4143.846154,4191.153846,4185.51282,4198.717949,4214.102564,4143.974359,4268.974359,4373.205128,4129.871795,4242.692308
4221.666667,4217.948718,4219.358974,4206.794872,4142.179487,4199.230769,4190.641026,4208.717949,4217.051282,4148.333333,4276.538462,4375.641026,4134.358974,4245.128205
4218.333333,4217.435897,4217.820513,4201.410256,4146.666666,4198.333333,4198.717949,4216.794872,4219.102564,4150,4275.25641,4371.666667,4124.743589,4241.538462
4218.076923,4217.179487,4217.564103,4200.51282,4144.230769,4199.487179,4197.307692,4220.769231,4223.076923,4148.205128,4275.897436,4371.282052,4120.641025,4242.564103
4219.871795,4219.102564,4218.717949,4202.179487,4142.820513,4197.564102,4189.615384,4220.769231,4223.589744,4148.205128,4281.794872,4376.923077,4125.128205,4247.051282
4219.74359,4219.74359,4225,4205.384615,4145.641025,4189.74359,4186.025641,4219.358974,4224.871795,4147.564102,4282.948718,4379.23077,4125.769231,4250.512821
4221.666667,4220.384615,4229.74359,4210.128205,4144.102564,4190,4186.410256,4218.333333,4227.820513,4147.435897,4282.179487,4378.846154,4124.871795,4253.333333
4219.102564,4218.461538,4223.461538,4206.794872,4147.948718,4194.102564,4187.051282,4215.384615,4221.794872,4147.692307,4283.076923,4374.871795,4126.282051,4251.282051
4207.948718,4214.102564,4212.948718,4199.871795,4145.769231,4189.74359,4185.897436,4203.205128,4210.641026,4147.051282,4277.051282,4363.589744,4117.948718,4239.487179
4200.51282,4210,4211.794872,4201.282051,4143.333333,4184.871795,4179.487179,4185.25641,4197.948718,4147.307692,4266.282051,4353.846154,4104.358974,4230.769231
4202.051282,4211.923077,4219.615385,4202.948718,4146.923077,4182.307692,4170.897436,4178.461538,4185.641026,4148.846154,4265.769231,4354.230769,4107.564102,4232.948718
4203.974359,4213.333333,4228.846154,4202.435897,4143.974359,4175.897436,4169.358974,4180,4186.410256,4147.948718,4268.846154,4356.538462,4120,4236.025641
4200.897436,4207.948718,4231.923077,4203.076923,4147.692307,4171.666667,4171.666667,4182.051282,4197.564102,4145.51282,4265.25641,4351.153846,4119.871795,4233.974359
4198.974359,4208.076923,4230.384615,4204.615385,4148.076923,4177.435897,4172.820513,4188.717949,4201.794872,4147.051282,4264.74359,4343.589744,4114.487179,4229.615385
4204.358974,4215.641026,4238.461538,4211.025641,4146.923077,4186.794872,4179.615384,4200.51282,4206.025641,4149.487179,4273.205128,4344.871795,4121.794872,4233.717949
4212.307692,4219.871795,4250.25641,4216.923077,4148.846154,4189.615384,4187.948718,4210.384615,4213.717949,4148.076923,4280.384615,4356.666667,4134.102564,4242.435897
4214.487179,4218.717949,4257.820513,4216.153846,4143.076923,4185,4186.666667,4212.435897,4215.25641,4146.153846,4281.666667,4362.435898,4138.846154,4243.461538
4214.102564,4216.666667,4262.179487,4214.487179,4147.820513,4186.025641,4184.615384,4215.769231,4216.538461,4147.692307,4279.230769,4355,4141.410256,4242.692308
4218.076923,4221.410256,4264.102564,4215.25641,4148.974359,4193.717949,4192.435897,4228.076923,4226.923077,4148.974359,4276.025641,4353.205128,4142.948718,4245.25641
4221.153846,4227.435897,4272.820513,4216.410256,4142.307692,4193.846154,4201.794872,4238.076923,4238.205128,4147.564102,4280.512821,4362.948718,4142.435897,4248.076923
4218.461538,4224.230769,4276.923077,4213.333333,4149.487179,4189.230769,4202.948718,4237.051282,4237.948718,4148.461538,4283.205128,4362.820513,4137.307692,4246.923077
4214.358974,4215.128205,4269.615385,4204.615385,4150.384615,4190,4196.794872,4229.74359,4233.589744,4149.871795,4272.692308,4350,4139.615384,4241.794872
4211.538461,4215.641026,4270.897436,4201.025641,4146.538461,4191.282051,4190.384615,4222.948718,4230.897436,4147.051282,4263.846154,4346.282051,4161.153846,4239.102564
4206.794872,4219.487179,4278.461539,4204.487179,4145.51282,4187.564102,4187.435897,4212.179487,4220.128205,4146.153846,4267.820513,4348.333334,4174.615384,4236.666667
4200.25641,4211.666667,4272.948718,4197.179487,4145.897436,4185.51282,4183.461538,4196.794872,4203.717949,4148.076923,4265.25641,4338.846154,4157.820513,4227.307692
4199.615384,4206.923077,4271.153846,4185.384615,4149.230769,4187.179487,4182.564102,4188.333333,4197.948718,4147.692307,4251.666667,4326.025641,4140.128205,4217.948718
4198.717949,4214.230769,4275.641026,4189.487179,4143.076923,4186.794872,4181.025641,4194.230769,4200.897436,4145.384615,4247.179487,4325.769231,4141.025641,4215.897436
4189.871795,4211.794872,4266.025641,4191.538461,4143.717949,4183.205128,4173.076923,4196.923077,4194.871795,4147.051282,4247.051282,4325.128205,4131.666666,4213.333333
4188.333333,4204.871795,4264.487179,4183.589743,4149.615384,4182.307692,4173.076923,4194.487179,4188.846154,4148.589743,4243.589744,4321.025641,4121.282051,4213.076923
4198.717949,4211.923077,4282.820513,4188.333333,4144.74359,4186.538461,4184.487179,4206.538461,4203.461538,4146.666666,4248.461538,4329.871795,4132.692307,4223.076923
4204.487179,4218.717949,4292.820513,4200.25641,4145.128205,4187.179487,4186.666667,4217.948718,4219.615385,4147.948718,4258.333333,4343.461539,4144.358974,4233.974359
4207.307692,4218.589744,4299.102564,4199.871795,4144.74359,4182.307692,4180.51282,4215.384615,4215.641026,4148.974359,4261.025641,4350.25641,4147.307692,4237.692308
4215.384615,4225.897436,4313.205128,4197.564102,4144.487179,4180.641026,4182.820513,4213.974359,4215.51282,4146.794872,4261.282051,4353.974359,4153.589743,4242.051282
4218.846154,4232.564103,4317.307692,4200.897436,4146.538461,4185.384615,4187.051282,4219.615385,4230.641026,4146.666666,4261.538462,4349.74359,4156.923077,4244.615385
4216.282051,4230.51282,4311.538462,4198.333333,4143.846154,4188.589743,4186.666667,4225.897436,4233.205128,4148.205128,4260.128205,4340.769231,4149.487179,4241.410256
4215.51282,4230.25641,4311.794872,4190.128205,4147.692307,4186.410256,4188.846154,4222.820513,4220.25641,4148.333333,4260.641026,4338.205128,4143.717949,4239.615385
4211.282051,4232.564103,4313.846154,4191.025641,4144.615384,4183.974359,4189.358974,4209.615385,4215.51282,4147.307692,4257.435897,4336.153846,4140.641025,4234.487179
4203.461538,4229.615385,4311.153846,4195.51282,4140.25641,4181.794872,4185.384615,4198.333333,4214.358974,4146.666666,4250.384615,4326.538462,4137.307692,4226.153846
4201.666667,4222.307692,4310.769231,4194.487179,4150,4177.692308,4184.358974,4200.384615,4207.307692,4146.282051,4248.461538,4322.051282,4139.615384,4224.871795
4203.589744,4217.307692,4312.435898,4189.358974,4149.871795,4174.230769,4183.974359,4203.846154,4201.282051,4146.282051,4250.128205,4326.794872,4132.435897,4222.692308
4199.871795,4216.410256,4311.794872,4181.153846,4145.51282,4170.769231,4175.641026,4196.794872,4197.820513,4145.897436,4248.846154,4327.820513,4107.564102,4216.025641
4193.974359,4214.230769,4311.025641,4176.538461,4145.51282,4168.205128,4168.205128,4191.282051,4196.282051,4147.179487,4248.205128,4322.307692,4091.410256,4213.717949
4194.74359,4214.102564,4310.897436,4179.102564,4145.769231,4170.51282,4173.589743,4196.794872,4195.25641,4148.076923,4248.589744,4318.076923,4090.641025,4215.641026
4199.230769,4219.230769,4315.897436,4184.102564,4148.974359,4173.846154,4182.564102,4204.615385,4195.384615,4146.794872,4246.025641,4320.512821,4083.333333,4219.487179
4200.897436,4220,4322.564103,4184.487179,4143.589743,4171.794872,4184.871795,4205,4198.974359,4145.769231,4245.512821,4321.538462,4088.333333,4221.923077
4200.641026,4217.051282,4323.205128,4183.333333,4145.641025,4168.461538,4184.74359,4203.076923,4196.538461,4147.051282,4245.384615,4313.589744,4115,4220.25641
4201.923077,4222.435897,4324.615385,4183.717949,4149.871795,4170.128205,4187.051282,4200.769231,4189.230769,4148.846154,4244.487179,4309.615385,4127.820513,4216.923077
4202.692308,4226.282051,4327.051282,4181.282051,4141.153846,4172.435897,4189.615384,4198.974359,4187.692308,4146.794872,4246.025641,4312.948718,4121.666666,4213.076923
4201.666667,4219.230769,4319.230769,4175,4143.589743,4170.897436,4189.230769,4199.230769,4191.794872,4145.897436,4246.794872,4312.051282,4122.692307,4213.589744
4201.282051,4214.74359,4312.179487,4167.692307,4146.410256,4167.307692,4186.025641,4192.435897,4189.74359,4147.307692,4248.205128,4309.358975,4131.794872,4214.487179
4202.051282,4218.333333,4320.128205,4167.564102,4145.128205,4167.948718,4185,4186.666667,4187.692308,4147.435897,4256.025641,4310.384616,4139.487179,4214.358974
4204.102564,4219.102564,4329.358975,4175,4147.435897,4167.948718,4187.051282,4194.358974,4193.717949,4145.769231,4267.307692,4312.820513,4146.282051,4219.74359
4202.179487,4218.846154,4330.128205,4179.102564,4144.615384,4167.051282,4192.051282,4201.666667,4196.282051,4145.641025,4268.461539,4311.794872,4142.051282,4222.307692
4192.692308,4217.051282,4323.461539,4173.846154,4149.871795,4176.923077,4198.205128,4199.615384,4193.205128,4148.333333,4256.282051,4298.589744,4125.384615,4211.666667
4185,4207.307692,4312.179487,4166.153846,4150,4185.51282,4201.923077,4200.641026,4196.538461,4148.717949,4244.102564,4280.512821,4109.615384,4197.948718
4184.74359,4203.974359,4310.641026,4164.102564,4143.846154,4178.205128,4201.410256,4206.025641,4205.897436,4147.948718,4246.538462,4279.615385,4098.076923,4197.435897
4187.435897,4212.435897,4321.538462,4168.846154,4146.025641,4169.871795,4194.871795,4199.615384,4206.923077,4149.487179,4259.358974,4292.564103,4096.794871,4201.666667
4190.128205,4216.538461,4328.076923,4175.769231,4143.717949,4168.205128,4186.410256,4187.179487,4198.205128,4149.358974,4267.435898,4299.615385,4106.282051,4202.179487
4189.230769,4215.25641,4323.461539,4175,4146.410256,4162.820513,4181.410256,4183.076923,4190.128205,4148.076923,4262.051282,4295,4108.846154,4202.692308
4185.897436,4216.282051,4320.641026,4169.230769,4148.205128,4155.897436,4181.153846,4183.846154,4184.615384,4147.435897,4251.410256,4287.179487,4098.333333,4197.692308
4187.564102,4211.666667,4324.102564,4169.102564,4142.307692,4155.897436,4183.205128,4184.358974,4181.794872,4145.897436,4243.846154,4280,4092.179487,4191.025641
4184.358974,4202.179487,4320,4165.25641,4144.615384,4155.641025,4182.948718,4185.128205,4177.435897,4145.641025,4238.205128,4269.615385,4088.589743,4186.923077
4175,4200.25641,4310.25641,4155.128205,4144.102564,4153.974359,4177.564102,4180.641026,4173.205128,4148.333333,4226.666667,4259.358974,4075.76923,4180.51282
4178.076923,4201.666667,4311.410257,4153.076923,4145.25641,4152.692307,4171.153846,4173.076923,4174.74359,4150,4218.974359,4259.358974,4067.051282,4178.974359
4185.25641,4201.666667,4318.589744,4159.615384,4145,4149.74359,4169.487179,4170.641026,4178.589743,4148.974359,4223.846154,4257.692308,4070.897436,4182.820513
4182.435897,4205.51282,4321.538462,4167.307692,4140.128205,4149.358974,4170.128205,4173.461538,4183.461538,4147.307692,4231.025641,4252.435897,4073.974359,4185.897436
4181.282051,4210.641026,4324.230769,4168.205128,4146.153846,4154.102564,4171.025641,4177.692308,4186.923077,4148.589743,4232.692308,4255.25641,4072.051282,4189.615384
4182.564102,4207.564103,4319.358975,4159.871795,4145.51282,4149.102564,4170.25641,4181.538461,4184.487179,4149.74359,4231.153846,4252.051282,4064.102564,4189.871795
4179.871795,4203.076923,4311.794872,4152.564102,4143.717949,4138.333333,4168.589743,4183.974359,4183.333333,4147.307692,4229.487179,4244.358974,4055.384615,4187.564102
4182.435897,4208.461538,4320.384616,4157.307692,4146.025641,4145,4170.25641,4186.410256,4188.205128,4146.282051,4232.051282,4244.230769,4068.205128,4190.769231
4187.692308,4215.25641,4329.102564,4162.820513,4140.25641,4153.076923,4171.794872,4189.358974,4185.769231,4147.435897,4232.564103,4238.589744,4092.692307,4194.871795
4186.025641,4215.51282,4326.025641,4161.025641,4143.333333,4143.846154,4170,4185.384615,4174.358974,4147.435897,4227.948718,4230.51282,4094.358974,4192.435897
4184.487179,4213.846154,4319.74359,4161.025641,4147.051282,4138.974359,4170.384615,4175.51282,4167.179487,4146.923077,4224.74359,4227.179487,4078.974359,4184.871795
4183.846154,4213.205128,4313.846154,4163.974359,4145.769231,4144.615384,4172.564102,4170.25641,4163.461538,4148.076923,4226.282051,4220.897436,4072.051282,4181.666667
4176.025641,4209.102564,4311.666667,4160.25641,4146.282051,4141.538461,4165.128205,4165.384615,4157.435897,4148.205128,4224.871795,4214.230769,4063.076923,4181.794872
4167.564102,4202.179487,4308.333333,4153.205128,4142.435897,4135.384615,4153.846154,4154.74359,4151.410256,4146.794872,4213.076923,4210.384615,4048.461538,4175.128205
4167.692307,4201.025641,4299.871795,4154.487179,4145,4139.230769,4153.717949,4148.717949,4148.717949,4146.282051,4200.25641,4202.435897,4047.307692,4170.128205
4165.769231,4199.871795,4293.205128,4157.820513,4146.410256,4143.461538,4157.692307,4156.282051,4156.153846,4145.769231,4192.435897,4195.128205,4051.794871,4171.153846
4156.410256,4189.74359,4287.820513,4148.076923,4143.205128,4142.179487,4156.666666,4164.487179,4164.102564,4145.769231,4186.666667,4189.487179,4050,4166.282051
4150.641025,4183.974359,4280.641026,4139.74359,4146.025641,4142.820513,4155.769231,4166.025641,4162.179487,4146.538461,4187.179487,4179.230769,4047.820512,4161.282051
4153.846154,4189.487179,4277.820513,4146.282051,4144.358974,4150.128205,4159.230769,4167.435897,4161.923077,4145.897436,4195.25641,4171.923077,4046.923077,4162.948718
4161.282051,4191.153846,4281.153846,4151.538461,4144.615384,4156.025641,4162.435897,4170.769231,4173.717949,4145.384615,4205.25641,4168.205128,4045,4165.641025
4163.589743,4189.358974,4286.153846,4148.333333,4144.487179,4154.871795,4164.358974,4174.358974,4183.205128,4146.153846,4215.384615,4166.410256,4044.230769,4167.051282
4163.589743,4190.384615,4290.641026,4148.846154,4141.794872,4153.076923,4166.666666,4175.128205,4185.641026,4146.153846,4229.102564,4167.435897,4044.230769,4168.461538
4164.74359,4187.948718,4292.435898,4153.461538,4146.538461,4151.410256,4167.179487,4173.333333,4187.051282,4146.282051,4239.487179,4167.564102,4046.666666,4170.641026
4169.230769,4190.384615,4299.102564,4156.923077,4144.74359,4154.358974,4170,4173.846154,4186.153846,4146.923077,4247.692308,4169.230769,4053.846153,4176.410256
4179.230769,4201.794872,4312.564103,4160.769231,4146.153846,4159.358974,4178.846154,4178.205128,4186.794872,4146.538461,4259.615385,4172.179487,4056.794871,4182.564102
4186.794872,4203.974359,4312.435898,4162.051282,4147.435897,4157.692307,4181.410256,4177.692308,4186.794872,4147.692307,4260.769231,4168.846154,4056.410256,4180.641026
4180.51282,4196.282051,4301.282051,4159.230769,4141.282051,4152.948718,4173.076923,4165.641025,4176.153846,4148.717949,4249.615385,4157.820513,4061.794871,4174.871795
4173.076923,4195,4298.974359,4156.794872,4146.923077,4148.205128,4168.974359,4158.333333,4165.384615,4149.230769,4243.846154,4149.615384,4065.897435,4173.461538
4181.794872,4200.641026,4307.820513,4158.205128,4146.153846,4141.923077,4174.74359,4163.974359,4171.794872,4148.974359,4253.589744,4149.230769,4062.564102,4175.25641
4191.538461,4206.794872,4314.358975,4162.435897,4143.589743,4140.769231,4175,4172.692308,4184.230769,4147.820513,4262.948718,4153.461538,4061.025641,4183.846154
4190,4205.769231,4313.205128,4160.25641,4145.641025,4147.051282,4170.128205,4173.461538,4185.128205,4148.461538,4262.051282,4153.076923,4058.589743,4189.102564
4184.487179,4199.358974,4309.358975,4153.846154,4140.128205,4152.051282,4174.230769,4169.871795,4175.51282,4148.461538,4258.205128,4142.692307,4045.897435,4182.692308
4183.846154,4200.25641,4309.102564,4153.846154,4143.974359,4159.230769,4184.615384,4176.410256,4174.358974,4146.025641,4259.102564,4135.769231,4034.358974,4182.435897
4184.358974,4206.538461,4307.435898,4156.410256,4147.692307,4168.846154,4184.102564,4189.230769,4187.948718,4146.538461,4263.589744,4134.230769,4030.76923,4183.076923
4183.076923,4205.128205,4301.410257,4155.25641,4145.51282,4172.307692,4178.589743,4192.948718,4196.282051,4149.871795,4264.487179,4128.974359,4026.282051,4177.435897
4181.923077,4199.871795,4295.25641,4153.846154,4146.794872,4171.666667,4180.384615,4187.564102,4192.564102,4148.846154,4264.487179,4118.333333,4016.794871,4175.128205
4178.076923,4201.025641,4291.153846,4152.948718,4141.794872,4170.641026,4180.641026,4185.25641,4194.615384,4146.153846,4261.153846,4106.794872,4003.461538,4169.74359
4171.153846,4199.102564,4290.641026,4150,4142.820513,4170.51282,4175.641026,4188.974359,4203.076923,4148.589743,4253.205128,4096.794871,3991.794871,4158.076923
4165.51282,4187.820513,4288.589744,4144.358974,4146.025641,4165.51282,4170.769231,4182.435897,4198.717949,4148.846154,4245.384615,4086.538461,3984.871794,4150
4169.102564,4186.666667,4289.102564,4147.948718,4143.589743,4162.948718,4172.820513,4172.564102,4192.820513,4146.794872,4245.512821,4083.974359,3986.153846,4152.179487
4186.025641,4209.102564,4305,4168.461538,4145.769231,4175.25641,4187.307692,4181.410256,4203.974359,4147.820513,4259.230769,4097.692307,3999.487179,4166.153846
4202.307692,4228.205128,4322.692308,4186.923077,4143.333333,4189.487179,4201.923077,4200.51282,4217.692308,4149.358974,4276.538462,4114.230769,4014.102564,4180.897436
4205.897436,4224.230769,4323.589744,4188.846154,4146.025641,4187.564102,4201.666667,4206.923077,4219.871795,4149.74359,4281.025641,4113.076923,4016.410256,4182.179487
4207.948718,4223.333333,4320.25641,4186.794872,4151.794872,4182.051282,4199.74359,4212.948718,4223.846154,4148.717949,4277.692308,4105.897436,4014.743589,4179.487179
4214.102564,4230.51282,4323.589744,4188.974359,4146.025641,4187.435897,4208.846154,4230.128205,4231.794872,4148.589743,4281.410256,4109.230769,4016.153846,4183.846154
4214.615385,4226.538461,4322.179487,4187.564102,4145.769231,4190.25641,4216.153846,4237.051282,4227.179487,4150.25641,4283.205128,4110.25641,4013.846153,4188.333333
4215.641026,4222.820513,4321.794872,4183.846154,4143.589743,4186.666667,4218.205128,4230,4218.717949,4149.102564,4277.692308,4101.410256,4009.230769,4190.384615
4220.897436,4223.589744,4329.615385,4185,4141.538461,4183.974359,4218.589744,4221.666667,4218.205128,4145.897436,4277.307692,4092.435897,4008.589743,4193.205128
4226.153846,4221.282051,4332.564103,4184.871795,4146.794872,4182.948718,4215.128205,4219.230769,4217.435897,4146.666666,4281.538462,4090.25641,4012.435897,4193.974359
4229.615385,4221.666667,4331.666667,4184.102564,4146.025641,4185.51282,4213.846154,4220.384615,4216.794872,4148.717949,4283.076923,4089.230769,4018.974358,4193.076923
4224.615385,4222.692308,4328.461539,4185.51282,4146.794872,4187.564102,4213.974359,4211.025641,4219.487179,4148.974359,4280.641026,4083.717948,4018.589743,4193.205128
4213.974359,4215.128205,4318.846154,4181.794872,4143.974359,4185.25641,4206.666667,4194.230769,4219.74359,4148.333333,4276.794872,4074.102564,4010,4185.897436
4210.128205,4211.025641,4311.666667,4175.641026,4141.794872,4187.435897,4199.358974,4190.897436,4221.025641,4147.564102,4278.076923,4062.948718,4003.205128,4173.717949
4207.179487,4213.461538,4310.128205,4175.384615,4146.025641,4196.538461,4201.794872,4199.487179,4225.25641,4148.333333,4280.641026,4053.974359,3991.153846,4167.435897
4200.641026,4207.820513,4302.051282,4175,4143.333333,4196.025641,4203.076923,4202.820513,4222.692308,4148.076923,4271.282051,4041.794871,3967.435897,4160.641025
4197.948718,4200.384615,4294.230769,4170.25641,4145.641025,4187.435897,4197.435897,4202.564103,4213.333333,4146.410256,4262.948718,4029.615384,3947.820512,4149.615384
4197.179487,4202.051282,4294.358974,4170.897436,4145.384615,4185,4192.564102,4200.897436,4202.051282,4147.179487,4264.358974,4025.128205,3942.435897,4141.410256
4188.846154,4201.666667,4286.794872,4170.384615,4141.666666,4179.487179,4181.923077,4191.153846,4183.974359,4148.461538,4252.179487,4014.358974,3931.666666,4133.717948
4177.692308,4193.461538,4275.512821,4160.897436,4148.205128,4171.153846,4168.205128,4183.076923,4172.051282,4147.820513,4229.871795,3993.846153,3909.871794,4122.179487
4176.282051,4189.615384,4275.384615,4153.717949,4146.282051,4169.74359,4169.102564,4186.153846,4178.589743,4146.410256,4223.205128,3981.153846,3904.230768,4116.153846
4184.615384,4192.948718,4281.282051,4156.282051,4145.641025,4165.128205,4178.461538,4192.820513,4187.435897,4146.923077,4230.51282,3983.589743,3918.205128,4125
4192.692308,4197.435897,4287.435898,4160.769231,4148.076923,4159.487179,4185.769231,4203.461538,4190.128205,4148.846154,4240.128205,3989.358974,3931.923076,4137.051282
4192.179487,4200.641026,4287.820513,4159.871795,4143.333333,4161.794872,4195,4215.384615,4187.692308,4148.461538,4247.179487,3985.51282,3946.794871,4136.794872
4188.846154,4195.128205,4278.333333,4153.076923,4145.769231,4159.102564,4199.487179,4214.74359,4179.74359,4146.923077,4246.153846,3974.102564,3968.974358,4131.666666
4184.74359,4184.358974,4270.128205,4145.25641,4142.435897,4154.358974,4193.974359,4203.974359,4174.358974,4147.179487,4244.230769,3966.410256,3979.615384,4128.974359
4171.282051,4175.25641,4260.769231,4133.461538,4141.410256,4158.461538,4184.615384,4192.179487,4169.230769,4146.794872,4246.282051,3956.666666,3966.794871,4123.717948
4153.076923,4162.051282,4244.487179,4121.794872,4146.666666,4159.487179,4173.205128,4177.564102,4161.538461,4145.641025,4242.435897,3939.358974,3953.974358,4115.384615
4148.974359,4153.461538,4240.769231,4120.51282,4143.589743,4157.948718,4166.538461,4171.538461,4168.076923,4145.384615,4246.538462,3937.948717,3962.948717,4110.384615
4159.74359,4159.74359,4248.076923,4126.282051,4147.179487,4160,4168.205128,4179.358974,4182.051282,4148.333333,4259.487179,3949.871794,3973.461538,4112.948718
4165.897436,4163.974359,4250.512821,4130.25641,4146.282051,4158.461538,4164.102564,4186.923077,4188.076923,4149.230769,4262.820513,3947.948717,3970.76923,4116.666666
4167.179487,4166.538461,4255.641026,4135.641025,4141.025641,4162.435897,4160,4186.410256,4197.435897,4145.51282,4266.410256,3945.76923,3972.051282,4119.871795
4171.794872,4177.820513,4264.487179,4141.923077,4146.282051,4171.794872,4165,4177.051282,4203.205128,4145.128205,4279.871795,3951.794871,3971.666666,4120.128205
4175,4181.923077,4264.358974,4144.230769,4145.384615,4167.051282,4161.282051,4158.846154,4188.717949,4147.820513,4284.358974,3949.230769,3958.461538,4110.128205
4170.897436,4174.230769,4257.948718,4141.666666,4144.358974,4155.897436,4151.153846,4147.307692,4174.74359,4147.307692,4271.410256,3940.384615,3953.974358,4099.743589
4169.230769,4171.282051,4259.230769,4138.717949,4143.846154,4152.948718,4152.948718,4153.717949,4180.128205,4145.769231,4263.846154,3938.076922,3966.538461,4100.128205
4174.487179,4172.307692,4261.025641,4138.076923,4143.589743,4152.820513,4156.153846,4162.564102,4183.205128,4146.794872,4267.179487,3931.923076,3969.358974,4103.846154
4175,4171.282051,4253.589744,4136.666666,4147.948718,4150.897436,4156.410256,4165.769231,4171.538461,4147.051282,4264.102564,3917.435897,3959.999999,4097.948718
4169.487179,4169.230769,4244.615385,4134.102564,4144.358974,4151.153846,4162.692307,4174.487179,4170.769231,4145.51282,4256.538462,3908.846153,3956.666666,4088.461538
4167.051282,4163.461538,4243.974359,4136.666666,4144.230769,4152.948718,4171.666667,4190.384615,4185.641026,4146.794872,4257.692308,3909.743589,3956.538461,4088.205128
4168.461538,4161.282051,4243.974359,4141.025641,4143.333333,4155.51282,4175.641026,4201.153846,4195.769231,4147.948718,4261.923077,3908.076922,3944.615384,4086.410256
4167.435897,4164.102564,4240,4142.820513,4138.461538,4160.641025,4176.794872,4201.666667,4197.692308,4147.307692,4264.358974,3899.999999,3926.410256,4079.487179
4166.410256,4163.333333,4241.794872,4145.384615,4144.358974,4168.589743,4177.179487,4202.948718,4202.051282,4147.564102,4272.307692,3901.02564,3926.538461,4082.179487
4168.589743,4160.641025,4246.153846,4147.051282,4143.076923,4170.25641,4174.102564,4203.974359,4203.205128,4148.589743,4273.205128,3908.846153,3938.076922,4089.102564
4169.74359,4159.102564,4243.974359,4142.564102,4141.794872,4160.384615,4169.487179,4193.333333,4190.641026,4148.717949,4264.358974,3903.333333,3937.307692,4088.205128
4169.74359,4159.102564,4243.974359,4142.564102,4141.794872,4160.384615,4169.487179,4193.333333,4190.641026,4148.717949,4264.358974,3903.333333,3937.307692,4088.205128
4167.692307,4155.128205,4242.948718,4137.692307,4147.179487,4152.307692,4162.692307,4177.051282,4172.051282,4148.717949,4261.025641,3893.589743,3924.358974,4081.282051
4169.487179,4155.128205,4247.179487,4136.538461,4143.974359,4154.871795,4159.74359,4166.282051,4159.487179,4149.615384,4266.538462,3894.999999,3926.02564,4077.564102
4172.051282,4156.666666,4245.384615,4130.641025,4143.846154,4157.820513,4160.769231,4158.461538,4151.666666,4148.589743,4270.897436,3892.820512,3950.384615,4074.615384
4165.384615,4151.538461,4236.153846,4121.538461,4144.615384,4150,4157.948718,4152.179487,4142.435897,4145.51282,4268.846154,3880.641025,3967.307692,4065.897435
4161.666666,4151.794872,4234.74359,4120.769231,4145.128205,4142.435897,4156.538461,4150,4135.384615,4145.897436,4270,3878.205127,3960.897435,4061.025641
4164.74359,4155.384615,4237.051282,4124.743589,4146.153846,4148.461538,4160,4150.128205,4134.487179,4147.179487,4276.923077,3882.692307,3955.641025,4062.820512
4159.74359,4153.717949,4233.076923,4124.102564,4141.666666,4150.897436,4160,4154.102564,4133.205128,4146.025641,4273.974359,3875.51282,3960.128205,4061.025641
4153.461538,4154.230769,4232.051282,4124.102564,4145.25641,4141.410256,4155.128205,4157.692307,4126.282051,4144.487179,4266.153846,3869.615384,3953.076922,4053.846153
4156.410256,4157.564102,4231.153846,4128.589743,4143.974359,4139.230769,4154.487179,4155.897436,4125.384615,4144.871795,4270.384615,3873.205127,3942.948717,4047.179487
4152.948718,4154.871795,4221.538461,4127.179487,4143.076923,4144.615384,4154.487179,4158.076923,4134.487179,4146.538461,4272.692308,3871.666666,3943.076922,4043.717948
4141.923077,4152.692307,4216.794872,4122.435897,4148.076923,4141.666666,4153.076923,4168.461538,4139.487179,4146.794872,4264.871795,3861.923076,3937.307692,4040.25641
4138.974359,4153.974359,4213.974359,4121.538461,4143.205128,4137.564102,4155,4172.820513,4142.820513,4144.487179,4263.846154,3852.179486,3928.205128,4034.230769
4139.74359,4147.435897,4205.128205,4119.615384,4147.820513,4137.692307,4151.666666,4169.230769,4151.666666,4144.74359,4266.025641,3848.717948,3924.487179,4028.589743
4137.948718,4147.051282,4204.871795,4117.692307,4147.435897,4136.794872,4145.641025,4170.769231,4158.205128,4146.794872,4265.384615,3858.076922,3917.692307,4027.179487
4136.794872,4150.51282,4210.128205,4114.615384,4137.051282,4137.051282,4143.461538,4171.794872,4156.666666,4146.794872,4267.179487,3863.717948,3899.743589,4025.128205
4136.282051,4141.794872,4208.076923,4109.230769,4142.051282,4136.282051,4141.538461,4157.948718,4148.076923,4149.358974,4264.230769,3851.666666,3880.128204,4020.51282
4136.923077,4139.102564,4211.794872,4111.410256,4143.589743,4136.794872,4138.461538,4139.615384,4137.692307,4150.769231,4260.512821,3848.846153,3873.076922,4017.948717
4140.641025,4152.435897,4222.179487,4120.641025,4142.692307,4139.871795,4139.487179,4134.743589,4135.769231,4147.179487,4268.076923,3864.615384,3877.179486,4021.794871
4146.410256,4161.666666,4219.74359,4127.051282,4143.846154,4138.333333,4139.871795,4133.461538,4138.589743,4147.179487,4277.564103,3873.974358,3876.282051,4023.461538
4152.051282,4165,4218.076923,4132.692307,4141.025641,4139.487179,4137.051282,4125.51282,4134.358974,4148.589743,4279.871795,3875.76923,3872.692307,4020.641025
4157.307692,4174.487179,4226.153846,4141.538461,4144.871795,4147.948718,4138.589743,4121.153846,4127.051282,4148.333333,4281.410256,3881.794871,3877.564102,4022.564102
4157.179487,4174.102564,4224.358974,4140.384615,4144.74359,4148.589743,4141.025641,4123.846154,4122.948718,4147.820513,4280,3880.51282,3881.282051,4021.538461
4151.025641,4163.717949,4213.846154,4127.820513,4142.948718,4141.410256,4143.717949,4128.205128,4118.333333,4146.410256,4268.974359,3865.384615,3878.461538,4016.025641
4151.153846,4165.25641,4214.358974,4122.564102,4144.487179,4142.692307,4150.128205,4137.820513,4115,4145.384615,4262.564103,3858.846153,3885.25641,4017.820512
4153.205128,4168.461538,4217.692308,4126.025641,4142.435897,4147.307692,4157.307692,4152.051282,4120.128205,4146.666666,4267.307692,3865.51282,3896.153845,4021.410256
4145.384615,4159.487179,4208.333333,4119.871795,4145.769231,4145.25641,4161.538461,4156.538461,4125,4147.564102,4263.333333,3862.179486,3891.02564,4016.923076
4136.538461,4150.384615,4199.102564,4107.692307,4143.717949,4143.717949,4160.897436,4154.230769,4120.897436,4145.769231,4252.051282,3849.102563,3879.999999,4009.102564
4137.179487,4149.615384,4200.128205,4106.794872,4140.128205,4145.25641,4159.102564,4161.538461,4120.25641,4144.871795,4242.307692,3845.128204,3881.538461,4005.641025
4141.025641,4147.564102,4202.051282,4110.25641,4144.230769,4144.487179,4160.897436,4167.948718,4126.794872,4145.769231,4230.641026,3848.589743,3890.76923,4008.076923
4137.948718,4142.179487,4199.102564,4104.871795,4142.051282,4142.435897,4160.384615,4163.589743,4123.717948,4146.025641,4218.589744,3848.076922,3891.153845,4009.743589
4127.948718,4137.564102,4186.538461,4095.384615,4143.974359,4136.025641,4150.384615,4152.179487,4112.948718,4146.282051,4210,3839.487179,3881.794871,4005.25641
4121.153846,4131.025641,4173.076923,4088.846154,4146.282051,4126.538461,4139.102564,4142.051282,4108.205128,4146.410256,4206.794872,3832.435897,3879.358974,3996.794871
4122.307692,4125.128205,4174.615384,4088.333333,4145.128205,4123.205128,4129.102564,4135.769231,4110.641025,4146.410256,4210.641026,3836.410256,3888.974358,3992.435897
4122.820513,4126.538461,4183.461538,4094.871795,4147.948718,4124.358974,4120.897436,4133.205128,4117.051282,4146.153846,4222.179487,3846.923076,3902.948717,3996.02564
4123.461538,4135.51282,4187.692308,4103.974359,4143.589743,4123.974359,4120.51282,4127.564102,4122.820513,4147.564102,4233.333333,3855.128204,3918.974358,4001.282051
4127.948718,4142.692307,4190.128205,4109.487179,4143.589743,4123.717948,4118.846154,4112.564102,4121.410256,4148.076923,4236.410256,3860.897435,3927.820512,3999.743589
4126.538461,4139.74359,4188.589743,4108.076923,4145.51282,4123.846154,4108.974359,4089.102564,4106.794872,4146.153846,4229.230769,3857.820512,3921.153845,3990.76923
4122.820513,4137.435897,4184.74359,4107.435897,4143.589743,4123.333333,4108.333333,4073.974359,4092.051282,4145.769231,4226.794872,3853.974358,3925.76923,3986.794871
4125.641025,4141.282051,4186.410256,4111.282051,4149.102564,4125.128205,4116.923077,4080.384615,4097.179487,4146.794872,4232.307692,3862.051281,3946.410256,3989.615384
4125,4141.538461,4185.641026,4109.871795,4143.974359,4124.230769,4114.358974,4088.589743,4101.794871,4145.897436,4224.74359,3862.051281,3947.948717,3986.666666
4121.538461,4133.589743,4177.307692,4099.230769,4139.615384,4121.794872,4116.923077,4089.743589,4091.538461,4147.307692,4213.461538,3848.846153,3934.487179,3983.974358
4120.128205,4126.282051,4170.897436,4092.820512,4146.153846,4131.153846,4135.769231,4101.923077,4093.589743,4149.230769,4212.692308,3843.461538,3932.820512,3985.76923
4112.820513,4123.333333,4163.589743,4088.205128,4144.358974,4141.923077,4146.282051,4120.128205,4105,4147.820513,4198.846154,3838.461538,3926.666666,3979.487179
4100.641025,4115.384615,4149.358974,4074.102564,4145.51282,4138.076923,4140.128205,4128.461538,4104.871795,4146.923077,4176.666667,3825.897435,3908.333333,3972.564102
4106.153846,4113.461538,4146.794872,4073.076923,4146.666666,4133.974359,4140.128205,4136.153846,4115.897436,4147.307692,4185.769231,3829.615384,3913.846153,3984.230769
4125.25641,4123.461538,4161.410256,4090.641025,4145,4139.358974,4147.564102,4151.794872,4140,4146.666666,4210,3849.615384,3938.717948,4002.051282
4128.461538,4130.897436,4172.179487,4095.25641,4145.897436,4140,4143.846154,4153.333333,4142.179487,4147.051282,4214.871795,3859.358974,3944.487179,4004.743589
4124.743589,4134.615384,4167.051282,4094.487179,4142.820513,4135.128205,4137.948718,4139.358974,4129.871795,4147.820513,4213.717949,3859.999999,3936.923076,3999.358974
4134.230769,4141.282051,4167.564102,4106.153846,4147.179487,4137.564102,4138.717949,4137.307692,4131.282051,4147.179487,4227.179487,3868.846153,3945.128205,4004.615384
4142.948718,4143.333333,4180.25641,4111.153846,4145,4135,4134.743589,4152.307692,4139.74359,4146.410256,4243.461538,3881.02564,3960.128205,4012.051282
4138.717949,4141.282051,4181.923077,4107.820513,4139.487179,4126.538461,4131.025641,4167.564102,4144.871795,4147.307692,4243.461538,3883.717948,3962.179487,4010.641025
4130.128205,4140.128205,4170.769231,4109.743589,4145.25641,4126.410256,4132.307692,4169.487179,4142.564102,4147.435897,4233.076923,3880.76923,3958.846153,4006.282051
4122.307692,4134.871795,4164.871795,4107.051282,4143.717949,4127.948718,4128.846154,4154.102564,4129.615384,4145.641025,4226.410256,3874.230768,3960.897435,4000.25641
4118.461538,4132.820513,4166.410256,4101.794871,4145.897436,4127.692307,4124.743589,4136.923077,4115.51282,4145.641025,4227.564103,3869.487179,3958.461538,3997.051282
4120.897436,4134.871795,4163.461538,4103.974359,4148.076923,4133.205128,4125.51282,4131.282051,4107.179487,4148.461538,4223.589744,3870.128204,3945.25641,3994.487179
4118.461538,4131.153846,4154.358974,4102.820513,4142.051282,4136.282051,4120.25641,4122.179487,4102.051282,4147.948718,4216.923077,3870.76923,3936.02564,3985.897435
4116.923077,4133.205128,4154.871795,4104.102564,4145.897436,4137.692307,4123.333333,4109.871795,4101.153846,4146.153846,4221.410256,3875.128204,3941.153846,3986.282051
4138.461538,4156.923077,4178.974359,4127.179487,4144.102564,4159.487179,4153.589743,4121.153846,4119.743589,4146.794872,4242.179487,3896.538461,3963.974358,4007.435897
4176.025641,4193.846154,4213.974359,4165.897436,4143.205128,4195.51282,4189.615384,4152.564102,4152.820513,4147.948718,4274.74359,3929.999999,3997.051282,4038.076923
4204.871795,4221.666667,4234.358974,4192.948718,4146.666666,4215.769231,4211.666667,4179.615384,4179.74359,4148.076923,4303.205128,3960.128205,4026.025641,4064.102564
4220.25641,4232.179487,4246.666667,4203.205128,4141.153846,4221.153846,4225.128205,4194.487179,4194.487179,4148.205128,4317.564103,3981.538461,4047.435897,4083.333333
4233.717949,4243.717949,4266.538462,4216.538461,4143.205128,4228.717949,4233.333333,4209.871795,4208.974359,4149.358974,4325.384616,3998.589743,4032.051282,4100.25641
4248.205128,4260.512821,4282.948718,4234.102564,4143.589743,4236.923077,4236.282051,4231.666667,4226.666667,4148.974359,4337.307693,4014.102564,3937.692307,4114.230769
4251.666667,4262.307692,4279.871795,4241.025641,4140.51282,4236.282051,4238.333333,4247.692308,4234.358974,4147.179487,4341.025641,4021.025641,3807.051281,4120.384615
4241.025641,4251.794872,4265.769231,4236.282051,4143.717949,4235.128205,4243.589744,4251.923077,4228.076923,4148.717949,4329.74359,4014.487179,3713.461537,4112.435897
4232.307692,4242.948718,4255.512821,4232.307692,4142.692307,4237.307692,4247.948718,4247.435897,4218.205128,4148.717949,4323.461539,4006.410256,3657.692306,4099.743589
4230.384615,4238.589744,4251.538462,4233.205128,4144.871795,4236.153846,4248.974359,4242.692308,4214.615385,4145.769231,4326.282051,4008.589743,3630.641024,4098.717948
4223.846154,4233.974359,4247.435897,4228.974359,4145.769231,4234.358974,4245,4240.769231,4215.51282,4146.410256,4319.48718,4010.51282,3641.666665,4094.871795
4212.307692,4222.435897,4236.025641,4216.410256,4145.641025,4229.102564,4235.769231,4235.512821,4215.641026,4147.692307,4301.666667,3999.102564,3671.794871,4077.564102
4199.615384,4211.923077,4226.794872,4208.461538,4146.025641,4222.307692,4229.871795,4230.897436,4215,4144.74359,4290.512821,3985.25641,3698.333332,4064.487179
4190.128205,4216.282051,4226.923077,4213.461538,4140.25641,4223.846154,4231.282051,4234.230769,4216.282051,4144.871795,4289.74359,3985.51282,3724.358973,4066.410256
4190.384615,4222.820513,4228.205128,4217.307692,4142.948718,4224.487179,4226.538461,4231.538461,4217.692308,4148.717949,4290.769231,3993.589743,3751.410255,4071.153846
4198.205128,4223.076923,4233.974359,4219.230769,4142.948718,4216.538461,4216.153846,4218.717949,4215.769231,4148.076923,4293.974359,3999.358974,3777.948717,4072.435897
4213.461538,4237.307692,4253.846154,4233.589744,4138.333333,4216.153846,4218.333333,4210.641026,4212.948718,4146.794872,4303.846154,4016.025641,3808.589743,4082.820512
4233.717949,4255.897436,4275,4252.820513,4146.153846,4226.282051,4226.923077,4205.769231,4205.641026,4149.102564,4316.025641,4043.205128,3841.794871,4100.384615
4247.307692,4265.25641,4288.717949,4266.025641,4144.487179,4232.692308,4228.846154,4196.666667,4198.717949,4147.820513,4319.615385,4060.128205,3870.76923,4110.641025
4254.74359,4272.820513,4298.205128,4273.846154,4140.128205,4234.358974,4227.820513,4196.410256,4199.358974,4145.769231,4314.230769,4067.307692,3891.02564,4115.25641
4263.205128,4278.846154,4302.051282,4278.717949,4145.25641,4234.487179,4233.717949,4208.974359,4201.666667,4147.179487,4312.692308,4072.820512,3907.435897,4121.666666
4266.410256,4277.564103,4300.897436,4276.538462,4144.871795,4232.179487,4240.128205,4216.410256,4198.974359,4146.282051,4309.871795,4068.846153,3921.153845,4124.102564
4261.410256,4271.153846,4296.025641,4269.230769,4144.74359,4233.974359,4244.74359,4220.769231,4199.74359,4146.538461,4301.410257,4060.76923,3931.666666,4121.923077
4252.820513,4263.589744,4284.358974,4262.948718,4141.666666,4236.794872,4249.615385,4230,4208.205128,4147.051282,4297.692308,4061.282051,3944.230769,4120.769231
4243.076923,4256.153846,4271.538462,4252.435897,4142.564102,4237.948718,4250.512821,4242.948718,4215.641026,4144.230769,4300.25641,4058.846153,3958.076922,4117.564102
4232.307692,4246.538462,4261.410256,4239.74359,4146.282051,4241.538462,4251.025641,4258.717949,4222.435897,4145.897436,4296.025641,4048.717948,3965.76923,4109.871795
4221.410256,4236.538462,4246.538462,4230,4141.794872,4241.025641,4250.769231,4266.282051,4227.435897,4149.487179,4281.025641,4041.666666,3967.435897,4097.820512
4212.307692,4230.384615,4234.74359,4222.435897,4146.410256,4235.128205,4245.25641,4256.794872,4219.487179,4148.974359,4267.564103,4036.153846,3971.538461,4087.948718
4202.692308,4225.51282,4228.333333,4216.666667,4145.641025,4230.128205,4232.179487,4236.794872,4203.974359,4146.666666,4260.384615,4026.923076,3971.410256,4077.051282
4194.487179,4219.615385,4220.128205,4214.487179,4141.794872,4224.102564,4219.358974,4223.589744,4196.025641,4145.25641,4260.897436,4022.307692,3968.846153,4067.435897
4191.025641,4216.025641,4215.51282,4211.410256,4144.230769,4217.948718,4211.410256,4210.128205,4193.717949,4145.641025,4262.435897,4025,3976.666666,4066.153846
4189.871795,4214.230769,4214.74359,4202.564103,4140.25641,4210.897436,4202.564103,4191.153846,4179.871795,4148.333333,4254.615385,4027.692307,3985.384615,4066.538461
4190,4213.717949,4214.615385,4201.794872,4142.820513,4203.333333,4192.820513,4178.589743,4158.846154,4148.589743,4245.512821,4028.846153,3985.897435,4067.948718
4197.051282,4215.128205,4222.692308,4207.820513,4144.74359,4200.25641,4191.794872,4181.410256,4151.666666,4144.871795,4251.153846,4036.538461,3996.410256,4071.794871
4208.461538,4215.51282,4234.102564,4208.205128,4143.974359,4199.74359,4199.358974,4191.794872,4154.487179,4145.51282,4263.717949,4049.102564,4018.974358,4079.743589
4217.820513,4217.179487,4237.179487,4211.923077,4147.051282,4191.666667,4203.205128,4197.435897,4156.282051,4147.820513,4261.666667,4057.948718,4032.820512,4090.641025
4223.717949,4218.846154,4237.435897,4217.307692,4141.025641,4186.538461,4204.102564,4201.025641,4162.179487,4147.564102,4252.307692,4063.205128,4038.205128,4098.974359
4219.102564,4211.153846,4238.205128,4211.538461,4141.923077,4188.974359,4207.564103,4198.589743,4165.769231,4147.051282,4246.794872,4058.076923,4041.794871,4100.384615
4207.820513,4201.025641,4230.641026,4201.410256,4145.25641,4183.974359,4201.666667,4187.179487,4158.846154,4145.769231,4238.589744,4043.333333,4043.589743,4089.358974
4199.615384,4195.51282,4217.435897,4196.025641,4141.153846,4175.641026,4188.846154,4176.666667,4151.153846,4145.51282,4226.410256,4034.102564,4043.205128,4076.282051
4191.410256,4185.897436,4204.487179,4186.025641,4143.205128,4172.692308,4182.948718,4175,4150.51282,4146.794872,4220,4031.025641,4041.410256,4066.025641
4174.615384,4169.74359,4189.358974,4169.358974,4141.666666,4167.564102,4174.102564,4173.717949,4146.538461,4146.538461,4216.282051,4021.410256,4036.923077,4049.743589
4152.948718,4154.615384,4174.74359,4156.410256,4140.897436,4157.307692,4157.948718,4165.384615,4140,4145.897436,4200.128205,4005.897435,4028.717948,4031.538461
4141.923077,4145.128205,4164.74359,4149.230769,4143.461538,4156.153846,4154.871795,4159.230769,4138.333333,4147.179487,4186.153846,3994.487179,4025.384615,4022.307692
4133.846154,4136.153846,4152.435897,4140,4140.128205,4158.589743,4155.769231,4156.153846,4133.461538,4147.564102,4184.230769,3982.820512,4026.282051,4012.564102
4122.564102,4124.743589,4133.974359,4126.025641,4141.666666,4150.128205,4141.410256,4151.282051,4125,4147.435897,4177.692308,3968.974358,4020.25641,3995.897435
4117.692307,4118.974359,4121.282051,4121.666666,4142.307692,4142.692307,4131.538461,4148.461538,4121.666666,4147.435897,4171.282051,3962.179487,4018.589743,3989.487179
4120.769231,4122.307692,4123.333333,4126.153846,4143.717949,4143.205128,4137.564102,4152.051282,4126.538461,4146.025641,4179.230769,3966.794871,4029.230769,4000.897435
4123.076923,4125.128205,4132.692307,4130.384615,4145.769231,4143.461538,4135.769231,4152.692307,4134.230769,4145.128205,4192.179487,3981.410256,4038.076923,4015.25641
4124.871795,4124.487179,4139.102564,4133.589743,4140.51282,4137.564102,4126.410256,4144.358974,4133.974359,4145.897436,4197.435897,3991.666666,4041.666666,4017.179487
4130.51282,4125.128205,4137.564102,4134.358974,4145.25641,4128.846154,4128.461538,4136.666666,4122.692307,4146.923077,4200.641026,3991.410256,4041.794871,4015.384615
4138.333333,4127.435897,4136.282051,4135.384615,4146.410256,4125.769231,4136.538461,4136.923077,4117.948718,4147.435897,4201.923077,3994.743589,4041.153846,4020
4142.948718,4127.820513,4141.410256,4136.538461,4140.384615,4126.666666,4139.102564,4138.333333,4123.846154,4146.538461,4194.74359,4004.358974,4041.538461,4026.025641
4137.435897,4125.25641,4143.846154,4132.692307,4143.205128,4123.846154,4136.025641,4132.948718,4119.487179,4146.923077,4186.538461,4007.820512,4037.051282,4027.948717
4127.564102,4119.871795,4137.692307,4127.564102,4141.282051,4120.641025,4128.076923,4122.307692,4107.692307,4146.666666,4180.384615,4003.076923,4026.666666,4024.487179
4121.282051,4110.25641,4125.897436,4119.230769,4143.846154,4122.564102,4121.923077,4114.743589,4101.666666,4145.641025,4169.615384,3994.999999,4016.538461,4020.384615
4108.846154,4093.717948,4108.333333,4099.102564,4145.51282,4122.307692,4123.076923,4110.51282,4094.743589,4147.692307,4152.564102,3981.666666,4005.641025,4008.974358
4096.282051,4079.358974,4093.205128,4084.487179,4140.769231,4120.641025,4124.615384,4109.358974,4088.974359,4148.461538,4143.717949,3970.128205,3998.589743,3996.153846
4098.846154,4080.128205,4095.76923,4086.794871,4145.897436,4121.410256,4122.564102,4114.871795,4093.974359,4147.179487,4153.589743,3972.564102,4008.205128,4001.923076
4106.410256,4086.025641,4104.487179,4090.25641,4145.128205,4120.769231,4121.923077,4121.666666,4104.358974,4147.051282,4167.435897,3978.205128,4020.51282,4010.128205
4106.410256,4092.948718,4104.871795,4097.179487,4145.384615,4122.051282,4123.846154,4127.564102,4115.384615,4148.461538,4176.410256,3983.717948,4029.358974,4007.948717
4105.897436,4103.846154,4106.282051,4113.333333,4147.564102,4124.487179,4122.051282,4134.615384,4126.410256,4148.333333,4186.538461,3990.76923,4038.717948,4008.333333
4106.666666,4109.871795,4108.589743,4119.743589,4141.282051,4123.589743,4112.564102,4137.692307,4131.153846,4146.923077,4195.769231,3991.794871,4042.051282,4011.282051
4105.641025,4107.692307,4104.615384,4117.179487,4143.333333,4121.794872,4105.769231,4137.051282,4133.717948,4148.717949,4202.948718,3989.615384,4046.025641,4005.897435
4106.538461,4108.974359,4105.128205,4123.205128,4143.589743,4122.820513,4106.282051,4140.25641,4140.769231,4148.205128,4214.230769,3993.974358,4055.128205,3998.205128
4109.102564,4113.076923,4108.461538,4125.384615,4141.666666,4121.282051,4110.25641,4141.923077,4141.153846,4146.410256,4218.333333,3995.897435,4055.384615,3993.717948
4108.974359,4106.794872,4101.794871,4112.564102,4144.74359,4116.153846,4115.641025,4134.358974,4129.230769,4147.179487,4204.487179,3988.846153,4048.974359,3987.948717
4108.974359,4094.230769,4096.025641,4102.307692,4141.794872,4111.282051,4121.923077,4127.435897,4119.358974,4147.435897,4191.025641,3987.051282,4051.025641,3986.02564
4107.692307,4084.743589,4095.51282,4098.846154,4145.51282,4107.307692,4125.641025,4119.615384,4114.615384,4146.025641,4180.25641,3991.410256,4055.51282,3986.282051
4101.538461,4076.666666,4090.384615,4090.128205,4146.794872,4103.589743,4119.102564,4109.871795,4106.538461,4146.794872,4169.871795,3988.846153,4055.51282,3983.205128
4090.25641,4067.564102,4081.282051,4078.846154,4142.948718,4100.641025,4109.102564,4103.461538,4098.076923,4147.564102,4170.769231,3981.410256,4060.25641,3983.717948
4090.25641,4067.564102,4081.282051,4078.846154,4142.948718,4100.641025,4109.102564,4103.461538,4098.076923,4147.564102,4170.769231,3981.410256,4060.25641,3983.717948
4078.974359,4059.871794,4070.128205,4073.461538,4144.102564,4095.384615,4102.435897,4098.461538,4099.230769,4144.871795,4166.538461,3976.538461,4065.76923,3981.282051
4072.179487,4054.102564,4062.179487,4072.564102,4140,4093.717948,4096.923077,4092.307692,4101.794871,4144.74359,4151.666666,3974.871794,4061.153846,3969.230769
4067.179487,4050.384615,4062.692307,4072.435897,4142.307692,4101.282051,4094.615384,4088.461538,4097.948718,4147.692307,4155.128205,3973.461538,4053.333333,3963.974358
4060.641025,4050.128205,4058.974359,4073.461538,4145.51282,4103.974359,4095.51282,4089.230769,4096.025641,4147.435897,4170.25641,3973.974358,4055.76923,3965.51282
4055.51282,4042.435897,4046.025641,4072.051282,4142.692307,4090.384615,4086.794871,4089.743589,4095.641025,4146.282051,4171.025641,3972.435897,4060.76923,3959.487179
4061.153846,4035.384615,4047.307692,4069.230769,4146.153846,4078.974359,4073.717948,4088.717948,4092.948718,4148.589743,4166.923077,3971.153846,4062.435897,3961.410256
4079.743589,4044.230769,4064.102564,4077.435897,4142.692307,4084.358974,4076.923077,4092.051282,4095.641025,4148.846154,4172.307692,3982.179487,4075.384615,3978.076923
4094.230769,4050.51282,4065.897435,4088.076923,4142.564102,4085.51282,4083.333333,4094.230769,4098.461538,4146.538461,4174.487179,3991.666666,4087.307692,3989.487179
4092.307692,4047.820512,4055.897435,4086.410256,4143.589743,4075.76923,4080.384615,4088.846154,4090.76923,4147.948718,4169.358974,3981.538461,4081.410256,3986.538461
4089.230769,4053.461538,4059.487179,4088.846154,4138.846154,4075.128205,4081.538461,4085.641025,4085.25641,4149.487179,4165.769231,3973.205128,4076.666666,3980.897435
4093.461538,4063.717948,4070,4102.692307,4143.589743,4080.384615,4085.51282,4087.948718,4086.538461,4148.974359,4168.205128,3982.692307,4085.76923,3982.051282
4087.435897,4063.974359,4070,4109.102564,4143.205128,4078.333333,4076.410256,4083.589743,4084.615384,4147.051282,4169.74359,3991.153846,4095,3982.307692
4073.974359,4060.128205,4067.051282,4104.871795,4141.794872,4072.692307,4063.333333,4079.871795,4086.666666,4145.897436,4169.230769,3988.205128,4104.615384,3979.999999
4072.948718,4062.820512,4068.076923,4105.769231,4145,4073.717948,4066.666666,4089.743589,4103.076923,4147.051282,4176.410256,3993.076923,4122.051282,3980.384615
4074.102564,4063.461538,4066.025641,4107.692307,4142.435897,4077.564102,4076.153846,4102.692307,4120.384615,4147.435897,4187.692308,4003.333333,4137.564102,3982.564102
4061.153846,4050.51282,4057.820512,4097.692307,4144.102564,4077.948718,4074.358974,4113.205128,4129.358974,4147.307692,4190.641026,3999.743589,4147.948718,3982.307692
4048.974359,4036.794871,4043.589743,4081.923077,4141.538461,4075.641025,4068.974359,4122.179487,4134.230769,4147.051282,4181.923077,3987.820512,4153.717949,3973.717948
4052.564102,4039.743589,4033.589743,4073.333333,4141.282051,4080,4077.435897,4124.358974,4135.25641,4147.564102,4174.615384,3982.564102,4151.025641,3967.948717
4052.564102,4039.743589,4033.589743,4073.333333,4141.282051,4080,4077.435897,4124.358974,4135.25641,4147.564102,4174.615384,3982.564102,4151.025641,3967.948717
4064.230769,4048.717948,4037.051282,4077.948718,4147.179487,4093.589743,4090.25641,4125,4135.51282,4147.692307,4179.487179,3987.692307,4156.153846,3977.948717
4070.51282,4049.230769,4046.923077,4083.333333,4141.025641,4103.717948,4095.25641,4125.769231,4140.51282,4147.051282,4187.948718,3994.743589,4174.358974,3992.692307
4075.128205,4050.25641,4054.230769,4081.282051,4140.384615,4107.051282,4106.794872,4126.025641,4143.333333,4148.461538,4190,4002.051282,4175.51282,4002.435897
4084.358974,4053.461538,4057.692307,4076.410256,4144.358974,4108.717948,4122.435897,4131.025641,4140.641025,4148.974359,4186.282051,4003.461538,4148.846154,4002.948717
4091.153846,4051.025641,4058.333333,4071.666666,4143.205128,4110,4128.333333,4136.025641,4135.769231,4146.538461,4179.102564,3996.02564,4122.564102,3994.615384
4088.461538,4048.589743,4060.641025,4069.743589,4144.487179,4108.589743,4123.846154,4125.769231,4123.205128,4146.410256,4166.923077,3989.230769,4110.769231,3989.615384
4083.076923,4050.384615,4066.538461,4070.128205,4139.74359,4105.384615,4117.307692,4103.974359,4105.25641,4148.461538,4157.820513,3987.692307,4106.666666,3992.307692
4083.974359,4054.871794,4072.179487,4075.25641,4142.179487,4105,4116.025641,4088.333333,4096.410256,4146.666666,4158.846154,3996.923076,4103.974359,3996.282051
4092.179487,4061.538461,4082.564102,4084.358974,4142.948718,4107.307692,4120.25641,4086.025641,4092.307692,4143.589743,4162.564102,4008.589743,4098.846154,4002.435897
4101.923077,4067.692307,4093.461538,4087.307692,4136.282051,4107.948718,4123.717948,4091.538461,4091.538461,4144.615384,4163.333333,4012.435897,4091.538461,4011.025641
4101.410256,4064.230769,4094.230769,4079.358974,4142.051282,4105.51282,4120.384615,4090.641025,4095,4147.435897,4154.74359,4005,4080.51282,4009.102564
4095.641025,4059.358974,4091.666666,4071.153846,4141.282051,4105.769231,4117.051282,4083.333333,4089.871795,4147.435897,4141.410256,3993.974358,4063.589743,4000.128205
4097.692307,4062.820512,4091.410256,4070.128205,4140.51282,4105,4114.871795,4080.25641,4077.435897,4146.923077,4138.461538,3989.999999,4051.794871,3998.589743
4097.692307,4060.76923,4084.102564,4067.692307,4144.487179,4098.717948,4109.358974,4079.743589,4077.564102,4147.820513,4138.589743,3987.051282,4048.333333,3996.538461
4092.179487,4056.025641,4075.384615,4064.743589,4140.128205,4095.897436,4106.282051,4079.487179,4085.25641,4147.692307,4128.333333,3978.846153,4043.589743,3989.999999
4090.897436,4060.384615,4077.692307,4063.076923,4141.538461,4097.435897,4105.897436,4080.897436,4086.923077,4146.923077,4120.128205,3973.589743,4040,3992.564102
4088.846154,4059.743589,4077.051282,4058.974359,4140.51282,4095.897436,4101.282051,4080,4085.384615,4146.153846,4120.384615,3971.666666,4042.179487,3994.358974
4081.153846,4050.384615,4067.051282,4055.384615,4140.51282,4095.641025,4095.384615,4075,4082.179487,4145.51282,4113.461538,3963.076922,4039.743589,3984.615384
4077.820512,4052.051282,4061.538461,4056.025641,4144.615384,4098.333333,4097.564102,4076.410256,4082.307692,4146.410256,4099.871795,3952.435897,4028.717948,3978.717948
4076.410256,4056.794871,4060.384615,4055.51282,4142.564102,4095.897436,4101.666666,4081.538461,4088.974359,4146.666666,4094.743589,3947.051281,4019.615384,3981.666666
4073.974359,4047.948718,4054.358974,4047.307692,4145.384615,4094.615384,4097.179487,4078.205128,4084.358974,4145.51282,4089.487179,3941.923076,4010.25641,3979.230769
4070.897436,4038.333333,4046.923077,4037.179487,4143.974359,4091.794871,4091.666666,4066.794871,4065.384615,4145.51282,4077.307692,3936.02564,3991.02564,3967.307692
4067.948718,4035.51282,4047.435897,4034.102564,4140.51282,4081.923077,4092.051282,4058.974359,4057.051282,4147.435897,4069.615384,3934.999999,3975.25641,3962.692307
4070.76923,4037.307692,4054.102564,4037.692307,4144.615384,4080.897436,4095.897436,4065,4063.076923,4147.948718,4071.923077,3943.589743,3981.410256,3972.435897
4078.846154,4044.615384,4062.179487,4043.461538,4140.25641,4084.871795,4094.615384,4070.76923,4062.179487,4145.897436,4079.230769,3950.641025,3993.846153,3979.999999
4085.897436,4050,4069.230769,4048.846153,4139.74359,4080.128205,4090.128205,4070.76923,4061.153846,4144.871795,4086.410256,3954.358974,3999.871794,3983.717948
4092.307692,4052.307692,4077.564102,4054.871794,4144.74359,4077.692307,4094.358974,4078.333333,4077.692307,4146.666666,4092.820512,3962.820512,4007.820512,3992.692307
4095,4058.205128,4079.358974,4060.897435,4141.923077,4080.128205,4097.307692,4085,4089.230769,4147.948718,4097.564102,3968.974358,4012.051282,3997.820512
4087.948718,4062.051282,4070.25641,4061.025641,4141.410256,4080.897436,4091.538461,4077.948718,4079.871795,4147.820513,4098.717948,3963.717948,4006.538461,3993.846153
4080.25641,4059.743589,4068.076923,4060.384615,4140,4085.384615,4088.589743,4073.076923,4074.230769,4147.179487,4097.692307,3958.589743,4001.282051,3990.51282
4077.435897,4060.76923,4075.384615,4067.692307,4139.487179,4092.179487,4092.051282,4075.641025,4081.538461,4147.564102,4098.717948,3963.461538,3998.461538,3992.948717
4076.025641,4065.76923,4074.487179,4073.461538,4141.282051,4097.179487,4093.076923,4074.743589,4088.205128,4149.230769,4106.794872,3973.333333,3996.538461,3996.282051
4077.179487,4066.153846,4073.076923,4075.384615,4142.179487,4103.974359,4091.794871,4074.743589,4090.128205,4147.307692,4113.717948,3982.692307,4002.564102,4000.384615
4081.923077,4066.538461,4080,4077.051282,4146.666666,4105.128205,4093.461538,4077.564102,4088.974359,4143.846154,4112.948718,3988.589743,4008.717948,4007.435897
4083.974359,4070,4081.794871,4074.871795,4141.538461,4096.282051,4095,4075.25641,4085,4147.564102,4110,3990.384615,4001.02564,4008.076923
4081.025641,4070,4075.897436,4074.871795,4140.51282,4093.333333,4094.615384,4072.820512,4080.897436,4151.794872,4108.974359,3988.717948,3993.717948,4003.205128
4079.102564,4065.384615,4072.435897,4078.589743,4147.692307,4098.205128,4094.358974,4076.025641,4079.615384,4147.692307,4109.615384,3983.717948,3997.435897,4001.666666
4080.897436,4059.615384,4069.102564,4074.102564,4143.589743,4096.794871,4095.128205,4076.794871,4080,4144.74359,4109.487179,3982.051282,3995.51282,4002.435897
4079.230769,4051.025641,4061.410256,4063.333333,4141.282051,4090.384615,4095.51282,4069.743589,4076.666666,4149.102564,4103.717948,3976.538461,3974.102564,4001.794871
4072.820512,4042.820512,4051.282051,4057.435897,4140.769231,4092.435897,4093.589743,4063.461538,4067.435897,4150,4081.794871,3963.461538,3952.948717,3994.743589
4068.974359,4038.589743,4046.666666,4050.897435,4140.897436,4095.51282,4093.846154,4064.230769,4063.205128,4146.794872,4054.743589,3955.76923,3948.205128,3986.410256
4072.179487,4035,4050.897435,4045,4143.076923,4090.51282,4098.717948,4066.794871,4066.410256,4146.794872,4055.641025,3960.76923,3952.692307,3990.641025
4083.076923,4037.307692,4060.641025,4052.307692,4138.974359,4091.794871,4106.538461,4068.333333,4073.205128,4147.051282,4076.794871,3974.230769,3965.51282,4005.51282
4091.794871,4046.282051,4066.153846,4061.025641,4143.717949,4099.102564,4109.102564,4068.205128,4078.717948,4147.564102,4079.230769,3985.25641,3974.487179,4012.179487
4085,4047.179487,4062.051282,4059.102564,4142.564102,4097.948718,4102.564102,4062.051282,4076.153846,4147.692307,4063.846153,3986.923076,3973.076923,4007.307692
4077.179487,4044.102564,4058.461538,4056.153846,4135.769231,4093.717948,4100.641025,4056.282051,4071.025641,4145,4063.461538,3985.25641,3980.384615,4008.589743
4084.102564,4049.230769,4065.384615,4058.717948,4142.948718,4097.435897,4103.461538,4057.692307,4070.641025,4145.641025,4073.846154,3988.076923,3991.666666,4014.230769
4088.717948,4053.076923,4067.948718,4060.384615,4141.025641,4100.384615,4102.179487,4063.205128,4074.102564,4148.205128,4078.846154,3990.897435,3994.358974,4012.564102
4078.974359,4043.974359,4059.230769,4057.948718,4140.641025,4095.897436,4100.641025,4071.153846,4077.564102,4146.923077,4075.384615,3989.358974,3997.948717,4011.025641
4078.589743,4039.615384,4057.307692,4055,4145.769231,4091.410256,4100.51282,4077.179487,4080.51282,4146.282051,4065.128205,3995.25641,4005.897435,4013.974358
4089.487179,4050.128205,4067.564102,4060.384615,4141.923077,4096.666666,4101.282051,4077.948718,4085.76923,4147.564102,4064.102564,4005.76923,4009.871794,4020.25641
4091.923077,4058.846153,4075.25641,4072.307692,4143.333333,4104.871795,4104.615384,4082.051282,4092.051282,4147.307692,4075.641025,4012.307692,4017.692307,4030.25641
4091.794871,4061.923077,4076.282051,4078.846154,4141.282051,4106.282051,4107.435897,4090.641025,4097.948718,4145.769231,4080.25641,4022.692307,4027.564102,4038.589743
4096.410256,4067.051282,4078.717948,4080.128205,4140.51282,4106.025641,4107.179487,4092.435897,4099.487179,4145.641025,4077.307692,4032.692307,4026.538461,4042.179487
4095.76923,4068.974359,4078.846154,4085.128205,4142.692307,4107.692307,4106.923077,4085.128205,4093.974359,4146.666666,4075.128205,4028.205128,4019.743589,4041.923077
4090.51282,4063.846153,4070.25641,4085.51282,4139.871795,4108.076923,4102.564102,4077.307692,4086.923077,4147.435897,4069.487179,4021.282051,4015.384615,4037.820512
4090.25641,4062.179487,4067.307692,4081.794871,4145.384615,4107.948718,4096.153846,4076.794871,4086.923077,4146.025641,4070.384615,4027.820512,4017.051282,4037.948718
4090.384615,4061.538461,4072.820512,4080,4144.358974,4101.282051,4093.076923,4073.717948,4085.128205,4144.487179,4076.025641,4029.358974,4014.102564,4038.589743
4088.589743,4057.820512,4073.205128,4078.846154,4139.615384,4093.205128,4093.461538,4065.51282,4075.25641,4146.794872,4072.564102,4025.128205,4001.538461,4033.974358
4091.410256,4062.051282,4074.230769,4083.076923,4144.487179,4097.820512,4100.51282,4066.538461,4075.25641,4148.076923,4077.307692,4035.51282,3997.179487,4037.307692
4093.846154,4067.692307,4076.666666,4090.641025,4141.538461,4107.692307,4106.923077,4075,4086.025641,4145.25641,4087.307692,4047.820512,4001.410256,4043.205128
4091.410256,4064.743589,4071.666666,4096.538461,4140.641025,4113.461538,4111.538461,4081.794871,4093.717948,4145.897436,4083.974359,4048.974359,3991.153846,4041.282051
4090.128205,4062.051282,4067.948718,4102.820513,4141.794872,4119.743589,4121.025641,4089.615384,4100,4149.102564,4080.641025,4050.128205,3975.51282,4041.282051
4091.923077,4063.974359,4068.205128,4104.615384,4141.025641,4125.128205,4125.641025,4094.487179,4101.666666,4147.820513,4086.410256,4051.410256,3972.820512,4045.25641
4091.923077,4061.153846,4062.307692,4101.153846,4144.358974,4125.51282,4120.128205,4092.820512,4099.230769,4146.538461,4086.282051,4048.846153,3967.820512,4044.615384
4089.615384,4051.794871,4057.435897,4098.717948,4141.153846,4124.230769,4120.25641,4091.025641,4098.974359,4148.974359,4079.102564,4049.358974,3956.282051,4038.974359
4090.76923,4048.717948,4058.974359,4099.487179,4141.025641,4123.205128,4124.358974,4088.717948,4098.333333,4149.615384,4076.282051,4052.307692,3943.076922,4038.846153
4094.230769,4054.358974,4061.410256,4103.076923,4142.435897,4121.923077,4117.179487,4079.615384,4095.128205,4147.692307,4078.974359,4056.282051,3926.794871,4043.076923
4096.923077,4059.615384,4066.794871,4108.974359,4140.128205,4120,4112.692307,4073.846154,4091.794871,4147.692307,4074.871795,4061.923077,3917.692307,4046.666666
4102.692307,4065.25641,4071.410256,4111.153846,4143.589743,4118.076923,4118.461538,4080,4093.589743,4146.538461,4061.153846,4063.461538,3924.871794,4049.743589
4108.589743,4073.717948,4068.589743,4112.435897,4141.410256,4121.666666,4125.51282,4091.282051,4101.538461,4143.974359,4055.25641,4066.282051,3934.615384,4053.589743
4103.076923,4074.871795,4064.615384,4113.589743,4141.923077,4125.641025,4132.564102,4097.307692,4105.897436,4146.538461,4057.179487,4069.743589,3933.717948,4055
4092.820512,4065,4058.589743,4108.076923,4144.230769,4123.205128,4135.128205,4097.564102,4101.538461,4149.358974,4048.205128,4063.076923,3924.743589,4048.333333
4088.846154,4058.589743,4047.307692,4098.974359,4138.205128,4117.820513,4128.589743,4098.205128,4098.717948,4147.820513,4034.743589,4052.307692,3910.76923,4042.307692
4087.051282,4061.025641,4042.692307,4093.846154,4141.538461,4114.743589,4123.333333,4097.179487,4100.641025,4147.564102,4036.923077,4051.923077,3911.282051,4045
4087.564102,4067.435897,4049.487179,4099.230769,4143.076923,4113.974359,4126.153846,4097.051282,4102.948718,4146.666666,4051.282051,4058.589743,3922.692307,4046.794871
4087.564102,4068.333333,4051.538461,4102.948718,4141.282051,4111.538461,4122.948718,4094.487179,4101.025641,4144.615384,4050.128205,4058.589743,3917.820512,4041.794871
4082.179487,4063.846153,4047.564102,4093.846154,4141.794872,4106.666666,4115.769231,4085.51282,4096.794871,4147.564102,4035.25641,4054.358974,3911.410256,4042.307692
4083.461538,4063.333333,4050,4089.102564,4136.666666,4105.897436,4118.717948,4085.76923,4098.717948,4149.358974,4035.128205,4060.128205,3921.538461,4051.794871
4091.153846,4063.461538,4052.051282,4094.487179,4141.666666,4106.794872,4120.128205,4089.743589,4099.487179,4146.538461,4044.487179,4071.923077,3932.564102,4056.025641
4090,4060.128205,4050.76923,4092.179487,4143.461538,4102.948718,4111.025641,4081.025641,4091.025641,4146.666666,4040.51282,4074.615384,3931.02564,4052.435897
4085.897436,4060,4054.871794,4088.846154,4139.230769,4096.282051,4103.846154,4073.846154,4086.538461,4149.102564,4035.76923,4073.974359,3930.641025,4055.384615
4094.358974,4066.538461,4062.564102,4098.333333,4142.564102,4093.846154,4106.794872,4081.666666,4094.230769,4148.846154,4046.666666,4083.717948,3936.923076,4063.717948
4104.615384,4073.461538,4067.435897,4107.692307,4139.230769,4093.717948,4110.641025,4093.205128,4104.230769,4147.564102,4057.820512,4096.410256,3943.846153,4068.589743
4106.025641,4077.948718,4074.358974,4111.666666,4141.794872,4092.564102,4115,4101.410256,4111.666666,4148.846154,4065,4105.25641,3952.307692,4078.333333
4104.871795,4079.487179,4075.897436,4114.230769,4143.717949,4095.384615,4122.435897,4103.461538,4117.692307,4149.487179,4073.461538,4109.743589,3958.076922,4085.641025
4103.205128,4077.051282,4065.76923,4113.076923,4139.102564,4100.25641,4124.487179,4099.743589,4119.487179,4147.564102,4077.564102,4108.846154,3956.923076,4080.128205
4100.641025,4073.846154,4058.717948,4109.487179,4143.076923,4103.333333,4123.717948,4102.179487,4117.692307,4145.769231,4076.410256,4110.897436,3954.999999,4077.179487
4099.871795,4070.76923,4061.410256,4103.717948,4141.794872,4108.205128,4130.128205,4109.615384,4121.666666,4147.564102,4075.641025,4114.358974,3958.461538,4081.666666
4098.717948,4065.641025,4060.76923,4095.897436,4141.410256,4113.205128,4139.230769,4114.487179,4128.461538,4149.74359,4083.974359,4110.641025,3963.846153,4082.692307
4095.76923,4059.487179,4053.461538,4089.871795,4144.102564,4112.820513,4138.205128,4114.871795,4126.153846,4148.076923,4092.179487,4107.820513,3963.974358,4078.589743
4089.743589,4055.51282,4045.128205,4086.025641,4141.025641,4108.974359,4130,4110.128205,4122.948718,4146.282051,4086.794871,4103.076923,3961.410256,4072.820512
4079.871795,4052.051282,4033.717948,4081.025641,4142.435897,4102.564102,4123.076923,4104.487179,4119.871795,4147.820513,4076.666666,4092.307692,3959.487179,4065.641025
4071.538461,4050.128205,4025.76923,4081.282051,4140.25641,4094.615384,4116.410256,4100.384615,4109.743589,4147.179487,4076.410256,4086.153846,3958.076922,4057.820512
4068.076923,4051.923077,4026.025641,4083.076923,4139.871795,4092.435897,4108.205128,4088.589743,4099.358974,4146.153846,4073.333333,4084.358974,3946.923076,4052.948718
4065.897435,4053.974359,4025,4080.641025,4143.974359,4090.76923,4105,4076.153846,4092.179487,4148.717949,4065,4081.538461,3924.743589,4052.307692
4066.666666,4056.923077,4024.871794,4082.307692,4142.435897,4088.717948,4103.589743,4071.794871,4085.897436,4148.717949,4069.358974,4086.538461,3917.948717,4054.615384
4079.102564,4066.282051,4040.51282,4092.307692,4144.358974,4093.461538,4106.538461,4071.923077,4086.025641,4148.205128,4077.435897,4098.333333,3931.153845,4062.948718
4091.923077,4078.589743,4058.461538,4102.564102,4142.179487,4102.307692,4116.410256,4078.589743,4091.410256,4149.74359,4076.923077,4103.974359,3937.948717,4071.794871
4092.179487,4083.589743,4061.410256,4107.948718,4140.897436,4105.897436,4120.897436,4087.692307,4093.974359,4147.051282,4080,4110.769231,3938.076922,4078.461538
4094.358974,4083.846154,4066.282051,4115.384615,4144.615384,4105.769231,4120.897436,4096.794871,4097.435897,4144.871795,4089.487179,4125.51282,3945.76923,4090.384615
4105,4089.102564,4077.051282,4120.769231,4138.205128,4107.692307,4128.974359,4105.641025,4104.102564,4146.794872,4092.820512,4136.794872,3956.02564,4099.358974
4109.358974,4094.487179,4078.461538,4120.25641,4138.846154,4109.743589,4136.923077,4107.692307,4109.358974,4148.589743,4091.923077,4138.846154,3966.538461,4102.179487
4106.410256,4093.205128,4072.948718,4120.897436,4143.333333,4108.333333,4136.538461,4107.179487,4112.948718,4146.923077,4093.076923,4137.179487,3981.923076,4100.897436
4107.564102,4090.51282,4068.717948,4119.487179,4140.769231,4106.282051,4137.692307,4115.897436,4119.358974,4146.153846,4096.794871,4138.589743,3991.666666,4100
4102.564102,4083.461538,4063.589743,4111.282051,4141.025641,4107.179487,4137.564102,4127.692307,4133.461538,4146.282051,4102.179487,4139.871795,3989.999999,4102.820513
4091.923077,4074.615384,4057.435897,4104.230769,4138.333333,4104.743589,4131.923077,4134.102564,4146.538461,4146.538461,4105.128205,4134.487179,3989.358974,4103.076923
4091.538461,4074.230769,4053.974359,4101.282051,4141.410256,4100.128205,4131.666666,4141.538461,4151.794872,4148.461538,4107.435897,4131.025641,3991.666666,4100.76923
4092.564102,4076.666666,4051.410256,4099.102564,4142.564102,4102.051282,4135.769231,4138.076923,4153.333333,4146.666666,4107.435897,4135.641025,3990.51282,4098.846154
4089.102564,4073.717948,4052.435897,4102.692307,4136.538461,4107.307692,4138.205128,4126.282051,4152.564102,4144.487179,4102.179487,4135.897436,3985.51282,4098.461538
4091.538461,4070.384615,4051.410256,4102.051282,4141.410256,4108.205128,4135.641025,4124.615384,4146.666666,4148.205128,4096.794871,4131.538461,3980.76923,4097.820512
4089.102564,4067.435897,4043.974359,4091.794871,4143.205128,4106.025641,4127.435897,4115.897436,4133.205128,4151.025641,4095.641025,4129.615384,3974.615384,4091.666666
4078.076923,4060.128205,4032.435897,4081.282051,4142.307692,4106.153846,4121.538461,4093.461538,4112.692307,4147.435897,4086.666666,4120,3957.435897,4081.153846
4070.897436,4051.794871,4021.153846,4071.538461,4144.74359,4108.076923,4122.948718,4083.205128,4090.25641,4144.230769,4066.923077,4102.051282,3938.076922,4071.666666
4073.974359,4052.692307,4023.076923,4066.923077,4142.948718,4108.333333,4126.538461,4091.153846,4084.102564,4145.769231,4061.666666,4098.205128,3935.25641,4071.923077
4082.692307,4061.282051,4037.307692,4075.76923,4146.025641,4107.564102,4129.358974,4095.897436,4095.384615,4146.282051,4078.333333,4113.205128,3942.948717,4082.820512
4090.25641,4069.230769,4050.128205,4090.25641,4141.410256,4106.666666,4130.384615,4096.794871,4104.871795,4146.153846,4096.025641,4129.230769,3948.717948,4095.51282
4098.846154,4078.333333,4057.564102,4101.538461,4137.948718,4101.153846,4125.51282,4103.461538,4107.564102,4146.282051,4104.230769,4141.410256,3958.076922,4107.051282
4106.666666,4089.615384,4062.307692,4112.307692,4143.717949,4095.25641,4118.461538,4107.948718,4112.179487,4146.538461,4108.974359,4150.384615,3962.051281,4115.128205
4103.974359,4091.794871,4063.076923,4117.948718,4139.871795,4096.538461,4115.128205,4109.102564,4118.333333,4146.025641,4109.743589,4151.025641,3948.461538,4117.435897
4093.076923,4086.282051,4060,4112.307692,4140.51282,4096.153846,4112.435897,4112.692307,4116.410256,4145.641025,4098.717948,4141.794872,3934.102563,4114.871795
4090.128205,4085.128205,4058.589743,4110,4139.74359,4091.153846,4107.948718,4111.923077,4110.51282,4145.641025,4082.179487,4134.230769,3926.666666,4110.128205
4099.230769,4090.641025,4065.25641,4118.846154,4137.051282,4090.641025,4105.769231,4101.153846,4108.974359,4146.025641,4076.025641,4137.307692,3917.179486,4110.769231
4108.974359,4095.25641,4077.564102,4125.51282,4144.230769,4095.51282,4107.948718,4091.666666,4105.897436,4147.435897,4084.358974,4144.358974,3911.02564,4117.307692
4108.589743,4094.487179,4077.564102,4120.641025,4140.897436,4094.487179,4108.717948,4086.153846,4102.051282,4147.820513,4090.128205,4145,3911.410256,4118.205128
4101.025641,4090.76923,4066.666666,4115.384615,4138.717949,4091.923077,4108.461538,4081.282051,4105.897436,4147.564102,4089.487179,4145.384615,3909.358974,4115.384615
4099.487179,4092.179487,4062.820512,4118.974359,4139.487179,4097.820512,4109.615384,4083.974359,4111.282051,4147.820513,4092.948718,4150.51282,3908.589743,4116.410256
4097.948718,4091.666666,4063.589743,4121.025641,4137.435897,4101.923077,4109.230769,4085.128205,4106.538461,4147.435897,4096.282051,4149.615384,3909.230769,4114.358974
4090.76923,4085.128205,4058.974359,4113.461538,4141.923077,4099.871795,4106.923077,4075.51282,4100.128205,4146.025641,4093.461538,4141.794872,3901.794871,4109.358974
4085.384615,4081.025641,4052.435897,4106.794872,4140.769231,4097.820512,4106.923077,4070.51282,4095.128205,4145.25641,4086.923077,4138.974359,3892.948717,4103.846154
4083.205128,4076.410256,4052.179487,4107.948718,4140.897436,4097.692307,4110.769231,4080.25641,4092.051282,4147.948718,4084.871795,4139.74359,3892.692307,4103.974359
4082.179487,4071.538461,4055.641025,4107.435897,4143.333333,4096.282051,4112.307692,4092.564102,4097.051282,4150.384615,4087.820512,4138.589743,3900.128204,4111.794872
4082.435897,4068.717948,4052.820512,4104.487179,4140.51282,4093.846154,4114.230769,4097.435897,4099.487179,4148.461538,4084.871795,4144.615384,3905.128204,4114.743589
4084.102564,4066.410256,4046.923077,4105.51282,4141.666666,4094.615384,4118.333333,4096.025641,4094.487179,4146.025641,4078.846154,4153.205128,3904.487179,4112.435897
4088.076923,4068.846153,4050.76923,4112.692307,4139.358974,4100.76923,4120.897436,4097.179487,4099.487179,4145.25641,4084.230769,4155.51282,3910.641025,4118.846154
4092.564102,4077.051282,4058.846153,4120.25641,4138.846154,4107.820513,4127.307692,4100.25641,4108.846154,4146.538461,4092.820512,4159.74359,3922.051281,4129.743589
4096.538461,4083.717948,4059.871794,4127.179487,4141.410256,4107.564102,4133.846154,4098.205128,4106.282051,4147.435897,4091.153846,4169.358974,3930.76923,4130.128205
4099.743589,4088.461538,4059.615384,4135,4137.051282,4108.717948,4131.153846,4092.435897,4105.769231,4147.051282,4089.358974,4169.871795,3936.410256,4126.282051
4094.871795,4091.282051,4060.384615,4137.564102,4140.769231,4111.025641,4123.076923,4085.76923,4108.333333,4148.974359,4089.487179,4162.692307,3935.897435,4126.794872
4090.76923,4087.307692,4062.564102,4133.333333,4144.615384,4106.538461,4120.384615,4079.102564,4101.282051,4149.102564,4087.179487,4164.74359,3929.615384,4125.51282
4099.615384,4088.974359,4070.384615,4134.615384,4141.410256,4106.282051,4125.384615,4082.179487,4101.025641,4146.666666,4087.564102,4170.384615,3934.358974,4127.179487
4108.333333,4100.897436,4078.717948,4145.769231,4142.820513,4113.076923,4135.128205,4098.589743,4117.051282,4148.461538,4090.641025,4169.358974,3941.410256,4133.846154
4106.410256,4107.948718,4077.307692,4148.333333,4140.641025,4113.846154,4140.51282,4109.230769,4124.358974,4149.230769,4092.179487,4167.820513,3930.897435,4135.641025
4102.692307,4106.282051,4071.153846,4141.153846,4143.589743,4108.333333,4137.179487,4105.769231,4112.692307,4146.666666,4089.358974,4165.384615,3923.846153,4133.461538
4108.717948,4109.230769,4077.820512,4144.487179,4142.692307,4109.743589,4138.846154,4103.846154,4111.538461,4146.923077,4091.538461,4168.589743,3940.76923,4136.794872
4121.666666,4120.128205,4090.897436,4156.282051,4135.897436,4112.435897,4147.179487,4112.051282,4124.487179,4147.692307,4101.538461,4184.230769,3964.358974,4145.641025
4127.564102,4125.384615,4098.717948,4160.641025,4141.794872,4114.358974,4153.333333,4120.51282,4129.102564,4146.538461,4108.461538,4197.179487,3976.153846,4155.641025
4124.871795,4123.717948,4102.820513,4163.205128,4138.974359,4116.794872,4155.641025,4122.051282,4131.410256,4147.051282,4107.564102,4200.769231,3982.948717,4159.487179
4126.538461,4118.589743,4150.128205,4151.666666,4142.435897,4069.487179,4108.205128,4126.538461,4118.205128,4147.435897,4117.948718,4245.512821,4071.794871,4109.871795
4122.179487,4120.384615,4150.51282,4150.641025,4144.230769,4063.974359,4105.897436,4126.282051,4121.666666,4147.820513,4122.692307,4257.948718,4074.358974,4113.589743
4131.282051,4125.897436,4154.615384,4155.769231,4144.615384,4067.692307,4108.076923,4137.820513,4126.923077,4147.435897,4137.179487,4278.076923,4088.076923,4122.820513
4132.179487,4126.538461,4155.641025,4159.102564,4137.948718,4070.128205,4109.615384,4139.74359,4128.974359,4147.307692,4145.769231,4294.48718,4096.923077,4128.846154
4124.230769,4121.282051,4149.487179,4154.74359,4144.358974,4066.282051,4111.666666,4127.307692,4125.128205,4147.307692,4143.589743,4297.692308,4094.871795,4124.230769
4124.102564,4120.128205,4141.538461,4152.692307,4143.205128,4066.794871,4112.820513,4120.384615,4122.051282,4146.153846,4143.589743,4294.74359,4090.641025,4118.205128
4124.487179,4123.974359,4141.538461,4155.51282,4141.282051,4071.025641,4111.282051,4124.871795,4125.25641,4144.615384,4146.923077,4300.769231,4094.487179,4117.948718
4120,4122.820513,4143.461538,4154.615384,4144.230769,4071.410256,4109.743589,4122.692307,4123.589743,4146.410256,4143.717949,4303.846154,4093.974359,4116.410256
4120.641025,4119.871795,4139.74359,4151.538461,4138.974359,4072.948718,4113.076923,4119.487179,4122.692307,4147.948718,4137.435897,4297.692308,4085.897436,4113.846154
4118.461538,4119.102564,4136.025641,4151.666666,4144.871795,4080.76923,4118.974359,4130.641025,4127.179487,4146.666666,4137.051282,4297.307692,4089.871795,4115.384615
4109.358974,4119.871795,4134.743589,4152.435897,4146.282051,4090,4118.333333,4136.794872,4125.769231,4145.128205,4132.435897,4299.230769,4066.410256,4112.564102
4111.025641,4122.307692,4134.871795,4151.666666,4140.641025,4092.692307,4110.25641,4126.923077,4121.282051,4146.282051,4124.743589,4293.974359,3956.923076,4108.846154
4120.128205,4122.948718,4141.666666,4154.358974,4141.923077,4092.948718,4104.743589,4121.153846,4127.179487,4147.051282,4130.51282,4298.205128,3822.051281,4114.230769
4125,4122.948718,4152.435897,4163.333333,4142.307692,4102.820513,4110,4129.358974,4138.461538,4143.461538,4146.282051,4316.794872,3759.999999,4126.794872
4124.358974,4124.487179,4154.102564,4168.461538,4147.179487,4114.230769,4118.461538,4136.794872,4140.25641,4144.74359,4155.25641,4327.307692,3757.692307,4139.102564
4124.615384,4125.25641,4153.974359,4168.589743,4143.461538,4111.923077,4120.384615,4137.307692,4138.205128,4148.717949,4158.589743,4326.538462,3778.333332,4144.615384
4132.307692,4120.641025,4163.589743,4168.846154,4139.74359,4107.948718,4118.461538,4138.589743,4137.564102,4147.307692,4162.820513,4327.051282,3823.076922,4146.666666
4134.358974,4110.384615,4163.589743,4162.948718,4146.923077,4108.846154,4121.153846,4138.846154,4132.051282,4147.179487,4158.846154,4322.948718,3861.410256,4146.153846
4128.333333,4103.461538,4152.564102,4152.179487,4141.794872,4102.948718,4124.615384,4133.846154,4123.846154,4149.615384,4147.307692,4312.564103,3867.179486,4138.205128
4132.692307,4107.051282,4158.076923,4153.717949,4142.179487,4097.179487,4122.051282,4126.153846,4121.538461,4150.51282,4146.153846,4309.74359,3862.051281,4132.435897
4143.205128,4111.666666,4170.128205,4164.230769,4145.769231,4102.435897,4114.230769,4122.179487,4127.179487,4149.230769,4151.794872,4312.820513,3869.871794,4132.051282
4141.282051,4108.974359,4168.846154,4164.871795,4141.025641,4106.666666,4110.25641,4121.923077,4129.615384,4148.461538,4147.179487,4308.333333,3884.358974,4130
4137.564102,4112.051282,4167.307692,4162.820513,4145.25641,4108.461538,4113.461538,4123.589743,4131.410256,4147.564102,4141.025641,4305.897436,3896.410256,4131.666666
4141.794872,4122.051282,4172.307692,4167.564102,4145.641025,4116.538461,4114.358974,4123.974359,4136.025641,4146.410256,4145.897436,4306.025641,3909.615384,4134.743589
4142.564102,4125.384615,4171.794872,4171.025641,4143.717949,4122.820513,4113.076923,4123.717948,4132.820513,4144.487179,4151.923077,4302.820513,3926.282051,4133.717948
4141.794872,4122.820513,4170.128205,4170.769231,4143.846154,4121.794872,4114.487179,4124.743589,4130.25641,4143.974359,4153.589743,4302.435898,3936.538461,4133.076923
4140.51282,4121.923077,4168.846154,4169.102564,4141.666666,4120.25641,4114.102564,4126.025641,4129.871795,4146.923077,4153.974359,4301.282051,3944.230769,4134.230769
4138.461538,4121.794872,4166.923077,4168.589743,4145.769231,4124.743589,4117.051282,4131.282051,4127.564102,4147.179487,4154.487179,4301.794872,3976.410256,4132.179487
4139.487179,4120.897436,4168.205128,4167.692307,4139.487179,4134.487179,4124.871795,4139.74359,4127.179487,4145.641025,4156.794872,4306.410257,4013.589743,4125.384615
4139.102564,4121.153846,4165,4164.615384,4139.102564,4138.589743,4126.538461,4141.282051,4128.333333,4146.794872,4159.102564,4306.794872,4015.128205,4124.230769
4132.692307,4122.692307,4154.871795,4163.461538,4146.666666,4136.538461,4124.743589,4137.051282,4126.666666,4147.820513,4155.897436,4302.051282,3998.333333,4125.384615
4129.487179,4120.769231,4150.897436,4166.410256,4141.410256,4137.948718,4123.974359,4135.769231,4130.384615,4147.820513,4152.435897,4302.435898,3994.743589,4122.948718
4136.025641,4124.102564,4159.487179,4170.769231,4143.974359,4140.384615,4122.564102,4137.051282,4138.974359,4149.102564,4160.128205,4309.230769,4004.102564,4127.948718
4141.923077,4135.641025,4166.666666,4174.74359,4142.948718,4144.358974,4124.102564,4137.948718,4138.589743,4148.974359,4171.025641,4311.666667,4014.487179,4133.076923
4139.230769,4134.102564,4160.897436,4174.358974,4140.384615,4148.846154,4124.358974,4138.717949,4136.282051,4146.794872,4166.794872,4306.153846,4017.820512,4125.51282
4134.743589,4125.51282,4153.974359,4171.153846,4145.897436,4148.589743,4122.820513,4138.589743,4137.948718,4146.923077,4158.205128,4299.102564,4016.025641,4117.692307
4139.74359,4131.153846,4160.51282,4173.205128,4141.153846,4148.205128,4123.974359,4138.205128,4135.769231,4145.897436,4163.974359,4304.230769,4022.564102,4124.615384
4152.179487,4141.794872,4171.666667,4178.974359,4141.282051,4148.589743,4125.897436,4141.666666,4137.307692,4146.666666,4177.435897,4317.564103,4035,4140.128205
4155.128205,4140.384615,4174.102564,4177.307692,4144.358974,4142.307692,4125.51282,4150.51282,4148.076923,4148.846154,4181.794872,4326.923077,4046.282051,4147.948718
4144.358974,4132.179487,4170.897436,4172.307692,4142.692307,4136.025641,4123.333333,4156.923077,4153.461538,4145.769231,4181.794872,4329.48718,4055.384615,4146.666666
4139.74359,4128.333333,4170.384615,4169.615384,4143.205128,4134.871795,4119.615384,4152.564102,4143.205128,4145.51282,4178.717949,4326.923077,4051.282051,4142.435897
4143.076923,4132.307692,4173.974359,4168.974359,4139.74359,4136.794872,4121.025641,4143.333333,4136.666666,4148.205128,4173.076923,4325,4049.743589,4138.076923
4142.564102,4141.923077,4175.128205,4171.794872,4144.230769,4142.564102,4127.435897,4140.641025,4142.948718,4147.564102,4172.692308,4327.307692,4071.153846,4138.205128
4138.974359,4140.641025,4172.307692,4172.692308,4145.128205,4142.564102,4126.282051,4137.692307,4144.230769,4145.769231,4170.128205,4325.641026,4082.179487,4136.666666
4130.897436,4129.871795,4165.128205,4164.102564,4139.74359,4137.820513,4120.641025,4126.794872,4132.051282,4146.410256,4157.307692,4316.410257,4063.717948,4126.282051
4122.435897,4123.974359,4156.666666,4153.076923,4147.307692,4138.205128,4119.102564,4117.307692,4119.743589,4147.179487,4146.666666,4303.717949,4047.564102,4118.846154
4127.948718,4123.974359,4154.615384,4150.897436,4146.794872,4138.461538,4122.051282,4120.128205,4116.538461,4145.897436,4149.358974,4296.794872,4051.794871,4121.282051
4140.51282,4126.794872,4159.358974,4149.487179,4143.846154,4140,4129.615384,4130.25641,4121.923077,4146.666666,4154.487179,4304.230769,4059.615384,4128.461538
4137.692307,4127.435897,4160.25641,4141.282051,4146.538461,4149.615384,4134.487179,4140,4132.307692,4146.923077,4153.974359,4310.897436,4062.435897,4131.282051
4125.128205,4120.384615,4155.128205,4133.846154,4142.435897,4150.769231,4132.307692,4147.307692,4138.205128,4146.025641,4151.410256,4300.512821,4060.51282,4126.538461
4121.153846,4113.076923,4147.692307,4126.794872,4145.51282,4141.282051,4128.589743,4151.794872,4139.102564,4148.076923,4150.51282,4290,4057.820512,4123.333333
4122.948718,4115.25641,4142.948718,4118.846154,4146.666666,4139.74359,4130,4154.74359,4144.230769,4147.948718,4149.74359,4292.435898,4065.25641,4124.871795
4122.948718,4119.615384,4145,4117.948718,4145.641025,4142.051282,4128.589743,4151.794872,4148.076923,4145,4146.025641,4296.282051,4073.333333,4126.410256
4130.128205,4125.25641,4151.025641,4127.692307,4146.025641,4143.461538,4124.871795,4142.564102,4146.666666,4145.897436,4149.358974,4301.794872,4079.230769,4130
4141.025641,4138.076923,4161.410256,4139.102564,4140.25641,4151.666666,4126.666666,4142.948718,4149.358974,4148.974359,4161.410256,4317.564103,4090.25641,4141.025641
4143.076923,4144.871795,4167.948718,4144.74359,4145.51282,4155.641025,4129.102564,4149.230769,4155.641025,4148.461538,4164.230769,4329.871795,4093.333333,4151.538461
4139.487179,4141.538461,4161.666666,4143.846154,4146.666666,4148.717949,4126.666666,4145.25641,4153.333333,4147.307692,4158.076923,4331.666667,4088.076923,4146.410256
4134.102564,4137.564102,4155.641025,4141.666666,4141.538461,4149.102564,4123.589743,4135.384615,4147.179487,4146.794872,4158.076923,4330.384616,4093.717948,4136.923077
4124.743589,4131.025641,4156.282051,4140.641025,4147.435897,4152.820513,4125.769231,4131.538461,4142.435897,4146.282051,4157.435897,4326.410257,4091.153846,4136.282051
4119.615384,4122.948718,4148.846154,4134.615384,4143.461538,4144.487179,4126.410256,4126.410256,4131.153846,4145.769231,4147.564102,4318.974359,4070.384615,4133.717948
4121.025641,4125.128205,4139.871795,4127.948718,4143.205128,4139.358974,4122.051282,4118.589743,4120.384615,4144.487179,4139.102564,4311.923077,4080.384615,4127.692307
4115.384615,4122.564102,4138.589743,4126.025641,4146.538461,4149.615384,4121.666666,4123.974359,4124.487179,4145.384615,4132.948718,4310.128205,4110.641025,4125.384615
4104.615384,4108.974359,4136.025641,4117.564102,4141.025641,4155.897436,4124.102564,4136.923077,4135.641025,4148.717949,4125,4310.25641,4101.538461,4124.615384
4106.538461,4108.717948,4139.358974,4110.769231,4146.410256,4150.769231,4119.487179,4138.333333,4139.102564,4148.974359,4129.743589,4313.974359,4072.820512,4130
4122.948718,4122.948718,4152.051282,4124.358974,4146.153846,4149.487179,4114.615384,4137.948718,4144.230769,4146.153846,4147.692307,4326.923077,4075.128205,4142.051282
4136.923077,4131.538461,4162.564102,4139.487179,4143.461538,4151.538461,4117.948718,4148.333333,4152.948718,4146.282051,4155.641025,4339.48718,4087.179487,4151.282051
4140.641025,4136.025641,4165.51282,4137.692307,4146.025641,4148.461538,4122.051282,4154.615384,4154.74359,4148.076923,4153.717949,4339.102564,4084.230769,4152.820513
4141.794872,4140.769231,4163.461538,4136.923077,4142.820513,4142.179487,4123.461538,4145.51282,4151.794872,4145.769231,4150.25641,4332.051282,4082.051282,4152.051282
4135.51282,4139.487179,4156.153846,4140.897436,4145.25641,4138.461538,4118.846154,4133.205128,4145,4144.871795,4139.871795,4327.179487,4078.974359,4147.051282
4124.230769,4136.153846,4151.410256,4138.333333,4141.025641,4138.589743,4112.948718,4126.538461,4137.307692,4146.153846,4133.461538,4324.358975,4073.846154,4136.153846
4121.794872,4132.948718,4152.307692,4137.564102,4138.717949,4140,4115,4124.487179,4133.717948,4146.923077,4138.717949,4328.205128,4076.666666,4136.794872
4124.615384,4130.128205,4153.717949,4140.769231,4144.615384,4139.615384,4115.128205,4123.076923,4134.102564,4147.435897,4141.794872,4334.871795,4083.717948,4148.333333
4122.948718,4131.153846,4152.948718,4141.282051,4142.051282,4133.589743,4105.769231,4118.846154,4133.333333,4146.666666,4139.74359,4333.461539,4083.717948,4149.615384
4121.923077,4128.589743,4145.25641,4137.564102,4144.615384,4127.564102,4102.179487,4117.435897,4127.820513,4146.923077,4135.384615,4328.974359,4077.435897,4145.384615
4124.743589,4122.435897,4139.102564,4127.435897,4144.615384,4123.974359,4107.435897,4118.717948,4120.25641,4148.717949,4130,4329.358975,4074.102564,4147.179487
4124.102564,4119.358974,4140.384615,4121.025641,4142.179487,4125.51282,4115,4122.435897,4120.897436,4147.051282,4127.948718,4327.948718,4074.871795,4148.846154
4122.692307,4119.487179,4142.179487,4123.076923,4146.410256,4131.794872,4125,4132.564102,4125.25641,4143.974359,4125.897436,4324.230769,4075.25641,4146.282051
4121.794872,4118.461538,4138.717949,4122.948718,4140.51282,4136.153846,4127.948718,4135.897436,4118.589743,4145.25641,4119.102564,4322.564103,4073.076923,4140.384615
4119.615384,4117.179487,4135.641025,4120.384615,4142.051282,4134.487179,4126.025641,4128.461538,4109.743589,4148.333333,4116.538461,4322.820513,4073.974359,4136.153846
4118.333333,4119.230769,4137.179487,4126.923077,4145.769231,4135.128205,4128.846154,4125.641025,4114.102564,4147.051282,4120.51282,4324.230769,4081.282051,4137.820513
4118.333333,4119.743589,4134.871795,4133.333333,4140.25641,4138.333333,4125.128205,4120.51282,4118.076923,4145.384615,4120.25641,4322.051282,4090.641025,4139.230769
4123.333333,4122.179487,4137.179487,4138.846154,4142.948718,4138.846154,4120,4106.025641,4114.102564,4146.153846,4125.51282,4328.461539,4102.179487,4143.589743
4138.205128,4141.025641,4156.923077,4158.974359,4141.025641,4149.358974,4130.384615,4107.692307,4122.820513,4146.923077,4143.717949,4352.307693,4126.025641,4158.589743
4155.128205,4165,4175.897436,4181.794872,4143.076923,4167.435897,4141.410256,4128.076923,4140.128205,4148.461538,4161.794872,4371.923077,4160.897436,4177.051282
4160.641025,4172.051282,4177.948718,4188.717949,4144.358974,4172.948718,4140.25641,4138.846154,4149.358974,4148.461538,4170,4371.923077,4180.25641,4186.025641
4159.74359,4171.153846,4175.25641,4187.820513,4139.102564,4168.846154,4137.948718,4141.410256,4151.410256,4145.641025,4167.179487,4364.358975,4174.871795,4186.538461
4159.102564,4173.205128,4174.358974,4188.846154,4147.435897,4168.205128,4138.333333,4149.102564,4149.871795,4144.871795,4159.230769,4356.538462,4170.51282,4186.538461
