AF3,F7,F3,FC5,T7,P7,O1,O2,P8,T8,FC6,F4,F8,AF4,Label
4125.64102537, 4125.25640998, 4125.89743562, 4121.79487152, 4125.38461511, 4078.33333299, 4056.92307651, 4063.97435856, 4106.66666639, 4128.46153819, 4138.58974339, 4128.33333306, 4133.71794844, 4196.28205115,8.57
4118.97435870, 4124.99999973, 4119.10256383, 4118.71794844, 4125.38461511, 4078.07692273, 4056.15384574, 4053.97435856, 4096.66666632, 4128.84615357, 4134.61538434, 4118.97435870, 4131.41025614, 4191.02564089,8.57
4123.20512793, 4124.74358947, 4120.51282024, 4121.92307665, 4124.87179460, 4081.53846119, 4064.10256369, 4066.41025600, 4112.43589716, 4126.41025614, 4134.35897408, 4123.71794844, 4131.28205101, 4194.99999986,8.57
4122.69230742, 4122.82051255, 4120.64102537, 4123.46153819, 4124.23076896, 4084.23076889, 4069.99999966, 4088.33333299, 4132.17948691, 4126.92307665, 4135.89743569, 4126.66666639, 4130.64102537, 4196.15384602,8.57
4119.99999973, 4122.94871767, 4117.56410229, 4120.25640998, 4124.23076896, 4080.89743555, 4064.61538420, 4082.94871761, 4119.61538434, 4127.94871767, 4136.15384595, 4117.94871767, 4127.82051255, 4194.74358961,8.57
4124.99999973, 4127.17948691, 4122.82051255, 4121.53846126, 4123.46153819, 4080.25640991, 4061.92307651, 4079.35897402, 4114.35897408, 4126.79487152, 4136.79487159, 4121.66666639, 4129.87179460, 4194.61538448,8.57
4115.12820485, 4121.15384588, 4119.23076896, 4117.82051255, 4121.92307665, 4086.53846119, 4072.56410222, 4092.43589709, 4134.74358947, 4126.28205101, 4136.92307672, 4117.69230742, 4129.48717921, 4191.92307679,8.57
4117.56410229, 4119.61538434, 4121.79487152, 4121.53846126, 4124.10256383, 4081.53846119, 4072.94871761, 4090.64102530, 4141.28205108, 4127.17948691, 4140.25641005, 4120.64102537, 4131.53846126, 4194.61538448,8.57
4122.69230742, 4122.05128178, 4123.58974332, 4125.89743562, 4123.20512793, 4072.69230735, 4059.48717907, 4080.12820478, 4132.43589716, 4126.53846126, 4140.64102544, 4121.79487152, 4129.74358947, 4191.66666653,8.57
4119.35897408, 4121.28205101, 4118.20512793, 4121.15384588, 4123.33333306, 4078.84615350, 4061.28205087, 4083.84615350, 4139.10256390, 4127.30769203, 4138.97435877, 4114.23076896, 4123.46153819, 4186.79487166,8.57
4124.99999973, 4123.58974332, 4125.25640998, 4125.51282024, 4128.20512793, 4087.30769196, 4073.33333299, 4088.58974325, 4144.35897415, 4128.71794844, 4143.71794851, 4123.46153819, 4127.56410229, 4192.82051269,8.57
4119.99999973, 4120.38461511, 4126.28205101, 4125.12820485, 4126.02564075, 4088.97435863, 4075.12820478, 4084.48717914, 4133.84615357, 4126.66666639, 4143.07692287, 4120.25640998, 4128.84615357, 4193.07692294,8.57
4121.53846126, 4121.66666639, 4126.15384588, 4123.71794844, 4122.56410229, 4095.12820478, 4077.56410222, 4087.94871761, 4134.48717921, 4126.92307665, 4140.12820492, 4118.46153819, 4128.20512793, 4191.41025628,8.57
4126.92307665, 4126.15384588, 4124.35897408, 4126.66666639, 4124.61538434, 4101.28205094, 4088.97435863, 4105.12820485, 4149.87179467, 4130.64102537, 4138.97435877, 4124.99999973, 4129.10256383, 4191.02564089,8.57
4121.02564075, 4123.07692280, 4121.28205101, 4122.05128178, 4126.15384588, 4101.66666632, 4096.79487145, 4118.84615357, 4159.48717928, 4128.97435870, 4137.82051262, 4120.76923050, 4126.41025614, 4192.30769217,8.57
4126.02564075, 4125.12820485, 4129.10256383, 4122.05128178, 4126.53846126, 4105.12820485, 4099.74358940, 4121.28205101, 4162.30769210, 4124.99999973, 4144.23076903, 4127.17948691, 4131.41025614, 4196.53846140,8.57
4127.05128178, 4124.35897408, 4122.69230742, 4121.79487152, 4123.97435870, 4105.89743562, 4100.12820478, 4112.82051255, 4157.94871774, 4124.74358947, 4148.20512800, 4124.87179460, 4132.17948691, 4194.35897422,8.57
4126.79487152, 4123.97435870, 4123.97435870, 4122.17948691, 4123.58974332, 4094.99999966, 4091.41025607, 4096.66666632, 4141.15384595, 4127.94871767, 4145.76923056, 4122.56410229, 4131.28205101, 4195.51282038,8.57
4127.43589716, 4125.25640998, 4131.53846126, 4124.61538434, 4126.79487152, 4085.76923043, 4079.10256376, 4085.76923043, 4127.69230742, 4130.76923050, 4142.43589723, 4126.79487152, 4133.97435870, 4194.35897422,8.57
4124.99999973, 4121.41025614, 4123.84615357, 4122.30769203, 4123.33333306, 4084.99999966, 4074.10256376, 4079.48717914, 4123.71794844, 4127.43589716, 4139.87179467, 4120.64102537, 4131.66666639, 4191.66666653,8.57
4131.28205101, 4125.89743562, 4126.92307665, 4125.76923050, 4121.41025614, 4088.07692273, 4075.51282017, 4075.12820478, 4120.25640998, 4127.43589716, 4144.74358954, 4127.56410229, 4132.17948691, 4196.53846140,8.57
4124.35897408, 4126.41025614, 4122.94871767, 4124.10256383, 4122.17948691, 4090.76923043, 4075.25640991, 4078.20512786, 4120.12820485, 4131.02564075, 4145.12820492, 4124.61538434, 4130.64102537, 4196.15384602,8.57
4120.12820485, 4124.99999973, 4119.61538434, 4120.38461511, 4121.79487152, 4089.48717914, 4074.99999966, 4082.69230735, 4125.76923050, 4127.17948691, 4141.79487159, 4119.23076896, 4130.51282024, 4196.41025628,8.57
4127.05128178, 4126.92307665, 4127.17948691, 4123.33333306, 4124.48717921, 4090.51282017, 4080.38461504, 4089.61538427, 4142.30769210, 4125.64102537, 4143.84615364, 4128.84615357, 4132.56410229, 4197.94871781,8.57
4120.12820485, 4121.53846126, 4120.64102537, 4119.74358947, 4126.28205101, 4099.99999966, 4090.64102530, 4106.28205101, 4162.30769210, 4128.33333306, 4144.48717928, 4122.17948691, 4128.71794844, 4196.53846140,8.57
4120.25640998, 4125.25640998, 4119.23076896, 4121.66666639, 4125.25640998, 4104.10256383, 4094.61538427, 4113.84615357, 4162.05128185, 4126.41025614, 4147.05128185, 4124.23076896, 4130.76923050, 4198.33333320,8.57
4121.15384588, 4127.56410229, 4121.15384588, 4124.99999973, 4121.92307665, 4097.30769196, 4088.97435863, 4101.28205094, 4147.82051262, 4124.10256383, 4145.51282031, 4126.53846126, 4131.92307665, 4194.87179474,8.57
4119.87179460, 4121.02564075, 4121.41025614, 4122.17948691, 4121.41025614, 4094.74358940, 4083.97435863, 4089.61538427, 4139.61538441, 4126.02564075, 4138.97435877, 4119.99999973, 4129.23076896, 4194.61538448,8.57
4123.97435870, 4121.66666639, 4123.84615357, 4121.79487152, 4123.58974332, 4095.51282017, 4081.79487145, 4087.82051248, 4135.38461518, 4126.79487152, 4141.53846133, 4121.15384588, 4129.35897408, 4197.94871781,8.57
4118.84615357, 4119.48717921, 4117.05128178, 4118.20512793, 4122.69230742, 4094.48717914, 4077.69230735, 4081.92307658, 4124.87179460, 4126.15384588, 4141.53846133, 4113.71794844, 4126.41025614, 4194.48717935,8.57
4124.10256383, 4120.25640998, 4121.41025614, 4121.92307665, 4123.58974332, 4089.87179453, 4069.74358940, 4067.69230728, 4110.76923050, 4126.92307665, 4137.43589723, 4116.79487152, 4128.84615357, 4194.35897422,8.57
4125.76923050, 4123.71794844, 4125.76923050, 4124.61538434, 4124.23076896, 4080.89743555, 4064.35897395, 4058.20512779, 4102.05128171, 4125.76923050, 4137.43589723, 4118.07692280, 4131.41025614, 4192.82051269,8.57
4117.94871767, 4119.48717921, 4119.87179460, 4120.64102537, 4122.30769203, 4082.69230735, 4069.48717907, 4063.71794830, 4103.07692280, 4126.02564075, 4139.23076903, 4111.41025614, 4125.89743562, 4189.87179474,8.57
4124.10256383, 4119.10256383, 4125.38461511, 4124.87179460, 4123.58974332, 4098.33333299, 4082.30769196, 4074.99999966, 4109.61538434, 4128.71794844, 4143.20512800, 4121.15384588, 4127.17948691, 4191.02564089,8.57
4120.89743562, 4120.89743562, 4124.35897408, 4123.97435870, 4126.02564075, 4110.51282024, 4094.99999966, 4087.82051248, 4124.61538434, 4128.20512793, 4142.43589723, 4119.10256383, 4127.43589716, 4189.35897422,8.57
4120.51282024, 4123.97435870, 4124.87179460, 4121.15384588, 4126.02564075, 4112.82051255, 4105.89743562, 4108.07692280, 4146.28205108, 4128.97435870, 4143.84615364, 4118.58974332, 4128.58974332, 4192.69230756,8.57
4123.58974332, 4124.74358947, 4128.97435870, 4124.74358947, 4124.23076896, 4113.97435870, 4107.17948691, 4117.30769203, 4153.46153826, 4130.76923050, 4147.05128185, 4122.82051255, 4128.46153819, 4193.20512807,8.57
4122.30769203, 4123.20512793, 4124.87179460, 4124.23076896, 4124.10256383, 4110.64102537, 4101.15384581, 4108.20512793, 4147.69230749, 4127.05128178, 4141.79487159, 4116.79487152, 4122.05128178, 4193.20512807,8.57
4130.38461511, 4125.51282024, 4128.07692280, 4124.74358947, 4123.71794844, 4101.66666632, 4096.28205094, 4102.30769196, 4151.02564082, 4126.53846126, 4142.56410236, 4124.35897408, 4128.20512793, 4198.33333320,8.57
4124.87179460, 4121.28205101, 4123.20512793, 4123.20512793, 4120.89743562, 4093.46153812, 4088.58974325, 4103.20512793, 4161.15384595, 4130.64102537, 4146.79487159, 4122.43589716, 4131.28205101, 4193.58974345,8.57
4123.84615357, 4121.79487152, 4125.64102537, 4124.87179460, 4121.92307665, 4085.64102530, 4077.82051248, 4096.41025607, 4155.89743569, 4128.33333306, 4146.66666646, 4120.76923050, 4127.82051255, 4193.58974345,8.57
4129.61538434, 4125.25640998, 4130.64102537, 4126.41025614, 4123.71794844, 4083.46153812, 4076.41025607, 4091.02564068, 4145.51282031, 4124.35897408, 4143.84615364, 4127.43589716, 4129.99999973, 4198.07692294,8.57
4122.94871767, 4121.15384588, 4119.87179460, 4121.41025614, 4122.56410229, 4088.20512786, 4082.82051248, 4097.56410222, 4151.28205108, 4126.41025614, 4141.41025621, 4120.38461511, 4127.69230742, 4197.56410243,8.57
4127.82051255, 4127.30769203, 4126.28205101, 4126.92307665, 4124.61538434, 4090.89743555, 4084.61538427, 4103.71794844, 4157.43589723, 4127.69230742, 4145.12820492, 4129.35897408, 4129.35897408, 4199.74358961,8.57
4126.92307665, 4128.46153819, 4128.07692280, 4124.87179460, 4125.12820485, 4094.35897402, 4089.99999966, 4102.82051255, 4146.53846133, 4126.66666639, 4145.51282031, 4130.64102537, 4131.02564075, 4196.41025628,8.57
4121.66666639, 4121.53846126, 4122.17948691, 4119.10256383, 4125.64102537, 4099.87179453, 4099.74358940, 4102.17948684, 4138.84615364, 4126.92307665, 4142.69230749, 4122.17948691, 4129.35897408, 4195.38461525,8.57
4124.87179460, 4124.23076896, 4124.61538434, 4126.02564075, 4127.43589716, 4103.84615357, 4104.74358947, 4108.07692280, 4142.94871774, 4126.02564075, 4142.30769210, 4128.20512793, 4130.38461511, 4196.53846140,8.57
4121.92307665, 4123.71794844, 4121.02564075, 4124.35897408, 4124.99999973, 4110.25640998, 4112.82051255, 4113.20512793, 4146.41025621, 4125.51282024, 4143.97435877, 4123.46153819, 4128.71794844, 4194.10256397,8.57
4125.64102537, 4122.30769203, 4122.69230742, 4121.53846126, 4125.89743562, 4118.33333306, 4121.15384588, 4116.15384588, 4151.53846133, 4126.66666639, 4148.71794851, 4127.05128178, 4130.51282024, 4196.28205115,8.57
4123.07692280, 4121.79487152, 4121.02564075, 4122.05128178, 4126.41025614, 4117.94871767, 4120.76923050, 4122.05128178, 4158.46153826, 4127.43589716, 4145.25641005, 4126.66666639, 4131.15384588, 4197.69230756,8.57
4118.84615357, 4121.15384588, 4118.20512793, 4122.82051255, 4121.53846126, 4115.51282024, 4116.92307665, 4125.64102537, 4158.97435877, 4128.33333306, 4140.51282031, 4118.84615357, 4129.87179460, 4197.82051269,8.57
4123.97435870, 4121.41025614, 4121.92307665, 4125.38461511, 4121.79487152, 4113.33333306, 4116.53846126, 4126.41025614, 4165.12820492, 4127.43589716, 4144.61538441, 4124.99999973, 4131.02564075, 4195.76923063,8.57
4119.61538434, 4119.35897408, 4118.84615357, 4122.56410229, 4125.25640998, 4109.87179460, 4115.51282024, 4129.35897408, 4176.41025628, 4127.05128178, 4144.10256390, 4120.89743562, 4126.53846126, 4194.61538448,8.57
4124.61538434, 4124.87179460, 4124.74358947, 4123.20512793, 4126.02564075, 4110.51282024, 4114.48717921, 4128.84615357, 4173.20512807, 4130.12820485, 4144.35897415, 4120.12820485, 4127.30769203, 4196.92307679,8.57
4124.61538434, 4125.38461511, 4125.51282024, 4123.84615357, 4123.20512793, 4113.46153819, 4117.17948691, 4126.79487152, 4170.12820499, 4130.25640998, 4145.12820492, 4119.61538434, 4129.74358947, 4190.25641012,8.57
4117.94871767, 4120.38461511, 4119.35897408, 4121.28205101, 4122.56410229, 4113.84615357, 4120.25640998, 4134.48717921, 4177.17948704, 4127.43589716, 4142.30769210, 4115.12820485, 4127.56410229, 4189.48717935,8.57
4125.25640998, 4125.64102537, 4127.69230742, 4125.25640998, 4125.64102537, 4111.41025614, 4117.94871767, 4134.48717921, 4168.46153833, 4129.10256383, 4145.12820492, 4123.97435870, 4129.99999973, 4194.35897422,8.57
4118.71794844, 4125.64102537, 4124.48717921, 4122.82051255, 4123.58974332, 4109.61538434, 4116.15384588, 4124.23076896, 4156.15384595, 4129.99999973, 4145.51282031, 4116.02564075, 4128.20512793, 4188.84615371,8.57
4117.17948691, 4125.89743562, 4122.94871767, 4123.71794844, 4122.30769203, 4111.79487152, 4119.61538434, 4120.38461511, 4158.07692287, 4126.66666639, 4144.87179467, 4113.84615357, 4128.07692280, 4191.92307679,8.57
4125.12820485, 4127.69230742, 4127.17948691, 4127.56410229, 4125.12820485, 4115.12820485, 4118.20512793, 4117.56410229, 4154.61538441, 4126.53846126, 4146.66666646, 4123.33333306, 4129.23076896, 4195.89743576,8.57
4124.10256383, 4123.07692280, 4123.33333306, 4121.66666639, 4124.61538434, 4118.46153819, 4116.41025614, 4117.30769203, 4151.53846133, 4128.20512793, 4144.74358954, 4117.82051255, 4124.87179460, 4193.33333320,8.57
4128.84615357, 4125.38461511, 4128.46153819, 4122.69230742, 4124.87179460, 4118.20512793, 4118.46153819, 4115.64102537, 4154.35897415, 4128.46153819, 4145.12820492, 4121.66666639, 4131.02564075, 4194.23076910,8.57
4125.51282024, 4120.76923050, 4124.87179460, 4122.43589716, 4125.76923050, 4111.53846126, 4115.12820485, 4108.33333306, 4148.46153826, 4127.05128178, 4143.58974339, 4120.64102537, 4131.15384588, 4193.07692294,8.57
4123.07692280, 4117.94871767, 4124.23076896, 4123.20512793, 4124.61538434, 4108.71794844, 4111.66666639, 4109.35897408, 4148.71794851, 4127.43589716, 4142.05128185, 4119.23076896, 4126.66666639, 4194.61538448,8.57
4125.51282024, 4126.28205101, 4130.89743562, 4127.05128178, 4123.33333306, 4115.25640998, 4115.25640998, 4117.43589716, 4159.48717928, 4130.64102537, 4147.17948697, 4124.23076896, 4131.53846126, 4193.46153833,8.57
4122.05128178, 4124.35897408, 4122.43589716, 4121.02564075, 4121.53846126, 4116.02564075, 4114.74358947, 4115.89743562, 4158.58974339, 4130.12820485, 4148.58974339, 4118.84615357, 4130.51282024, 4191.53846140,8.57
4128.97435870, 4124.48717921, 4122.17948691, 4123.33333306, 4122.05128178, 4112.30769203, 4111.02564075, 4109.99999973, 4152.69230749, 4126.79487152, 4146.92307672, 4127.82051255, 4131.79487152, 4197.30769217,8.57
4123.58974332, 4126.92307665, 4121.79487152, 4125.51282024, 4121.28205101, 4116.79487152, 4114.23076896, 4113.46153819, 4157.56410236, 4124.48717921, 4144.23076903, 4126.02564075, 4132.43589716, 4197.17948704,8.57
4117.69230742, 4125.25640998, 4121.02564075, 4122.82051255, 4119.99999973, 4119.48717921, 4116.02564075, 4112.30769203, 4152.56410236, 4127.05128178, 4144.99999980, 4119.35897408, 4129.99999973, 4198.33333320,8.57
4127.43589716, 4126.41025614, 4126.28205101, 4124.87179460, 4122.30769203, 4119.48717921, 4114.74358947, 4111.15384588, 4146.28205108, 4131.28205101, 4148.20512800, 4128.20512793, 4130.89743562, 4200.51282038,8.57
4123.71794844, 4123.46153819, 4121.79487152, 4121.02564075, 4121.28205101, 4124.35897408, 4118.33333306, 4121.02564075, 4159.87179467, 4128.20512793, 4144.87179467, 4120.76923050, 4130.51282024, 4198.71794858,8.57
4123.97435870, 4123.84615357, 4123.71794844, 4120.89743562, 4122.05128178, 4123.58974332, 4118.58974332, 4121.28205101, 4162.30769210, 4125.76923050, 4144.87179467, 4123.97435870, 4133.20512793, 4201.66666660,8.57
4125.64102537, 4123.33333306, 4123.46153819, 4123.71794844, 4125.89743562, 4119.35897408, 4117.94871767, 4114.87179460, 4151.66666646, 4129.23076896, 4145.51282031, 4128.33333306, 4132.30769203, 4199.10256397,8.57
4121.53846126, 4119.99999973, 4120.38461511, 4121.53846126, 4125.76923050, 4126.15384588, 4129.99999973, 4124.35897408, 4157.69230749, 4129.48717921, 4143.58974339, 4120.89743562, 4130.12820485, 4195.38461525,8.57
4126.02564075, 4126.02564075, 4127.56410229, 4122.82051255, 4123.33333306, 4136.92307672, 4143.58974339, 4138.33333313, 4166.92307672, 4127.56410229, 4145.51282031, 4125.12820485, 4133.07692280, 4198.58974345,8.57
4118.97435870, 4123.84615357, 4120.25640998, 4119.48717921, 4120.89743562, 4132.69230742, 4139.61538441, 4133.71794844, 4160.64102544, 4127.43589716, 4143.20512800, 4118.97435870, 4130.25640998, 4198.58974345,8.57
4118.97435870, 4118.84615357, 4119.10256383, 4120.51282024, 4123.33333306, 4124.74358947, 4136.02564082, 4128.97435870, 4162.05128185, 4128.97435870, 4145.25641005, 4118.97435870, 4129.87179460, 4196.66666653,8.57
4124.61538434, 4122.82051255, 4125.76923050, 4125.12820485, 4124.87179460, 4134.23076896, 4147.17948697, 4144.61538441, 4179.99999986, 4129.23076896, 4149.48717928, 4122.82051255, 4131.66666639, 4191.02564089,8.57
4115.89743562, 4119.23076896, 4117.94871767, 4119.61538434, 4123.20512793, 4142.05128185, 4150.38461518, 4157.05128185, 4189.99999986, 4128.07692280, 4143.33333313, 4113.97435870, 4128.71794844, 4189.61538448,8.57
4120.64102537, 4120.38461511, 4124.23076896, 4124.99999973, 4125.25640998, 4132.82051255, 4136.66666646, 4144.23076903, 4178.97435884, 4128.84615357, 4139.23076903, 4118.46153819, 4130.51282024, 4192.43589730,8.57
4121.41025614, 4124.61538434, 4126.02564075, 4126.53846126, 4125.12820485, 4135.38461518, 4137.94871774, 4136.41025621, 4171.92307679, 4130.64102537, 4139.99999980, 4115.76923050, 4127.43589716, 4187.69230756,8.57
4121.15384588, 4125.64102537, 4122.56410229, 4118.71794844, 4123.33333306, 4151.92307672, 4159.48717928, 4156.53846133, 4186.66666653, 4129.87179460, 4143.46153826, 4115.25640998, 4125.64102537, 4191.41025628,8.57
4130.12820485, 4127.30769203, 4130.12820485, 4122.94871767, 4124.61538434, 4152.82051262, 4165.12820492, 4165.25641005, 4194.74358961, 4127.43589716, 4144.74358954, 4122.56410229, 4130.89743562, 4192.94871781,8.57
4121.28205101, 4121.41025614, 4124.87179460, 4121.66666639, 4125.25640998, 4146.53846133, 4154.99999980, 4148.84615364, 4183.20512807, 4126.53846126, 4139.10256390, 4115.38461511, 4130.25640998, 4188.46153833,8.57
4124.74358947, 4125.89743562, 4126.66666639, 4124.10256383, 4125.38461511, 4148.33333313, 4153.46153826, 4144.99999980, 4180.64102551, 4128.07692280, 4143.07692287, 4120.76923050, 4131.92307665, 4196.53846140,8.57
4125.76923050, 4128.71794844, 4124.23076896, 4125.64102537, 4123.33333306, 4151.28205108, 4160.64102544, 4157.82051262, 4191.41025628, 4128.20512793, 4148.20512800, 4119.99999973, 4129.61538434, 4196.66666653,8.57
4117.56410229, 4120.38461511, 4119.74358947, 4120.25640998, 4122.69230742, 4154.23076903, 4164.23076903, 4162.82051262, 4194.87179474, 4125.51282024, 4145.51282031, 4116.02564075, 4127.30769203, 4193.84615371,8.57
4128.84615357, 4128.20512793, 4130.38461511, 4127.94871767, 4126.66666639, 4154.10256390, 4162.82051262, 4161.02564082, 4193.97435884, 4124.35897408, 4146.02564082, 4127.43589716, 4131.41025614, 4195.12820499,8.57
4121.92307665, 4126.92307665, 4122.69230742, 4123.71794844, 4125.12820485, 4151.66666646, 4165.51282031, 4167.17948697, 4203.07692301, 4127.69230742, 4144.99999980, 4123.20512793, 4131.41025614, 4194.74358961,8.57
4121.79487152, 4121.92307665, 4127.30769203, 4119.87179460, 4123.71794844, 4156.92307672, 4170.51282038, 4173.97435884, 4205.51282045, 4129.87179460, 4144.10256390, 4126.53846126, 4133.71794844, 4200.76923063,8.57
4129.87179460, 4125.25640998, 4135.12820485, 4126.28205101, 4124.87179460, 4164.23076903, 4171.15384602, 4169.48717935, 4192.43589730, 4128.84615357, 4144.23076903, 4127.05128178, 4130.12820485, 4197.43589730,8.57
4119.48717921, 4121.92307665, 4121.53846126, 4120.38461511, 4123.33333306, 4165.12820492, 4171.28205115, 4168.58974345, 4194.74358961, 4128.20512793, 4145.12820492, 4120.64102537, 4127.94871767, 4193.97435884,8.57
4128.20512793, 4127.69230742, 4127.56410229, 4124.35897408, 4123.58974332, 4167.82051262, 4175.25641012, 4177.69230756, 4212.94871788, 4128.07692280, 4144.87179467, 4131.66666639, 4132.82051255, 4199.10256397,8.57
4126.41025614, 4126.02564075, 4125.12820485, 4125.25640998, 4123.20512793, 4175.25641012, 4177.69230756, 4179.10256397, 4214.48717942, 4127.43589716, 4141.92307672, 4123.71794844, 4130.25640998, 4197.43589730,8.57
4124.87179460, 4123.58974332, 4119.48717921, 4120.76923050, 4122.94871767, 4181.02564089, 4184.87179474, 4183.20512807, 4214.35897429, 4126.66666639, 4145.89743569, 4121.02564075, 4132.05128178, 4198.20512807,8.57
4133.84615357, 4132.69230742, 4126.41025614, 4126.02564075, 4121.92307665, 4186.28205115, 4198.20512807, 4198.71794858, 4230.25641019, 4125.89743562, 4145.64102544, 4126.53846126, 4135.12820485, 4197.94871781,8.57
4118.46153819, 4124.23076896, 4117.56410229, 4118.97435870, 4121.02564075, 4188.33333320, 4199.87179474, 4200.12820499, 4229.35897429, 4127.30769203, 4143.71794851, 4117.69230742, 4132.17948691, 4196.28205115,8.57
4123.84615357, 4125.64102537, 4122.43589716, 4118.71794844, 4123.97435870, 4179.61538448, 4190.64102551, 4184.35897422, 4208.97435891, 4128.33333306, 4147.05128185, 4127.56410229, 4132.17948691, 4198.20512807,8.57
4125.25640998, 4127.17948691, 4120.38461511, 4120.64102537, 4123.58974332, 4179.35897422, 4188.58974345, 4179.74358961, 4205.25641019, 4128.07692280, 4143.84615364, 4126.02564075, 4130.25640998, 4194.61538448,8.57
4117.69230742, 4120.38461511, 4114.99999973, 4118.84615357, 4121.53846126, 4192.82051269, 4193.33333320, 4186.79487166, 4219.61538455, 4130.38461511, 4143.84615364, 4118.84615357, 4131.79487152, 4195.25641012,8.57
4129.61538434, 4128.33333306, 4127.43589716, 4128.58974332, 4124.74358947, 4192.94871781, 4194.61538448, 4192.56410243, 4232.56410250, 4129.99999973, 4146.92307672, 4123.07692280, 4131.79487152, 4195.76923063,8.57
4120.38461511, 4122.43589716, 4118.46153819, 4122.94871767, 4125.12820485, 4183.07692294, 4191.79487166, 4191.15384602, 4226.15384609, 4126.92307665, 4142.05128185, 4113.20512793, 4125.51282024, 4193.07692294,8.57
4121.92307665, 4122.05128178, 4123.84615357, 4122.43589716, 4123.84615357, 4183.46153833, 4187.69230756, 4182.30769217, 4206.28205122, 4128.71794844, 4142.82051262, 4119.23076896, 4129.87179460, 4194.48717935,8.57
4123.33333306, 4126.92307665, 4125.89743562, 4126.02564075, 4124.48717921, 4188.46153833, 4187.30769217, 4182.43589730, 4203.07692301, 4128.84615357, 4145.25641005, 4118.58974332, 4131.53846126, 4189.61538448,8.57
4116.15384588, 4119.23076896, 4116.79487152, 4119.99999973, 4122.69230742, 4189.23076910, 4191.15384602, 4193.33333320, 4210.89743583, 4126.53846126, 4143.97435877, 4111.53846126, 4129.23076896, 4190.76923063,8.57
4129.10256383, 4125.89743562, 4129.99999973, 4130.38461511, 4122.82051255, 4189.61538448, 4192.69230756, 4194.61538448, 4207.30769224, 4128.58974332, 4143.58974339, 4119.61538434, 4131.53846126, 4193.84615371,8.57
4118.97435870, 4124.61538434, 4123.07692280, 4125.25640998, 4123.20512793, 4198.46153833, 4196.53846140, 4192.82051269, 4212.56410250, 4128.58974332, 4139.99999980, 4112.69230742, 4126.53846126, 4189.10256397,8.57
4122.56410229, 4124.35897408, 4124.35897408, 4121.41025614, 4126.15384588, 4202.05128199, 4199.35897422, 4192.56410243, 4220.25641019, 4124.48717921, 4140.51282031, 4116.53846126, 4128.84615357, 4190.38461525,8.57
4129.99999973, 4129.35897408, 4128.97435870, 4127.30769203, 4127.05128178, 4198.33333320, 4202.43589737, 4196.02564089, 4222.30769224, 4126.28205101, 4143.58974339, 4118.46153819, 4132.43589716, 4190.51282038,8.57
4115.25640998, 4120.12820485, 4120.76923050, 4119.87179460, 4122.56410229, 4206.02564096, 4214.10256404, 4210.89743583, 4233.97435898, 4130.12820485, 4144.61538441, 4112.69230742, 4131.66666639, 4194.61538448,8.57
4126.28205101, 4124.74358947, 4130.51282024, 4125.64102537, 4123.07692280, 4216.92307686, 4225.38461532, 4226.02564096, 4243.71794872, 4128.07692280, 4145.89743569, 4124.10256383, 4131.79487152, 4197.82051269,8.57
4125.38461511, 4125.76923050, 4124.10256383, 4125.25640998, 4124.23076896, 4222.17948711, 4233.71794865, 4239.23076923, 4256.92307693, 4125.51282024, 4144.61538441, 4121.41025614, 4128.33333306, 4190.89743576,8.57
4125.38461511, 4125.38461511, 4127.30769203, 4122.56410229, 4124.99999973, 4227.69230763, 4240.64102564, 4245.12820513, 4267.05128212, 4127.56410229, 4147.43589723, 4124.61538434, 4134.35897408, 4193.07692294,8.57
4132.56410229, 4129.87179460, 4134.99999973, 4125.12820485, 4126.66666639, 4228.97435891, 4241.41025641, 4240.00000000, 4253.46153847, 4128.97435870, 4147.94871774, 4125.12820485, 4137.56410236, 4194.74358961,8.57
4122.43589716, 4120.76923050, 4120.25640998, 4118.84615357, 4124.48717921, 4223.84615378, 4239.74358975, 4237.43589744, 4241.15384616, 4125.89743562, 4144.23076903, 4116.02564075, 4130.38461511, 4192.82051269,8.57
4128.33333306, 4122.69230742, 4124.35897408, 4125.25640998, 4123.20512793, 4220.89743583, 4238.84615385, 4233.58974352, 4243.07692308, 4124.99999973, 4146.41025621, 4126.79487152, 4132.05128178, 4197.17948704,8.57
4121.92307665, 4121.79487152, 4122.43589716, 4124.74358947, 4123.84615357, 4227.56410250, 4243.33333334, 4230.25641019, 4244.61538462, 4125.89743562, 4144.74358954, 4122.69230742, 4132.69230742, 4198.33333320,8.57
4118.58974332, 4120.12820485, 4118.97435870, 4122.30769203, 4124.99999973, 4236.66666667, 4250.51282052, 4235.25641026, 4246.53846154, 4124.74358947, 4144.35897415, 4123.07692280, 4131.92307665, 4198.97435884,8.57
4124.99999973, 4126.53846126, 4122.94871767, 4126.53846126, 4123.97435870, 4239.35897436, 4249.35897436, 4237.94871795, 4248.97435898, 4125.76923050, 4146.79487159, 4126.53846126, 4131.02564075, 4196.02564089,8.57
4117.82051255, 4121.66666639, 4117.43589716, 4119.99999973, 4121.79487152, 4239.48717949, 4245.76923077, 4237.43589744, 4247.94871795, 4129.74358947, 4143.46153826, 4116.15384588, 4128.97435870, 4197.94871781,8.57
4125.12820485, 4122.82051255, 4124.23076896, 4120.12820485, 4123.58974332, 4233.97435898, 4236.66666667, 4226.28205122, 4235.76923077, 4131.28205101, 4141.02564082, 4122.17948691, 4130.89743562, 4199.99999986,8.57
4120.89743562, 4123.33333306, 4118.97435870, 4117.17948691, 4123.46153819, 4225.89743583, 4223.71794865, 4205.64102558, 4217.43589737, 4128.33333306, 4139.61538441, 4118.46153819, 4129.48717921, 4191.79487166,8.57
4119.99999973, 4123.84615357, 4114.87179460, 4118.33333306, 4123.20512793, 4237.94871795, 4238.33333334, 4225.12820506, 4244.87179488, 4127.43589716, 4143.97435877, 4119.87179460, 4132.94871767, 4195.12820499,8.57
4128.33333306, 4127.05128178, 4119.61538434, 4128.84615357, 4125.38461511, 4259.23076923, 4268.20512828, 4271.79487187, 4299.23076930, 4128.97435870, 4150.89743569, 4126.02564075, 4134.99999973, 4196.41025628,8.57
4117.94871767, 4119.74358947, 4114.35897408, 4120.89743562, 4124.35897408, 4261.15384616, 4270.89743597, 4277.56410264, 4305.00000014, 4127.56410229, 4152.56410236, 4113.97435870, 4130.51282024, 4191.41025628,8.57
4119.35897408, 4124.87179460, 4122.69230742, 4120.12820485, 4123.97435870, 4255.64102564, 4262.56410257, 4265.00000000, 4285.25641033, 4127.17948691, 4153.71794851, 4116.15384588, 4132.56410229, 4195.64102551,8.57
4118.58974332, 4126.41025614, 4122.30769203, 4125.38461511, 4123.84615357, 4258.07692308, 4272.82051289, 4275.89743597, 4292.30769238, 4128.46153819, 4149.48717928, 4113.07692280, 4129.87179460, 4196.15384602,8.57
4119.48717921, 4120.25640998, 4119.48717921, 4123.84615357, 4123.71794844, 4257.56410257, 4279.35897443, 4283.46153853, 4298.46153853, 4128.07692280, 4149.99999980, 4113.20512793, 4131.28205101, 4193.07692294,8.57
4125.12820485, 4125.38461511, 4124.87179460, 4126.28205101, 4124.35897408, 4258.07692308, 4271.79487187, 4273.33333341, 4287.82051289, 4126.79487152, 4153.84615364, 4121.41025614, 4134.35897408, 4191.28205115,8.57
4118.97435870, 4124.99999973, 4122.30769203, 4123.84615357, 4124.48717921, 4258.20512821, 4263.84615385, 4259.48717949, 4276.02564110, 4127.69230742, 4148.46153826, 4115.64102537, 4128.07692280, 4195.12820499,8.57
4123.20512793, 4124.23076896, 4130.38461511, 4125.38461511, 4124.87179460, 4250.64102564, 4257.82051282, 4249.61538462, 4265.38461539, 4130.64102537, 4147.82051262, 4121.53846126, 4130.89743562, 4198.84615371,8.57
4121.41025614, 4122.56410229, 4123.46153819, 4121.66666639, 4124.61538434, 4249.61538462, 4258.58974359, 4251.15384616, 4265.00000000, 4129.87179460, 4150.51282031, 4118.46153819, 4133.71794844, 4190.51282038,8.57
4123.20512793, 4123.46153819, 4118.84615357, 4118.97435870, 4124.23076896, 4259.61538462, 4266.53846154, 4261.15384616, 4275.89743597, 4129.48717921, 4150.76923056, 4115.25640998, 4132.69230742, 4188.84615371,8.57
4130.38461511, 4127.82051255, 4128.97435870, 4125.38461511, 4125.64102537, 4269.35897443, 4276.53846161, 4275.51282059, 4292.05128212, 4130.89743562, 4151.79487159, 4126.15384588, 4134.87179460, 4192.94871781,8.57
4122.30769203, 4123.58974332, 4122.94871767, 4122.17948691, 4123.46153819, 4276.53846161, 4284.10256418, 4292.30769238, 4308.33333348, 4129.61538434, 4151.79487159, 4120.64102537, 4131.15384588, 4192.82051269,8.57
4128.07692280, 4129.35897408, 4127.69230742, 4125.12820485, 4122.82051255, 4280.51282059, 4289.10256418, 4295.00000007, 4311.28205142, 4127.69230742, 4154.74358954, 4125.51282024, 4131.92307665, 4198.46153833,8.57
4124.74358947, 4128.58974332, 4127.82051255, 4125.12820485, 4124.23076896, 4276.15384623, 4288.71794879, 4281.02564110, 4297.17948725, 4127.43589716, 4153.97435877, 4125.25640998, 4132.43589716, 4196.66666653,8.57
4119.48717921, 4121.66666639, 4121.79487152, 4120.38461511, 4124.35897408, 4274.10256418, 4290.25641033, 4280.89743597, 4294.23076930, 4127.17948691, 4152.30769210, 4120.89743562, 4130.12820485, 4192.17948704,8.57
4129.23076896, 4127.05128178, 4125.76923050, 4125.38461511, 4124.48717921, 4279.23076930, 4295.51282059, 4293.33333341, 4304.87179501, 4127.82051255, 4156.53846133, 4131.66666639, 4135.64102544, 4197.69230756,8.57
4120.64102537, 4123.33333306, 4119.87179460, 4122.69230742, 4123.84615357, 4279.48717956, 4293.97435905, 4292.69230777, 4306.02564117, 4127.69230742, 4154.23076903, 4121.79487152, 4134.99999973, 4199.10256397,8.57
4124.10256383, 4123.84615357, 4127.30769203, 4123.97435870, 4125.12820485, 4282.43589751, 4300.00000014, 4303.97435912, 4319.87179501, 4127.56410229, 4155.51282031, 4123.07692280, 4133.33333306, 4197.82051269,8.57
4131.41025614, 4127.17948691, 4130.51282024, 4125.89743562, 4124.35897408, 4295.25641033, 4319.35897450, 4331.66666681, 4342.30769252, 4129.10256383, 4158.58974339, 4130.25640998, 4134.23076896, 4194.10256397,8.57
4124.35897408, 4121.66666639, 4118.97435870, 4120.76923050, 4123.46153819, 4307.05128219, 4332.56410278, 4341.41025662, 4347.82051303, 4127.17948691, 4152.82051262, 4120.12820485, 4132.94871767, 4196.28205115,8.57
4126.66666639, 4124.10256383, 4121.92307665, 4124.74358947, 4124.48717921, 4313.84615399, 4336.28205149, 4341.92307714, 4353.20512842, 4125.25640998, 4153.71794851, 4125.12820485, 4136.28205108, 4200.38461525,8.57
4116.41025614, 4121.92307665, 4119.35897408, 4121.92307665, 4120.89743562, 4317.30769245, 4335.38461560, 4342.30769252, 4360.38461560, 4128.20512793, 4157.17948697, 4120.12820485, 4133.07692280, 4197.17948704,8.57
4118.07692280, 4119.74358947, 4122.56410229, 4119.35897408, 4123.20512793, 4306.53846168, 4320.51282066, 4321.92307707, 4338.71794893, 4128.84615357, 4157.17948697, 4121.28205101, 4132.94871767, 4202.56410250,8.57
4128.33333306, 4123.46153819, 4125.76923050, 4124.87179460, 4126.92307665, 4290.00000007, 4303.97435912, 4296.92307700, 4308.33333348, 4127.05128178, 4156.15384595, 4126.53846126, 4137.56410236, 4199.23076910,8.57
4116.02564075, 4120.38461511, 4114.10256383, 4121.15384588, 4123.71794844, 4295.38461546, 4307.43589758, 4301.28205142, 4310.76923091, 4125.64102537, 4152.43589723, 4111.79487152, 4131.41025614, 4192.69230756,8.57
4119.48717921, 4122.94871767, 4120.76923050, 4124.87179460, 4127.43589716, 4310.00000014, 4314.61538476, 4315.51282066, 4327.82051296, 4125.64102537, 4153.20512800, 4118.71794844, 4131.92307665, 4199.87179474,8.57
4120.64102537, 4121.79487152, 4121.41025614, 4122.94871767, 4128.58974332, 4314.35897450, 4320.12820527, 4321.92307707, 4336.79487201, 4126.28205101, 4152.05128185, 4116.92307665, 4134.87179460, 4192.82051269,8.57
4118.71794844, 4120.25640998, 4122.05128178, 4116.53846126, 4121.28205101, 4314.10256425, 4330.89743604, 4328.46153860, 4339.74358996, 4128.07692280, 4151.53846133, 4109.35897408, 4133.46153819, 4187.43589730,8.57
4125.76923050, 4126.15384588, 4131.66666639, 4123.58974332, 4122.17948691, 4317.43589758, 4341.53846175, 4343.33333355, 4351.02564124, 4129.74358947, 4156.79487159, 4122.05128178, 4132.30769203, 4193.71794858,8.57
4114.74358947, 4120.76923050, 4119.35897408, 4123.84615357, 4124.99999973, 4327.05128219, 4351.15384637, 4365.76923105, 4379.35897464, 4128.46153819, 4155.38461518, 4114.48717921, 4127.69230742, 4193.71794858,8.57
4121.66666639, 4124.23076896, 4124.87179460, 4127.69230742, 4124.61538434, 4331.79487194, 4353.84615406, 4365.89743618, 4383.20512849, 4125.89743562, 4156.92307672, 4117.30769203, 4133.33333306, 4196.02564089,8.57
4124.35897408, 4127.56410229, 4130.89743562, 4126.79487152, 4124.99999973, 4328.07692322, 4349.23076944, 4350.89743611, 4362.94871816, 4126.28205101, 4158.07692287, 4121.41025614, 4133.84615357, 4194.74358961,8.57
4114.74358947, 4120.64102537, 4122.43589716, 4119.99999973, 4125.64102537, 4331.92307707, 4349.35897457, 4355.51282073, 4365.76923105, 4128.97435870, 4152.43589723, 4113.46153819, 4130.76923050, 4193.46153833,8.57
4128.58974332, 4126.79487152, 4128.20512793, 4129.48717921, 4126.28205101, 4334.87179508, 4348.07692329, 4357.30769252, 4365.64102592, 4129.48717921, 4154.10256390, 4121.79487152, 4138.97435877, 4194.61538448,8.57
4123.07692280, 4124.23076896, 4121.15384588, 4123.58974332, 4124.23076896, 4322.30769245, 4337.82051303, 4342.17948739, 4346.02564124, 4127.82051255, 4156.66666646, 4117.30769203, 4136.79487159, 4191.53846140,8.57
4122.82051255, 4124.23076896, 4127.56410229, 4121.79487152, 4124.87179460, 4315.00000014, 4335.00000021, 4343.97435919, 4352.30769252, 4126.79487152, 4160.25641005, 4123.58974332, 4134.61538434, 4196.41025628,8.57
4132.17948691, 4127.30769203, 4132.69230742, 4130.76923050, 4125.51282024, 4322.82051296, 4341.53846175, 4357.69230790, 4373.84615413, 4125.76923050, 4157.69230749, 4128.58974332, 4137.17948697, 4196.15384602,8.57
4124.74358947, 4120.51282024, 4119.61538434, 4124.10256383, 4120.89743562, 4329.74358989, 4346.02564124, 4354.23076944, 4367.56410285, 4125.89743562, 4151.41025621, 4118.20512793, 4136.41025621, 4194.87179474,8.57
4129.10256383, 4128.07692280, 4130.89743562, 4125.51282024, 4122.82051255, 4333.46153867, 4347.17948739, 4348.84615406, 4355.25641047, 4128.20512793, 4156.41025621, 4127.17948691, 4138.20512800, 4198.07692294,8.57
4119.48717921, 4126.28205101, 4126.28205101, 4123.58974332, 4123.71794844, 4334.10256431, 4346.66666688, 4354.23076944, 4364.35897457, 4129.48717921, 4156.66666646, 4120.64102537, 4134.61538434, 4196.28205115,8.57
4121.02564075, 4122.56410229, 4119.61538434, 4122.05128178, 4121.15384588, 4332.82051303, 4348.97435919, 4359.10256431, 4373.97435926, 4128.33333306, 4155.12820492, 4123.33333306, 4135.12820485, 4199.74358961,8.57
4131.41025614, 4127.17948691, 4126.41025614, 4128.07692280, 4123.58974332, 4339.23076944, 4351.15384637, 4355.64102585, 4364.48717970, 4127.82051255, 4157.17948697, 4130.89743562, 4136.92307672, 4198.07692294,8.57
4119.10256383, 4120.89743562, 4120.89743562, 4121.41025614, 4124.35897408, 4340.25641047, 4347.94871816, 4352.05128226, 4352.94871816, 4127.69230742, 4154.87179467, 4119.74358947, 4133.33333306, 4196.66666653,8.57
4124.61538434, 4124.87179460, 4125.76923050, 4122.30769203, 4122.69230742, 4327.17948732, 4344.74358996, 4352.94871816, 4356.53846175, 4126.66666639, 4155.12820492, 4128.46153819, 4136.79487159, 4200.51282038,8.57
4124.48717921, 4124.48717921, 4120.51282024, 4121.53846126, 4122.05128178, 4329.35897450, 4352.69230790, 4363.20512842, 4369.87179515, 4125.25640998, 4155.89743569, 4123.84615357, 4134.74358947, 4195.12820499,8.57
4124.23076896, 4121.92307665, 4119.61538434, 4120.25640998, 4126.66666639, 4343.97435919, 4362.56410278, 4376.02564131, 4377.43589772, 4126.92307665, 4155.51282031, 4119.87179460, 4133.71794844, 4196.79487166,8.57
4128.71794844, 4125.38461511, 4126.15384588, 4124.87179460, 4129.23076896, 4348.20512842, 4365.25641054, 4378.07692336, 4381.79487208, 4128.58974332, 4154.35897415, 4124.74358947, 4136.92307672, 4197.05128192,8.57
4114.87179460, 4117.56410229, 4114.61538434, 4119.61538434, 4122.30769203, 4351.66666688, 4370.12820541, 4384.48717977, 4396.66666695, 4127.69230742, 4153.07692287, 4112.56410229, 4133.46153819, 4193.07692294,8.57
4121.41025614, 4121.41025614, 4119.99999973, 4124.74358947, 4122.17948691, 4352.05128226, 4373.07692336, 4394.61538490, 4402.82051317, 4127.43589716, 4156.66666646, 4118.46153819, 4136.53846133, 4197.56410243,8.57
4122.17948691, 4125.64102537, 4123.58974332, 4126.53846126, 4125.25640998, 4343.07692329, 4367.69230797, 4385.38461567, 4384.35897464, 4127.30769203, 4157.82051262, 4118.07692280, 4135.89743569, 4194.10256397,8.57
4117.82051255, 4125.51282024, 4122.56410229, 4123.84615357, 4123.97435870, 4337.94871816, 4362.30769252, 4366.66666695, 4368.71794900, 4126.53846126, 4160.25641005, 4116.15384588, 4132.82051255, 4194.35897422,8.57
4122.69230742, 4129.74358947, 4126.41025614, 4127.05128178, 4123.71794844, 4344.10256431, 4366.92307720, 4374.35897464, 4380.12820541, 4127.30769203, 4163.33333313, 4123.20512793, 4135.51282031, 4195.89743576,8.57
4113.97435870, 4120.89743562, 4118.33333306, 4119.48717921, 4123.07692280, 4350.76923098, 4375.64102592, 4392.69230797, 4393.97435926, 4127.69230742, 4157.30769210, 4112.69230742, 4133.33333306, 4191.53846140,8.57
4124.61538434, 4124.48717921, 4127.82051255, 4124.23076896, 4123.84615357, 4352.30769252, 4378.97435926, 4392.69230797, 4396.02564131, 4127.94871767, 4159.10256390, 4120.76923050, 4133.84615357, 4192.94871781,8.57
4126.28205101, 4128.20512793, 4125.38461511, 4126.28205101, 4125.76923050, 4353.58974380, 4380.76923105, 4389.23076951, 4395.25641054, 4128.20512793, 4161.53846133, 4122.05128178, 4132.30769203, 4188.97435884,8.57
4118.97435870, 4120.51282024, 4117.82051255, 4120.89743562, 4128.07692280, 4356.53846175, 4382.69230797, 4389.10256438, 4385.38461567, 4127.69230742, 4159.61538441, 4114.23076896, 4132.69230742, 4189.35897422,8.57
4126.92307665, 4124.35897408, 4126.92307665, 4126.41025614, 4126.53846126, 4357.43589765, 4380.25641054, 4383.07692336, 4375.12820541, 4126.79487152, 4160.89743569, 4122.94871767, 4138.84615364, 4191.79487166,8.57
4120.25640998, 4125.38461511, 4119.61538434, 4122.30769203, 4121.41025614, 4350.25641047, 4370.89743618, 4375.12820541, 4375.76923105, 4126.28205101, 4157.69230749, 4120.12820485, 4133.97435870, 4187.05128192,8.57
4127.69230742, 4129.48717921, 4128.20512793, 4125.64102537, 4123.84615357, 4339.74358996, 4364.48717970, 4377.30769259, 4378.58974387, 4127.05128178, 4159.48717928, 4128.07692280, 4134.35897408, 4193.84615371,8.57
4126.79487152, 4126.02564075, 4128.97435870, 4126.79487152, 4124.35897408, 4340.51282073, 4371.66666695, 4393.58974387, 4388.07692336, 4126.41025614, 4159.74358954, 4127.30769203, 4138.07692287, 4196.53846140,8.57
4117.30769203, 4119.61538434, 4116.02564075, 4119.23076896, 4120.25640998, 4356.28205149, 4386.92307720, 4413.46153881, 4409.10256445, 4125.12820485, 4156.92307672, 4121.28205101, 4136.53846133, 4194.10256397,8.57
4129.87179460, 4127.30769203, 4128.71794844, 4126.02564075, 4123.71794844, 4365.25641054, 4395.76923105, 4422.05128240, 4418.58974394, 4127.82051255, 4161.79487159, 4133.46153819, 4138.71794851, 4198.71794858,8.57
4121.92307665, 4123.20512793, 4126.41025614, 4126.02564075, 4124.23076896, 4358.71794893, 4393.58974387, 4413.71794907, 4404.23076958, 4127.94871767, 4161.15384595, 4121.28205101, 4132.56410229, 4199.48717935,8.57
4123.07692280, 4123.20512793, 4124.35897408, 4125.51282024, 4122.17948691, 4355.89743611, 4383.33333362, 4395.51282079, 4381.79487208, 4125.76923050, 4158.07692287, 4122.43589716, 4133.20512793, 4201.02564096,8.57
4128.97435870, 4126.92307665, 4123.84615357, 4127.82051255, 4122.94871767, 4352.43589765, 4372.43589772, 4383.07692336, 4374.35897464, 4126.66666639, 4158.84615364, 4132.05128178, 4139.74358954, 4198.46153833,8.57
4122.05128178, 4122.05128178, 4115.89743562, 4124.99999973, 4121.92307665, 4339.35897457, 4366.41025669, 4380.12820541, 4376.66666695, 4127.05128178, 4160.12820492, 4122.05128178, 4137.17948697, 4196.92307679,8.57
4132.17948691, 4126.28205101, 4124.35897408, 4126.15384588, 4122.82051255, 4327.05128219, 4357.69230790, 4368.20512849, 4362.17948739, 4126.28205101, 4162.05128185, 4130.51282024, 4138.58974339, 4200.64102551,8.57
4122.94871767, 4123.33333306, 4121.53846126, 4117.30769203, 4122.56410229, 4326.53846168, 4352.30769252, 4359.10256431, 4349.74358996, 4128.46153819, 4157.94871774, 4124.99999973, 4135.51282031, 4195.38461525,8.57
4117.05128178, 4120.51282024, 4121.15384588, 4117.17948691, 4122.05128178, 4331.66666681, 4354.61538483, 4361.79487201, 4352.82051303, 4129.23076896, 4158.46153826, 4120.12820485, 4135.12820485, 4196.66666653,8.57
4125.64102537, 4123.46153819, 4121.28205101, 4124.48717921, 4121.79487152, 4329.61538476, 4351.79487201, 4361.41025662, 4356.92307714, 4127.30769203, 4163.33333313, 4127.17948691, 4140.25641005, 4199.48717935,8.57
4118.58974332, 4119.35897408, 4113.71794844, 4118.46153819, 4119.99999973, 4326.92307707, 4350.25641047, 4365.51282079, 4362.43589765, 4127.94871767, 4158.20512800, 4118.33333306, 4137.56410236, 4196.66666653,8.57
4119.87179460, 4122.69230742, 4123.46153819, 4122.69230742, 4123.46153819, 4331.28205142, 4355.76923098, 4374.61538490, 4366.79487208, 4128.71794844, 4156.15384595, 4122.30769203, 4136.53846133, 4196.79487166,8.57
4115.25640998, 4122.17948691, 4120.38461511, 4124.99999973, 4124.61538434, 4335.25641047, 4358.71794893, 4378.33333362, 4367.05128233, 4126.66666639, 4157.17948697, 4118.46153819, 4132.56410229, 4192.94871781,8.57
4118.07692280, 4122.17948691, 4120.64102537, 4125.51282024, 4123.33333306, 4328.58974373, 4355.64102585, 4375.51282079, 4363.46153867, 4127.17948691, 4158.46153826, 4116.79487152, 4132.30769203, 4193.97435884,8.57
4126.15384588, 4125.64102537, 4127.56410229, 4129.35897408, 4122.43589716, 4320.00000014, 4349.87179508, 4366.28205156, 4352.82051303, 4130.51282024, 4157.56410236, 4123.33333306, 4136.66666646, 4194.10256397,8.57
4116.53846126, 4120.64102537, 4118.71794844, 4119.87179460, 4120.89743562, 4323.71794886, 4352.94871816, 4368.97435926, 4351.66666688, 4129.35897408, 4153.97435877, 4114.61538434, 4131.41025614, 4190.12820499,8.57
4126.53846126, 4127.30769203, 4127.43589716, 4123.46153819, 4123.46153819, 4334.87179508, 4364.61538483, 4380.76923105, 4360.00000021, 4127.05128178, 4159.61538441, 4121.79487152, 4132.30769203, 4194.61538448,8.57
4126.28205101, 4125.76923050, 4126.79487152, 4126.92307665, 4123.33333306, 4339.23076944, 4367.69230797, 4377.94871823, 4355.25641047, 4127.43589716, 4160.64102544, 4118.58974332, 4133.07692280, 4193.58974345,8.57
4119.99999973, 4120.76923050, 4119.35897408, 4123.84615357, 4122.17948691, 4332.43589765, 4358.84615406, 4370.89743618, 4348.84615406, 4129.74358947, 4157.69230749, 4115.89743562, 4133.07692280, 4192.05128192,8.57
4128.20512793, 4127.69230742, 4126.28205101, 4127.17948691, 4124.61538434, 4324.87179501, 4353.07692329, 4373.84615413, 4356.15384637, 4130.64102537, 4158.33333313, 4127.82051255, 4137.43589723, 4192.05128192,8.57
4121.92307665, 4123.84615357, 4121.53846126, 4124.10256383, 4124.35897408, 4327.56410271, 4355.12820534, 4372.69230797, 4356.92307714, 4126.79487152, 4158.58974339, 4119.23076896, 4134.61538434, 4191.66666653,8.57
4128.97435870, 4129.61538434, 4129.10256383, 4128.46153819, 4125.51282024, 4329.87179501, 4354.10256431, 4371.02564131, 4352.17948739, 4125.89743562, 4161.53846133, 4125.38461511, 4137.30769210, 4197.69230756,8.57
4126.66666639, 4130.64102537, 4126.15384588, 4125.76923050, 4123.71794844, 4321.53846168, 4345.38461560, 4368.46153874, 4352.17948739, 4128.46153819, 4159.35897415, 4126.41025614, 4136.28205108, 4195.89743576,8.57
4120.12820485, 4122.30769203, 4119.35897408, 4120.12820485, 4122.43589716, 4309.61538476, 4337.43589765, 4353.71794893, 4340.89743611, 4127.69230742, 4157.30769210, 4120.12820485, 4134.23076896, 4197.43589730,8.57
4130.38461511, 4127.69230742, 4129.99999973, 4128.07692280, 4125.89743562, 4305.89743604, 4337.05128226, 4344.23076944, 4321.28205142, 4126.41025614, 4161.79487159, 4128.97435870, 4140.12820492, 4198.58974345,8.57
4118.97435870, 4123.07692280, 4120.76923050, 4121.02564075, 4122.56410229, 4313.20512835, 4342.43589765, 4350.76923098, 4317.17948732, 4127.17948691, 4158.84615364, 4119.74358947, 4135.76923056, 4192.56410243,8.57
4122.56410229, 4124.48717921, 4124.23076896, 4118.97435870, 4120.64102537, 4316.41025655, 4349.74358996, 4360.64102585, 4336.92307714, 4127.05128178, 4158.07692287, 4124.23076896, 4136.02564082, 4196.02564089,8.57
4126.66666639, 4129.61538434, 4128.07692280, 4124.87179460, 4123.33333306, 4311.02564117, 4351.53846175, 4365.25641054, 4349.35897457, 4126.02564075, 4162.05128185, 4129.35897408, 4138.46153826, 4194.87179474,8.57
4120.12820485, 4125.25640998, 4118.71794844, 4120.89743562, 4122.94871767, 4306.53846168, 4344.35897457, 4359.48717970, 4335.51282073, 4126.92307665, 4161.79487159, 4123.58974332, 4136.53846133, 4198.20512807,8.57
4130.51282024, 4126.66666639, 4124.48717921, 4123.20512793, 4123.71794844, 4300.64102578, 4335.76923098, 4351.66666688, 4326.66666681, 4127.94871767, 4162.05128185, 4131.28205101, 4139.74358954, 4202.43589737,8.57
4123.58974332, 4121.28205101, 4122.43589716, 4122.30769203, 4122.82051255, 4292.94871802, 4328.20512835, 4345.38461560, 4329.61538476, 4127.69230742, 4159.48717928, 4121.15384588, 4137.94871774, 4193.33333320,8.57
4124.74358947, 4122.05128178, 4123.97435870, 4122.94871767, 4123.07692280, 4290.76923084, 4320.38461553, 4333.07692329, 4320.76923091, 4128.84615357, 4157.05128185, 4124.35897408, 4137.94871774, 4194.99999986,8.57
4129.61538434, 4126.15384588, 4120.76923050, 4121.41025614, 4124.35897408, 4286.53846161, 4314.87179501, 4326.41025655, 4313.84615399, 4129.99999973, 4155.25641005, 4130.25640998, 4137.56410236, 4197.94871781,8.57
4121.66666639, 4121.92307665, 4115.25640998, 4118.20512793, 4123.46153819, 4273.71794879, 4305.12820527, 4323.20512835, 4309.74358989, 4129.35897408, 4152.82051262, 4118.58974332, 4134.74358947, 4195.76923063,8.57
4125.25640998, 4123.84615357, 4126.66666639, 4126.28205101, 4125.51282024, 4271.28205136, 4299.35897443, 4313.46153860, 4296.02564110, 4129.10256383, 4157.43589723, 4126.28205101, 4139.23076903, 4197.17948704,8.57
4117.17948691, 4121.53846126, 4119.10256383, 4121.79487152, 4125.51282024, 4279.48717956, 4304.74358989, 4309.61538476, 4295.00000007, 4128.20512793, 4157.69230749, 4119.99999973, 4134.74358947, 4193.07692294,8.57
4119.61538434, 4123.46153819, 4118.84615357, 4123.07692280, 4124.87179460, 4273.84615392, 4300.76923091, 4306.92307707, 4297.69230777, 4126.92307665, 4156.53846133, 4117.56410229, 4131.92307665, 4193.84615371,8.57
4122.30769203, 4123.84615357, 4124.74358947, 4128.07692280, 4124.99999973, 4268.20512828, 4294.87179495, 4306.66666681, 4293.20512828, 4125.64102537, 4154.23076903, 4123.97435870, 4135.76923056, 4193.84615371,8.57
4110.51282024, 4117.17948691, 4117.94871767, 4120.12820485, 4122.82051255, 4277.82051289, 4303.84615399, 4312.69230784, 4296.28205136, 4125.51282024, 4149.35897415, 4108.46153819, 4133.33333306, 4188.71794858,8.57
4120.38461511, 4124.35897408, 4126.66666639, 4125.51282024, 4125.89743562, 4270.00000007, 4300.00000014, 4303.07692322, 4288.71794879, 4126.41025614, 4156.28205108, 4113.20512793, 4137.94871774, 4188.97435884,8.57
4117.82051255, 4123.07692280, 4119.74358947, 4125.76923050, 4127.17948691, 4254.48717949, 4289.10256418, 4290.89743597, 4276.92307700, 4126.53846126, 4158.71794851, 4116.41025614, 4136.28205108, 4186.92307679,8.57
4117.56410229, 4123.07692280, 4120.76923050, 4125.38461511, 4124.35897408, 4265.89743590, 4299.10256418, 4302.05128219, 4284.61538469, 4125.25640998, 4154.10256390, 4114.10256383, 4132.43589716, 4191.41025628,8.57
4126.66666639, 4128.84615357, 4133.07692280, 4126.28205101, 4123.20512793, 4270.76923084, 4306.53846168, 4307.30769245, 4287.82051289, 4125.64102537, 4155.51282031, 4122.82051255, 4139.23076903, 4194.48717935,8.57
4119.99999973, 4122.30769203, 4120.89743562, 4116.53846126, 4122.30769203, 4250.89743590, 4292.82051289, 4294.35897443, 4276.79487187, 4127.05128178, 4154.61538441, 4119.10256383, 4136.28205108, 4190.25641012,8.57
4129.74358947, 4126.66666639, 4127.56410229, 4124.74358947, 4126.28205101, 4237.69230770, 4276.02564110, 4283.20512828, 4268.07692315, 4127.43589716, 4157.56410236, 4127.30769203, 4135.89743569, 4196.41025628,8.57
4124.74358947, 4124.48717921, 4128.84615357, 4126.79487152, 4128.84615357, 4236.92307693, 4268.97435905, 4273.33333341, 4255.64102564, 4127.05128178, 4158.46153826, 4124.99999973, 4138.97435877, 4195.12820499,8.57
4120.12820485, 4122.30769203, 4123.33333306, 4123.07692280, 4125.76923050, 4235.64102564, 4269.61538469, 4271.02564110, 4250.76923077, 4126.53846126, 4153.58974339, 4118.20512793, 4136.53846133, 4194.23076910,8.57
4130.12820485, 4130.38461511, 4128.84615357, 4129.74358947, 4125.89743562, 4234.87179488, 4268.33333341, 4280.89743597, 4261.41025641, 4126.02564075, 4153.33333313, 4130.64102537, 4136.53846133, 4201.02564096,8.57
4117.17948691, 4121.79487152, 4121.92307665, 4125.76923050, 4127.05128178, 4229.74358968, 4260.38461539, 4274.74358982, 4253.71794872, 4126.92307665, 4150.76923056, 4123.07692280, 4134.87179460, 4197.05128192,8.57
4124.23076896, 4125.25640998, 4129.61538434, 4127.56410229, 4126.28205101, 4231.41025634, 4263.07692308, 4265.00000000, 4244.48717949, 4128.97435870, 4152.69230749, 4126.15384588, 4136.92307672, 4196.66666653,8.57
4128.84615357, 4128.33333306, 4126.79487152, 4128.07692280, 4121.92307665, 4251.41025641, 4286.15384623, 4290.38461546, 4274.23076930, 4129.23076896, 4156.15384595, 4129.35897408, 4136.66666646, 4197.94871781,8.57
4121.02564075, 4122.05128178, 4120.89743562, 4123.84615357, 4120.38461511, 4254.10256411, 4295.00000007, 4307.94871809, 4292.82051289, 4126.28205101, 4155.38461518, 4120.38461511, 4135.64102544, 4198.71794858,8.57
4126.28205101, 4128.07692280, 4130.12820485, 4125.76923050, 4123.58974332, 4236.79487180, 4283.71794879, 4289.61538469, 4270.64102571, 4127.17948691, 4157.82051262, 4129.48717921, 4141.92307672, 4198.46153833,8.57
4117.94871767, 4123.46153819, 4118.71794844, 4118.46153819, 4119.61538434, 4236.02564103, 4282.82051289, 4283.84615392, 4263.20512821, 4128.71794844, 4153.20512800, 4122.17948691, 4138.07692287, 4196.41025628,8.57
4124.99999973, 4122.05128178, 4117.43589716, 4122.69230742, 4119.10256383, 4243.97435898, 4290.76923084, 4295.12820520, 4276.41025648, 4127.56410229, 4149.23076903, 4123.20512793, 4135.38461518, 4202.56410250,8.57
4127.43589716, 4125.89743562, 4119.74358947, 4124.61538434, 4122.43589716, 4243.46153847, 4287.56410264, 4290.12820520, 4269.10256418, 4127.56410229, 4154.35897415, 4128.46153819, 4135.89743569, 4198.97435884,8.57
4116.66666639, 4123.07692280, 4117.17948691, 4117.43589716, 4122.43589716, 4240.38461539, 4285.51282059, 4282.30769238, 4255.38461539, 4127.43589716, 4155.51282031, 4117.69230742, 4131.92307665, 4195.51282038,8.57
4123.46153819, 4122.82051255, 4124.48717921, 4125.25640998, 4125.89743562, 4244.10256411, 4291.66666674, 4288.84615392, 4262.17948718, 4127.56410229, 4153.46153826, 4126.41025614, 4137.69230749, 4201.53846147,8.57
4115.64102537, 4117.69230742, 4115.25640998, 4123.33333306, 4125.76923050, 4256.15384616, 4296.15384623, 4293.07692315, 4266.28205129, 4128.07692280, 4149.61538441, 4120.51282024, 4137.30769210, 4195.64102551,8.57
4117.94871767, 4123.97435870, 4119.23076896, 4121.15384588, 4124.23076896, 4257.30769231, 4296.02564110, 4291.28205136, 4256.15384616, 4127.05128178, 4149.74358954, 4114.23076896, 4134.87179460, 4192.30769217,8.57
4124.74358947, 4128.07692280, 4128.33333306, 4126.15384588, 4124.74358947, 4239.74358975, 4288.46153853, 4287.17948725, 4251.79487180, 4127.05128178, 4153.20512800, 4120.76923050, 4138.84615364, 4190.89743576,8.57
4118.33333306, 4119.99999973, 4118.84615357, 4123.58974332, 4125.25640998, 4232.69230763, 4281.66666674, 4288.46153853, 4264.10256411, 4127.05128178, 4152.30769210, 4113.84615357, 4133.58974332, 4188.07692294,8.57
4126.66666639, 4124.87179460, 4120.89743562, 4127.94871767, 4126.79487152, 4234.48717949, 4276.79487187, 4287.94871802, 4265.64102564, 4127.05128178, 4153.71794851, 4119.48717921, 4131.53846126, 4191.79487166,8.57
4119.99999973, 4124.10256383, 4116.79487152, 4122.30769203, 4123.07692280, 4229.99999993, 4271.41025648, 4279.35897443, 4251.41025641, 4128.33333306, 4154.10256390, 4117.56410229, 4132.05128178, 4188.71794858,8.57
4119.35897408, 4126.79487152, 4122.30769203, 4121.66666639, 4122.56410229, 4232.82051275, 4274.61538469, 4281.79487187, 4257.05128206, 4129.48717921, 4155.51282031, 4116.92307665, 4133.58974332, 4189.35897422,8.57
4124.99999973, 4131.15384588, 4128.46153819, 4128.33333306, 4124.99999973, 4234.74358975, 4281.41025648, 4290.12820520, 4273.97435905, 4127.82051255, 4159.99999980, 4126.66666639, 4136.66666646, 4192.05128192,8.57
4118.46153819, 4121.15384588, 4117.82051255, 4121.66666639, 4123.84615357, 4228.46153840, 4280.89743597, 4285.89743597, 4268.46153853, 4125.89743562, 4155.76923056, 4119.23076896, 4131.41025614, 4192.17948704,8.57
4131.02564075, 4124.61538434, 4130.12820485, 4127.05128178, 4125.89743562, 4230.64102558, 4278.20512828, 4277.05128212, 4250.00000000, 4127.30769203, 4153.20512800, 4125.89743562, 4134.61538434, 4196.41025628,8.57
4125.12820485, 4123.07692280, 4126.41025614, 4127.05128178, 4124.61538434, 4238.84615385, 4281.66666674, 4277.94871802, 4248.97435898, 4128.84615357, 4155.12820492, 4126.53846126, 4138.07692287, 4193.07692294,8.57
4122.30769203, 4121.66666639, 4120.89743562, 4121.92307665, 4122.43589716, 4238.46153847, 4285.89743597, 4285.38461546, 4261.53846154, 4129.61538434, 4156.41025621, 4124.35897408, 4136.79487159, 4192.69230756,8.57
4132.69230742, 4128.84615357, 4129.48717921, 4125.64102537, 4126.28205101, 4236.02564103, 4286.79487187, 4283.46153853, 4260.64102564, 4130.51282024, 4156.92307672, 4131.66666639, 4139.23076903, 4193.07692294,8.57
4121.28205101, 4121.66666639, 4119.74358947, 4121.28205101, 4126.28205101, 4236.02564103, 4281.15384623, 4273.71794879, 4248.33333334, 4129.10256383, 4151.92307672, 4119.35897408, 4134.61538434, 4192.94871781,8.57
4129.35897408, 4126.79487152, 4125.64102537, 4124.87179460, 4124.35897408, 4231.92307686, 4275.76923084, 4279.10256418, 4255.00000000, 4127.82051255, 4154.87179467, 4125.51282024, 4134.35897408, 4200.89743576,8.57
4127.05128178, 4128.58974332, 4124.87179460, 4125.64102537, 4122.05128178, 4229.48717942, 4281.02564110, 4296.02564110, 4279.23076930, 4128.20512793, 4156.41025621, 4128.46153819, 4136.79487159, 4198.58974345,8.57
4120.89743562, 4122.17948691, 4121.28205101, 4122.94871767, 4121.79487152, 4225.89743583, 4278.07692315, 4283.33333341, 4265.12820513, 4128.33333306, 4150.38461518, 4121.66666639, 4137.94871774, 4198.33333320,8.57
4131.66666639, 4124.23076896, 4128.33333306, 4123.84615357, 4124.23076896, 4218.58974352, 4263.84615385, 4257.69230770, 4226.92307686, 4129.23076896, 4153.97435877, 4131.02564075, 4139.87179467, 4200.89743576,8.57
4122.82051255, 4120.51282024, 4118.46153819, 4118.33333306, 4121.41025614, 4220.12820506, 4268.71794879, 4265.51282052, 4232.69230763, 4129.61538434, 4155.64102544, 4121.28205101, 4133.33333306, 4194.23076910,8.57
4125.25640998, 4125.64102537, 4121.66666639, 4126.15384588, 4121.79487152, 4228.58974352, 4285.64102571, 4283.33333341, 4261.41025641, 4128.71794844, 4153.20512800, 4123.84615357, 4134.35897408, 4196.02564089,8.57
4122.43589716, 4123.84615357, 4119.48717921, 4124.74358947, 4123.84615357, 4227.69230763, 4283.07692315, 4275.89743597, 4253.07692308, 4127.69230742, 4151.53846133, 4125.64102537, 4135.25640998, 4195.25641012,8.57
4119.61538434, 4117.43589716, 4116.15384588, 4116.66666639, 4122.56410229, 4223.58974352, 4280.12820520, 4273.71794879, 4242.69230770, 4127.94871767, 4150.38461518, 4115.51282024, 4130.89743562, 4194.23076910,8.57
4128.84615357, 4122.94871767, 4124.35897408, 4126.53846126, 4122.94871767, 4230.38461532, 4292.17948725, 4291.92307700, 4263.20512821, 4128.84615357, 4151.53846133, 4124.48717921, 4136.53846133, 4198.84615371,8.57
4116.92307665, 4118.97435870, 4112.30769203, 4124.23076896, 4121.53846126, 4235.51282052, 4292.05128212, 4295.64102571, 4271.66666674, 4127.82051255, 4149.10256390, 4118.20512793, 4135.12820485, 4198.20512807,8.57
4124.23076896, 4121.28205101, 4118.58974332, 4122.82051255, 4123.20512793, 4223.46153840, 4274.35897443, 4277.17948725, 4252.05128206, 4126.15384588, 4150.38461518, 4117.82051255, 4133.20512793, 4199.99999986,8.57
4126.92307665, 4123.07692280, 4126.53846126, 4126.41025614, 4123.46153819, 4213.97435891, 4270.00000007, 4271.15384623, 4246.15384616, 4126.79487152, 4149.87179467, 4119.23076896, 4135.12820485, 4193.97435884,8.57
4113.20512793, 4116.79487152, 4115.64102537, 4122.05128178, 4122.17948691, 4226.15384609, 4284.23076930, 4284.10256418, 4262.05128206, 4128.46153819, 4146.66666646, 4111.92307665, 4132.56410229, 4188.46153833,8.57
4124.35897408, 4124.10256383, 4121.92307665, 4127.43589716, 4127.43589716, 4238.07692308, 4291.53846161, 4282.43589751, 4255.64102564, 4129.87179460, 4153.20512800, 4123.07692280, 4133.84615357, 4192.82051269,8.57
4120.38461511, 4122.05128178, 4120.51282024, 4124.99999973, 4126.66666639, 4239.48717949, 4295.51282059, 4280.38461546, 4252.05128206, 4129.99999973, 4153.33333313, 4113.46153819, 4129.61538434, 4189.99999986,8.57
4119.74358947, 4119.74358947, 4126.15384588, 4123.71794844, 4124.74358947, 4244.23076923, 4303.58974373, 4296.92307700, 4277.05128212, 4128.46153819, 4151.66666646, 4112.17948691, 4131.28205101, 4191.41025628,8.57
4126.92307665, 4124.35897408, 4130.25640998, 4126.15384588, 4126.79487152, 4250.25641026, 4307.43589758, 4311.92307707, 4290.38461546, 4126.02564075, 4154.35897415, 4126.92307665, 4137.94871774, 4190.38461525,8.57
4121.02564075, 4121.28205101, 4114.61538434, 4117.94871767, 4125.12820485, 4251.92307693, 4309.23076937, 4316.79487194, 4287.94871802, 4126.15384588, 4150.25641005, 4118.20512793, 4134.10256383, 4188.58974345,8.57
4131.53846126, 4127.82051255, 4127.05128178, 4123.97435870, 4125.25640998, 4253.07692308, 4310.38461553, 4312.82051296, 4287.56410264, 4130.25640998, 4151.66666646, 4124.48717921, 4136.92307672, 4197.17948704,8.57
4125.12820485, 4123.33333306, 4129.74358947, 4123.97435870, 4124.74358947, 4259.23076923, 4311.15384630, 4311.53846168, 4291.92307700, 4131.41025614, 4151.66666646, 4123.58974332, 4136.41025621, 4194.99999986,8.57
4121.53846126, 4117.30769203, 4121.15384588, 4119.74358947, 4123.07692280, 4262.82051282, 4313.33333348, 4315.25641040, 4285.38461546, 4128.58974332, 4148.20512800, 4119.87179460, 4133.58974332, 4192.43589730,8.57
4130.38461511, 4125.25640998, 4125.38461511, 4129.10256383, 4123.58974332, 4252.30769231, 4309.35897450, 4308.97435912, 4273.07692315, 4128.07692280, 4152.17948697, 4131.15384588, 4136.79487159, 4194.35897422,8.57
4115.76923050, 4121.28205101, 4115.89743562, 4126.02564075, 4122.05128178, 4242.94871795, 4302.17948732, 4295.64102571, 4268.71794879, 4127.43589716, 4151.02564082, 4121.02564075, 4136.15384595, 4193.20512807,8.57
4124.99999973, 4126.15384588, 4123.07692280, 4126.15384588, 4122.69230742, 4251.28205129, 4304.23076937, 4294.23076930, 4269.35897443, 4126.15384588, 4147.43589723, 4126.79487152, 4139.74358954, 4197.56410243,8.57
4129.87179460, 4128.84615357, 4126.79487152, 4126.15384588, 4123.46153819, 4258.20512821, 4305.51282066, 4298.71794879, 4271.53846161, 4126.79487152, 4149.74358954, 4129.74358947, 4137.17948697, 4197.43589730,8.57
4122.43589716, 4124.10256383, 4120.51282024, 4121.66666639, 4122.05128178, 4244.48717949, 4297.17948725, 4295.38461546, 4273.20512828, 4127.94871767, 4154.61538441, 4119.48717921, 4131.53846126, 4198.84615371,8.57
4133.33333306, 4127.56410229, 4126.02564075, 4126.28205101, 4122.69230742, 4231.41025634, 4293.20512828, 4295.12820520, 4273.58974366, 4128.20512793, 4154.48717928, 4128.71794844, 4137.94871774, 4199.48717935,8.57
4123.46153819, 4122.82051255, 4117.56410229, 4122.05128178, 4121.79487152, 4240.89743590, 4300.51282066, 4303.84615399, 4276.53846161, 4128.97435870, 4146.92307672, 4123.07692280, 4136.02564082, 4196.53846140,8.57
4121.28205101, 4124.23076896, 4121.66666639, 4121.79487152, 4122.82051255, 4255.12820513, 4306.92307707, 4310.51282066, 4285.89743597, 4131.66666639, 4147.69230749, 4125.64102537, 4134.61538434, 4202.30769224,8.57
4124.23076896, 4125.51282024, 4124.61538434, 4123.33333306, 4123.71794844, 4255.38461539, 4309.35897450, 4313.07692322, 4294.74358982, 4132.82051255, 4150.25641005, 4129.23076896, 4135.89743569, 4199.10256397,8.57
4120.38461511, 4120.12820485, 4116.79487152, 4119.99999973, 4122.43589716, 4248.84615385, 4307.43589758, 4312.56410271, 4290.38461546, 4130.89743562, 4145.51282031, 4122.17948691, 4132.43589716, 4194.99999986,8.57
4127.69230742, 4123.20512793, 4122.56410229, 4125.12820485, 4126.15384588, 4248.20512821, 4301.92307707, 4304.23076937, 4276.41025648, 4128.71794844, 4145.12820492, 4129.23076896, 4137.17948697, 4197.69230756,8.57
4117.30769203, 4119.10256383, 4114.74358947, 4120.51282024, 4124.99999973, 4253.46153847, 4298.71794879, 4292.43589751, 4261.15384616, 4127.94871767, 4142.94871774, 4118.84615357, 4134.99999973, 4193.07692294,8.57
4120.89743562, 4118.97435870, 4118.33333306, 4121.66666639, 4123.20512793, 4255.76923077, 4303.58974373, 4297.17948725, 4263.84615385, 4129.35897408, 4147.05128185, 4119.87179460, 4132.43589716, 4195.51282038,8.57
4126.53846126, 4124.23076896, 4125.25640998, 4127.17948691, 4124.99999973, 4260.25641026, 4314.61538476, 4309.61538476, 4277.30769238, 4129.74358947, 4151.41025621, 4125.38461511, 4135.38461518, 4193.71794858,8.57
4113.20512793, 4119.87179460, 4115.51282024, 4121.92307665, 4123.46153819, 4269.10256418, 4321.53846168, 4313.33333348, 4285.51282059, 4128.46153819, 4145.25641005, 4109.74358947, 4131.92307665, 4188.71794858,8.57
4122.82051255, 4123.58974332, 4124.10256383, 4126.79487152, 4123.33333306, 4272.05128212, 4325.00000014, 4319.61538476, 4293.71794879, 4128.33333306, 4148.84615364, 4118.07692280, 4133.20512793, 4193.20512807,8.57
4124.23076896, 4122.30769203, 4122.43589716, 4124.23076896, 4123.58974332, 4274.48717956, 4334.87179508, 4330.38461553, 4299.87179501, 4128.97435870, 4153.33333313, 4117.69230742, 4131.53846126, 4191.41025628,8.57
4122.05128178, 4121.15384588, 4119.87179460, 4122.94871767, 4126.28205101, 4282.82051289, 4342.05128226, 4334.35897457, 4302.56410271, 4128.97435870, 4151.66666646, 4110.12820485, 4131.53846126, 4191.02564089,8.57
4125.76923050, 4127.69230742, 4123.84615357, 4129.87179460, 4126.53846126, 4278.20512828, 4332.17948732, 4330.51282066, 4300.51282066, 4130.25640998, 4149.87179467, 4118.58974332, 4134.99999973, 4189.10256397,8.57
4119.35897408, 4123.07692280, 4117.30769203, 4122.69230742, 4122.56410229, 4266.02564103, 4324.74358989, 4327.43589758, 4296.66666674, 4130.38461511, 4146.15384595, 4117.82051255, 4130.76923050, 4186.92307679,8.57
4128.71794844, 4126.28205101, 4126.92307665, 4126.41025614, 4125.25640998, 4269.48717956, 4330.00000014, 4324.74358989, 4295.00000007, 4127.82051255, 4148.84615364, 4127.30769203, 4133.07692280, 4195.89743576,8.57
4122.56410229, 4126.02564075, 4123.58974332, 4128.07692280, 4123.46153819, 4278.71794879, 4334.48717970, 4328.33333348, 4299.61538476, 4126.66666639, 4151.15384595, 4126.15384588, 4133.33333306, 4195.12820499,8.57
4117.17948691, 4122.17948691, 4121.15384588, 4123.58974332, 4119.35897408, 4279.23076930, 4338.58974380, 4336.79487201, 4307.30769245, 4128.97435870, 4148.33333313, 4121.15384588, 4131.66666639, 4192.30769217,8.57
4129.35897408, 4126.02564075, 4130.76923050, 4128.07692280, 4123.71794844, 4273.71794879, 4332.17948732, 4323.07692322, 4291.41025648, 4129.61538434, 4146.53846133, 4129.10256383, 4135.76923056, 4195.12820499,8.57
4121.79487152, 4121.28205101, 4118.97435870, 4123.20512793, 4123.07692280, 4273.07692315, 4323.20512835, 4308.71794886, 4276.53846161, 4127.30769203, 4146.02564082, 4120.51282024, 4133.07692280, 4194.48717935,8.57
4129.61538434, 4127.94871767, 4124.74358947, 4124.61538434, 4120.64102537, 4274.35897443, 4330.64102578, 4323.58974373, 4293.33333341, 4128.97435870, 4151.28205108, 4128.58974332, 4136.02564082, 4196.15384602,8.57
4129.23076896, 4128.20512793, 4126.92307665, 4127.17948691, 4122.56410229, 4272.82051289, 4336.28205149, 4336.15384637, 4305.51282066, 4131.41025614, 4150.25641005, 4129.74358947, 4138.46153826, 4193.58974345,8.57
4118.97435870, 4119.99999973, 4118.84615357, 4122.43589716, 4122.56410229, 4271.92307700, 4327.94871809, 4322.94871809, 4286.02564110, 4128.33333306, 4145.89743569, 4121.66666639, 4135.89743569, 4197.69230756,8.57
4129.35897408, 4126.02564075, 4127.30769203, 4126.28205101, 4122.56410229, 4274.87179495, 4330.51282066, 4321.02564117, 4281.15384623, 4127.30769203, 4149.87179467, 4135.12820485, 4138.33333313, 4200.64102551,8.57
4120.76923050, 4123.20512793, 4119.99999973, 4124.23076896, 4121.66666639, 4277.30769238, 4340.76923098, 4334.10256431, 4299.48717963, 4129.61538434, 4145.76923056, 4127.56410229, 4134.35897408, 4194.35897422,8.57
4121.92307665, 4124.23076896, 4120.89743562, 4125.51282024, 4124.48717921, 4271.02564110, 4332.30769252, 4320.76923091, 4286.79487187, 4130.38461511, 4142.05128185, 4127.05128178, 4138.46153826, 4199.48717935,8.57
4126.53846126, 4125.12820485, 4123.58974332, 4125.51282024, 4126.79487152, 4263.71794872, 4323.58974373, 4305.25641040, 4269.23076930, 4129.61538434, 4145.89743569, 4128.71794844, 4139.61538441, 4198.84615371,8.57
4119.99999973, 4120.51282024, 4116.41025614, 4121.28205101, 4124.35897408, 4265.25641026, 4330.00000014, 4318.33333348, 4286.79487187, 4128.97435870, 4146.41025621, 4117.56410229, 4130.25640998, 4195.38461525,8.57
4124.35897408, 4125.38461511, 4121.41025614, 4127.05128178, 4124.99999973, 4271.02564110, 4333.71794893, 4329.61538476, 4299.23076930, 4129.61538434, 4146.92307672, 4127.94871767, 4135.89743569, 4198.46153833,8.57
4116.02564075, 4118.97435870, 4115.76923050, 4123.71794844, 4125.25640998, 4274.61538469, 4336.41025662, 4325.00000014, 4290.38461546, 4128.97435870, 4140.25641005, 4119.48717921, 4134.87179460, 4192.94871781,8.57
4121.02564075, 4118.20512793, 4117.69230742, 4123.07692280, 4125.25640998, 4271.02564110, 4338.58974380, 4316.28205142, 4276.15384623, 4128.20512793, 4136.79487159, 4114.35897408, 4130.38461511, 4193.71794858,8.57
4127.17948691, 4125.38461511, 4120.76923050, 4125.64102537, 4126.28205101, 4264.74358975, 4333.71794893, 4312.94871809, 4267.56410264, 4129.10256383, 4140.89743569, 4124.48717921, 4134.61538434, 4194.48717935,8.57
4117.82051255, 4120.38461511, 4116.41025614, 4120.76923050, 4126.66666639, 4265.00000000, 4334.74358996, 4323.20512835, 4277.69230777, 4127.82051255, 4139.61538441, 4117.94871767, 4132.69230742, 4191.15384602,8.57
4126.66666639, 4122.05128178, 4127.43589716, 4127.56410229, 4127.69230742, 4271.15384623, 4341.53846175, 4330.51282066, 4290.64102571, 4125.25640998, 4140.89743569, 4123.07692280, 4134.74358947, 4193.46153833,8.57
4121.66666639, 4121.66666639, 4120.64102537, 4125.64102537, 4123.71794844, 4276.02564110, 4341.15384637, 4325.64102578, 4282.82051289, 4126.92307665, 4143.07692287, 4119.74358947, 4135.64102544, 4191.66666653,8.57
4119.10256383, 4122.05128178, 4120.25640998, 4121.02564075, 4122.82051255, 4275.12820520, 4338.71794893, 4329.35897450, 4279.61538469, 4129.74358947, 4142.56410236, 4116.41025614, 4135.51282031, 4191.41025628,8.57
4125.12820485, 4127.94871767, 4129.87179460, 4124.48717921, 4126.28205101, 4272.94871802, 4338.58974380, 4339.23076944, 4297.05128212, 4129.10256383, 4141.15384595, 4124.87179460, 4136.41025621, 4189.35897422,8.57
4117.05128178, 4122.43589716, 4119.87179460, 4120.89743562, 4124.48717921, 4275.25641033, 4335.12820534, 4334.23076944, 4298.97435905, 4126.79487152, 4136.02564082, 4118.58974332, 4132.94871767, 4187.94871781,8.57
4126.79487152, 4127.17948691, 4127.05128178, 4126.41025614, 4123.07692280, 4280.38461546, 4334.74358996, 4324.87179501, 4281.53846161, 4127.05128178, 4138.58974339, 4123.84615357, 4136.92307672, 4192.43589730,8.57
4122.94871767, 4127.94871767, 4125.76923050, 4123.20512793, 4122.94871767, 4283.07692315, 4340.25641047, 4327.69230784, 4278.33333341, 4128.58974332, 4140.38461518, 4120.64102537, 4135.89743569, 4186.79487166,8.57
4117.56410229, 4121.15384588, 4121.66666639, 4118.71794844, 4124.61538434, 4283.20512828, 4343.20512842, 4330.64102578, 4285.51282059, 4127.30769203, 4140.12820492, 4119.10256383, 4131.41025614, 4189.35897422,8.57
4125.51282024, 4126.41025614, 4130.12820485, 4128.97435870, 4124.74358947, 4279.87179495, 4339.23076944, 4324.10256425, 4281.15384623, 4126.41025614, 4142.43589723, 4131.66666639, 4135.38461518, 4196.15384602,8.57
4113.71794844, 4122.05128178, 4116.66666639, 4124.35897408, 4120.64102537, 4268.84615392, 4329.61538476, 4315.25641040, 4268.97435905, 4128.58974332, 4140.51282031, 4120.76923050, 4136.28205108, 4192.30769217,8.57
4125.89743562, 4123.84615357, 4121.41025614, 4125.64102537, 4122.17948691, 4260.38461539, 4324.61538476, 4316.53846168, 4268.20512828, 4128.20512793, 4143.97435877, 4127.05128178, 4139.48717928, 4195.64102551,8.57
4129.10256383, 4124.23076896, 4126.41025614, 4130.12820485, 4123.20512793, 4270.76923084, 4334.87179508, 4331.15384630, 4284.35897443, 4124.74358947, 4143.07692287, 4131.79487152, 4140.12820492, 4198.58974345,8.57
4117.30769203, 4122.30769203, 4121.02564075, 4123.46153819, 4121.15384588, 4285.76923084, 4343.97435919, 4336.66666688, 4292.43589751, 4126.53846126, 4137.94871774, 4123.07692280, 4139.10256390, 4199.61538448,8.57
4128.33333306, 4130.64102537, 4127.05128178, 4124.99999973, 4123.33333306, 4283.07692315, 4337.82051303, 4327.82051296, 4283.46153853, 4130.51282024, 4141.41025621, 4132.43589716, 4140.38461518, 4199.23076910,8.57
4122.30769203, 4126.15384588, 4117.69230742, 4121.92307665, 4123.20512793, 4275.76923084, 4333.84615406, 4324.74358989, 4277.82051289, 4129.48717921, 4139.35897415, 4123.20512793, 4133.58974332, 4197.17948704,8.57
4123.58974332, 4126.41025614, 4122.05128178, 4124.74358947, 4126.53846126, 4276.66666674, 4337.43589765, 4330.89743604, 4281.02564110, 4128.97435870, 4137.17948697, 4124.35897408, 4133.71794844, 4202.69230763,8.57
4127.17948691, 4127.30769203, 4125.76923050, 4128.20512793, 4127.43589716, 4276.66666674, 4337.69230790, 4336.79487201, 4290.25641033, 4129.35897408, 4139.23076903, 4129.23076896, 4135.89743569, 4199.74358961,8.57
4120.76923050, 4121.41025614, 4115.25640998, 4118.58974332, 4121.02564075, 4275.76923084, 4338.71794893, 4337.94871816, 4296.02564110, 4128.20512793, 4139.74358954, 4119.35897408, 4134.23076896, 4197.05128192,8.57
4119.23076896, 4122.69230742, 4119.87179460, 4129.23076896, 4124.10256383, 4257.05128206, 4323.07692322, 4309.10256425, 4242.69230770, 4128.20512793, 4135.12820485, 4118.97435870, 4134.61538434, 4189.99999986,8.57
4113.58974332, 4124.23076896, 4119.35897408, 4124.48717921, 4123.58974332, 4248.46153847, 4321.66666681, 4309.87179501, 4249.61538462, 4127.30769203, 4134.10256383, 4114.23076896, 4133.84615357, 4191.15384602,8.57
4120.25640998, 4127.69230742, 4129.35897408, 4125.76923050, 4125.38461511, 4240.89743590, 4309.74358989, 4305.64102578, 4244.74358975, 4128.84615357, 4136.28205108, 4122.69230742, 4135.25640998, 4191.66666653,8.57
4119.23076896, 4122.69230742, 4121.53846126, 4122.30769203, 4124.48717921, 4244.74358975, 4308.58974373, 4301.02564117, 4236.92307693, 4129.61538434, 4134.10256383, 4118.07692280, 4133.58974332, 4188.46153833,8.57
4130.51282024, 4129.74358947, 4127.56410229, 4126.53846126, 4125.25640998, 4242.30769231, 4313.97435912, 4301.02564117, 4243.46153847, 4129.10256383, 4137.17948697, 4125.89743562, 4136.66666646, 4195.89743576,8.57
4122.69230742, 4128.20512793, 4123.07692280, 4124.10256383, 4124.99999973, 4238.46153847, 4313.46153860, 4301.66666681, 4245.76923077, 4129.99999973, 4136.66666646, 4122.69230742, 4134.23076896, 4195.64102551,8.57
4115.64102537, 4121.15384588, 4119.74358947, 4124.23076896, 4125.12820485, 4238.97435898, 4308.97435912, 4296.15384623, 4229.61538455, 4131.02564075, 4133.58974332, 4119.61538434, 4134.10256383, 4193.20512807,8.57
4127.05128178, 4126.15384588, 4131.53846126, 4132.05128178, 4125.25640998, 4231.02564096, 4301.92307707, 4285.89743597, 4213.97435891, 4128.97435870, 4136.02564082, 4132.17948691, 4139.48717928, 4195.51282038,8.57
4117.43589716, 4120.76923050, 4120.12820485, 4123.84615357, 4120.38461511, 4226.66666660, 4303.58974373, 4291.66666674, 4226.41025634, 4126.66666639, 4134.99999973, 4121.41025614, 4132.43589716, 4196.02564089,8.57
4123.97435870, 4125.64102537, 4123.58974332, 4127.17948691, 4122.30769203, 4237.30769231, 4313.33333348, 4304.61538476, 4244.61538462, 4129.35897408, 4136.92307672, 4127.05128178, 4133.58974332, 4198.46153833,8.57
4127.05128178, 4129.35897408, 4126.92307665, 4131.02564075, 4125.51282024, 4245.89743590, 4314.74358989, 4295.76923084, 4230.12820506, 4129.10256383, 4137.30769210, 4133.33333306, 4137.43589723, 4195.76923063,8.57
4120.12820485, 4123.46153819, 4119.23076896, 4123.33333306, 4122.56410229, 4241.92307693, 4311.53846168, 4285.25641033, 4213.58974352, 4125.12820485, 4134.87179460, 4125.12820485, 4134.23076896, 4199.87179474,8.57
4127.94871767, 4127.30769203, 4124.10256383, 4126.41025614, 4122.94871767, 4236.28205129, 4312.69230784, 4292.69230777, 4221.02564096, 4126.15384588, 4137.56410236, 4129.74358947, 4135.76923056, 4203.07692301,8.57
4119.10256383, 4122.69230742, 4118.84615357, 4124.35897408, 4123.58974332, 4239.61538462, 4313.07692322, 4294.87179495, 4223.46153840, 4127.82051255, 4135.12820485, 4121.41025614, 4131.02564075, 4196.02564089,8.57
4126.28205101, 4124.99999973, 4125.89743562, 4124.99999973, 4123.71794844, 4237.94871795, 4307.56410271, 4285.25641033, 4213.46153840, 4128.20512793, 4133.58974332, 4126.92307665, 4132.56410229, 4199.48717935,8.57
4131.53846126, 4129.35897408, 4126.41025614, 4126.79487152, 4123.84615357, 4225.51282045, 4300.12820527, 4280.12820520, 4211.53846147, 4129.61538434, 4133.07692280, 4129.23076896, 4138.33333313, 4199.23076910,8.57
4119.23076896, 4123.33333306, 4114.10256383, 4120.64102537, 4122.30769203, 4218.97435891, 4298.07692315, 4281.66666674, 4214.23076917, 4128.20512793, 4129.99999973, 4115.38461511, 4133.58974332, 4194.74358961,8.57
4126.66666639, 4122.69230742, 4122.05128178, 4123.58974332, 4123.58974332, 4218.07692301, 4297.82051289, 4282.30769238, 4214.10256404, 4127.05128178, 4132.05128178, 4124.10256383, 4136.28205108, 4196.79487166,8.57
4121.53846126, 4118.84615357, 4117.69230742, 4121.41025614, 4122.30769203, 4211.53846147, 4294.10256418, 4280.25641033, 4213.58974352, 4129.35897408, 4129.10256383, 4120.12820485, 4135.12820485, 4194.23076910,8.57
4121.53846126, 4122.94871767, 4117.82051255, 4120.76923050, 4123.20512793, 4211.79487173, 4293.33333341, 4273.33333341, 4202.69230763, 4129.35897408, 4126.79487152, 4121.02564075, 4131.66666639, 4196.66666653,8.57
4125.12820485, 4123.97435870, 4123.20512793, 4124.23076896, 4124.61538434, 4224.74358968, 4298.84615392, 4267.82051289, 4195.89743576, 4127.82051255, 4128.33333306, 4124.10256383, 4133.97435870, 4192.69230756,8.57
4116.66666639, 4114.87179460, 4116.92307665, 4122.43589716, 4121.02564075, 4228.58974352, 4300.38461553, 4273.84615392, 4209.61538455, 4127.17948691, 4127.05128178, 4110.25640998, 4132.43589716, 4189.48717935,8.57
4124.23076896, 4123.07692280, 4123.58974332, 4129.99999973, 4123.33333306, 4216.28205122, 4291.41025648, 4279.48717956, 4216.92307686, 4126.66666639, 4132.17948691, 4120.25640998, 4134.48717921, 4195.38461525,8.57
4118.07692280, 4124.87179460, 4121.28205101, 4127.43589716, 4126.15384588, 4210.64102558, 4286.92307700, 4277.82051289, 4215.25641019, 4126.66666639, 4133.20512793, 4118.33333306, 4133.20512793, 4189.87179474,8.57
4117.30769203, 4121.41025614, 4125.25640998, 4123.46153819, 4125.38461511, 4215.89743583, 4294.61538469, 4278.84615392, 4219.74358968, 4126.92307665, 4130.38461511, 4112.94871767, 4134.35897408, 4188.97435884,8.57
4126.92307665, 4127.56410229, 4130.25640998, 4126.79487152, 4123.84615357, 4214.99999993, 4297.94871802, 4278.71794879, 4212.17948711, 4125.76923050, 4132.05128178, 4123.46153819, 4136.15384595, 4191.41025628,8.57
4120.64102537, 4126.02564075, 4119.10256383, 4121.79487152, 4121.66666639, 4212.30769224, 4294.61538469, 4275.00000007, 4199.99999986, 4125.12820485, 4132.56410229, 4118.33333306, 4131.02564075, 4190.51282038,8.57
4129.23076896, 4128.33333306, 4130.12820485, 4128.71794844, 4124.87179460, 4216.15384609, 4297.69230777, 4279.74358982, 4211.41025634, 4126.28205101, 4134.48717921, 4123.71794844, 4137.56410236, 4195.12820499,8.57
4123.84615357, 4123.71794844, 4128.58974332, 4127.05128178, 4123.84615357, 4209.48717942, 4295.12820520, 4277.17948725, 4213.58974352, 4126.02564075, 4130.89743562, 4118.97435870, 4137.69230749, 4191.79487166,8.57
4119.23076896, 4120.51282024, 4123.33333306, 4119.61538434, 4120.38461511, 4193.71794858, 4277.56410264, 4256.92307693, 4189.48717935, 4126.66666639, 4127.69230742, 4115.12820485, 4131.41025614, 4190.12820499,8.57
4128.07692280, 4127.43589716, 4132.94871767, 4127.30769203, 4122.94871767, 4194.99999986, 4277.56410264, 4255.25641026, 4190.25641012, 4129.87179460, 4130.76923050, 4130.76923050, 4135.12820485, 4192.05128192,8.57
4117.82051255, 4119.35897408, 4121.41025614, 4125.25640998, 4123.20512793, 4208.33333327, 4290.38461546, 4265.00000000, 4204.61538455, 4129.61538434, 4128.84615357, 4122.82051255, 4132.43589716, 4192.56410243,8.57
4125.25640998, 4123.33333306, 4124.35897408, 4128.33333306, 4122.43589716, 4206.79487173, 4281.53846161, 4252.30769231, 4189.61538448, 4126.15384588, 4128.58974332, 4123.58974332, 4132.30769203, 4197.43589730,8.57
4124.10256383, 4129.87179460, 4127.94871767, 4128.84615357, 4122.56410229, 4193.97435884, 4268.07692315, 4240.38461539, 4175.76923063, 4124.99999973, 4128.84615357, 4128.07692280, 4135.51282031, 4196.02564089,8.57
4117.69230742, 4125.25640998, 4121.79487152, 4120.51282024, 4122.69230742, 4186.79487166, 4271.92307700, 4245.64102564, 4181.53846140, 4126.53846126, 4126.92307665, 4125.12820485, 4137.05128185, 4198.33333320,8.57
4130.12820485, 4126.02564075, 4126.28205101, 4125.38461511, 4123.71794844, 4189.87179474, 4277.69230777, 4250.64102564, 4182.82051269, 4127.56410229, 4129.74358947, 4131.53846126, 4138.71794851, 4201.53846147,8.57
4119.74358947, 4121.15384588, 4117.43589716, 4125.25640998, 4122.30769203, 4196.02564089, 4279.23076930, 4255.38461539, 4183.58974345, 4127.82051255, 4128.46153819, 4119.61538434, 4132.05128178, 4196.02564089,8.57
4124.10256383, 4128.07692280, 4122.94871767, 4124.48717921, 4122.94871767, 4193.58974345, 4277.30769238, 4255.89743590, 4188.46153833, 4127.94871767, 4129.99999973, 4124.35897408, 4134.87179460, 4199.99999986,8.57
4129.48717921, 4130.76923050, 4126.92307665, 4124.87179460, 4123.46153819, 4185.12820499, 4269.35897443, 4246.66666667, 4189.48717935, 4127.69230742, 4134.35897408, 4132.30769203, 4140.38461518, 4199.48717935,8.57
4118.84615357, 4120.89743562, 4117.17948691, 4121.53846126, 4121.28205101, 4184.74358961, 4266.15384616, 4248.97435898, 4189.35897422, 4127.30769203, 4130.12820485, 4121.28205101, 4136.15384595, 4196.15384602,8.57
4124.87179460, 4122.30769203, 4123.33333306, 4126.15384588, 4122.17948691, 4188.97435884, 4268.84615392, 4250.12820513, 4175.38461525, 4127.56410229, 4127.56410229, 4127.82051255, 4137.69230749, 4199.35897422,8.57
4118.20512793, 4119.61538434, 4119.48717921, 4121.15384588, 4122.56410229, 4187.69230756, 4266.66666674, 4236.15384616, 4159.35897415, 4127.05128178, 4126.28205101, 4121.02564075, 4134.99999973, 4196.53846140,8.57
4119.87179460, 4122.17948691, 4120.64102537, 4121.02564075, 4125.51282024, 4180.51282038, 4260.51282052, 4230.76923070, 4165.38461518, 4126.92307665, 4126.41025614, 4117.82051255, 4135.51282031, 4198.33333320,8.57
4124.48717921, 4125.51282024, 4121.02564075, 4123.71794844, 4128.07692280, 4177.69230756, 4255.64102564, 4230.89743583, 4165.76923056, 4127.43589716, 4126.28205101, 4121.79487152, 4137.69230749, 4196.28205115,8.57
4114.23076896, 4118.20512793, 4112.05128178, 4117.69230742, 4124.48717921, 4181.41025628, 4254.74358975, 4224.99999993, 4153.71794851, 4126.79487152, 4122.69230742, 4112.69230742, 4131.28205101, 4191.41025628,8.57
4121.41025614, 4121.79487152, 4123.33333306, 4126.15384588, 4125.51282024, 4178.71794858, 4254.35897436, 4226.66666660, 4156.15384595, 4127.82051255, 4127.05128178, 4120.76923050, 4133.20512793, 4196.28205115,8.57
4117.43589716, 4121.53846126, 4119.99999973, 4124.61538434, 4126.02564075, 4168.46153833, 4254.87179488, 4231.92307686, 4163.97435877, 4128.20512793, 4129.35897408, 4117.82051255, 4132.82051255, 4192.69230756,8.57
4116.79487152, 4121.66666639, 4118.97435870, 4121.79487152, 4124.61538434, 4168.84615371, 4257.30769231, 4227.30769224, 4157.17948697, 4125.64102537, 4126.66666639, 4115.12820485, 4131.41025614, 4189.35897422,8.57
4121.79487152, 4125.64102537, 4128.58974332, 4127.17948691, 4124.10256383, 4177.17948704, 4257.69230770, 4223.20512814, 4152.17948697, 4125.89743562, 4125.51282024, 4121.92307665, 4133.97435870, 4189.61538448,8.57
4114.87179460, 4118.33333306, 4121.92307665, 4120.38461511, 4122.30769203, 4177.56410243, 4256.53846154, 4229.99999993, 4162.43589723, 4128.84615357, 4125.12820485, 4114.10256383, 4130.25640998, 4191.28205115,8.57
4125.12820485, 4123.84615357, 4126.41025614, 4126.53846126, 4125.38461511, 4178.07692294, 4258.58974359, 4236.79487180, 4170.38461525, 4128.71794844, 4130.51282024, 4122.69230742, 4133.46153819, 4196.02564089,8.57
4121.15384588, 4126.28205101, 4121.02564075, 4128.97435870, 4124.61538434, 4186.66666653, 4262.94871795, 4236.28205129, 4167.94871774, 4126.53846126, 4129.74358947, 4122.17948691, 4134.61538434, 4190.64102551,8.57
4118.58974332, 4121.66666639, 4120.12820485, 4123.46153819, 4122.30769203, 4184.61538448, 4259.10256411, 4229.48717942, 4162.05128185, 4127.69230742, 4124.61538434, 4117.94871767, 4133.07692280, 4192.43589730,8.57
4128.58974332, 4127.05128178, 4129.10256383, 4124.61538434, 4124.87179460, 4168.58974345, 4244.10256411, 4215.51282045, 4147.43589723, 4129.10256383, 4124.74358947, 4129.35897408, 4135.76923056, 4198.84615371,8.57
4114.23076896, 4121.92307665, 4113.58974332, 4120.25640998, 4123.97435870, 4156.41025621, 4227.43589737, 4198.58974345, 4126.53846126, 4128.58974332, 4122.56410229, 4121.41025614, 4134.10256383, 4195.38461525,8.57
4119.10256383, 4125.76923050, 4120.38461511, 4127.30769203, 4123.46153819, 4153.20512800, 4221.41025634, 4191.92307679, 4121.92307665, 4128.97435870, 4124.48717921, 4125.64102537, 4136.79487159, 4194.23076910,8.57
4122.94871767, 4129.74358947, 4126.92307665, 4129.87179460, 4122.30769203, 4156.28205108, 4227.94871788, 4204.48717942, 4136.15384595, 4129.74358947, 4126.02564075, 4127.56410229, 4136.41025621, 4194.48717935,8.57
4117.30769203, 4123.84615357, 4120.38461511, 4122.05128178, 4122.94871767, 4153.97435877, 4232.05128199, 4207.94871788, 4135.89743569, 4128.58974332, 4126.66666639, 4122.30769203, 4135.25640998, 4198.97435884,8.57
4127.69230742, 4127.30769203, 4128.33333306, 4125.38461511, 4126.92307665, 4143.20512800, 4224.87179481, 4191.41025628, 4122.69230742, 4128.46153819, 4129.61538434, 4130.64102537, 4140.12820492, 4198.71794858,8.57
4121.02564075, 4124.61538434, 4122.30769203, 4124.10256383, 4124.10256383, 4149.10256390, 4227.43589737, 4193.84615371, 4128.84615357, 4127.30769203, 4124.48717921, 4117.82051255, 4134.48717921, 4194.99999986,8.57
4124.23076896, 4126.02564075, 4126.66666639, 4124.99999973, 4121.92307665, 4165.51282031, 4237.56410257, 4207.43589737, 4138.33333313, 4126.41025614, 4124.87179460, 4124.23076896, 4133.97435870, 4203.33333327,8.57
4125.51282024, 4124.74358947, 4129.10256383, 4126.53846126, 4123.46153819, 4158.20512800, 4229.10256404, 4198.33333320, 4130.76923050, 4127.82051255, 4127.17948691, 4133.46153819, 4137.94871774, 4200.89743576,8.57
4117.30769203, 4118.97435870, 4117.56410229, 4121.92307665, 4122.05128178, 4140.76923056, 4212.43589737, 4188.07692294, 4126.79487152, 4127.56410229, 4121.66666639, 4119.35897408, 4135.89743569, 4196.92307679,8.57
4129.35897408, 4126.66666639, 4122.69230742, 4126.79487152, 4124.61538434, 4135.89743569, 4208.07692301, 4190.64102551, 4125.51282024, 4127.94871767, 4120.89743562, 4125.38461511, 4137.17948697, 4200.12820499,8.57
4123.58974332, 4124.48717921, 4119.87179460, 4123.20512793, 4125.64102537, 4134.87179460, 4208.33333327, 4184.99999986, 4112.17948691, 4128.58974332, 4119.74358947, 4121.92307665, 4134.61538434, 4192.69230756,8.57
4120.76923050, 4122.43589716, 4121.66666639, 4120.38461511, 4123.20512793, 4129.10256383, 4204.10256404, 4171.15384602, 4099.23076889, 4127.56410229, 4122.30769203, 4121.66666639, 4136.41025621, 4194.74358961,8.57
4123.58974332, 4126.28205101, 4123.46153819, 4123.33333306, 4122.82051255, 4126.79487152, 4204.74358968, 4176.92307679, 4109.48717921, 4127.82051255, 4127.43589716, 4125.12820485, 4137.69230749, 4195.12820499,8.57
4114.61538434, 4122.17948691, 4115.89743562, 4121.15384588, 4125.51282024, 4136.66666646, 4213.97435891, 4198.97435884, 4133.84615357, 4128.58974332, 4122.43589716, 4112.69230742, 4129.74358947, 4187.94871781,8.57
4122.30769203, 4124.23076896, 4123.97435870, 4127.94871767, 4128.84615357, 4139.10256390, 4210.64102558, 4194.23076910, 4128.33333306, 4127.69230742, 4121.02564075, 4121.02564075, 4133.20512793, 4191.66666653,8.57
4119.61538434, 4122.69230742, 4119.99999973, 4126.79487152, 4122.94871767, 4130.12820485, 4198.07692294, 4167.69230749, 4098.84615350, 4126.28205101, 4124.48717921, 4121.53846126, 4135.25640998, 4192.94871781,8.57
4117.43589716, 4121.79487152, 4120.64102537, 4123.58974332, 4120.64102537, 4131.53846126, 4200.64102551, 4165.38461518, 4096.15384581, 4127.17948691, 4125.64102537, 4116.15384588, 4134.48717921, 4192.82051269,8.57
4122.17948691, 4123.33333306, 4127.82051255, 4127.69230742, 4124.99999973, 4137.56410236, 4208.84615378, 4178.97435884, 4115.38461511, 4127.43589716, 4125.51282024, 4119.87179460, 4137.82051262, 4191.28205115,8.57
4116.28205101, 4118.84615357, 4119.99999973, 4122.05128178, 4123.84615357, 4131.79487152, 4202.17948711, 4170.38461525, 4110.89743562, 4126.41025614, 4123.07692280, 4117.17948691, 4134.61538434, 4191.79487166,8.57
4123.58974332, 4125.51282024, 4128.71794844, 4124.99999973, 4125.38461511, 4124.35897408, 4192.82051269, 4158.58974339, 4097.30769196, 4126.66666639, 4124.87179460, 4128.71794844, 4136.53846133, 4194.99999986,8.57
4116.66666639, 4122.94871767, 4123.84615357, 4124.99999973, 4123.97435870, 4124.10256383, 4191.41025628, 4163.97435877, 4103.97435870, 4127.05128178, 4124.35897408, 4121.79487152, 4134.35897408, 4187.82051269,8.57
4117.30769203, 4119.99999973, 4118.07692280, 4122.94871767, 4122.43589716, 4118.97435870, 4185.25641012, 4158.71794851, 4100.12820478, 4128.07692280, 4122.30769203, 4114.74358947, 4130.89743562, 4189.10256397,8.57
4129.23076896, 4127.94871767, 4129.10256383, 4126.66666639, 4127.94871767, 4108.46153819, 4173.33333320, 4140.76923056, 4077.30769196, 4128.58974332, 4123.46153819, 4128.20512793, 4134.61538434, 4193.97435884,8.57
4115.12820485, 4119.87179460, 4119.48717921, 4120.25640998, 4125.64102537, 4106.28205101, 4170.38461525, 4134.10256383, 4068.97435856, 4127.56410229, 4119.99999973, 4121.53846126, 4131.41025614, 4189.74358961,8.57
4123.58974332, 4124.10256383, 4123.71794844, 4128.33333306, 4122.56410229, 4106.15384588, 4172.30769217, 4133.46153819, 4071.79487145, 4127.94871767, 4123.71794844, 4127.43589716, 4134.48717921, 4194.48717935,8.57
4126.53846126, 4129.23076896, 4124.48717921, 4132.17948691, 4124.61538434, 4096.79487145, 4163.46153826, 4122.30769203, 4061.79487138, 4127.56410229, 4126.92307665, 4128.46153819, 4136.02564082, 4196.79487166,8.57
4118.58974332, 4122.05128178, 4117.56410229, 4121.53846126, 4123.97435870, 4088.71794837, 4155.25641005, 4116.53846126, 4053.58974318, 4127.94871767, 4124.74358947, 4120.76923050, 4132.43589716, 4197.43589730,8.57
4128.20512793, 4125.12820485, 4124.87179460, 4127.17948691, 4122.94871767, 4100.38461504, 4167.05128185, 4135.64102544, 4072.69230735, 4130.89743562, 4127.56410229, 4132.94871767, 4137.30769210, 4199.35897422,8.57
4118.33333306, 4123.46153819, 4116.53846126, 4128.33333306, 4122.56410229, 4109.35897408, 4176.15384602, 4148.58974339, 4090.51282017, 4130.89743562, 4124.23076896, 4122.17948691, 4134.74358947, 4196.02564089,8.57
4123.84615357, 4127.05128178, 4122.30769203, 4127.82051255, 4122.17948691, 4098.58974325, 4164.48717928, 4141.15384595, 4087.69230735, 4127.94871767, 4122.82051255, 4123.20512793, 4134.10256383, 4200.12820499,8.57
4126.92307665, 4128.07692280, 4128.58974332, 4127.56410229, 4121.66666639, 4099.61538427, 4163.33333313, 4147.43589723, 4093.71794837, 4126.15384588, 4122.94871767, 4132.30769203, 4135.64102544, 4198.33333320,8.57
4113.20512793, 4119.74358947, 4117.94871767, 4121.53846126, 4123.07692280, 4111.53846126, 4176.02564089, 4159.10256390, 4102.05128171, 4125.38461511, 4120.64102537, 4122.43589716, 4133.07692280, 4197.05128192,8.57
4122.56410229, 4123.46153819, 4120.51282024, 4123.84615357, 4124.10256383, 4099.48717914, 4166.02564082, 4140.25641005, 4084.48717914, 4126.79487152, 4126.66666639, 4126.28205101, 4136.92307672, 4201.53846147,8.57
4120.38461511, 4123.71794844, 4117.94871767, 4119.99999973, 4120.38461511, 4085.64102530, 4149.61538441, 4118.20512793, 4064.48717907, 4129.87179460, 4127.17948691, 4119.23076896, 4134.35897408, 4195.89743576,8.57
4119.74358947, 4123.46153819, 4121.02564075, 4123.97435870, 4122.05128178, 4092.17948684, 4151.66666646, 4122.56410229, 4064.23076882, 4129.99999973, 4122.82051255, 4120.89743562, 4134.23076896, 4195.38461525,8.57
4122.69230742, 4121.79487152, 4118.97435870, 4130.12820485, 4124.48717921, 4088.71794837, 4149.48717928, 4122.30769203, 4059.99999959, 4129.87179460, 4120.51282024, 4125.89743562, 4137.30769210, 4196.15384602,8.57
4115.25640998, 4116.66666639, 4110.89743562, 4121.92307665, 4121.15384588, 4072.69230735, 4139.74358954, 4111.92307665, 4052.43589702, 4129.35897408, 4120.38461511, 4113.46153819, 4132.82051255, 4194.48717935,8.57
4123.20512793, 4125.25640998, 4127.05128178, 4126.92307665, 4122.43589716, 4069.61538420, 4137.43589723, 4112.05128178, 4055.25640984, 4126.79487152, 4124.48717921, 4122.56410229, 4134.23076896, 4194.23076910,8.57
4116.92307665, 4122.94871767, 4120.64102537, 4127.56410229, 4120.89743562, 4071.66666632, 4129.87179460, 4106.28205101, 4045.76923036, 4125.76923050, 4120.89743562, 4120.12820485, 4132.56410229, 4189.35897422,8.57
4115.89743562, 4117.05128178, 4113.07692280, 4124.10256383, 4121.15384588, 4068.07692266, 4121.92307665, 4093.07692273, 4034.87179439, 4127.56410229, 4118.71794844, 4115.89743562, 4133.33333306, 4194.74358961,8.57
4124.48717921, 4123.07692280, 4125.25640998, 4126.92307665, 4125.89743562, 4065.12820472, 4125.64102537, 4095.89743555, 4043.20512779, 4127.56410229, 4124.61538434, 4123.46153819, 4136.53846133, 4195.25641012,8.57
4118.46153819, 4122.05128178, 4121.66666639, 4119.74358947, 4122.05128178, 4064.99999959, 4123.07692280, 4100.25640991, 4043.46153805, 4124.99999973, 4123.84615357, 4117.17948691, 4127.43589716, 4187.30769217,8.57
4127.69230742, 4125.76923050, 4126.79487152, 4124.61538434, 4120.76923050, 4065.89743548, 4114.74358947, 4084.74358940, 4024.10256362, 4126.15384588, 4123.84615357, 4126.92307665, 4128.58974332, 4192.56410243,8.57
4122.56410229, 4123.71794844, 4124.10256383, 4125.64102537, 4123.97435870, 4064.87179446, 4115.12820485, 4073.33333299, 4017.56410208, 4128.33333306, 4124.99999973, 4123.97435870, 4132.94871767, 4192.56410243,8.57
4116.02564075, 4120.76923050, 4121.28205101, 4122.17948691, 4124.35897408, 4058.97435856, 4110.76923050, 4076.79487145, 4024.87179439, 4127.05128178, 4124.61538434, 4115.64102537, 4131.53846126, 4191.28205115,8.57
4126.92307665, 4128.33333306, 4129.61538434, 4128.58974332, 4122.94871767, 4054.48717907, 4097.43589709, 4073.33333299, 4020.89743541, 4125.64102537, 4125.51282024, 4128.46153819, 4134.48717921, 4194.87179474,8.57
4118.97435870, 4122.17948691, 4121.02564075, 4124.74358947, 4119.87179460, 4058.71794830, 4100.12820478, 4074.87179453, 4025.12820465, 4126.02564075, 4123.58974332, 4121.79487152, 4130.51282024, 4195.25641012,8.57
4127.69230742, 4125.76923050, 4127.82051255, 4128.97435870, 4123.07692280, 4062.30769189, 4112.43589716, 4087.94871761, 4040.38461497, 4130.25640998, 4125.89743562, 4124.87179460, 4131.66666639, 4198.07692294,8.57
4128.84615357, 4128.71794844, 4126.15384588, 4128.33333306, 4125.64102537, 4059.99999959, 4110.64102537, 4090.38461504, 4043.20512779, 4132.17948691, 4127.43589716, 4128.71794844, 4133.46153819, 4195.25641012,8.57
4118.07692280, 4123.07692280, 4117.17948691, 4118.97435870, 4121.28205101, 4061.28205087, 4104.99999973, 4081.28205094, 4034.48717900, 4128.33333306, 4126.53846126, 4123.84615357, 4130.76923050, 4197.43589730,8.57
4125.89743562, 4128.97435870, 4125.76923050, 4126.41025614, 4119.61538434, 4059.10256369, 4105.12820485, 4077.69230735, 4030.25640977, 4127.69230742, 4129.35897408, 4132.69230742, 4132.17948691, 4199.48717935,8.57
4115.64102537, 4122.17948691, 4115.64102537, 4125.76923050, 4119.87179460, 4052.30769189, 4102.30769196, 4080.38461504, 4034.48717900, 4129.35897408, 4127.05128178, 4120.64102537, 4131.53846126, 4194.23076910,8.57
4121.79487152, 4122.17948691, 4119.35897408, 4123.84615357, 4122.30769203, 4051.28205087, 4094.74358940, 4073.46153812, 4029.23076875, 4128.46153819, 4128.33333306, 4125.38461511, 4137.82051262, 4200.76923063,8.57
4131.53846126, 4130.64102537, 4126.79487152, 4126.79487152, 4124.99999973, 4049.10256369, 4092.43589709, 4062.69230728, 4015.12820465, 4127.82051255, 4128.07692280, 4134.99999973, 4137.82051262, 4201.92307686,8.57
4120.64102537, 4126.15384588, 4115.89743562, 4122.82051255, 4122.94871767, 4044.61538420, 4098.20512786, 4074.35897402, 4023.58974311, 4126.66666639, 4122.94871767, 4122.17948691, 4130.12820485, 4198.07692294,8.57
4124.35897408, 4125.76923050, 4121.02564075, 4123.84615357, 4121.79487152, 4047.30769189, 4103.33333306, 4096.15384581, 4043.58974318, 4126.79487152, 4126.41025614, 4130.38461511, 4135.64102544, 4201.53846147,8.57
4118.33333306, 4123.58974332, 4118.97435870, 4120.89743562, 4121.28205101, 4053.84615343, 4104.10256383, 4099.61538427, 4046.79487138, 4128.71794844, 4125.64102537, 4127.69230742, 4134.99999973, 4199.10256397,8.57
4118.84615357, 4125.38461511, 4118.58974332, 4121.53846126, 4124.10256383, 4047.82051241, 4100.25640991, 4092.30769196, 4042.30769189, 4129.61538434, 4123.58974332, 4123.20512793, 4132.05128178, 4200.25641012,8.57
4122.05128178, 4124.87179460, 4121.79487152, 4122.94871767, 4124.74358947, 4036.15384567, 4092.05128171, 4083.97435863, 4038.84615343, 4128.33333306, 4127.56410229, 4126.28205101, 4133.71794844, 4197.94871781,8.57
4113.46153819, 4117.69230742, 4115.64102537, 4118.33333306, 4121.92307665, 4036.28205080, 4085.51282017, 4072.30769196, 4031.28205080, 4127.94871767, 4123.97435870, 4116.53846126, 4131.02564075, 4192.69230756,8.57
4121.15384588, 4124.23076896, 4122.17948691, 4124.74358947, 4124.87179460, 4039.23076882, 4079.10256376, 4057.69230728, 4018.97435849, 4129.35897408, 4123.07692280, 4119.74358947, 4133.20512793, 4196.02564089,8.57
4121.15384588, 4124.23076896, 4122.17948691, 4124.74358947, 4124.87179460, 4039.23076882, 4079.10256376, 4057.69230728, 4018.97435849, 4129.35897408, 4123.07692280, 4119.74358947, 4133.20512793, 4196.02564089,8.57
4118.33333306, 4122.56410229, 4120.12820485, 4123.97435870, 4124.61538434, 4034.35897388, 4070.25640991, 4041.15384574, 4005.89743541, 4129.23076896, 4123.58974332, 4116.79487152, 4130.51282024, 4191.28205115,8.57
4119.74358947, 4119.35897408, 4120.51282024, 4123.33333306, 4122.43589716, 4029.35897388, 4064.87179446, 4031.02564054, 3999.61538406, 4127.94871767, 4120.64102537, 4116.15384588, 4128.07692280, 4188.84615371,8.57
4124.23076896, 4126.28205101, 4125.12820485, 4128.84615357, 4122.94871767, 4027.17948670, 4062.56410215, 4032.94871747, 3998.20512765, 4127.43589716, 4124.99999973, 4121.28205101, 4132.69230742, 4189.35897422,8.57
4115.76923050, 4124.61538434, 4120.25640998, 4122.56410229, 4122.82051255, 4022.94871747, 4056.66666625, 4028.58974311, 3988.71794817, 4128.71794844, 4128.58974332, 4112.69230742, 4128.71794844, 4186.92307679,8.57
4128.58974332, 4128.71794844, 4132.43589716, 4125.89743562, 4125.64102537, 4021.02564054, 4053.58974318, 4016.41025593, 3977.69230714, 4127.43589716, 4126.28205101, 4124.87179460, 4131.92307665, 4191.53846140,8.57
4124.99999973, 4125.38461511, 4124.61538434, 4124.23076896, 4124.61538434, 4024.74358926, 4060.12820472, 4027.43589695, 3991.79487124, 4126.02564075, 4120.89743562, 4123.58974332, 4135.12820485, 4188.58974345,8.57
4124.99999973, 4125.38461511, 4124.61538434, 4124.23076896, 4124.61538434, 4024.74358926, 4060.12820472, 4027.43589695, 3991.79487124, 4126.02564075, 4120.89743562, 4123.58974332, 4135.12820485, 4188.58974345,8.57
4118.07692280, 4119.48717921, 4113.97435870, 4121.41025614, 4122.17948691, 4025.25640977, 4064.10256369, 4044.61538420, 4009.99999952, 4127.30769203, 4122.30769203, 4114.48717921, 4130.89743562, 4188.71794858,8.57
4128.33333306, 4126.66666639, 4127.17948691, 4131.28205101, 4124.74358947, 4024.48717900, 4059.87179446, 4038.07692266, 4004.10256362, 4127.05128178, 4126.79487152, 4129.48717921, 4133.71794844, 4194.99999986,8.57
4116.41025614, 4122.05128178, 4118.20512793, 4124.61538434, 4123.07692280, 4031.41025593, 4063.58974318, 4036.02564054, 3999.23076868, 4126.02564075, 4121.41025614, 4122.43589716, 4131.53846126, 4195.64102551,8.57
4119.74358947, 4122.05128178, 4121.79487152, 4124.35897408, 4121.79487152, 4036.15384567, 4071.02564068, 4047.17948677, 4009.87179439, 4126.79487152, 4124.10256383, 4122.17948691, 4132.56410229, 4199.87179474,8.57
4124.74358947, 4123.33333306, 4128.46153819, 4129.23076896, 4122.56410229, 4030.51282003, 4064.10256369, 4045.51282010, 4011.02564054, 4127.43589716, 4127.56410229, 4127.82051255, 4133.58974332, 4197.82051269,8.57
4121.02564075, 4122.56410229, 4123.07692280, 4123.20512793, 4122.17948691, 4018.58974311, 4048.33333292, 4029.87179439, 3992.30769176, 4127.69230742, 4120.25640998, 4121.53846126, 4128.84615357, 4197.43589730,8.57
4129.87179460, 4128.46153819, 4126.41025614, 4125.89743562, 4123.71794844, 4011.41025593, 4042.17948677, 4021.92307644, 3982.17948663, 4127.69230742, 4121.15384588, 4131.92307665, 4133.97435870, 4199.48717935,8.57
4119.74358947, 4121.15384588, 4116.28205101, 4123.84615357, 4121.15384588, 4014.74358926, 4047.05128164, 4022.17948670, 3986.53846099, 4126.92307665, 4123.07692280, 4124.74358947, 4135.25640998, 4195.25641012,8.57
4124.35897408, 4123.71794844, 4123.58974332, 4124.35897408, 4120.51282024, 4011.79487131, 4042.43589702, 4011.66666618, 3978.07692252, 4126.79487152, 4123.46153819, 4124.74358947, 4135.51282031, 4199.87179474,8.57
4129.99999973, 4129.99999973, 4128.58974332, 4125.12820485, 4122.82051255, 4003.71794817, 4034.35897388, 4000.25640970, 3966.28205066, 4127.05128178, 4123.97435870, 4131.92307665, 4135.89743569, 4200.12820499,8.57
4118.71794844, 4123.97435870, 4116.28205101, 4121.79487152, 4121.15384588, 4006.02564054, 4035.76923029, 4004.23076875, 3971.66666611, 4124.87179460, 4121.79487152, 4121.92307665, 4132.05128178, 4197.82051269,8.57
4125.25640998, 4124.99999973, 4122.69230742, 4125.12820485, 4122.17948691, 4009.35897388, 4035.12820465, 4003.33333278, 3968.46153784, 4124.74358947, 4121.92307665, 4127.94871767, 4134.99999973, 4200.64102551,8.57
4121.92307665, 4122.82051255, 4120.38461511, 4119.23076896, 4123.71794844, 4004.87179439, 4029.10256362, 3989.61538406, 3954.23076861, 4126.53846126, 4118.84615357, 4122.30769203, 4132.17948691, 4196.92307679,8.57
4121.28205101, 4123.58974332, 4119.74358947, 4119.10256383, 4124.10256383, 4001.66666611, 4028.58974311, 3990.12820458, 3963.20512758, 4127.82051255, 4118.71794844, 4119.35897408, 4131.53846126, 4198.58974345,8.57
4122.69230742, 4124.99999973, 4120.89743562, 4122.43589716, 4122.82051255, 4002.17948663, 4032.82051234, 4004.35897388, 3984.48717894, 4128.33333306, 4121.02564075, 4124.48717921, 4133.97435870, 4198.33333320,8.57
4116.02564075, 4120.12820485, 4115.51282024, 4116.79487152, 4121.02564075, 3999.99999945, 4030.51282003, 4003.84615329, 3978.97435842, 4127.56410229, 4118.07692280, 4112.94871767, 4129.61538434, 4193.58974345,8.57
4126.28205101, 4126.15384588, 4125.51282024, 4125.12820485, 4125.89743562, 3998.46153791, 4021.79487131, 3990.25640970, 3958.46153784, 4126.41025614, 4117.94871767, 4119.35897408, 4133.97435870, 4195.89743576,8.57
4119.74358947, 4122.43589716, 4120.25640998, 4126.28205101, 4126.02564075, 3998.97435842, 4019.48717900, 3988.84615329, 3957.56410194, 4125.38461511, 4118.20512793, 4116.66666639, 4132.30769203, 4192.94871781,8.57
4115.89743562, 4117.43589716, 4116.92307665, 4121.28205101, 4122.05128178, 3999.48717894, 4030.51282003, 4008.20512772, 3978.97435842, 4126.79487152, 4121.15384588, 4112.69230742, 4127.30769203, 4191.41025628,8.57
4123.71794844, 4127.17948691, 4123.07692280, 4125.38461511, 4123.97435870, 4001.79487124, 4033.58974311, 4018.84615336, 3986.66666611, 4127.94871767, 4123.33333306, 4119.99999973, 4132.43589716, 4190.89743576,8.57
4114.61538434, 4124.48717921, 4118.33333306, 4123.07692280, 4126.02564075, 4001.53846099, 4020.51282003, 3996.79487124, 3965.76923015, 4125.25640998, 4117.05128178, 4111.92307665, 4131.79487152, 4190.12820499,8.57
4124.48717921, 4125.12820485, 4131.15384588, 4126.28205101, 4127.30769203, 3993.46153791, 4012.43589695, 3974.74358919, 3948.84615322, 4126.02564075, 4119.35897408, 4123.20512793, 4134.23076896, 4196.15384602,8.57
4124.87179460, 4124.48717921, 4125.89743562, 4122.69230742, 4124.10256383, 3986.53846099, 4011.02564054, 3973.97435842, 3954.23076861, 4128.07692280, 4122.17948691, 4123.58974332, 4133.71794844, 4191.02564089,8.57
4117.82051255, 4122.17948691, 4117.69230742, 4118.07692280, 4123.84615357, 3990.64102509, 4010.89743541, 3978.84615329, 3965.12820451, 4126.79487152, 4118.97435870, 4116.02564075, 4129.74358947, 4190.89743576,8.57
4124.74358947, 4127.05128178, 4129.87179460, 4125.64102537, 4127.05128178, 3993.71794817, 4012.30769183, 3984.99999945, 3971.53846099, 4127.94871767, 4122.05128178, 4129.61538434, 4131.41025614, 4198.20512807,8.57
4116.28205101, 4120.38461511, 4119.74358947, 4121.28205101, 4122.56410229, 3988.33333278, 4010.76923029, 3993.71794817, 3974.87179432, 4128.84615357, 4122.56410229, 4122.17948691, 4128.07692280, 4194.35897422,8.57
4124.48717921, 4124.99999973, 4122.30769203, 4124.35897408, 4121.41025614, 3985.25640970, 4004.99999952, 3991.53846099, 3975.38461483, 4126.66666639, 4122.43589716, 4123.71794844, 4132.82051255, 4195.38461525,8.57
4125.12820485, 4127.82051255, 4126.28205101, 4124.48717921, 4122.69230742, 3987.30769176, 4006.28205080, 3992.30769176, 3986.66666611, 4126.41025614, 4123.33333306, 4126.53846126, 4135.51282031, 4194.99999986,8.57
4117.05128178, 4123.07692280, 4123.71794844, 4120.64102537, 4121.41025614, 3989.87179432, 4010.89743541, 3997.43589688, 3995.25640970, 4126.28205101, 4121.79487152, 4121.28205101, 4132.05128178, 4196.92307679,8.57
4124.87179460, 4127.43589716, 4129.48717921, 4130.51282024, 4123.07692280, 3985.76923022, 3999.99999945, 3979.87179432, 3972.69230714, 4125.38461511, 4122.30769203, 4129.61538434, 4135.25640998, 4199.48717935,8.57
4116.53846126, 4122.82051255, 4116.66666639, 4125.38461511, 4122.05128178, 3977.43589688, 3987.82051227, 3965.38461476, 3958.20512758, 4125.12820485, 4119.61538434, 4120.64102537, 4132.17948691, 4195.38461525,8.57
4125.12820485, 4126.53846126, 4122.05128178, 4122.82051255, 4121.28205101, 3973.84615329, 3989.35897381, 3969.74358912, 3965.12820451, 4125.89743562, 4120.89743562, 4124.61538434, 4133.46153819, 4198.97435884,8.57
4127.94871767, 4128.46153819, 4129.99999973, 4126.28205101, 4120.76923050, 3975.51281996, 3990.89743535, 3966.79487117, 3959.74358912, 4126.79487152, 4121.92307665, 4127.17948691, 4134.23076896, 4197.56410243,8.57
4119.87179460, 4122.30769203, 4118.33333306, 4120.89743562, 4122.05128178, 3973.71794817, 3984.10256355, 3960.64102502, 3947.17948656, 4125.76923050, 4119.35897408, 4117.82051255, 4130.64102537, 4196.02564089,8.57
4130.64102537, 4127.56410229, 4119.10256383, 4124.48717921, 4125.12820485, 3972.17948663, 3983.33333278, 3965.12820451, 3951.79487117, 4126.53846126, 4122.56410229, 4129.10256383, 4134.23076896, 4196.53846140,8.57
4119.61538434, 4124.74358947, 4116.02564075, 4122.43589716, 4121.79487152, 3980.38461483, 3994.87179432, 3972.82051227, 3969.74358912, 4128.84615357, 4119.87179460, 4120.12820485, 4130.12820485, 4192.17948704,8.57
4118.20512793, 4124.10256383, 4120.12820485, 4120.38461511, 4121.92307665, 3985.51281996, 4000.76923022, 3975.25640970, 3975.89743535, 4128.84615357, 4120.25640998, 4118.07692280, 4130.76923050, 4198.58974345,8.57
4124.61538434, 4125.25640998, 4120.25640998, 4120.89743562, 4124.61538434, 3984.23076868, 3998.97435842, 3977.56410201, 3971.92307637, 4127.30769203, 4124.87179460, 4124.61538434, 4133.84615357, 4198.20512807,8.57
4113.84615357, 4116.66666639, 4111.28205101, 4117.05128178, 4121.02564075, 3986.53846099, 4001.79487124, 3983.07692252, 3978.20512765, 4126.28205101, 4121.79487152, 4113.33333306, 4129.10256383, 4193.07692294,8.57
4120.12820485, 4122.43589716, 4123.07692280, 4125.38461511, 4122.69230742, 3983.97435842, 4002.05128150, 3984.87179432, 3983.71794817, 4125.51282024, 4122.17948691, 4118.97435870, 4131.79487152, 4196.41025628,8.57
4116.53846126, 4124.48717921, 4118.33333306, 4126.02564075, 4123.71794844, 3976.66666611, 3994.35897381, 3977.69230714, 3975.38461483, 4125.38461511, 4120.25640998, 4113.46153819, 4130.51282024, 4192.05128192,8.57
4116.66666639, 4121.15384588, 4115.76923050, 4122.94871767, 4121.02564075, 3975.51281996, 3988.58974304, 3968.33333271, 3963.97435835, 4127.05128178, 4119.61538434, 4109.10256383, 4128.07692280, 4191.66666653,8.57
4123.84615357, 4124.10256383, 4126.41025614, 4125.76923050, 4122.17948691, 3975.51281996, 3986.15384560, 3961.02564040, 3953.97435835, 4127.69230742, 4122.43589716, 4116.15384588, 4129.61538434, 4193.46153833,8.57
4116.41025614, 4120.25640998, 4121.53846126, 4121.92307665, 4123.84615357, 3974.61538406, 3983.84615329, 3959.10256348, 3950.76923015, 4127.69230742, 4120.64102537, 4110.38461511, 4126.02564075, 4191.28205115,8.57
4127.43589716, 4126.53846126, 4129.35897408, 4128.33333306, 4124.74358947, 3975.38461483, 3983.20512765, 3962.69230707, 3957.94871733, 4126.66666639, 4122.82051255, 4119.99999973, 4131.79487152, 4192.94871781,8.57
4123.71794844, 4126.92307665, 4125.64102537, 4123.84615357, 4121.53846126, 3980.51281996, 3985.25640970, 3962.43589681, 3956.79487117, 4124.10256383, 4120.64102537, 4117.05128178, 4132.69230742, 4190.25641012,8.57
4118.46153819, 4123.71794844, 4123.07692280, 4118.07692280, 4119.87179460, 3986.53846099, 3987.17948663, 3961.15384553, 3951.15384553, 4125.38461511, 4117.82051255, 4114.48717921, 4127.94871767, 4193.58974345,8.57
4127.17948691, 4128.33333306, 4132.69230742, 4128.33333306, 4122.82051255, 3983.07692252, 3985.64102509, 3966.02564040, 3959.74358912, 4126.66666639, 4123.33333306, 4126.41025614, 4131.92307665, 4195.89743576,8.57
4117.17948691, 4120.89743562, 4118.58974332, 4123.46153819, 4121.41025614, 3979.23076868, 3986.41025586, 3970.25640963, 3969.61538399, 4124.23076896, 4121.92307665, 4116.79487152, 4132.43589716, 4192.43589730,8.57
4127.94871767, 4124.99999973, 4123.97435870, 4125.12820485, 4122.56410229, 3984.10256355, 3989.35897381, 3970.89743528, 3971.53846099, 4125.25640998, 4121.15384588, 4123.33333306, 4134.74358947, 4197.82051269,8.57
4129.48717921, 4128.20512793, 4130.12820485, 4126.92307665, 4123.71794844, 3987.43589688, 3989.74358919, 3973.97435842, 3974.74358919, 4127.69230742, 4123.58974332, 4125.76923050, 4132.94871767, 4196.28205115,8.57
4119.35897408, 4120.76923050, 4124.23076896, 4120.25640998, 4122.30769203, 3982.94871740, 3984.87179432, 3972.05128150, 3972.05128150, 4125.12820485, 4122.43589716, 4119.48717921, 4129.74358947, 4195.64102551,8.57
4129.48717921, 4124.23076896, 4128.71794844, 4128.97435870, 4124.23076896, 3980.64102509, 3978.46153791, 3960.38461476, 3960.12820451, 4124.87179460, 4121.66666639, 4133.20512793, 4132.69230742, 4198.71794858,8.57
4121.79487152, 4122.82051255, 4118.97435870, 4127.69230742, 4123.46153819, 3981.28205073, 3976.92307637, 3953.07692246, 3953.97435835, 4127.94871767, 4118.33333306, 4122.43589716, 4128.20512793, 4198.20512807,8.57
4126.02564075, 4126.92307665, 4124.99999973, 4123.46153819, 4124.74358947, 3981.15384560, 3978.20512765, 3955.89743528, 3959.23076861, 4128.20512793, 4122.56410229, 4120.89743562, 4132.69230742, 4204.23076917,8.57
4128.20512793, 4127.56410229, 4129.99999973, 4125.51282024, 4128.07692280, 3984.61538406, 3975.76923022, 3957.43589681, 3961.15384553, 4128.07692280, 4125.89743562, 4129.10256383, 4135.51282031, 4200.25641012,8.57
4116.53846126, 4121.41025614, 4119.35897408, 4122.82051255, 4125.64102537, 3983.71794817, 3971.66666611, 3951.53846092, 3955.89743528, 4128.33333306, 4123.71794844, 4122.30769203, 4128.71794844, 4196.15384602,8.57
4125.38461511, 4126.66666639, 4123.58974332, 4124.87179460, 4123.46153819, 3972.82051227, 3967.56410194, 3947.05128143, 3953.46153784, 4128.20512793, 4125.38461511, 4129.23076896, 4133.07692280, 4200.64102551,8.57
4119.23076896, 4122.43589716, 4117.82051255, 4123.07692280, 4122.43589716, 3969.74358912, 3965.25640963, 3946.66666605, 3949.48717887, 4128.58974332, 4121.28205101, 4120.76923050, 4130.25640998, 4197.94871781,8.57
4118.20512793, 4121.41025614, 4118.46153819, 4123.97435870, 4125.38461511, 3982.30769176, 3974.87179432, 3955.64102502, 3951.15384553, 4127.69230742, 4119.48717921, 4118.58974332, 4126.41025614, 4198.84615371,8.57
4125.38461511, 4126.02564075, 4120.25640998, 4122.30769203, 4125.38461511, 3988.07692252, 3985.51281996, 3966.79487117, 3965.25640963, 4125.64102537, 4121.02564075, 4123.07692280, 4128.71794844, 4195.89743576,8.57
4118.07692280, 4119.74358947, 4113.46153819, 4116.92307665, 4121.66666639, 3981.15384560, 3981.66666611, 3964.74358912, 3971.28205073, 4125.51282024, 4120.25640998, 4112.56410229, 4126.41025614, 4190.64102551,8.57
4123.46153819, 4123.07692280, 4124.99999973, 4125.25640998, 4125.25640998, 3981.66666611, 3976.66666611, 3961.28205066, 3967.17948656, 4126.92307665, 4125.38461511, 4120.64102537, 4129.23076896, 4194.48717935,8.57
4118.84615357, 4123.46153819, 4123.07692280, 4123.07692280, 4125.25640998, 3989.10256355, 3980.51281996, 3964.87179425, 3967.94871733, 4125.38461511, 4124.48717921, 4116.53846126, 4128.58974332, 4192.82051269,8.57
4116.53846126, 4121.02564075, 4121.15384588, 4122.05128178, 4123.71794844, 3988.84615329, 3978.71794817, 3960.76923015, 3965.89743528, 4125.38461511, 4120.89743562, 4113.07692280, 4128.84615357, 4191.53846140,8.57
4121.41025614, 4122.94871767, 4127.05128178, 4128.97435870, 4126.79487152, 3980.12820458, 3967.94871733, 3943.71794810, 3955.51281989, 4128.33333306, 4124.48717921, 4120.64102537, 4131.41025614, 4190.12820499,8.57
4117.05128178, 4119.23076896, 4121.41025614, 4122.94871767, 4125.12820485, 3977.30769176, 3964.99999938, 3939.99999938, 3953.46153784, 4127.56410229, 4123.46153819, 4111.15384588, 4127.30769203, 4189.35897422,8.57
4127.94871767, 4126.41025614, 4129.87179460, 4124.99999973, 4124.23076896, 3982.56410201, 3967.69230707, 3947.43589681, 3954.87179425, 4126.02564075, 4122.30769203, 4120.64102537, 4129.23076896, 4194.87179474,8.57
4123.33333306, 4125.12820485, 4124.35897408, 4122.43589716, 4124.87179460, 3982.82051227, 3965.76923015, 3945.89743528, 3952.82051220, 4125.64102537, 4122.82051255, 4122.30769203, 4128.33333306, 4191.92307679,8.57
4121.41025614, 4123.07692280, 4120.12820485, 4117.94871767, 4127.17948691, 3974.10256355, 3962.56410194, 3945.76923015, 3960.12820451, 4126.02564075, 4123.84615357, 4118.20512793, 4128.20512793, 4194.74358961,8.57
4131.79487152, 4132.17948691, 4128.33333306, 4124.74358947, 4127.56410229, 3970.76923015, 3965.25640963, 3952.17948656, 3968.46153784, 4127.82051255, 4126.41025614, 4128.07692280, 4134.23076896, 4196.28205115,8.57
4117.82051255, 4123.20512793, 4115.25640998, 4118.07692280, 4123.58974332, 3981.41025586, 3969.99999938, 3954.10256348, 3964.74358912, 4127.05128178, 4122.94871767, 4118.97435870, 4129.74358947, 4189.10256397,8.57
4123.71794844, 4122.94871767, 4124.61538434, 4121.02564075, 4125.51282024, 3983.07692252, 3965.51281989, 3945.51281989, 3955.38461476, 4125.76923050, 4124.99999973, 4122.94871767, 4129.35897408, 4195.38461525,8.57
4125.38461511, 4125.89743562, 4128.97435870, 4126.92307665, 4125.64102537, 3971.79487124, 3959.23076861, 3938.33333264, 3952.17948656, 4127.43589716, 4128.46153819, 4125.76923050, 4129.99999973, 4197.43589730,8.57
4117.82051255, 4122.43589716, 4118.97435870, 4119.99999973, 4122.17948691, 3973.58974304, 3958.33333271, 3936.53846085, 3948.97435835, 4128.20512793, 4121.53846126, 4119.99999973, 4127.82051255, 4195.12820499,8.57
4127.56410229, 4128.58974332, 4128.58974332, 4125.12820485, 4123.33333306, 3983.58974304, 3959.61538399, 3938.71794810, 3948.20512758, 4127.82051255, 4118.20512793, 4130.12820485, 4133.07692280, 4197.05128192,8.57
4118.58974332, 4124.61538434, 4122.17948691, 4125.64102537, 4122.82051255, 3986.41025586, 3966.15384553, 3952.69230707, 3966.66666605, 4127.94871767, 4121.15384588, 4119.35897408, 4130.12820485, 4197.69230756,8.57
4124.48717921, 4126.53846126, 4123.20512793, 4123.97435870, 4122.82051255, 3983.71794817, 3971.28205073, 3959.61538399, 3979.35897381, 4127.82051255, 4126.41025614, 4121.79487152, 4130.38461511, 4201.53846147,8.57
4128.46153819, 4128.58974332, 4126.66666639, 4122.43589716, 4123.33333306, 3985.12820458, 3967.56410194, 3951.92307630, 3968.84615322, 4127.69230742, 4121.41025614, 4128.84615357, 4133.33333306, 4197.43589730,8.57
4117.43589716, 4122.43589716, 4118.07692280, 4117.30769203, 4121.02564075, 3988.33333278, 3965.25640963, 3950.64102502, 3966.66666605, 4127.69230742, 4116.28205101, 4117.69230742, 4129.87179460, 4196.41025628,8.57
4127.82051255, 4127.30769203, 4123.20512793, 4122.56410229, 4123.07692280, 3983.33333278, 3967.05128143, 3955.12820451, 3980.38461483, 4127.05128178, 4124.87179460, 4126.66666639, 4133.20512793, 4200.25641012,8.57
4122.69230742, 4124.74358947, 4118.20512793, 4120.12820485, 4123.84615357, 3979.87179432, 3967.56410194, 3957.43589681, 3988.07692252, 4126.92307665, 4123.20512793, 4122.05128178, 4130.76923050, 4194.74358961,8.57
4120.64102537, 4124.74358947, 4119.35897408, 4120.25640998, 4123.84615357, 3985.38461483, 3965.89743528, 3958.84615322, 3982.69230714, 4126.53846126, 4118.84615357, 4119.48717921, 4130.38461511, 4198.33333320,8.57
4123.46153819, 4126.66666639, 4121.79487152, 4121.92307665, 4123.84615357, 3987.05128150, 3962.69230707, 3952.56410194, 3969.61538399, 4126.79487152, 4122.17948691, 4123.58974332, 4132.82051255, 4200.38461525,8.57
4112.82051255, 4118.71794844, 4113.71794844, 4116.79487152, 4122.30769203, 3985.64102509, 3967.17948656, 3951.53846092, 3964.61538399, 4128.97435870, 4121.15384588, 4112.43589716, 4128.20512793, 4195.12820499,8.57
4119.87179460, 4124.35897408, 4121.92307665, 4124.48717921, 4126.53846126, 3993.71794817, 3979.10256355, 3964.35897374, 3971.02564040, 4129.61538434, 4121.15384588, 4121.53846126, 4131.15384588, 4194.35897422,8.57
4115.76923050, 4125.38461511, 4119.74358947, 4123.58974332, 4127.30769203, 4002.30769176, 3980.51281996, 3964.61538399, 3967.94871733, 4126.53846126, 4118.46153819, 4117.56410229, 4130.64102537, 4188.46153833,8.57
4114.35897408, 4122.43589716, 4121.41025614, 4121.15384588, 4124.23076896, 4000.51281996, 3977.94871740, 3956.92307630, 3968.20512758, 4125.12820485, 4118.46153819, 4111.79487152, 4128.97435870, 4190.12820499,8.57
4120.89743562, 4126.02564075, 4127.43589716, 4125.76923050, 4123.71794844, 4001.41025586, 3984.61538406, 3969.61538399, 3989.99999945, 4126.53846126, 4124.23076896, 4118.58974332, 4131.53846126, 4192.17948704,8.57
4113.97435870, 4121.66666639, 4118.58974332, 4119.35897408, 4125.12820485, 4002.30769176, 3984.23076868, 3974.99999945, 3992.82051227, 4126.92307665, 4122.56410229, 4109.87179460, 4127.17948691, 4189.99999986,8.57
4122.94871767, 4127.17948691, 4129.87179460, 4124.10256383, 4127.56410229, 3995.89743535, 3975.64102509, 3963.84615322, 3978.33333278, 4128.84615357, 4124.10256383, 4120.51282024, 4130.38461511, 4195.76923063,8.57
4118.20512793, 4128.33333306, 4127.56410229, 4124.35897408, 4123.71794844, 3997.69230714, 3980.89743535, 3972.69230714, 3993.46153791, 4128.46153819, 4129.10256383, 4122.43589716, 4131.79487152, 4190.51282038,8.57
4116.15384588, 4123.46153819, 4120.89743562, 4120.12820485, 4121.92307665, 4008.46153798, 3996.53846099, 3991.28205073, 4015.38461490, 4125.38461511, 4129.61538434, 4115.89743562, 4129.10256383, 4190.25641012,8.57
4128.97435870, 4126.53846126, 4131.02564075, 4124.74358947, 4125.76923050, 4011.79487131, 4002.43589688, 3998.20512765, 4016.28205080, 4127.30769203, 4128.97435870, 4126.53846126, 4133.97435870, 4197.56410243,8.57
4117.69230742, 4121.92307665, 4120.76923050, 4119.35897408, 4123.97435870, 4012.94871747, 4002.56410201, 4001.02564047, 4016.28205080, 4128.33333306, 4126.66666639, 4119.74358947, 4130.89743562, 4195.12820499,8.57
4121.79487152, 4126.53846126, 4122.82051255, 4125.38461511, 4124.87179460, 4019.99999952, 4005.25640977, 3999.87179432, 4013.71794824, 4126.15384588, 4128.71794844, 4123.20512793, 4129.87179460, 4195.51282038,8.57
4123.58974332, 4126.41025614, 4125.76923050, 4128.58974332, 4127.05128178, 4021.15384567, 4007.30769183, 3996.92307637, 4006.41025593, 4126.28205101, 4127.30769203, 4126.92307665, 4132.82051255, 4196.02564089,8.57
4117.82051255, 4123.97435870, 4122.69230742, 4119.74358947, 4123.71794844, 4017.69230721, 4005.51282003, 3990.51281996, 4002.56410201, 4127.17948691, 4122.43589716, 4122.82051255, 4134.48717921, 4198.71794858,8.57
4127.43589716, 4131.66666639, 4129.23076896, 4126.53846126, 4124.48717921, 4013.84615336, 3996.92307637, 3977.94871740, 3989.61538406, 4126.53846126, 4125.64102537, 4130.89743562, 4136.28205108, 4196.92307679,8.57
4118.71794844, 4122.94871767, 4118.58974332, 4124.74358947, 4124.10256383, 4009.61538413, 3988.33333278, 3974.61538406, 3981.02564047, 4127.43589716, 4122.56410229, 4119.48717921, 4130.51282024, 4192.69230756,8.57
4125.12820485, 4124.61538434, 4126.02564075, 4121.15384588, 4121.79487152, 4007.17948670, 3988.46153791, 3982.05128150, 3992.94871740, 4128.46153819, 4122.82051255, 4124.10256383, 4132.69230742, 4199.87179474,8.57
4128.84615357, 4132.94871767, 4132.82051255, 4123.84615357, 4122.56410229, 4009.61538413, 3996.53846099, 3991.53846099, 4009.48717900, 4126.28205101, 4129.23076896, 4130.25640998, 4134.35897408, 4199.61538448,8.57
4114.35897408, 4123.20512793, 4118.33333306, 4119.61538434, 4120.76923050, 4017.82051234, 4008.97435849, 4007.82051234, 4022.17948670, 4124.74358947, 4126.28205101, 4117.05128178, 4129.87179460, 4197.17948704,8.57
4124.23076896, 4123.84615357, 4120.64102537, 4121.66666639, 4122.94871767, 4025.12820465, 4019.10256362, 4021.53846106, 4029.87179439, 4126.41025614, 4123.71794844, 4127.30769203, 4133.71794844, 4198.33333320,8.57
4122.17948691, 4126.28205101, 4118.33333306, 4121.15384588, 4125.38461511, 4030.64102516, 4024.74358926, 4024.35897388, 4033.46153798, 4127.94871767, 4124.99999973, 4123.71794844, 4131.28205101, 4191.92307679,8.57
