AF3,F7,F3,FC5,T7,P7,O1,O2,P8,T8,FC6,F4,F8,AF4,Label
4138.84615364, 4133.58974332, 4135.89743569, 4131.66666639, 4123.71794844, 4305.25641040, 4287.94871802, 4288.07692315, 4343.84615406, 4127.82051255, 4202.43589737, 4128.84615357, 4146.28205108, 4202.05128199,8.57
4108.07692280, 4120.64102537, 4114.99999973, 4121.92307665, 4121.66666639, 4285.64102571, 4257.82051282, 4250.38461539, 4298.84615392, 4128.46153819, 4194.23076910, 4113.33333306, 4138.07692287, 4192.69230756,8.57
4121.66666639, 4118.97435870, 4124.87179460, 4120.64102537, 4125.64102537, 4288.33333341, 4253.71794872, 4242.94871795, 4280.38461546, 4128.58974332, 4190.25641012, 4123.58974332, 4144.61538441, 4203.97435891,8.57
4178.07692294, 4148.46153826, 4156.53846133, 4147.94871774, 4118.97435870, 4321.15384630, 4294.61538469, 4291.41025648, 4331.92307707, 4125.89743562, 4191.79487166, 4148.33333313, 4144.23076903, 4205.76923070,8.57
4083.20512786, 4113.58974332, 4089.61538427, 4114.61538434, 4111.41025614, 4355.89743611, 4332.30769252, 4339.61538483, 4381.41025669, 4123.20512793, 4186.53846140, 4103.71794844, 4131.28205101, 4188.58974345,8.57
4084.99999966, 4097.94871761, 4100.25640991, 4097.69230735, 4127.94871767, 4343.46153867, 4313.07692322, 4329.87179501, 4372.82051310, 4127.17948691, 4195.51282038, 4110.89743562, 4146.41025621, 4206.92307686,8.57
4177.43589730, 4143.84615364, 4160.51282031, 4141.53846133, 4127.05128178, 4309.61538476, 4284.48717956, 4304.61538476, 4365.25641054, 4129.48717921, 4197.43589730, 4146.79487159, 4147.05128185, 4207.94871788,8.57
4114.74358947, 4129.48717921, 4114.74358947, 4128.71794844, 4117.69230742, 4315.76923091, 4300.00000014, 4322.69230784, 4381.79487208, 4124.35897408, 4186.28205115, 4119.23076896, 4132.43589716, 4190.89743576,8.57
4105.76923050, 4119.23076896, 4110.89743562, 4115.25640998, 4125.25640998, 4333.33333355, 4312.05128219, 4327.82051296, 4360.38461560, 4123.33333306, 4185.76923063, 4115.64102537, 4138.46153826, 4202.05128199,8.57
4135.76923056, 4131.28205101, 4126.92307665, 4128.07692280, 4125.89743562, 4320.89743604, 4293.84615392, 4295.64102571, 4319.48717963, 4125.89743562, 4182.69230756, 4121.79487152, 4142.30769210, 4201.79487173,8.57
4121.41025614, 4123.46153819, 4117.69230742, 4124.10256383, 4124.99999973, 4293.20512828, 4271.53846161, 4268.71794879, 4301.53846168, 4127.05128178, 4178.46153833, 4121.79487152, 4143.58974339, 4197.30769217,8.57
4123.84615357, 4124.61538434, 4120.38461511, 4124.35897408, 4123.58974332, 4289.23076930, 4276.28205136, 4278.46153853, 4311.53846168, 4127.05128178, 4176.53846140, 4124.10256383, 4138.71794851, 4198.33333320,8.57
4120.25640998, 4125.38461511, 4119.23076896, 4122.56410229, 4122.43589716, 4310.00000014, 4299.10256418, 4310.00000014, 4341.41025662, 4127.30769203, 4179.23076910, 4122.30769203, 4136.92307672, 4199.74358961,8.57
4126.28205101, 4127.56410229, 4125.64102537, 4124.99999973, 4125.12820485, 4308.84615399, 4294.35897443, 4303.07692322, 4337.43589765, 4126.92307665, 4180.51282038, 4123.71794844, 4140.76923056, 4198.84615371,8.57
4120.76923050, 4127.82051255, 4119.48717921, 4125.89743562, 4124.61538434, 4298.58974366, 4279.87179495, 4284.35897443, 4321.66666681, 4127.43589716, 4175.25641012, 4119.23076896, 4135.89743569, 4194.74358961,8.57
4119.99999973, 4126.92307665, 4121.28205101, 4125.25640998, 4124.61538434, 4301.79487194, 4281.28205136, 4293.84615392, 4328.71794886, 4128.20512793, 4178.20512807, 4127.05128178, 4137.17948697, 4197.82051269,8.57
4120.51282024, 4126.02564075, 4124.61538434, 4124.74358947, 4122.56410229, 4290.12820520, 4271.79487187, 4283.33333341, 4313.33333348, 4127.43589716, 4175.64102551, 4119.10256383, 4135.51282031, 4195.38461525,8.57
4122.69230742, 4126.15384588, 4125.64102537, 4125.38461511, 4123.58974332, 4275.00000007, 4257.82051282, 4251.41025641, 4279.74358982, 4126.66666639, 4171.66666653, 4115.89743562, 4133.84615357, 4196.15384602,8.57
4131.66666639, 4131.02564075, 4129.23076896, 4129.87179460, 4126.41025614, 4283.97435905, 4268.71794879, 4260.89743590, 4288.07692315, 4126.02564075, 4174.10256397, 4127.05128178, 4137.30769210, 4196.66666653,8.57
4123.07692280, 4126.92307665, 4122.17948691, 4126.66666639, 4123.84615357, 4287.30769238, 4272.17948725, 4282.17948725, 4312.30769245, 4126.79487152, 4172.17948704, 4118.07692280, 4135.25640998, 4195.12820499,8.57
4125.76923050, 4124.74358947, 4126.66666639, 4123.46153819, 4122.43589716, 4273.07692315, 4255.38461539, 4264.35897436, 4298.84615392, 4129.23076896, 4172.17948704, 4121.41025614, 4137.05128185, 4200.51282038,8.57
4124.48717921, 4128.46153819, 4127.82051255, 4123.84615357, 4121.92307665, 4268.33333341, 4250.12820513, 4251.28205129, 4280.38461546, 4127.56410229, 4169.48717935, 4124.74358947, 4136.66666646, 4198.33333320,8.57
4116.79487152, 4124.48717921, 4124.35897408, 4123.20512793, 4122.94871767, 4276.28205136, 4259.10256411, 4266.53846154, 4288.33333341, 4124.87179460, 4169.48717935, 4123.97435870, 4135.51282031, 4197.94871781,8.57
4126.66666639, 4124.74358947, 4130.38461511, 4128.33333306, 4123.58974332, 4289.48717956, 4270.64102571, 4278.07692315, 4295.12820520, 4126.66666639, 4175.89743576, 4129.10256383, 4135.64102544, 4198.33333320,8.57
4124.99999973, 4125.76923050, 4123.07692280, 4127.17948691, 4120.64102537, 4294.74358982, 4269.61538469, 4265.76923077, 4272.82051289, 4127.05128178, 4174.10256397, 4121.79487152, 4131.53846126, 4195.12820499,8.57
4126.92307665, 4124.87179460, 4124.61538434, 4120.38461511, 4122.43589716, 4286.53846161, 4258.71794872, 4259.48717949, 4259.23076923, 4127.05128178, 4173.07692294, 4128.46153819, 4136.92307672, 4201.66666660,8.57
4129.23076896, 4129.61538434, 4130.76923050, 4124.48717921, 4123.84615357, 4286.79487187, 4257.94871795, 4266.92307700, 4274.10256418, 4128.97435870, 4173.20512807, 4128.07692280, 4136.79487159, 4200.25641012,8.57
4122.30769203, 4127.56410229, 4126.53846126, 4126.02564075, 4122.30769203, 4290.76923084, 4256.53846154, 4252.82051282, 4264.74358975, 4127.05128178, 4176.28205115, 4124.87179460, 4133.33333306, 4198.20512807,8.57
4128.97435870, 4126.28205101, 4131.02564075, 4126.66666639, 4123.20512793, 4274.10256418, 4237.43589744, 4227.05128199, 4236.66666667, 4127.30769203, 4181.41025628, 4135.38461518, 4135.25640998, 4199.87179474,8.57
4125.38461511, 4126.92307665, 4124.35897408, 4127.30769203, 4123.33333306, 4260.25641026, 4227.30769224, 4226.28205122, 4239.74358975, 4130.38461511, 4173.97435884, 4122.43589716, 4130.25640998, 4196.53846140,8.57
4126.28205101, 4124.35897408, 4122.43589716, 4120.89743562, 4125.38461511, 4267.69230777, 4238.20512821, 4242.17948718, 4262.94871795, 4128.33333306, 4175.12820499, 4127.05128178, 4133.20512793, 4202.05128199,8.57
4130.64102537, 4126.15384588, 4129.10256383, 4124.10256383, 4124.23076896, 4275.64102571, 4244.10256411, 4242.69230770, 4267.69230777, 4126.02564075, 4182.56410243, 4134.99999973, 4133.46153819, 4198.07692294,8.57
4121.53846126, 4125.38461511, 4122.43589716, 4124.48717921, 4120.89743562, 4274.74358982, 4242.17948718, 4240.76923077, 4264.61538462, 4128.07692280, 4179.74358961, 4126.41025614, 4132.05128178, 4198.07692294,8.57
4126.66666639, 4125.64102537, 4125.51282024, 4123.07692280, 4122.94871767, 4270.76923084, 4240.76923077, 4241.15384616, 4260.25641026, 4128.46153819, 4180.89743576, 4133.97435870, 4137.94871774, 4204.87179481,8.57
4125.51282024, 4129.23076896, 4125.76923050, 4126.79487152, 4124.10256383, 4270.38461546, 4243.46153847, 4237.30769231, 4255.38461539, 4126.79487152, 4182.69230756, 4126.41025614, 4130.25640998, 4197.30769217,8.57
4124.61538434, 4125.76923050, 4122.69230742, 4119.74358947, 4122.82051255, 4273.71794879, 4246.66666667, 4240.64102564, 4259.35897436, 4128.33333306, 4184.99999986, 4130.51282024, 4130.89743562, 4201.66666660,8.57
4126.92307665, 4124.35897408, 4122.43589716, 4119.99999973, 4121.02564075, 4276.02564110, 4247.69230770, 4249.74358975, 4262.94871795, 4128.33333306, 4182.82051269, 4133.97435870, 4135.76923056, 4200.64102551,8.57
4119.35897408, 4123.07692280, 4118.46153819, 4124.61538434, 4120.89743562, 4264.48717949, 4241.92307693, 4250.12820513, 4255.76923077, 4126.15384588, 4175.89743576, 4120.38461511, 4129.35897408, 4196.79487166,8.57
4128.71794844, 4121.15384588, 4124.61538434, 4122.82051255, 4124.10256383, 4228.33333327, 4203.07692301, 4202.82051275, 4206.79487173, 4127.05128178, 4174.74358961, 4133.20512793, 4133.58974332, 4202.05128199,8.57
4126.02564075, 4125.12820485, 4122.17948691, 4126.79487152, 4124.61538434, 4212.94871788, 4180.12820499, 4173.84615371, 4179.10256397, 4125.89743562, 4171.66666653, 4127.69230742, 4133.33333306, 4196.15384602,8.57
4122.30769203, 4124.10256383, 4120.25640998, 4123.97435870, 4125.25640998, 4256.15384616, 4234.48717949, 4236.66666667, 4242.56410257, 4124.35897408, 4174.99999986, 4125.12820485, 4131.15384588, 4202.69230763,8.57
4131.15384588, 4123.84615357, 4124.35897408, 4122.56410229, 4126.15384588, 4291.02564110, 4278.07692315, 4282.56410264, 4292.94871802, 4125.89743562, 4181.53846140, 4129.87179460, 4132.17948691, 4202.69230763,8.57
4123.46153819, 4125.76923050, 4118.33333306, 4125.76923050, 4124.61538434, 4274.48717956, 4250.89743590, 4248.84615385, 4262.56410257, 4126.02564075, 4177.82051269, 4120.25640998, 4128.97435870, 4193.20512807,8.57
4127.17948691, 4122.82051255, 4125.89743562, 4123.71794844, 4124.87179460, 4259.74358975, 4232.05128199, 4224.48717942, 4234.35897436, 4126.53846126, 4177.05128192, 4133.07692280, 4132.56410229, 4199.61538448,8.57
4125.89743562, 4122.43589716, 4128.84615357, 4125.64102537, 4122.94871767, 4268.07692315, 4243.84615385, 4233.20512814, 4241.28205129, 4127.05128178, 4172.82051269, 4123.97435870, 4128.07692280, 4194.99999986,8.57
4120.76923050, 4123.33333306, 4122.17948691, 4121.02564075, 4121.28205101, 4261.53846154, 4231.53846147, 4218.20512814, 4229.99999993, 4125.89743562, 4170.89743576, 4118.33333306, 4125.89743562, 4197.17948704,8.57
4125.38461511, 4126.41025614, 4127.05128178, 4122.94871767, 4122.43589716, 4236.92307693, 4208.97435891, 4196.15384602, 4208.84615378, 4127.69230742, 4174.10256397, 4130.51282024, 4130.89743562, 4200.89743576,8.57
4117.69230742, 4125.12820485, 4122.05128178, 4130.25640998, 4121.79487152, 4229.35897429, 4204.61538455, 4187.43589730, 4193.20512807, 4128.97435870, 4165.76923056, 4117.30769203, 4126.92307665, 4193.46153833,8.57
4122.43589716, 4121.53846126, 4120.51282024, 4124.48717921, 4122.69230742, 4241.79487180, 4210.89743583, 4186.79487166, 4186.66666653, 4127.05128178, 4166.02564082, 4124.87179460, 4130.25640998, 4198.07692294,8.57
4122.94871767, 4123.46153819, 4121.02564075, 4124.87179460, 4122.94871767, 4243.46153847, 4215.76923070, 4198.58974345, 4200.51282038, 4126.41025614, 4170.25641012, 4130.64102537, 4128.71794844, 4195.64102551,8.57
4118.20512793, 4121.41025614, 4119.10256383, 4126.41025614, 4122.94871767, 4227.82051275, 4207.82051275, 4197.56410243, 4193.97435884, 4126.53846126, 4164.99999980, 4124.74358947, 4126.66666639, 4196.92307679,8.57
4128.33333306, 4123.71794844, 4126.92307665, 4127.43589716, 4123.46153819, 4234.23076923, 4214.35897429, 4200.51282038, 4182.94871781, 4128.33333306, 4163.07692287, 4133.33333306, 4133.33333306, 4196.66666653,8.57
4122.17948691, 4127.17948691, 4122.43589716, 4127.82051255, 4123.84615357, 4249.61538462, 4230.89743583, 4216.02564096, 4197.30769217, 4128.97435870, 4160.38461518, 4126.92307665, 4127.69230742, 4187.69230756,8.57
4127.17948691, 4124.99999973, 4123.97435870, 4123.33333306, 4125.64102537, 4211.15384609, 4187.43589730, 4181.53846140, 4175.12820499, 4127.69230742, 4156.15384595, 4130.89743562, 4128.46153819, 4198.20512807,8.57
4132.94871767, 4126.66666639, 4130.12820485, 4124.74358947, 4124.10256383, 4174.48717935, 4140.12820492, 4134.48717921, 4129.23076896, 4128.71794844, 4152.30769210, 4132.82051255, 4132.94871767, 4197.69230756,8.57
4120.51282024, 4126.15384588, 4124.35897408, 4123.58974332, 4123.71794844, 4217.43589737, 4187.82051269, 4175.38461525, 4166.79487159, 4128.20512793, 4155.76923056, 4123.84615357, 4130.51282024, 4194.10256397,8.57
4127.82051255, 4126.79487152, 4127.17948691, 4124.23076896, 4126.15384588, 4263.20512821, 4246.41025641, 4242.05128206, 4241.15384616, 4124.87179460, 4165.38461518, 4132.17948691, 4134.99999973, 4200.12820499,8.57
4128.97435870, 4127.05128178, 4124.10256383, 4125.89743562, 4122.82051255, 4249.48717949, 4235.38461539, 4241.53846154, 4247.17948718, 4124.48717921, 4161.79487159, 4129.61538434, 4134.99999973, 4193.46153833,8.57
4126.66666639, 4125.89743562, 4123.33333306, 4122.69230742, 4120.76923050, 4237.94871795, 4219.48717942, 4216.02564096, 4224.87179481, 4127.17948691, 4156.92307672, 4130.38461511, 4135.64102544, 4199.23076910,8.57
4126.92307665, 4126.15384588, 4124.61538434, 4123.71794844, 4123.71794844, 4241.41025641, 4212.17948711, 4194.35897422, 4193.97435884, 4127.43589716, 4160.76923056, 4136.15384595, 4137.17948697, 4202.94871788,8.57
4118.84615357, 4122.30769203, 4120.89743562, 4124.35897408, 4121.92307665, 4221.28205122, 4191.41025628, 4175.38461525, 4135.51282031, 4127.82051255, 4157.69230749, 4129.87179460, 4133.46153819, 4198.07692294,8.57
4128.71794844, 4124.87179460, 4131.92307665, 4127.56410229, 4120.89743562, 4218.33333327, 4202.30769224, 4187.43589730, 4103.20512793, 4127.94871767, 4154.74358954, 4137.17948697, 4136.92307672, 4201.66666660,8.57
4127.56410229, 4124.74358947, 4129.48717921, 4126.41025614, 4122.94871767, 4238.33333334, 4223.33333327, 4201.28205122, 4109.23076896, 4126.15384588, 4155.76923056, 4136.79487159, 4137.82051262, 4198.46153833,8.57
4120.89743562, 4121.41025614, 4121.53846126, 4118.97435870, 4122.69230742, 4228.33333327, 4204.87179481, 4184.48717935, 4091.79487145, 4126.15384588, 4152.82051262, 4131.53846126, 4135.76923056, 4196.79487166,8.57
4127.43589716, 4127.05128178, 4129.74358947, 4122.43589716, 4121.53846126, 4207.30769224, 4187.69230756, 4170.12820499, 4056.79487138, 4128.07692280, 4149.23076903, 4139.10256390, 4141.79487159, 4196.92307679,8.57
4122.69230742, 4124.10256383, 4127.05128178, 4126.41025614, 4122.69230742, 4209.61538455, 4194.74358961, 4173.58974345, 4050.51282010, 4129.87179460, 4146.41025621, 4133.33333306, 4144.35897415, 4195.12820499,8.57
4126.41025614, 4119.74358947, 4124.61538434, 4123.07692280, 4124.10256383, 4213.84615378, 4197.94871781, 4177.43589730, 4061.02564061, 4128.97435870, 4145.89743569, 4131.15384588, 4139.48717928, 4200.38461525,8.57
4130.51282024, 4124.48717921, 4125.38461511, 4121.41025614, 4122.43589716, 4199.35897422, 4185.38461525, 4166.02564082, 4058.33333292, 4128.07692280, 4146.41025621, 4136.15384595, 4137.17948697, 4199.10256397,8.57
4120.76923050, 4124.35897408, 4121.02564075, 4121.28205101, 4122.30769203, 4196.15384602, 4185.51282038, 4163.46153826, 4057.30769189, 4128.20512793, 4142.94871774, 4130.25640998, 4136.53846133, 4194.23076910,8.57
4122.82051255, 4124.48717921, 4123.33333306, 4123.46153819, 4123.07692280, 4210.51282045, 4202.94871788, 4186.41025628, 4070.12820478, 4127.05128178, 4144.48717928, 4134.74358947, 4138.58974339, 4200.64102551,8.57
4124.87179460, 4126.79487152, 4123.58974332, 4121.79487152, 4122.05128178, 4201.66666660, 4192.94871781, 4181.53846140, 4056.66666625, 4125.89743562, 4144.74358954, 4135.38461518, 4138.71794851, 4201.15384609,8.57
4120.89743562, 4123.71794844, 4121.15384588, 4121.28205101, 4122.56410229, 4178.71794858, 4167.94871774, 4151.79487159, 4028.33333285, 4126.02564075, 4140.64102544, 4129.23076896, 4137.56410236, 4196.53846140,8.57
4121.15384588, 4118.97435870, 4121.66666639, 4126.41025614, 4124.35897408, 4197.94871781, 4195.38461525, 4177.17948704, 4052.05128164, 4126.66666639, 4143.33333313, 4137.05128185, 4141.02564082, 4199.74358961,8.57
4121.15384588, 4121.41025614, 4122.82051255, 4124.99999973, 4122.94871767, 4242.05128206, 4247.17948718, 4243.07692308, 4113.84615357, 4127.05128178, 4145.38461518, 4135.89743569, 4138.07692287, 4197.17948704,8.57
4123.33333306, 4128.58974332, 4124.23076896, 4122.94871767, 4122.30769203, 4235.89743590, 4237.30769231, 4243.84615385, 4116.53846126, 4128.58974332, 4142.43589723, 4132.30769203, 4136.02564082, 4197.82051269,8.57
4122.82051255, 4124.61538434, 4119.99999973, 4122.69230742, 4126.28205101, 4206.53846147, 4201.02564096, 4193.20512807, 4065.64102523, 4127.94871767, 4139.87179467, 4135.12820485, 4139.48717928, 4201.02564096,8.57
4123.07692280, 4120.76923050, 4120.51282024, 4123.84615357, 4125.76923050, 4210.38461532, 4200.25641012, 4180.51282038, 4057.43589702, 4126.66666639, 4138.97435877, 4132.30769203, 4139.74358954, 4198.46153833,8.57
4123.46153819, 4123.71794844, 4122.17948691, 4125.12820485, 4122.43589716, 4215.12820506, 4201.92307686, 4190.76923063, 4078.07692273, 4128.20512793, 4140.38461518, 4133.58974332, 4141.41025621, 4196.53846140,8.57
4120.64102537, 4121.02564075, 4117.94871767, 4122.30769203, 4122.05128178, 4202.94871788, 4185.76923063, 4174.99999986, 4062.56410215, 4128.84615357, 4139.48717928, 4131.15384588, 4137.43589723, 4195.25641012,8.57
4123.97435870, 4122.82051255, 4124.99999973, 4125.12820485, 4122.94871767, 4200.38461525, 4176.66666653, 4160.89743569, 4041.66666625, 4128.07692280, 4138.97435877, 4132.56410229, 4133.07692280, 4196.28205115,8.57
4121.41025614, 4123.84615357, 4126.28205101, 4124.61538434, 4123.58974332, 4206.15384609, 4184.61538448, 4179.74358961, 4069.35897395, 4128.97435870, 4140.64102544, 4135.89743569, 4135.89743569, 4194.48717935,8.57
4121.28205101, 4122.82051255, 4122.94871767, 4124.23076896, 4122.94871767, 4201.66666660, 4189.87179474, 4187.43589730, 4087.17948684, 4128.84615357, 4140.25641005, 4131.41025614, 4137.43589723, 4196.02564089,8.57
4125.25640998, 4126.53846126, 4127.69230742, 4129.23076896, 4122.17948691, 4202.94871788, 4187.43589730, 4177.69230756, 4062.17948677, 4126.41025614, 4144.61538441, 4134.48717921, 4137.69230749, 4198.71794858,8.57
4121.53846126, 4123.71794844, 4125.25640998, 4124.87179460, 4124.10256383, 4215.38461532, 4193.58974345, 4193.71794858, 4091.41025607, 4126.28205101, 4147.94871774, 4134.87179460, 4135.76923056, 4193.58974345,8.57
4128.33333306, 4124.48717921, 4127.69230742, 4125.64102537, 4126.53846126, 4204.61538455, 4189.61538448, 4193.58974345, 4104.99999973, 4128.46153819, 4142.05128185, 4135.25640998, 4135.89743569, 4195.38461525,8.57
4128.71794844, 4125.76923050, 4126.92307665, 4129.48717921, 4122.82051255, 4177.43589730, 4166.79487159, 4157.69230749, 3963.20512758, 4128.71794844, 4139.10256390, 4137.05128185, 4138.46153826, 4198.58974345,8.57
4124.74358947, 4123.07692280, 4121.92307665, 4126.28205101, 4120.25640998, 4181.92307679, 4165.76923056, 4156.53846133, 3823.97435807, 4127.43589716, 4142.30769210, 4133.33333306, 4135.51282031, 4197.05128192,8.57
4129.35897408, 4124.74358947, 4127.17948691, 4126.28205101, 4122.69230742, 4199.74358961, 4181.41025628, 4181.79487166, 3834.10256320, 4128.46153819, 4145.51282031, 4137.82051262, 4134.35897408, 4200.38461525,8.57
4122.05128178, 4123.71794844, 4125.89743562, 4124.23076896, 4121.79487152, 4192.43589730, 4172.30769217, 4163.84615364, 3849.48717866, 4128.71794844, 4144.10256390, 4138.20512800, 4135.25640998, 4199.35897422,8.57
4123.84615357, 4125.51282024, 4125.76923050, 4125.12820485, 4122.05128178, 4188.46153833, 4167.69230749, 4148.84615364, 3826.02564013, 4126.02564075, 4143.97435877, 4136.02564082, 4134.99999973, 4197.94871781,8.57
4131.92307665, 4126.15384588, 4126.66666639, 4125.25640998, 4125.25640998, 4197.05128192, 4184.10256397, 4181.15384602, 3865.89743507, 4125.89743562, 4148.46153826, 4138.84615364, 4135.25640998, 4201.02564096,8.57
4127.43589716, 4124.35897408, 4123.58974332, 4122.30769203, 4124.61538434, 4197.17948704, 4188.58974345, 4196.92307679, 3905.12820437, 4127.43589716, 4148.46153826, 4138.20512800, 4135.51282031, 4197.94871781,8.57
4129.48717921, 4127.17948691, 4126.66666639, 4127.17948691, 4123.71794844, 4198.58974345, 4186.02564089, 4177.43589730, 3879.35897360, 4128.33333306, 4144.10256390, 4142.69230749, 4137.05128185, 4196.28205115,8.57
4128.58974332, 4126.15384588, 4125.25640998, 4126.53846126, 4124.10256383, 4204.23076917, 4187.30769217, 4172.05128192, 3867.05128122, 4128.33333306, 4138.33333313, 4139.35897415, 4137.56410236, 4197.94871781,8.57
4127.30769203, 4125.51282024, 4125.25640998, 4123.97435870, 4124.23076896, 4194.74358961, 4176.53846140, 4174.87179474, 3874.48717873, 4128.20512793, 4138.07692287, 4136.66666646, 4135.64102544, 4198.58974345,8.57
4128.58974332, 4127.82051255, 4126.92307665, 4126.79487152, 4124.99999973, 4174.23076910, 4157.17948697, 4155.89743569, 3861.15384532, 4128.20512793, 4139.87179467, 4143.84615364, 4134.35897408, 4199.10256397,8.57
4121.28205101, 4123.97435870, 4120.64102537, 4122.56410229, 4123.58974332, 4171.41025628, 4154.61538441, 4144.10256390, 3848.58974276, 4128.46153819, 4135.12820485, 4136.79487159, 4134.48717921, 4198.46153833,8.57
4123.84615357, 4123.84615357, 4124.23076896, 4120.64102537, 4122.05128178, 4178.07692294, 4160.76923056, 4148.71794851, 3853.58974276, 4128.58974332, 4133.33333306, 4136.53846133, 4138.46153826, 4200.64102551,8.57
4126.92307665, 4124.99999973, 4125.64102537, 4124.61538434, 4124.74358947, 4166.28205108, 4148.97435877, 4137.43589723, 3853.20512738, 4127.94871767, 4134.99999973, 4142.43589723, 4137.82051262, 4199.74358961,8.57
4120.76923050, 4121.92307665, 4118.46153819, 4123.97435870, 4126.41025614, 4162.43589723, 4148.07692287, 4135.12820485, 3858.46153763, 4128.71794844, 4135.12820485, 4137.94871774, 4132.43589716, 4198.20512807,8.57
4123.46153819, 4124.35897408, 4121.53846126, 4123.07692280, 4125.25640998, 4189.87179474, 4175.76923063, 4165.12820492, 3889.61538385, 4128.97435870, 4137.82051262, 4140.64102544, 4133.33333306, 4201.53846147,8.57
4121.66666639, 4123.97435870, 4121.66666639, 4120.38461511, 4125.38461511, 4201.79487173, 4186.15384602, 4178.20512807, 3900.25640950, 4127.05128178, 4137.43589723, 4136.41025621, 4133.97435870, 4199.48717935,8.57
4121.66666639, 4122.56410229, 4119.87179460, 4121.79487152, 4126.53846126, 4182.69230756, 4167.69230749, 4159.35897415, 3883.33333257, 4126.28205101, 4136.15384595, 4133.58974332, 4133.84615357, 4200.64102551,8.57
4126.53846126, 4122.05128178, 4123.33333306, 4127.17948691, 4125.51282024, 4177.17948704, 4159.99999980, 4148.20512800, 3880.64102488, 4126.66666639, 4139.10256390, 4140.64102544, 4133.46153819, 4203.46153840,8.57
4119.35897408, 4118.46153819, 4122.05128178, 4122.94871767, 4122.56410229, 4178.33333320, 4162.69230749, 4153.20512800, 3886.92307616, 4128.20512793, 4141.28205108, 4138.71794851, 4131.28205101, 4199.23076910,8.57
4122.17948691, 4123.97435870, 4122.94871767, 4122.94871767, 4124.35897408, 4173.71794858, 4166.53846133, 4167.43589723, 3887.17948642, 4129.61538434, 4141.53846133, 4138.97435877, 4133.46153819, 4200.51282038,8.57
4124.48717921, 4124.99999973, 4118.97435870, 4124.61538434, 4127.05128178, 4177.56410243, 4176.15384602, 4177.56410243, 3893.07692232, 4128.46153819, 4135.89743569, 4138.33333313, 4130.89743562, 4199.48717935,8.57
4119.61538434, 4121.28205101, 4121.66666639, 4124.74358947, 4124.74358947, 4176.02564089, 4174.23076910, 4173.20512807, 3908.84615316, 4126.53846126, 4130.64102537, 4136.66666646, 4127.69230742, 4195.25641012,8.57
4122.43589716, 4125.38461511, 4131.02564075, 4129.99999973, 4123.33333306, 4162.69230749, 4161.15384595, 4165.25641005, 3915.51281982, 4128.46153819, 4131.02564075, 4139.99999980, 4131.53846126, 4196.66666653,8.57
4121.53846126, 4124.99999973, 4123.97435870, 4125.38461511, 4123.58974332, 4160.12820492, 4159.48717928, 4165.64102544, 3911.41025572, 4129.99999973, 4126.66666639, 4134.74358947, 4131.15384588, 4196.02564089,8.57
4125.51282024, 4125.38461511, 4124.61538434, 4123.71794844, 4124.61538434, 4170.64102551, 4169.61538448, 4173.97435884, 3914.10256341, 4127.43589716, 4126.92307665, 4138.20512800, 4129.87179460, 4199.74358961,8.57
4123.46153819, 4127.30769203, 4125.64102537, 4127.05128178, 4126.41025614, 4164.99999980, 4167.30769210, 4171.02564089, 3921.92307623, 4125.38461511, 4128.07692280, 4141.28205108, 4130.89743562, 4200.12820499,8.57
4117.94871767, 4124.99999973, 4118.84615357, 4126.28205101, 4126.66666639, 4154.87179467, 4158.58974339, 4162.17948697, 3924.87179418, 4126.53846126, 4124.48717921, 4137.56410236, 4130.64102537, 4195.64102551,8.57
4124.87179460, 4126.53846126, 4124.99999973, 4126.66666639, 4125.76923050, 4160.64102544, 4161.53846133, 4161.28205108, 3913.46153777, 4127.05128178, 4126.15384588, 4140.76923056, 4131.66666639, 4196.92307679,8.57
4122.43589716, 4123.84615357, 4126.28205101, 4123.20512793, 4125.51282024, 4160.51282031, 4159.10256390, 4157.82051262, 3901.15384539, 4125.25640998, 4125.51282024, 4136.41025621, 4131.15384588, 4196.92307679,8.57
4123.84615357, 4123.84615357, 4126.53846126, 4123.84615357, 4125.12820485, 4147.82051262, 4148.33333313, 4158.20512800, 3912.05128136, 4125.51282024, 4122.30769203, 4137.56410236, 4132.30769203, 4200.89743576,8.57
4127.30769203, 4127.17948691, 4127.43589716, 4125.51282024, 4124.48717921, 4161.02564082, 4167.05128185, 4184.10256397, 3940.64102502, 4128.20512793, 4122.69230742, 4139.48717928, 4133.84615357, 4199.10256397,8.57
4122.82051255, 4125.38461511, 4126.28205101, 4122.30769203, 4125.38461511, 4196.66666653, 4201.66666660, 4206.66666660, 3952.43589681, 4127.17948691, 4126.53846126, 4134.87179460, 4134.10256383, 4194.35897422,8.57
4125.25640998, 4128.07692280, 4127.94871767, 4124.74358947, 4125.38461511, 4190.89743576, 4193.58974345, 4188.20512807, 3944.35897374, 4124.35897408, 4129.99999973, 4139.35897415, 4134.10256383, 4199.74358961,8.57
4123.84615357, 4127.17948691, 4122.94871767, 4123.97435870, 4121.28205101, 4162.05128185, 4171.28205115, 4175.64102551, 3955.76923015, 4125.76923050, 4126.02564075, 4136.92307672, 4129.10256383, 4200.38461525,8.57
4124.35897408, 4125.89743562, 4126.02564075, 4126.28205101, 4120.38461511, 4162.05128185, 4172.94871781, 4179.10256397, 3962.69230707, 4128.33333306, 4125.64102537, 4138.97435877, 4128.71794844, 4197.69230756,8.57
4125.76923050, 4127.56410229, 4127.94871767, 4129.99999973, 4125.89743562, 4171.41025628, 4173.46153833, 4166.41025621, 3943.46153784, 4128.58974332, 4128.20512793, 4142.05128185, 4130.64102537, 4196.41025628,8.57
4126.15384588, 4125.76923050, 4124.10256383, 4125.64102537, 4126.79487152, 4165.64102544, 4163.97435877, 4156.28205108, 3935.76923008, 4129.61538434, 4123.58974332, 4139.99999980, 4129.87179460, 4198.58974345,8.57
4129.35897408, 4127.30769203, 4128.71794844, 4125.12820485, 4122.82051255, 4152.43589723, 4156.15384595, 4152.30769210, 3934.48717880, 4127.43589716, 4119.61538434, 4143.33333313, 4132.43589716, 4201.28205122,8.57
4123.07692280, 4125.89743562, 4125.12820485, 4124.10256383, 4123.71794844, 4154.87179467, 4162.05128185, 4154.87179467, 3937.82051213, 4123.71794844, 4122.82051255, 4139.10256390, 4131.66666639, 4198.97435884,8.57
4125.12820485, 4125.38461511, 4122.69230742, 4124.87179460, 4126.02564075, 4161.28205108, 4166.92307672, 4159.10256390, 3947.94871733, 4125.51282024, 4125.76923050, 4140.51282031, 4131.15384588, 4202.17948711,8.57
4128.33333306, 4125.76923050, 4126.28205101, 4126.92307665, 4123.07692280, 4146.53846133, 4151.02564082, 4148.58974339, 3941.41025579, 4128.71794844, 4122.82051255, 4144.23076903, 4132.30769203, 4202.43589737,8.57
4124.23076896, 4122.56410229, 4125.64102537, 4122.17948691, 4122.05128178, 4118.20512793, 4126.79487152, 4126.41025614, 3920.89743521, 4126.92307665, 4120.38461511, 4137.56410236, 4130.89743562, 4199.61538448,8.57
4129.10256383, 4124.35897408, 4125.64102537, 4122.43589716, 4126.28205101, 4113.58974332, 4124.10256383, 4118.71794844, 3917.82051213, 4126.41025614, 4121.79487152, 4138.84615364, 4132.69230742, 4201.02564096,8.57
4125.25640998, 4121.15384588, 4120.51282024, 4121.79487152, 4124.61538434, 4142.82051262, 4153.46153826, 4144.35897415, 3949.35897374, 4128.46153819, 4121.28205101, 4138.07692287, 4133.07692280, 4198.46153833,8.57
4122.94871767, 4121.53846126, 4120.89743562, 4122.05128178, 4120.64102537, 4167.56410236, 4179.61538448, 4175.12820499, 3986.41025586, 4127.94871767, 4123.84615357, 4138.58974339, 4132.17948691, 4201.28205122,8.57
4128.46153819, 4127.17948691, 4124.74358947, 4125.38461511, 4120.89743562, 4160.38461518, 4169.61538448, 4164.99999980, 3975.76923022, 4127.30769203, 4127.69230742, 4140.76923056, 4133.33333306, 4203.46153840,8.57
4123.97435870, 4121.79487152, 4118.71794844, 4120.76923050, 4121.15384588, 4137.82051262, 4142.56410236, 4130.25640998, 3939.61538399, 4127.56410229, 4124.48717921, 4134.23076896, 4130.76923050, 4200.38461525,8.57
4123.97435870, 4123.07692280, 4120.76923050, 4121.28205101, 4124.74358947, 4133.20512793, 4142.69230749, 4132.56410229, 3951.15384553, 4128.46153819, 4124.87179460, 4137.30769210, 4131.28205101, 4201.92307686,8.57
4120.89743562, 4127.05128178, 4123.33333306, 4126.66666639, 4127.05128178, 4154.10256390, 4164.61538441, 4156.41025621, 3979.48717894, 4129.87179460, 4127.43589716, 4136.79487159, 4132.69230742, 4200.51282038,8.57
4119.35897408, 4121.41025614, 4123.07692280, 4126.92307665, 4122.82051255, 4160.89743569, 4164.99999980, 4150.51282031, 3965.64102502, 4129.87179460, 4125.51282024, 4132.69230742, 4131.15384588, 4200.12820499,8.57
4125.89743562, 4120.12820485, 4124.48717921, 4125.38461511, 4122.94871767, 4139.10256390, 4147.05128185, 4139.74358954, 3952.94871733, 4130.12820485, 4124.48717921, 4137.17948697, 4132.94871767, 4198.33333320,8.57
4118.71794844, 4122.43589716, 4119.99999973, 4121.53846126, 4125.51282024, 4125.12820485, 4135.64102544, 4135.25640998, 3955.64102502, 4130.38461511, 4123.20512793, 4131.15384588, 4131.53846126, 4195.12820499,8.57
4118.07692280, 4123.97435870, 4124.48717921, 4123.71794844, 4123.84615357, 4138.33333313, 4142.69230749, 4132.56410229, 3956.92307630, 4130.12820485, 4125.64102537, 4132.17948691, 4130.25640998, 4199.87179474,8.57
4121.66666639, 4122.69230742, 4125.51282024, 4125.64102537, 4122.69230742, 4142.82051262, 4146.28205108, 4136.79487159, 3961.79487117, 4129.74358947, 4124.23076896, 4137.56410236, 4131.02564075, 4199.74358961,8.57
4118.46153819, 4121.79487152, 4120.89743562, 4123.58974332, 4125.64102537, 4124.99999973, 4127.94871767, 4127.05128178, 3951.02564040, 4128.84615357, 4116.66666639, 4132.82051255, 4131.53846126, 4197.05128192,8.57
4123.33333306, 4125.51282024, 4126.79487152, 4126.28205101, 4126.53846126, 4125.51282024, 4127.69230742, 4125.38461511, 3949.23076861, 4127.56410229, 4122.05128178, 4134.87179460, 4132.82051255, 4197.43589730,8.57
4123.07692280, 4124.48717921, 4125.76923050, 4123.84615357, 4122.56410229, 4135.38461518, 4143.07692287, 4148.46153826, 3977.17948663, 4126.28205101, 4131.66666639, 4132.82051255, 4129.48717921, 4193.46153833,8.57
4123.58974332, 4124.48717921, 4125.64102537, 4122.94871767, 4121.66666639, 4132.05128178, 4144.23076903, 4156.15384595, 3991.41025586, 4125.89743562, 4131.79487152, 4132.69230742, 4131.92307665, 4194.99999986,8.57
4123.97435870, 4125.64102537, 4128.71794844, 4124.35897408, 4124.10256383, 4141.02564082, 4147.69230749, 4150.89743569, 3989.99999945, 4126.92307665, 4129.74358947, 4134.74358947, 4134.99999973, 4196.41025628,8.57
4119.99999973, 4122.43589716, 4124.99999973, 4122.17948691, 4122.94871767, 4148.58974339, 4153.84615364, 4158.33333313, 4000.38461483, 4128.20512793, 4131.66666639, 4130.12820485, 4131.53846126, 4193.97435884,8.57
4126.41025614, 4125.51282024, 4126.15384588, 4128.46153819, 4121.92307665, 4126.15384588, 4133.20512793, 4142.94871774, 3987.56410201, 4129.10256383, 4130.64102537, 4135.25640998, 4133.20512793, 4196.92307679,8.57
4124.48717921, 4122.82051255, 4124.23076896, 4127.69230742, 4124.48717921, 4114.48717921, 4117.17948691, 4117.17948691, 3964.10256348, 4128.84615357, 4123.84615357, 4134.61538434, 4134.48717921, 4199.10256397,8.57
4122.56410229, 4120.25640998, 4127.30769203, 4120.76923050, 4124.74358947, 4130.51282024, 4128.46153819, 4127.17948691, 3981.66666611, 4128.07692280, 4127.94871767, 4135.25640998, 4132.82051255, 4199.87179474,8.57
4128.84615357, 4127.17948691, 4132.30769203, 4124.87179460, 4122.17948691, 4126.15384588, 4129.74358947, 4136.53846133, 3996.41025586, 4127.82051255, 4132.94871767, 4140.25641005, 4133.58974332, 4197.69230756,8.57
4123.07692280, 4128.20512793, 4123.20512793, 4125.51282024, 4122.69230742, 4122.43589716, 4135.25640998, 4142.69230749, 3997.82051227, 4127.69230742, 4124.87179460, 4132.43589716, 4132.30769203, 4196.53846140,8.57
4125.25640998, 4127.82051255, 4123.20512793, 4125.38461511, 4125.51282024, 4133.07692280, 4137.94871774, 4146.15384595, 3997.69230714, 4126.66666639, 4124.35897408, 4135.25640998, 4133.20512793, 4202.94871788,8.57
4126.79487152, 4123.84615357, 4122.82051255, 4124.23076896, 4124.99999973, 4119.61538434, 4115.38461511, 4124.35897408, 3980.76923022, 4127.05128178, 4128.71794844, 4137.30769210, 4133.71794844, 4201.53846147,8.57
4123.97435870, 4122.69230742, 4123.97435870, 4123.97435870, 4122.43589716, 4095.38461504, 4101.41025607, 4110.25640998, 3971.28205073, 4128.58974332, 4125.76923050, 4136.02564082, 4133.07692280, 4197.94871781,8.57
4127.43589716, 4128.46153819, 4130.25640998, 4128.20512793, 4123.71794844, 4087.17948684, 4098.20512786, 4109.61538434, 3968.46153784, 4128.07692280, 4124.35897408, 4140.25641005, 4135.76923056, 4197.94871781,8.57
4121.79487152, 4122.94871767, 4121.79487152, 4123.46153819, 4124.23076896, 4088.33333299, 4089.48717914, 4095.64102530, 3952.30769169, 4127.05128178, 4121.53846126, 4134.10256383, 4135.38461518, 4197.82051269,8.57
4126.92307665, 4122.43589716, 4127.05128178, 4126.02564075, 4122.69230742, 4101.53846119, 4106.92307665, 4107.82051255, 3971.53846099, 4129.48717921, 4120.64102537, 4137.56410236, 4136.02564082, 4201.02564096,8.57
4127.94871767, 4127.17948691, 4133.07692280, 4128.84615357, 4123.07692280, 4127.69230742, 4146.66666646, 4153.97435877, 4024.61538413, 4130.25640998, 4123.97435870, 4139.99999980, 4136.79487159, 4199.87179474,8.57
4121.41025614, 4123.71794844, 4124.35897408, 4121.53846126, 4120.51282024, 4142.30769210, 4155.38461518, 4165.25641005, 4032.30769183, 4127.30769203, 4124.35897408, 4134.74358947, 4136.92307672, 4200.89743576,8.57
4128.58974332, 4126.79487152, 4123.84615357, 4125.51282024, 4121.28205101, 4124.61538434, 4131.41025614, 4135.25640998, 4008.97435849, 4126.41025614, 4123.20512793, 4140.64102544, 4138.20512800, 4202.69230763,8.57
4121.02564075, 4125.64102537, 4117.94871767, 4126.66666639, 4124.48717921, 4100.51282017, 4111.02564075, 4113.07692280, 4006.66666618, 4127.69230742, 4121.92307665, 4138.46153826, 4135.64102544, 4195.76923063,8.57
4122.30769203, 4124.35897408, 4121.53846126, 4123.97435870, 4125.25640998, 4101.28205094, 4112.43589716, 4115.25640998, 4008.20512772, 4127.56410229, 4122.69230742, 4137.69230749, 4136.66666646, 4199.61538448,8.57
4129.87179460, 4126.79487152, 4125.89743562, 4123.97435870, 4125.89743562, 4110.76923050, 4118.97435870, 4121.02564075, 4000.76923022, 4126.79487152, 4120.76923050, 4135.64102544, 4135.64102544, 4203.07692301,8.57
4119.48717921, 4118.71794844, 4115.51282024, 4118.58974332, 4123.84615357, 4096.28205094, 4102.05128171, 4107.43589716, 3987.43589688, 4126.79487152, 4114.23076896, 4130.12820485, 4131.28205101, 4202.17948711,8.57
4125.38461511, 4122.05128178, 4120.38461511, 4123.20512793, 4123.97435870, 4074.35897402, 4077.30769196, 4081.15384581, 3965.51281989, 4127.17948691, 4115.12820485, 4137.30769210, 4134.74358947, 4203.58974352,8.57
4125.12820485, 4124.74358947, 4121.79487152, 4124.61538434, 4123.58974332, 4073.97435863, 4077.43589709, 4077.69230735, 3963.20512758, 4127.30769203, 4119.10256383, 4133.84615357, 4136.66666646, 4197.05128192,8.57
4119.48717921, 4119.10256383, 4120.12820485, 4120.51282024, 4121.92307665, 4078.20512786, 4087.17948684, 4092.56410222, 3983.58974304, 4127.82051255, 4119.87179460, 4134.23076896, 4135.51282031, 4197.69230756,8.57
4123.58974332, 4122.43589716, 4124.74358947, 4124.87179460, 4123.84615357, 4074.35897402, 4080.25640991, 4082.43589709, 3977.17948663, 4127.69230742, 4116.53846126, 4137.05128185, 4134.35897408, 4202.43589737,8.57
4117.30769203, 4122.05128178, 4117.69230742, 4121.02564075, 4123.33333306, 4098.20512786, 4096.79487145, 4091.15384581, 3986.92307637, 4127.05128178, 4117.05128178, 4128.33333306, 4135.12820485, 4200.12820499,8.57
4123.46153819, 4124.10256383, 4121.28205101, 4122.69230742, 4123.71794844, 4139.74358954, 4139.10256390, 4143.33333313, 4044.61538420, 4128.58974332, 4124.74358947, 4133.33333306, 4137.94871774, 4198.84615371,8.57
4122.82051255, 4120.12820485, 4122.43589716, 4125.38461511, 4123.84615357, 4121.02564075, 4125.12820485, 4136.15384595, 4039.74358933, 4128.71794844, 4121.53846126, 4131.15384588, 4132.43589716, 4194.61538448,8.57
4118.58974332, 4118.33333306, 4120.38461511, 4122.30769203, 4122.43589716, 4060.76923036, 4065.25640984, 4061.15384574, 3961.53846092, 4126.66666639, 4114.35897408, 4127.05128178, 4131.28205101, 4196.53846140,8.57
4128.46153819, 4129.23076896, 4127.05128178, 4126.66666639, 4123.46153819, 4052.69230728, 4060.12820472, 4054.35897395, 3953.58974297, 4127.69230742, 4116.66666639, 4132.69230742, 4136.53846133, 4198.46153833,8.57
4118.97435870, 4121.92307665, 4122.82051255, 4124.10256383, 4123.46153819, 4086.15384581, 4103.46153819, 4111.02564075, 4007.05128157, 4130.64102537, 4119.10256383, 4126.66666639, 4132.69230742, 4192.69230756,8.57
4119.35897408, 4120.89743562, 4126.02564075, 4125.89743562, 4123.71794844, 4090.89743555, 4111.66666639, 4117.05128178, 4012.43589695, 4130.12820485, 4121.92307665, 4132.43589716, 4131.02564075, 4193.97435884,8.57
4125.12820485, 4129.74358947, 4128.97435870, 4126.79487152, 4125.12820485, 4058.97435856, 4076.02564068, 4079.61538427, 3983.58974304, 4127.17948691, 4119.74358947, 4135.25640998, 4133.07692280, 4195.51282038,8.57
4121.53846126, 4124.74358947, 4124.48717921, 4122.94871767, 4125.64102537, 4035.64102516, 4050.89743548, 4056.15384574, 3966.15384553, 4127.17948691, 4117.30769203, 4128.46153819, 4134.10256383, 4196.53846140,8.57
4128.46153819, 4124.61538434, 4125.25640998, 4128.46153819, 4125.51282024, 4047.82051241, 4062.69230728, 4061.41025600, 3976.02564047, 4128.20512793, 4122.17948691, 4133.20512793, 4136.02564082, 4198.58974345,8.57
4122.30769203, 4124.74358947, 4119.74358947, 4124.99999973, 4123.07692280, 4066.79487138, 4078.71794837, 4074.87179453, 3995.25640970, 4128.33333306, 4122.82051255, 4131.15384588, 4133.07692280, 4195.51282038,8.57
4122.17948691, 4124.99999973, 4127.05128178, 4126.28205101, 4124.10256383, 4056.28205087, 4067.43589702, 4071.79487145, 3983.84615329, 4129.23076896, 4119.48717921, 4133.58974332, 4132.56410229, 4196.92307679,8.57
4126.28205101, 4123.58974332, 4131.66666639, 4129.10256383, 4125.12820485, 4041.53846113, 4057.82051241, 4063.20512779, 3966.15384553, 4130.12820485, 4118.71794844, 4137.30769210, 4135.25640998, 4196.79487166,8.57
4121.53846126, 4123.58974332, 4125.64102537, 4122.82051255, 4122.82051255, 4049.48717907, 4066.15384574, 4063.20512779, 3972.69230714, 4130.25640998, 4121.02564075, 4134.23076896, 4135.89743569, 4197.30769217,8.57
4129.87179460, 4132.56410229, 4129.35897408, 4126.02564075, 4124.74358947, 4047.30769189, 4060.25640984, 4055.51282010, 3971.66666611, 4128.58974332, 4123.97435870, 4136.41025621, 4137.17948697, 4200.51282038,8.57
4126.53846126, 4126.28205101, 4124.23076896, 4124.35897408, 4124.61538434, 4027.43589695, 4041.92307651, 4043.58974318, 3960.89743528, 4127.17948691, 4119.61538434, 4133.58974332, 4134.48717921, 4198.84615371,8.57
4125.12820485, 4120.64102537, 4127.30769203, 4122.82051255, 4122.56410229, 4028.46153798, 4044.74358933, 4048.46153805, 3969.99999938, 4127.69230742, 4118.07692280, 4136.92307672, 4134.10256383, 4199.48717935,8.57
4129.61538434, 4124.74358947, 4129.48717921, 4125.51282024, 4124.10256383, 4061.28205087, 4078.84615350, 4079.10256376, 3998.07692252, 4128.71794844, 4126.66666639, 4135.89743569, 4136.41025621, 4198.20512807,8.57
4126.66666639, 4124.35897408, 4119.61538434, 4123.84615357, 4124.74358947, 4083.46153812, 4102.69230742, 4102.69230742, 4010.76923029, 4128.58974332, 4130.38461511, 4131.41025614, 4133.71794844, 4197.30769217,8.57
4129.61538434, 4127.69230742, 4124.87179460, 4128.84615357, 4123.84615357, 4076.41025607, 4093.46153812, 4088.97435863, 3999.61538406, 4127.82051255, 4126.66666639, 4139.74358954, 4134.10256383, 4199.74358961,8.57
4122.30769203, 4124.74358947, 4123.71794844, 4125.64102537, 4123.33333306, 4082.30769196, 4100.12820478, 4090.38461504, 4012.94871747, 4127.43589716, 4128.20512793, 4134.99999973, 4136.28205108, 4197.30769217,8.57
4122.69230742, 4121.15384588, 4121.28205101, 4121.41025614, 4124.35897408, 4090.51282017, 4110.12820485, 4101.66666632, 4021.02564054, 4127.82051255, 4131.02564075, 4131.53846126, 4136.53846133, 4198.58974345,8.57
4127.82051255, 4124.61538434, 4126.79487152, 4125.64102537, 4123.71794844, 4059.99999959, 4076.53846119, 4065.76923036, 3977.17948663, 4127.43589716, 4121.28205101, 4134.99999973, 4133.71794844, 4199.61538448,8.57
4122.05128178, 4125.38461511, 4125.25640998, 4122.94871767, 4122.05128178, 4037.05128164, 4053.58974318, 4043.46153805, 3966.66666605, 4126.66666639, 4117.30769203, 4132.69230742, 4134.61538434, 4200.25641012,8.57
4126.41025614, 4124.10256383, 4123.97435870, 4121.41025614, 4123.46153819, 4051.28205087, 4071.28205094, 4070.25640991, 4006.92307644, 4127.94871767, 4123.97435870, 4136.66666646, 4139.35897415, 4201.41025634,8.57
4127.05128178, 4119.23076896, 4122.30769203, 4121.92307665, 4124.74358947, 4046.66666625, 4066.02564061, 4066.92307651, 4001.41025586, 4128.46153819, 4115.89743562, 4133.33333306, 4135.51282031, 4197.56410243,8.57
4128.07692280, 4121.02564075, 4124.61538434, 4123.84615357, 4124.10256383, 4035.38461490, 4056.28205087, 4057.94871754, 3994.23076868, 4126.41025614, 4111.15384588, 4133.46153819, 4134.99999973, 4201.79487173,8.57
4126.02564075, 4124.10256383, 4123.20512793, 4126.02564075, 4123.97435870, 4066.53846113, 4089.87179453, 4096.15384581, 4033.71794824, 4127.05128178, 4118.58974332, 4135.38461518, 4136.41025621, 4203.46153840,8.57
4120.64102537, 4121.15384588, 4120.12820485, 4123.84615357, 4125.25640998, 4074.48717914, 4094.23076889, 4091.28205094, 4018.97435849, 4128.71794844, 4113.58974332, 4127.82051255, 4131.41025614, 4199.10256397,8.57
4123.20512793, 4121.92307665, 4124.48717921, 4121.92307665, 4125.51282024, 4023.71794824, 4047.30769189, 4039.74358933, 3967.05128143, 4127.56410229, 4105.89743562, 4128.97435870, 4131.92307665, 4200.38461525,8.57
4119.87179460, 4122.30769203, 4119.35897408, 4122.30769203, 4123.71794844, 4007.43589695, 4035.51282003, 4041.28205087, 3975.89743535, 4127.43589716, 4107.05128178, 4130.38461511, 4132.17948691, 4201.41025634,8.57
4124.35897408, 4125.51282024, 4120.51282024, 4126.66666639, 4124.48717921, 4033.84615336, 4059.87179446, 4066.41025600, 3997.30769176, 4127.69230742, 4109.74358947, 4131.92307665, 4133.46153819, 4201.66666660,8.57
4123.58974332, 4124.61538434, 4122.05128178, 4123.33333306, 4125.51282024, 4031.41025593, 4058.33333292, 4058.71794830, 3988.07692252, 4128.20512793, 4109.87179460, 4129.23076896, 4138.20512800, 4197.69230756,8.57
4116.92307665, 4118.20512793, 4118.46153819, 4119.35897408, 4124.48717921, 4014.74358926, 4046.53846113, 4050.64102523, 3987.17948663, 4129.74358947, 4108.20512793, 4123.58974332, 4136.79487159, 4196.41025628,8.57
4121.66666639, 4121.53846126, 4123.71794844, 4128.71794844, 4124.10256383, 4013.58974311, 4046.28205087, 4047.30769189, 3983.84615329, 4128.71794844, 4110.25640998, 4128.71794844, 4131.79487152, 4199.35897422,8.57
4116.41025614, 4122.56410229, 4119.10256383, 4126.66666639, 4123.20512793, 4015.51282003, 4044.61538420, 4037.30769189, 3972.56410201, 4127.56410229, 4110.64102537, 4123.97435870, 4130.38461511, 4195.25641012,8.57
4118.84615357, 4121.53846126, 4119.48717921, 4123.84615357, 4123.20512793, 4026.41025593, 4061.41025600, 4059.35897395, 4003.97435842, 4128.71794844, 4110.89743562, 4120.64102537, 4134.74358947, 4197.05128192,8.57
4123.20512793, 4121.41025614, 4125.25640998, 4129.48717921, 4123.33333306, 4034.35897388, 4083.33333299, 4091.28205094, 4043.46153805, 4127.82051255, 4114.74358947, 4123.46153819, 4135.12820485, 4199.10256397,8.57
4119.48717921, 4121.41025614, 4121.79487152, 4125.25640998, 4123.71794844, 4019.35897388, 4069.10256369, 4078.07692273, 4027.05128157, 4125.38461511, 4111.53846126, 4121.02564075, 4129.48717921, 4196.92307679,8.57
4127.30769203, 4127.56410229, 4125.76923050, 4124.61538434, 4126.53846126, 4009.74358926, 4046.41025600, 4048.97435856, 3992.82051227, 4125.51282024, 4108.20512793, 4130.64102537, 4130.89743562, 4199.23076910,8.57
4124.87179460, 4125.38461511, 4123.20512793, 4123.46153819, 4127.43589716, 4019.35897388, 4050.89743548, 4052.05128164, 4000.64102509, 4125.64102537, 4112.56410229, 4129.35897408, 4132.43589716, 4197.69230756,8.57
4121.79487152, 4124.48717921, 4124.48717921, 4121.66666639, 4126.28205101, 4013.33333285, 4046.53846113, 4056.15384574, 4010.76923029, 4125.25640998, 4115.51282024, 4121.53846126, 4131.53846126, 4198.20512807,8.57
4124.48717921, 4128.71794844, 4130.64102537, 4128.07692280, 4124.35897408, 4005.64102516, 4034.74358926, 4045.89743548, 3994.35897381, 4126.53846126, 4115.38461511, 4130.38461511, 4134.10256383, 4199.87179474,8.57
4117.05128178, 4122.17948691, 4120.76923050, 4125.25640998, 4122.69230742, 4019.35897388, 4046.41025600, 4046.41025600, 3990.38461483, 4127.30769203, 4113.58974332, 4127.69230742, 4131.28205101, 4197.30769217,8.57
4123.84615357, 4124.23076896, 4123.46153819, 4125.12820485, 4124.10256383, 4015.51282003, 4044.87179446, 4039.48717907, 3990.12820458, 4126.92307665, 4114.10256383, 4126.66666639, 4129.87179460, 4199.35897422,8.57
4126.41025614, 4127.43589716, 4128.46153819, 4129.74358947, 4125.76923050, 3998.46153791, 4028.58974311, 4030.38461490, 3984.99999945, 4126.28205101, 4115.51282024, 4132.30769203, 4132.82051255, 4199.10256397,8.57
4121.02564075, 4123.20512793, 4122.05128178, 4128.07692280, 4126.28205101, 3994.23076868, 4027.43589695, 4031.92307644, 3981.53846099, 4126.53846126, 4113.58974332, 4131.28205101, 4131.28205101, 4197.69230756,8.57
4132.05128178, 4127.94871767, 4126.92307665, 4128.97435870, 4127.05128178, 3995.89743535, 4034.61538413, 4030.38461490, 3978.71794817, 4128.20512793, 4113.58974332, 4137.56410236, 4132.69230742, 4198.97435884,8.57
4127.17948691, 4124.35897408, 4125.51282024, 4126.92307665, 4124.87179460, 4003.58974304, 4041.92307651, 4039.74358933, 3996.28205073, 4128.20512793, 4113.71794844, 4134.10256383, 4133.46153819, 4195.89743576,8.57
4123.33333306, 4122.43589716, 4126.15384588, 4127.69230742, 4124.35897408, 4017.30769183, 4054.61538420, 4063.84615343, 4024.23076875, 4127.05128178, 4114.23076896, 4133.84615357, 4130.64102537, 4199.35897422,8.57
4129.74358947, 4129.74358947, 4130.38461511, 4127.94871767, 4124.99999973, 4013.58974311, 4056.53846113, 4065.38461497, 4021.41025593, 4128.33333306, 4110.12820485, 4140.64102544, 4131.66666639, 4201.28205122,8.57
4117.56410229, 4122.82051255, 4120.76923050, 4119.99999973, 4122.05128178, 4002.56410201, 4045.89743548, 4046.53846113, 4005.89743541, 4129.99999973, 4105.25640998, 4132.69230742, 4134.35897408, 4194.48717935,8.57
4121.66666639, 4122.17948691, 4125.64102537, 4123.58974332, 4124.23076896, 3996.02564047, 4033.97435849, 4035.25640977, 4006.79487131, 4128.20512793, 4112.43589716, 4136.66666646, 4136.92307672, 4200.12820499,8.57
4128.33333306, 4127.94871767, 4128.46153819, 4125.89743562, 4125.76923050, 4001.15384560, 4041.41025600, 4045.64102523, 4021.15384567, 4125.38461511, 4115.51282024, 4138.97435877, 4132.69230742, 4203.46153840,8.57
4121.79487152, 4125.89743562, 4123.46153819, 4120.51282024, 4121.15384588, 4023.84615336, 4067.05128164, 4068.97435856, 4038.58974318, 4126.53846126, 4111.53846126, 4132.30769203, 4127.69230742, 4201.92307686,8.57
4128.58974332, 4124.48717921, 4129.61538434, 4122.69230742, 4122.82051255, 4009.48717900, 4045.76923036, 4049.23076882, 4015.38461490, 4128.07692280, 4109.87179460, 4136.41025621, 4131.66666639, 4204.35897429,8.57
4121.92307665, 4119.61538434, 4120.64102537, 4123.33333306, 4124.99999973, 3967.17948656, 3994.61538406, 4002.30769176, 3968.20512758, 4127.05128178, 4106.15384588, 4129.61538434, 4131.66666639, 4199.99999986,8.57
4121.53846126, 4122.82051255, 4119.48717921, 4124.48717921, 4121.79487152, 3989.74358919, 4022.82051234, 4032.30769183, 4003.20512765, 4128.07692280, 4112.05128178, 4132.30769203, 4134.35897408, 4203.46153840,8.57
4121.53846126, 4122.82051255, 4119.48717921, 4124.48717921, 4121.79487152, 3989.74358919, 4022.82051234, 4032.30769183, 4003.20512765, 4128.07692280, 4112.05128178, 4132.30769203, 4134.35897408, 4203.46153840,8.57
4125.89743562, 4127.17948691, 4125.25640998, 4123.20512793, 4123.07692280, 4027.94871747, 4069.74358940, 4073.33333299, 4050.89743548, 4129.10256383, 4118.33333306, 4136.41025621, 4136.15384595, 4203.71794865,8.57
4116.53846126, 4122.43589716, 4118.20512793, 4119.61538434, 4126.41025614, 4004.35897388, 4035.64102516, 4032.30769183, 4003.33333278, 4126.79487152, 4110.25640998, 4128.07692280, 4133.58974332, 4200.38461525,8.57
4121.15384588, 4123.71794844, 4121.66666639, 4126.15384588, 4124.10256383, 3978.58974304, 3998.07692252, 3998.97435842, 3958.71794810, 4126.79487152, 4106.15384588, 4135.76923056, 4135.51282031, 4203.20512814,8.57
4118.07692280, 4121.92307665, 4121.15384588, 4122.56410229, 4122.82051255, 3987.30769176, 4013.97435849, 4017.30769183, 3983.07692252, 4129.10256383, 4108.58974332, 4129.99999973, 4130.89743562, 4196.66666653,8.57
4117.69230742, 4121.79487152, 4121.15384588, 4119.35897408, 4124.74358947, 3996.02564047, 4029.87179439, 4032.94871747, 4008.33333285, 4128.20512793, 4109.48717921, 4124.74358947, 4130.25640998, 4198.07692294,8.57
4121.28205101, 4125.38461511, 4122.82051255, 4125.25640998, 4125.25640998, 4012.30769183, 4042.82051241, 4051.53846113, 4022.30769183, 4127.69230742, 4112.94871767, 4131.79487152, 4133.46153819, 4199.35897422,8.57
4114.23076896, 4122.56410229, 4118.84615357, 4124.10256383, 4125.76923050, 4014.74358926, 4044.23076882, 4050.38461497, 4017.30769183, 4129.87179460, 4114.10256383, 4126.02564075, 4129.87179460, 4191.53846140,8.57
4119.61538434, 4121.53846126, 4124.23076896, 4124.23076896, 4125.51282024, 3991.92307637, 4022.94871747, 4021.28205080, 3991.41025586, 4128.33333306, 4110.12820485, 4126.79487152, 4129.74358947, 4192.94871781,8.57
4121.28205101, 4120.25640998, 4124.99999973, 4123.07692280, 4122.56410229, 4001.53846099, 4036.79487131, 4040.51282010, 4011.28205080, 4125.38461511, 4108.07692280, 4127.82051255, 4130.38461511, 4197.94871781,8.57
4121.41025614, 4123.84615357, 4126.53846126, 4125.12820485, 4123.46153819, 4020.76923029, 4057.94871754, 4070.12820478, 4044.87179446, 4127.43589716, 4112.43589716, 4127.56410229, 4132.05128178, 4197.56410243,8.57
4121.41025614, 4123.84615357, 4126.53846126, 4125.12820485, 4123.46153819, 4020.76923029, 4057.94871754, 4070.12820478, 4044.87179446, 4127.43589716, 4112.43589716, 4127.56410229, 4132.05128178, 4197.56410243,8.57
4118.71794844, 4125.25640998, 4125.25640998, 4126.15384588, 4124.87179460, 3998.97435842, 4031.02564054, 4037.30769189, 4019.99999952, 4129.87179460, 4112.17948691, 4125.12820485, 4133.84615357, 4193.84615371,8.57
4129.10256383, 4128.97435870, 4131.92307665, 4128.71794844, 4129.87179460, 3999.23076868, 4026.02564054, 4027.94871747, 4011.79487131, 4128.84615357, 4111.15384588, 4129.23076896, 4135.64102544, 4198.84615371,8.57
4139.48717928, 4134.48717921, 4139.10256390, 4133.97435870, 4132.56410229, 4021.92307644, 4046.28205087, 4049.23076882, 4030.64102516, 4128.20512793, 4116.28205101, 4134.61538434, 4135.12820485, 4199.10256397,8.57
4137.69230749, 4133.58974332, 4135.51282031, 4132.94871767, 4129.35897408, 3984.48717894, 4005.25640977, 4011.28205080, 3994.35897381, 4128.33333306, 4113.07692280, 4127.82051255, 4132.69230742, 4194.48717935,8.57
4165.38461518, 4148.84615364, 4156.02564082, 4144.74358954, 4135.64102544, 3949.48717887, 3975.51281996, 3988.71794817, 3976.66666611, 4129.35897408, 4112.94871767, 4139.48717928, 4136.92307672, 4200.12820499,8.57
4146.79487159, 4144.48717928, 4145.38461518, 4141.41025621, 4136.92307672, 3996.15384560, 4033.71794824, 4049.99999959, 4041.92307651, 4129.10256383, 4120.89743562, 4137.69230749, 4135.89743569, 4196.28205115,8.57
4163.33333313, 4151.92307672, 4159.48717928, 4145.89743569, 4142.30769210, 4019.87179439, 4055.89743548, 4066.79487138, 4058.46153805, 4126.79487152, 4124.48717921, 4144.48717928, 4138.58974339, 4202.56410250,8.57
4184.87179474, 4160.89743569, 4176.28205115, 4155.64102544, 4144.10256390, 3987.82051227, 4013.20512772, 4016.66666618, 4003.46153791, 4128.20512793, 4121.02564075, 4157.05128185, 4138.46153826, 4199.23076910,8.57
4131.92307665, 4132.17948691, 4134.61538434, 4133.58974332, 4130.12820485, 3990.25640970, 4018.58974311, 4022.05128157, 4003.33333278, 4129.48717921, 4117.05128178, 4136.92307672, 4128.84615357, 4192.30769217,8.57
4180.12820499, 4156.79487159, 4168.97435884, 4148.58974339, 4143.20512800, 4016.53846106, 4057.69230728, 4066.02564061, 4043.97435856, 4128.97435870, 4127.17948691, 4151.53846133, 4141.15384595, 4209.48717942,8.57
4152.82051262, 4145.76923056, 4150.89743569, 4141.53846133, 4134.61538434, 4000.89743535, 4030.64102516, 4036.28205080, 4015.38461490, 4128.46153819, 4118.58974332, 4138.33333313, 4138.07692287, 4193.84615371,8.57
4120.38461511, 4124.35897408, 4124.23076896, 4124.74358947, 4120.51282024, 3996.92307637, 4011.66666618, 4009.23076875, 3999.61538406, 4127.43589716, 4109.99999973, 4129.48717921, 4128.84615357, 4196.92307679,8.57
4179.10256397, 4154.48717928, 4166.79487159, 4148.07692287, 4140.51282031, 4028.07692259, 4056.15384574, 4057.30769189, 4054.61538420, 4129.10256383, 4124.10256383, 4157.43589723, 4139.87179467, 4208.97435891,8.57
4123.97435870, 4128.46153819, 4129.87179460, 4130.64102537, 4131.53846126, 4011.66666618, 4045.89743548, 4052.82051241, 4047.82051241, 4130.64102537, 4114.99999973, 4131.92307665, 4133.20512793, 4191.66666653,8.57
4145.12820492, 4135.64102544, 4143.33333313, 4133.58974332, 4128.97435870, 3985.76923022, 4010.64102516, 4004.74358926, 4007.43589695, 4129.74358947, 4109.61538434, 4138.84615364, 4133.46153819, 4203.33333327,8.57
4132.56410229, 4131.28205101, 4131.79487152, 4129.10256383, 4125.76923050, 4038.71794830, 4061.28205087, 4048.20512779, 4064.74358933, 4128.84615357, 4118.71794844, 4137.94871774, 4131.79487152, 4194.87179474,8.57
4098.46153812, 4112.30769203, 4104.61538434, 4115.12820485, 4116.92307665, 4056.79487138, 4082.17948684, 4079.87179453, 4090.76923043, 4128.71794844, 4119.87179460, 4126.41025614, 4130.12820485, 4194.10256397,8.57
4151.15384595, 4139.35897415, 4142.82051262, 4135.38461518, 4129.74358947, 3984.87179432, 4008.46153798, 4005.25640977, 4003.71794817, 4127.69230742, 4114.35897408, 4142.82051262, 4138.58974339, 4203.71794865,8.57
4101.02564068, 4116.15384588, 4106.15384588, 4116.92307665, 4119.48717921, 3984.74358919, 4007.17948670, 3999.61538406, 4001.02564047, 4126.28205101, 4104.35897408, 4118.58974332, 4126.15384588, 4193.46153833,8.57
4134.35897408, 4129.48717921, 4130.76923050, 4126.53846126, 4125.51282024, 4021.92307644, 4047.43589702, 4049.23076882, 4055.38461497, 4128.20512793, 4110.64102537, 4137.17948697, 4132.43589716, 4212.82051275,8.57
4169.23076910, 4151.41025621, 4158.71794851, 4142.56410236, 4136.92307672, 3991.66666611, 4007.94871747, 4008.71794824, 4016.28205080, 4129.74358947, 4112.69230742, 4147.56410236, 4140.89743569, 4207.94871788,8.57
4116.02564075, 4124.87179460, 4117.69230742, 4120.51282024, 4125.51282024, 3986.15384560, 3994.48717894, 3986.02564047, 3992.69230714, 4126.41025614, 4108.58974332, 4119.87179460, 4129.87179460, 4198.20512807,8.57
4153.46153826, 4138.97435877, 4143.46153826, 4133.97435870, 4131.79487152, 4011.92307644, 4028.71794824, 4024.87179439, 4033.20512772, 4125.38461511, 4117.94871767, 4142.30769210, 4135.12820485, 4212.94871788,8.57
4160.12820492, 4145.64102544, 4148.07692287, 4142.69230749, 4134.99999973, 4019.48717900, 4043.33333292, 4037.69230728, 4057.17948677, 4127.82051255, 4117.05128178, 4142.05128185, 4137.56410236, 4200.64102551,8.57
4097.30769196, 4111.66666639, 4099.61538427, 4115.12820485, 4121.02564075, 4030.76923029, 4053.97435856, 4040.38461497, 4059.74358933, 4127.43589716, 4110.25640998, 4114.74358947, 4129.35897408, 4190.89743576,8.57
4081.66666632, 4100.51282017, 4087.43589709, 4104.35897408, 4110.89743562, 4029.87179439, 4056.28205087, 4052.69230728, 4060.89743548, 4124.87179460, 4109.23076896, 4112.56410229, 4127.05128178, 4197.30769217,8.57
4086.66666632, 4103.58974332, 4093.46153812, 4106.02564075, 4106.02564075, 4017.17948670, 4046.15384574, 4046.28205087, 4055.25640984, 4126.41025614, 4105.89743562, 4112.82051255, 4126.41025614, 4194.10256397,8.57
4069.99999966, 4091.15384581, 4082.69230735, 4098.07692273, 4101.02564068, 4039.48717907, 4066.02564061, 4054.10256369, 4071.15384581, 4127.82051255, 4106.28205101, 4115.12820485, 4124.35897408, 4193.84615371,8.57
4109.87179460, 4113.07692280, 4108.46153819, 4117.82051255, 4115.89743562, 4041.41025600, 4071.53846119, 4059.99999959, 4079.10256376, 4123.58974332, 4109.48717921, 4130.76923050, 4126.28205101, 4205.76923070,8.57
4127.43589716, 4125.64102537, 4122.56410229, 4124.74358947, 4125.51282024, 3993.46153791, 4023.46153798, 4013.46153798, 4032.82051234, 4122.43589716, 4107.56410229, 4130.89743562, 4128.07692280, 4201.92307686,8.57
4091.41025607, 4108.07692280, 4102.82051255, 4112.17948691, 4112.56410229, 3987.05128150, 4009.99999952, 3993.33333278, 4016.53846106, 4126.02564075, 4107.43589716, 4117.94871767, 4125.76923050, 4190.51282038,8.57
4107.82051255, 4116.79487152, 4114.10256383, 4122.69230742, 4118.84615357, 4018.20512772, 4040.38461497, 4030.12820465, 4056.92307651, 4126.53846126, 4109.23076896, 4124.10256383, 4126.79487152, 4195.12820499,8.57
4117.17948691, 4117.82051255, 4117.82051255, 4120.38461511, 4123.97435870, 4006.66666618, 4031.92307644, 4029.10256362, 4056.66666625, 4124.48717921, 4106.92307665, 4134.23076896, 4128.71794844, 4199.87179474,8.57
4115.12820485, 4121.41025614, 4117.05128178, 4122.05128178, 4119.48717921, 3982.56410201, 4010.12820465, 4003.71794817, 4028.58974311, 4126.02564075, 4107.17948691, 4129.87179460, 4128.46153819, 4195.89743576,8.57
4117.56410229, 4125.38461511, 4117.43589716, 4126.28205101, 4122.69230742, 4003.58974304, 4032.05128157, 4024.74358926, 4048.71794830, 4128.58974332, 4113.46153819, 4125.38461511, 4131.15384588, 4194.87179474,8.57
4117.30769203, 4119.61538434, 4115.12820485, 4125.89743562, 4121.28205101, 4012.05128157, 4041.15384574, 4031.79487131, 4055.64102523, 4129.23076896, 4114.99999973, 4129.23076896, 4130.89743562, 4197.82051269,8.57
4129.35897408, 4127.17948691, 4124.99999973, 4133.46153819, 4121.28205101, 3996.79487124, 4027.56410208, 4009.10256362, 4029.23076875, 4129.48717921, 4111.79487152, 4127.56410229, 4126.28205101, 4197.43589730,8.57
4139.10256390, 4132.30769203, 4136.79487159, 4131.15384588, 4129.74358947, 4023.07692259, 4052.82051241, 4030.76923029, 4054.99999959, 4128.20512793, 4118.71794844, 4131.02564075, 4132.82051255, 4198.84615371,8.57
4138.84615364, 4132.56410229, 4139.61538441, 4132.56410229, 4132.82051255, 4023.84615336, 4053.20512779, 4030.51282003, 4069.99999966, 4126.28205101, 4120.25640998, 4133.20512793, 4135.76923056, 4198.07692294,8.57
4136.66666646, 4132.94871767, 4134.35897408, 4134.87179460, 4126.66666639, 3965.76923015, 4008.71794824, 3979.48717894, 4029.99999952, 4125.76923050, 4112.05128178, 4130.89743562, 4129.99999973, 4197.05128192,8.57
4142.69230749, 4133.97435870, 4138.58974339, 4134.35897408, 4126.79487152, 3965.12820451, 4017.82051234, 3987.82051227, 4032.56410208, 4127.17948691, 4114.99999973, 4138.20512800, 4132.30769203, 4196.66666653,8.57
4130.12820485, 4128.07692280, 4130.76923050, 4130.12820485, 4128.97435870, 3991.79487124, 4027.94871747, 4000.76923022, 4037.56410215, 4126.28205101, 4117.17948691, 4131.15384588, 4130.76923050, 4193.71794858,8.57
4129.10256383, 4125.38461511, 4129.23076896, 4127.17948691, 4125.89743562, 3979.35897381, 4010.12820465, 3979.74358919, 4021.02564054, 4125.12820485, 4118.07692280, 4129.23076896, 4129.99999973, 4199.99999986,8.57
4126.66666639, 4126.41025614, 4130.51282024, 4131.66666639, 4121.53846126, 3993.71794817, 4040.51282010, 4008.71794824, 4051.92307651, 4126.66666639, 4127.30769203, 4133.71794844, 4131.66666639, 4197.17948704,8.57
4106.92307665, 4117.43589716, 4113.97435870, 4124.48717921, 4120.38461511, 4004.87179439, 4052.05128164, 4022.30769183, 4060.76923036, 4127.05128178, 4127.30769203, 4128.20512793, 4129.61538434, 4197.82051269,8.57
4120.76923050, 4118.84615357, 4120.25640998, 4123.33333306, 4122.43589716, 3974.87179432, 4010.89743541, 3979.23076868, 4018.97435849, 4126.28205101, 4123.07692280, 4133.46153819, 4133.33333306, 4206.28205122,8.57
4114.10256383, 4116.92307665, 4117.30769203, 4124.61538434, 4116.28205101, 3972.30769176, 4015.51282003, 3977.82051227, 4021.41025593, 4125.51282024, 4126.02564075, 4126.79487152, 4131.41025614, 4195.12820499,8.57
4103.84615357, 4113.07692280, 4108.20512793, 4116.79487152, 4117.82051255, 3976.79487124, 4027.69230721, 3986.28205073, 4025.25640977, 4124.74358947, 4125.51282024, 4126.92307665, 4130.25640998, 4195.76923063,8.57
4115.89743562, 4119.23076896, 4116.66666639, 4118.84615357, 4123.97435870, 3983.46153791, 4028.20512772, 3987.43589688, 4024.10256362, 4126.92307665, 4120.38461511, 4134.61538434, 4133.84615357, 4200.51282038,8.57
4107.43589716, 4114.48717921, 4112.56410229, 4117.94871767, 4119.48717921, 4017.17948670, 4066.53846113, 4032.17948670, 4077.17948684, 4130.12820485, 4123.84615357, 4123.97435870, 4130.89743562, 4196.15384602,8.57
4113.07692280, 4113.97435870, 4112.30769203, 4116.02564075, 4118.46153819, 4000.25640970, 4056.28205087, 4023.71794824, 4071.15384581, 4129.99999973, 4128.07692280, 4128.58974332, 4130.89743562, 4200.12820499,8.57
4122.05128178, 4120.89743562, 4116.15384588, 4121.15384588, 4118.20512793, 3939.99999938, 3986.66666611, 3945.64102502, 3983.07692252, 4127.82051255, 4116.02564075, 4130.64102537, 4130.89743562, 4197.94871781,8.57
4111.41025614, 4115.64102537, 4112.05128178, 4118.71794844, 4115.89743562, 3933.58974290, 3978.84615329, 3930.89743521, 3961.79487117, 4127.05128178, 4109.61538434, 4126.41025614, 4130.51282024, 4198.97435884,8.57
4110.76923050, 4115.38461511, 4112.56410229, 4117.69230742, 4117.69230742, 3961.92307630, 4018.33333285, 3971.15384553, 4006.79487131, 4127.56410229, 4117.94871767, 4129.48717921, 4129.23076896, 4198.97435884,8.57
4113.46153819, 4119.48717921, 4111.15384588, 4118.97435870, 4121.28205101, 3979.87179432, 4039.61538420, 3996.15384560, 4033.97435849, 4127.69230742, 4117.94871767, 4120.76923050, 4128.33333306, 4196.02564089,8.57
4107.43589716, 4111.92307665, 4104.10256383, 4114.61538434, 4119.74358947, 3960.76923015, 4020.89743541, 3979.87179432, 4012.30769183, 4126.15384588, 4112.17948691, 4120.51282024, 4133.46153819, 4201.41025634,8.57
4112.05128178, 4114.61538434, 4111.41025614, 4119.23076896, 4117.69230742, 3942.82051220, 4016.92307644, 3976.79487124, 4014.10256362, 4124.87179460, 4113.71794844, 4123.97435870, 4129.61538434, 4201.53846147,8.57
4104.35897408, 4112.94871767, 4108.33333306, 4116.41025614, 4116.92307665, 3987.56410201, 4068.46153805, 4027.43589695, 4069.74358940, 4128.20512793, 4120.89743562, 4117.17948691, 4125.38461511, 4196.53846140,8.57
4094.48717914, 4106.66666639, 4099.10256376, 4113.58974332, 4115.64102537, 3996.02564047, 4070.64102530, 4023.46153798, 4060.89743548, 4130.51282024, 4123.46153819, 4117.69230742, 4132.43589716, 4197.94871781,8.57
4109.23076896, 4113.46153819, 4109.48717921, 4122.82051255, 4117.69230742, 3934.61538392, 4015.89743541, 3963.33333271, 4000.51281996, 4128.33333306, 4120.25640998, 4118.71794844, 4131.41025614, 4198.46153833,8.57
4095.51282017, 4102.43589709, 4101.15384581, 4112.17948691, 4113.58974332, 3953.71794810, 4044.23076882, 3989.35897381, 4031.79487131, 4127.30769203, 4123.97435870, 4113.07692280, 4124.87179460, 4194.74358961,8.57
4102.94871767, 4109.99999973, 4104.35897408, 4114.99999973, 4118.33333306, 4007.17948670, 4091.66666632, 4033.84615336, 4073.20512786, 4128.71794844, 4130.64102537, 4119.10256383, 4131.66666639, 4197.82051269,8.57
4122.82051255, 4124.23076896, 4116.28205101, 4125.12820485, 4124.74358947, 3956.41025579, 4044.61538420, 3983.20512765, 4017.30769183, 4128.46153819, 4119.23076896, 4123.84615357, 4135.25640998, 4197.17948704,8.57
4101.28205094, 4109.87179460, 4105.51282024, 4117.94871767, 4116.28205101, 3911.79487110, 4023.33333285, 3960.64102502, 3997.82051227, 4127.17948691, 4111.15384588, 4115.89743562, 4131.79487152, 4192.30769217,8.57
4112.17948691, 4117.56410229, 4117.56410229, 4124.10256383, 4120.89743562, 3939.61538399, 4060.38461497, 3996.53846099, 4042.30769189, 4127.17948691, 4122.69230742, 4117.43589716, 4134.23076896, 4197.43589730,8.57
4119.23076896, 4125.64102537, 4121.15384588, 4123.58974332, 4122.82051255, 3950.38461476, 4057.94871754, 3986.92307637, 4037.94871754, 4127.05128178, 4124.74358947, 4122.43589716, 4131.92307665, 4198.46153833,8.57
4110.89743562, 4121.92307665, 4114.23076896, 4121.15384588, 4115.76923050, 3947.30769169, 4052.69230728, 3978.46153791, 4021.15384567, 4128.71794844, 4120.76923050, 4121.41025614, 4129.23076896, 4196.15384602,8.57
4119.74358947, 4126.28205101, 4122.82051255, 4126.15384588, 4122.05128178, 3936.02564033, 4052.69230728, 3989.99999945, 4026.15384567, 4128.71794844, 4121.02564075, 4120.12820485, 4131.15384588, 4196.92307679,8.57
4119.35897408, 4125.51282024, 4123.20512793, 4123.71794844, 4123.07692280, 3897.94871719, 4022.82051234, 3965.64102502, 4012.82051234, 4128.33333306, 4117.82051255, 4123.58974332, 4131.53846126, 4194.74358961,8.57
4123.46153819, 4126.02564075, 4120.64102537, 4124.10256383, 4120.12820485, 3897.30769155, 4022.94871747, 3953.84615322, 4002.94871740, 4129.61538434, 4113.84615357, 4123.33333306, 4130.76923050, 4192.30769217,8.57
4122.82051255, 4123.58974332, 4121.02564075, 4125.51282024, 4120.51282024, 3941.53846092, 4067.30769189, 3991.92307637, 4033.07692259, 4128.84615357, 4118.07692280, 4122.69230742, 4131.79487152, 4193.84615371,8.57
4118.46153819, 4123.07692280, 4120.38461511, 4126.15384588, 4118.71794844, 3945.76923015, 4076.79487145, 4008.84615336, 4052.05128164, 4128.33333306, 4127.69230742, 4127.82051255, 4133.07692280, 4195.89743576,8.57
4121.02564075, 4124.23076896, 4117.82051255, 4122.43589716, 4120.25640998, 3927.05128136, 4068.84615343, 4001.41025586, 4045.38461497, 4129.10256383, 4130.64102537, 4124.99999973, 4129.74358947, 4194.10256397,8.57
4124.10256383, 4123.46153819, 4123.58974332, 4123.20512793, 4121.41025614, 3933.97435828, 4086.79487145, 4017.17948670, 4048.84615343, 4129.99999973, 4131.53846126, 4125.51282024, 4128.58974332, 4197.82051269,8.57
4121.02564075, 4124.61538434, 4125.89743562, 4126.92307665, 4120.51282024, 3921.15384546, 4080.12820478, 4007.56410208, 4031.66666618, 4130.64102537, 4131.53846126, 4128.46153819, 4129.87179460, 4202.17948711,8.57
4113.71794844, 4120.89743562, 4116.53846126, 4121.66666639, 4117.94871767, 3887.05128129, 4046.41025600, 3966.28205066, 3992.69230714, 4129.61538434, 4127.56410229, 4126.79487152, 4129.23076896, 4199.35897422,8.57
4120.12820485, 4121.02564075, 4121.41025614, 4124.35897408, 4118.07692280, 3892.43589668, 4056.28205087, 3978.33333278, 4009.48717900, 4125.89743562, 4129.48717921, 4130.76923050, 4131.41025614, 4198.71794858,8.57
4122.17948691, 4122.05128178, 4123.71794844, 4125.76923050, 4120.38461511, 3917.82051213, 4086.02564068, 4018.46153798, 4052.82051241, 4125.12820485, 4131.28205101, 4126.02564075, 4130.38461511, 4198.58974345,8.57
4118.84615357, 4122.05128178, 4116.66666639, 4117.69230742, 4119.23076896, 3894.10256334, 4052.94871754, 3988.33333278, 4020.89743541, 4127.56410229, 4123.97435870, 4125.76923050, 4127.43589716, 4200.25641012,8.57
4126.41025614, 4125.12820485, 4118.97435870, 4119.87179460, 4120.89743562, 3880.38461462, 4035.89743541, 3973.46153791, 4015.64102516, 4128.20512793, 4122.30769203, 4134.10256383, 4130.12820485, 4201.41025634,8.57
4121.02564075, 4119.35897408, 4115.51282024, 4122.30769203, 4123.20512793, 3918.46153777, 4081.15384581, 4028.07692259, 4082.69230735, 4130.12820485, 4125.89743562, 4124.23076896, 4128.71794844, 4196.41025628,8.57
4118.84615357, 4118.84615357, 4116.79487152, 4119.87179460, 4120.76923050, 3910.25640957, 4072.94871761, 4020.89743541, 4069.10256369, 4131.92307665, 4124.99999973, 4124.35897408, 4127.43589716, 4199.23076910,8.57
4124.99999973, 4122.56410229, 4124.10256383, 4119.35897408, 4119.48717921, 3853.58974276, 4024.74358926, 3966.15384553, 4003.97435842, 4129.10256383, 4121.79487152, 4131.53846126, 4129.87179460, 4201.92307686,8.57
4117.30769203, 4119.10256383, 4116.79487152, 4120.89743562, 4122.05128178, 3885.25640950, 4070.64102530, 4012.17948670, 4048.97435856, 4126.79487152, 4125.25640998, 4124.61538434, 4128.33333306, 4199.61538448,8.57
4117.05128178, 4119.23076896, 4113.20512793, 4121.79487152, 4124.99999973, 3945.76923015, 4127.05128178, 4074.99999966, 4112.82051255, 4129.48717921, 4132.69230742, 4128.20512793, 4129.23076896, 4200.64102551,8.57
4118.97435870, 4120.76923050, 4115.38461511, 4118.33333306, 4124.23076896, 3906.15384546, 4073.84615350, 4022.69230721, 4058.84615343, 4131.41025614, 4124.35897408, 4125.38461511, 4128.07692280, 4197.05128192,8.57
4120.89743562, 4124.61538434, 4118.97435870, 4122.69230742, 4123.97435870, 3866.53846071, 4033.33333285, 3973.33333278, 4006.53846106, 4127.69230742, 4115.38461511, 4123.71794844, 4124.74358947, 4198.97435884,8.57
4124.99999973, 4126.28205101, 4119.99999973, 4123.20512793, 4124.99999973, 3894.23076847, 4063.33333292, 4001.28205073, 4031.28205080, 4127.05128178, 4118.46153819, 4131.02564075, 4127.43589716, 4201.15384609,8.57
4123.07692280, 4121.66666639, 4117.82051255, 4117.69230742, 4123.97435870, 3901.02564027, 4075.25640991, 4020.89743541, 4042.94871754, 4130.76923050, 4116.41025614, 4126.79487152, 4127.69230742, 4195.76923063,8.57
4124.10256383, 4122.56410229, 4120.76923050, 4122.43589716, 4125.38461511, 3879.61538385, 4059.10256369, 4007.56410208, 4012.94871747, 4130.38461511, 4113.71794844, 4127.43589716, 4125.76923050, 4197.30769217,8.57
4117.56410229, 4124.35897408, 4117.17948691, 4122.56410229, 4126.15384588, 3878.71794796, 4055.76923036, 4005.12820465, 4006.53846106, 4125.51282024, 4114.61538434, 4126.15384588, 4124.35897408, 4196.41025628,8.57
4116.02564075, 4125.64102537, 4117.30769203, 4121.02564075, 4124.23076896, 3888.07692232, 4065.38461497, 4018.46153798, 4032.82051234, 4125.25640998, 4115.51282024, 4124.48717921, 4126.02564075, 4197.82051269,8.57
4118.33333306, 4121.79487152, 4120.25640998, 4122.05128178, 4123.46153819, 3897.82051206, 4073.58974325, 4026.15384567, 4039.99999959, 4127.69230742, 4116.02564075, 4125.76923050, 4126.79487152, 4201.41025634,8.57
4116.53846126, 4118.97435870, 4119.10256383, 4121.66666639, 4124.48717921, 3898.71794796, 4067.30769189, 4024.99999952, 4034.48717900, 4128.20512793, 4113.84615357, 4119.87179460, 4122.05128178, 4195.38461525,8.57
4121.53846126, 4124.23076896, 4121.41025614, 4122.17948691, 4126.28205101, 3889.87179411, 4052.82051241, 4011.41025593, 4031.15384567, 4128.97435870, 4114.48717921, 4124.35897408, 4123.84615357, 4195.12820499,8.57
4116.92307665, 4121.66666639, 4117.17948691, 4119.74358947, 4125.12820485, 3897.94871719, 4060.64102523, 4005.76923029, 4026.02564054, 4128.46153819, 4115.89743562, 4126.15384588, 4126.92307665, 4196.92307679,8.57
4116.02564075, 4121.41025614, 4121.53846126, 4124.35897408, 4123.71794844, 3901.53846078, 4065.51282010, 4013.84615336, 4021.53846106, 4127.69230742, 4117.17948691, 4121.79487152, 4124.61538434, 4194.61538448,8.57
4118.84615357, 4120.76923050, 4122.69230742, 4123.84615357, 4122.69230742, 3915.89743521, 4076.28205094, 4039.35897395, 4044.48717907, 4128.33333306, 4119.35897408, 4123.33333306, 4124.48717921, 4194.23076910,8.57
4115.89743562, 4119.35897408, 4115.76923050, 4119.48717921, 4122.82051255, 3954.23076861, 4100.89743555, 4057.69230728, 4063.33333292, 4126.79487152, 4118.20512793, 4121.15384588, 4126.28205101, 4195.51282038,8.57
4118.71794844, 4124.48717921, 4121.02564075, 4125.25640998, 4124.61538434, 3921.41025572, 4058.46153805, 4018.71794824, 4016.53846106, 4125.76923050, 4116.15384588, 4123.07692280, 4127.94871767, 4197.94871781,8.57
4118.33333306, 4121.53846126, 4121.15384588, 4123.20512793, 4124.48717921, 3853.97435814, 3998.33333278, 3991.92307637, 3981.53846099, 4128.58974332, 4115.89743562, 4122.69230742, 4126.02564075, 4194.99999986,8.57
4123.84615357, 4124.61538434, 4125.38461511, 4126.02564075, 4126.41025614, 3886.15384539, 4031.92307644, 4034.10256362, 4018.07692259, 4128.07692280, 4120.51282024, 4123.46153819, 4124.35897408, 4193.97435884,8.57
4119.74358947, 4126.41025614, 4124.10256383, 4125.25640998, 4126.41025614, 3936.41025572, 4075.76923043, 4063.33333292, 4041.66666625, 4125.76923050, 4121.66666639, 4130.12820485, 4126.79487152, 4198.33333320,8.57
4118.07692280, 4123.97435870, 4118.46153819, 4118.58974332, 4124.48717921, 3928.20512751, 4068.84615343, 4062.17948677, 4041.28205087, 4128.07692280, 4119.23076896, 4125.89743562, 4128.20512793, 4197.30769217,8.57
4128.07692280, 4127.94871767, 4125.12820485, 4123.97435870, 4126.53846126, 3934.74358905, 4078.07692273, 4084.61538427, 4064.35897395, 4129.10256383, 4124.87179460, 4128.07692280, 4129.99999973, 4196.92307679,8.57
4119.74358947, 4120.38461511, 4120.25640998, 4119.87179460, 4126.66666639, 3959.48717887, 4100.64102530, 4106.41025614, 4078.58974325, 4127.69230742, 4127.17948691, 4132.69230742, 4127.17948691, 4197.30769217,8.57
4126.28205101, 4125.64102537, 4125.12820485, 4122.82051255, 4124.87179460, 3964.23076861, 4101.66666632, 4106.02564075, 4073.33333299, 4127.05128178, 4122.82051255, 4128.97435870, 4126.53846126, 4198.71794858,8.57
4125.12820485, 4128.97435870, 4124.74358947, 4123.58974332, 4121.53846126, 3942.94871733, 4072.30769196, 4070.38461504, 4037.30769189, 4127.17948691, 4116.53846126, 4127.82051255, 4131.53846126, 4200.64102551,8.57
4116.02564075, 4120.76923050, 4116.15384588, 4116.66666639, 4121.66666639, 3906.66666598, 4027.05128157, 4010.64102516, 3979.74358919, 4127.56410229, 4108.84615357, 4126.41025614, 4127.30769203, 4198.97435884,8.57
4127.82051255, 4127.94871767, 4125.25640998, 4125.64102537, 4125.12820485, 3904.10256334, 4028.46153798, 4018.71794824, 3999.48717894, 4127.17948691, 4114.23076896, 4132.30769203, 4124.23076896, 4200.38461525,8.57
4118.07692280, 4123.58974332, 4118.46153819, 4120.89743562, 4121.79487152, 3926.92307623, 4053.97435856, 4056.92307651, 4047.56410215, 4128.71794844, 4120.76923050, 4132.30769203, 4129.48717921, 4200.51282038,8.57
4122.69230742, 4124.48717921, 4120.38461511, 4119.48717921, 4122.17948691, 3934.61538392, 4052.05128164, 4043.71794830, 4026.28205080, 4129.99999973, 4115.51282024, 4128.58974332, 4131.53846126, 4199.61538448,8.57
4127.56410229, 4126.53846126, 4122.82051255, 4122.43589716, 4125.64102537, 3927.94871726, 4039.61538420, 4027.17948670, 4001.53846099, 4130.25640998, 4112.56410229, 4132.05128178, 4128.07692280, 4196.79487166,8.57
4115.89743562, 4118.33333306, 4115.25640998, 4117.69230742, 4123.20512793, 3921.41025572, 4039.99999959, 4045.12820472, 4025.25640977, 4130.89743562, 4112.05128178, 4126.92307665, 4126.15384588, 4197.05128192,8.57
4127.17948691, 4125.89743562, 4125.38461511, 4127.17948691, 4122.56410229, 3941.53846092, 4068.71794830, 4084.10256376, 4070.89743555, 4129.99999973, 4114.23076896, 4128.46153819, 4130.51282024, 4202.30769224,8.57
4118.97435870, 4121.15384588, 4117.56410229, 4121.66666639, 4123.20512793, 3945.12820451, 4060.64102523, 4070.25640991, 4054.87179446, 4126.41025614, 4113.71794844, 4128.58974332, 4130.51282024, 4197.43589730,8.57
4119.10256383, 4120.25640998, 4119.10256383, 4118.33333306, 4124.61538434, 3902.05128129, 4000.76923022, 4003.46153791, 3982.56410201, 4126.79487152, 4105.12820485, 4125.38461511, 4126.41025614, 4198.33333320,8.57
4128.20512793, 4126.02564075, 4124.61538434, 4122.56410229, 4125.12820485, 3913.71794803, 4015.25640977, 4019.61538413, 3996.92307637, 4129.35897408, 4108.84615357, 4129.10256383, 4129.35897408, 4203.71794865,8.57
4117.30769203, 4118.97435870, 4114.99999973, 4115.51282024, 4123.33333306, 3975.89743535, 4083.58974325, 4091.41025607, 4071.15384581, 4126.28205101, 4118.46153819, 4124.61538434, 4131.02564075, 4199.10256397,8.57
4127.94871767, 4126.41025614, 4126.53846126, 4122.94871767, 4123.97435870, 3957.94871733, 4061.92307651, 4069.35897395, 4053.71794830, 4125.51282024, 4112.56410229, 4125.64102537, 4128.20512793, 4199.35897422,8.57
4120.76923050, 4124.48717921, 4120.12820485, 4119.99999973, 4120.76923050, 3911.66666598, 4014.10256362, 4017.69230721, 4003.46153791, 4127.56410229, 4104.61538434, 4123.84615357, 4126.28205101, 4201.15384609,8.57
4117.30769203, 4121.02564075, 4115.25640998, 4115.89743562, 4121.41025614, 3935.25640957, 4042.82051241, 4044.87179446, 4022.43589695, 4126.92307665, 4106.92307665, 4121.41025614, 4127.30769203, 4201.28205122,8.57
4128.33333306, 4127.43589716, 4125.89743562, 4126.92307665, 4126.28205101, 3958.84615322, 4063.71794830, 4068.58974318, 4041.15384574, 4126.79487152, 4106.41025614, 4124.87179460, 4128.97435870, 4199.48717935,8.57
4115.89743562, 4118.84615357, 4118.33333306, 4122.30769203, 4125.64102537, 3940.76923015, 4041.41025600, 4051.15384574, 4033.58974311, 4126.92307665, 4100.25640991, 4116.53846126, 4126.02564075, 4194.74358961,8.57
4126.28205101, 4123.71794844, 4124.61538434, 4124.61538434, 4126.66666639, 3925.64102495, 4025.38461490, 4033.20512772, 4016.41025593, 4126.53846126, 4100.25640991, 4121.15384588, 4125.38461511, 4197.56410243,8.57
4125.38461511, 4126.41025614, 4123.20512793, 4128.97435870, 4125.51282024, 3927.94871726, 4020.64102516, 4021.79487131, 3995.12820458, 4126.53846126, 4100.51282017, 4125.51282024, 4126.92307665, 4195.51282038,8.57
4115.25640998, 4119.99999973, 4119.99999973, 4124.10256383, 4126.15384588, 3943.20512758, 4034.10256362, 4040.89743548, 4019.61538413, 4126.15384588, 4097.82051248, 4119.87179460, 4126.53846126, 4194.48717935,8.57
4128.97435870, 4127.17948691, 4133.84615357, 4127.69230742, 4129.48717921, 3982.94871740, 4083.33333299, 4098.84615350, 4087.05128171, 4126.92307665, 4104.99999973, 4124.23076896, 4125.25640998, 4194.48717935,8.57
4121.53846126, 4124.35897408, 4122.69230742, 4124.10256383, 4126.41025614, 4016.53846106, 4120.89743562, 4136.15384595, 4118.71794844, 4128.07692280, 4110.64102537, 4118.97435870, 4123.46153819, 4188.84615371,8.57
4127.94871767, 4123.58974332, 4125.51282024, 4125.38461511, 4130.38461511, 3976.02564047, 4066.15384574, 4075.64102530, 4054.48717907, 4126.79487152, 4107.30769203, 4123.46153819, 4129.10256383, 4198.84615371,8.57
4133.97435870, 4128.07692280, 4134.74358947, 4132.05128178, 4131.79487152, 3931.15384546, 4014.61538413, 4014.10256362, 3997.17948663, 4125.25640998, 4100.64102530, 4125.12820485, 4127.56410229, 4199.74358961,8.57
4121.79487152, 4124.48717921, 4125.64102537, 4125.76923050, 4123.58974332, 3960.38461476, 4049.61538420, 4043.33333292, 4027.56410208, 4125.38461511, 4098.33333299, 4119.10256383, 4123.84615357, 4192.94871781,8.57
4134.10256383, 4127.17948691, 4134.48717921, 4125.64102537, 4124.48717921, 3989.48717894, 4074.61538427, 4073.20512786, 4060.25640984, 4125.76923050, 4104.74358947, 4129.99999973, 4131.53846126, 4197.05128192,8.57
4129.23076896, 4125.12820485, 4129.48717921, 4125.76923050, 4127.05128178, 3976.15384560, 4051.66666625, 4060.38461497, 4051.41025600, 4126.53846126, 4101.15384581, 4122.56410229, 4126.15384588, 4195.25641012,8.57
4130.12820485, 4126.53846126, 4127.56410229, 4123.07692280, 4127.82051255, 3953.58974297, 4026.66666618, 4033.97435849, 4024.99999952, 4127.69230742, 4098.07692273, 4124.35897408, 4124.87179460, 4199.23076910,8.57
4139.99999980, 4136.28205108, 4137.17948697, 4129.35897408, 4127.30769203, 3957.82051220, 4036.28205080, 4037.43589702, 4030.12820465, 4128.46153819, 4104.23076896, 4130.12820485, 4131.92307665, 4197.17948704,8.57
4124.48717921, 4128.71794844, 4124.48717921, 4127.30769203, 4125.38461511, 3978.58974304, 4059.35897395, 4067.43589702, 4065.12820472, 4127.30769203, 4104.87179460, 4118.71794844, 4127.05128178, 4194.61538448,8.57
4134.48717921, 4124.48717921, 4129.10256383, 4126.79487152, 4130.25640998, 3989.10256355, 4071.28205094, 4087.05128171, 4082.69230735, 4124.99999973, 4105.76923050, 4131.15384588, 4128.58974332, 4199.48717935,8.57
4134.23076896, 4128.33333306, 4132.05128178, 4127.69230742, 4127.94871767, 4003.46153791, 4086.41025607, 4098.71794837, 4088.07692273, 4124.48717921, 4107.69230742, 4127.43589716, 4129.10256383, 4193.71794858,8.57
4115.64102537, 4124.10256383, 4120.25640998, 4116.92307665, 4121.66666639, 3993.97435842, 4067.17948677, 4067.56410215, 4050.64102523, 4126.92307665, 4107.82051255, 4118.33333306, 4128.71794844, 4198.20512807,8.57
4126.02564075, 4128.33333306, 4125.89743562, 4120.76923050, 4124.74358947, 3945.25640963, 4008.71794824, 4001.66666611, 3977.94871740, 4130.12820485, 4099.87179453, 4126.15384588, 4130.76923050, 4202.05128199,8.57
4125.25640998, 4127.56410229, 4122.69230742, 4125.25640998, 4124.10256383, 3949.99999938, 4018.84615336, 4014.61538413, 3991.15384560, 4129.48717921, 4095.89743555, 4122.69230742, 4125.89743562, 4195.76923063,8.57
4119.10256383, 4121.66666639, 4120.64102537, 4118.97435870, 4121.92307665, 3999.87179432, 4077.94871761, 4078.97435863, 4057.05128164, 4127.17948691, 4107.82051255, 4129.10256383, 4126.28205101, 4201.15384609,8.57
4125.64102537, 4126.66666639, 4126.02564075, 4122.30769203, 4124.48717921, 3987.56410201, 4059.35897395, 4052.17948677, 4022.43589695, 4126.15384588, 4104.23076896, 4126.66666639, 4126.53846126, 4201.41025634,8.57
4118.46153819, 4121.41025614, 4115.89743562, 4118.20512793, 4124.10256383, 3978.97435842, 4046.15384574, 4031.53846106, 3988.46153791, 4126.02564075, 4097.30769196, 4116.92307665, 4125.51282024, 4198.58974345,8.57
4118.46153819, 4121.41025614, 4115.89743562, 4118.20512793, 4124.10256383, 3978.97435842, 4046.15384574, 4031.53846106, 3988.46153791, 4126.02564075, 4097.30769196, 4116.92307665, 4125.51282024, 4198.58974345,8.57
4120.51282024, 4119.99999973, 4116.41025614, 4118.33333306, 4121.15384588, 3998.46153791, 4067.05128164, 4057.43589702, 4007.05128157, 4127.69230742, 4104.10256383, 4128.97435870, 4128.58974332, 4202.82051275,8.57
4122.82051255, 4124.87179460, 4118.46153819, 4125.89743562, 4119.74358947, 3964.74358912, 4031.53846106, 4020.38461490, 3972.43589688, 4129.87179460, 4097.30769196, 4127.56410229, 4125.89743562, 4201.02564096,8.57
4112.17948691, 4116.15384588, 4110.25640998, 4117.94871767, 4119.74358947, 3941.53846092, 4015.89743541, 4008.20512772, 3966.79487117, 4128.84615357, 4092.05128171, 4119.35897408, 4123.84615357, 4201.66666660,8.57
4121.02564075, 4119.87179460, 4118.20512793, 4119.87179460, 4122.56410229, 3983.07692252, 4064.87179446, 4070.12820478, 4035.12820465, 4126.28205101, 4101.79487145, 4126.92307665, 4125.64102537, 4204.23076917,8.57
4118.71794844, 4122.56410229, 4118.71794844, 4123.84615357, 4122.94871767, 4003.71794817, 4073.71794837, 4077.17948684, 4046.92307651, 4127.43589716, 4102.56410229, 4123.07692280, 4123.71794844, 4197.30769217,8.57
4111.02564075, 4114.99999973, 4113.07692280, 4118.97435870, 4122.17948691, 3971.28205073, 4034.74358926, 4030.38461490, 4000.25640970, 4127.94871767, 4097.94871761, 4119.48717921, 4124.87179460, 4198.84615371,8.57
4117.82051255, 4119.99999973, 4117.56410229, 4121.15384588, 4125.64102537, 3979.48717894, 4053.33333292, 4056.66666625, 4026.79487131, 4126.15384588, 4100.38461504, 4121.02564075, 4127.05128178, 4202.30769224,8.57
4107.94871767, 4118.20512793, 4114.23076896, 4118.71794844, 4122.69230742, 4014.10256362, 4086.15384581, 4091.02564068, 4072.17948684, 4128.33333306, 4102.30769196, 4116.28205101, 4121.92307665, 4196.92307679,8.57
4111.92307665, 4114.35897408, 4118.46153819, 4115.76923050, 4120.51282024, 3988.97435842, 4048.46153805, 4042.17948677, 4029.35897388, 4131.02564075, 4101.66666632, 4124.23076896, 4124.61538434, 4199.74358961,8.57
4120.64102537, 4116.28205101, 4121.92307665, 4115.64102537, 4124.74358947, 3960.12820451, 4021.02564054, 4013.58974311, 3987.82051227, 4128.71794844, 4098.58974325, 4125.38461511, 4128.46153819, 4201.41025634,8.57
4113.46153819, 4118.33333306, 4118.07692280, 4117.17948691, 4122.30769203, 3976.53846099, 4038.71794830, 4034.35897388, 3998.84615329, 4126.92307665, 4095.64102530, 4118.07692280, 4125.76923050, 4199.48717935,8.57
4118.07692280, 4119.99999973, 4122.05128178, 4118.07692280, 4120.76923050, 3979.61538406, 4035.12820465, 4026.02564054, 3994.87179432, 4128.07692280, 4094.99999966, 4122.17948691, 4126.41025614, 4199.87179474,8.57
4118.33333306, 4117.17948691, 4121.41025614, 4120.38461511, 4121.79487152, 3990.89743535, 4044.99999959, 4029.61538413, 4000.12820458, 4128.71794844, 4097.82051248, 4118.84615357, 4124.74358947, 4197.82051269,8.57
4118.33333306, 4117.17948691, 4121.41025614, 4120.38461511, 4121.79487152, 3990.89743535, 4044.99999959, 4029.61538413, 4000.12820458, 4128.71794844, 4097.82051248, 4118.84615357, 4124.74358947, 4197.82051269,8.57
4117.94871767, 4120.25640998, 4122.82051255, 4126.53846126, 4124.48717921, 4019.87179439, 4071.41025607, 4057.30769189, 4026.02564054, 4129.23076896, 4105.51282024, 4120.89743562, 4126.28205101, 4199.10256397,8.57
4120.64102537, 4123.07692280, 4125.64102537, 4122.94871767, 4127.30769203, 3986.53846099, 4034.61538413, 4027.56410208, 3998.46153791, 4128.58974332, 4104.61538434, 4121.53846126, 4128.46153819, 4195.89743576,8.57
4118.20512793, 4122.17948691, 4125.25640998, 4121.02564075, 4124.99999973, 3962.56410194, 4013.97435849, 4017.56410208, 3995.76923022, 4127.43589716, 4100.51282017, 4117.17948691, 4126.53846126, 4196.28205115,8.57
4122.43589716, 4123.97435870, 4126.92307665, 4122.17948691, 4124.48717921, 4017.69230721, 4065.89743548, 4075.25640991, 4057.30769189, 4128.84615357, 4107.69230742, 4125.25640998, 4125.76923050, 4201.28205122,8.57
4122.43589716, 4122.05128178, 4124.87179460, 4119.61538434, 4124.87179460, 4048.97435856, 4089.74358940, 4088.97435863, 4063.58974318, 4130.25640998, 4106.41025614, 4119.23076896, 4123.46153819, 4194.35897422,8.57
4122.82051255, 4121.41025614, 4125.51282024, 4123.97435870, 4121.79487152, 4029.74358926, 4074.23076889, 4066.28205087, 4039.99999959, 4128.07692280, 4103.71794844, 4119.87179460, 4126.02564075, 4194.48717935,8.57
4123.97435870, 4124.23076896, 4124.10256383, 4124.87179460, 4122.30769203, 4002.43589688, 4054.23076882, 4056.28205087, 4042.94871754, 4125.12820485, 4105.64102537, 4127.30769203, 4128.46153819, 4200.25641012,8.57
4121.79487152, 4127.30769203, 4121.92307665, 4123.71794844, 4125.89743562, 3977.94871740, 4026.79487131, 4030.76923029, 4022.43589695, 4126.02564075, 4100.89743555, 4122.69230742, 4125.76923050, 4199.35897422,8.57
4124.10256383, 4122.30769203, 4123.58974332, 4123.46153819, 4124.35897408, 3988.58974304, 4036.53846106, 4033.07692259, 4013.07692259, 4128.71794844, 4099.99999966, 4126.02564075, 4125.51282024, 4199.74358961,8.57
4126.28205101, 4120.12820485, 4126.53846126, 4120.12820485, 4120.89743562, 4016.02564054, 4063.58974318, 4071.02564068, 4040.25640984, 4127.82051255, 4101.28205094, 4124.99999973, 4124.23076896, 4199.48717935,8.57
4123.20512793, 4127.82051255, 4126.92307665, 4120.64102537, 4122.56410229, 3981.15384560, 4020.38461490, 4014.61538413, 4015.38461490, 4125.64102537, 4098.33333299, 4122.94871767, 4124.87179460, 4201.66666660,8.57
4118.46153819, 4125.64102537, 4121.02564075, 4119.48717921, 4124.23076896, 3944.61538399, 3980.64102509, 3914.61538392, 3976.28205073, 4127.17948691, 4101.28205094, 4124.61538434, 4126.28205101, 4201.41025634,8.57
4128.20512793, 4126.92307665, 4127.30769203, 4124.10256383, 4123.33333306, 3998.20512765, 4034.48717900, 3933.20512751, 4017.17948670, 4128.20512793, 4109.87179460, 4125.38461511, 4125.76923050, 4198.33333320,8.57
4126.92307665, 4126.53846126, 4124.61538434, 4124.35897408, 4123.97435870, 4022.43589695, 4054.48717907, 3965.64102502, 4032.56410208, 4127.82051255, 4105.76923050, 4123.71794844, 4128.33333306, 4197.17948704,8.57
4123.84615357, 4121.79487152, 4118.58974332, 4120.12820485, 4126.41025614, 3986.02564047, 4018.97435849, 3940.64102502, 4004.99999952, 4129.35897408, 4097.69230735, 4121.92307665, 4127.94871767, 4198.20512807,8.57
4134.23076896, 4127.30769203, 4126.41025614, 4127.05128178, 4126.02564075, 3991.41025586, 4030.89743541, 3953.97435835, 4021.53846106, 4130.25640998, 4103.58974332, 4126.53846126, 4127.17948691, 4197.56410243,8.57
4122.05128178, 4119.74358947, 4119.23076896, 4122.56410229, 4124.10256383, 4016.92307644, 4060.25640984, 3994.10256355, 4047.30769189, 4128.84615357, 4105.25640998, 4120.64102537, 4126.41025614, 4196.53846140,8.57
4125.76923050, 4119.61538434, 4124.61538434, 4122.56410229, 4127.69230742, 4004.10256362, 4047.05128164, 3987.56410201, 4037.94871754, 4128.33333306, 4101.92307658, 4123.33333306, 4126.92307665, 4203.46153840,8.57
4123.46153819, 4122.30769203, 4125.89743562, 4122.17948691, 4125.64102537, 3987.43589688, 4031.15384567, 3971.66666611, 4023.97435849, 4127.43589716, 4105.51282024, 4125.25640998, 4128.20512793, 4201.66666660,8.57
4114.10256383, 4116.79487152, 4115.89743562, 4114.87179460, 4120.89743562, 3998.46153791, 4045.76923036, 3989.48717894, 4034.99999952, 4126.15384588, 4107.43589716, 4116.28205101, 4126.79487152, 4199.23076910,8.57
4131.41025614, 4126.41025614, 4124.74358947, 4123.07692280, 4125.38461511, 4003.20512765, 4046.53846113, 3993.84615329, 4037.69230728, 4126.79487152, 4102.69230742, 4126.53846126, 4129.74358947, 4205.38461532,8.57
4117.69230742, 4123.71794844, 4118.46153819, 4120.64102537, 4124.23076896, 3991.15384560, 4021.41025593, 3967.56410194, 4012.43589695, 4129.23076896, 4094.48717914, 4124.74358947, 4128.46153819, 4200.12820499,8.57
4119.23076896, 4121.41025614, 4121.41025614, 4118.58974332, 4120.89743562, 3973.71794817, 4004.99999952, 3949.61538399, 3995.89743535, 4129.99999973, 4092.43589709, 4120.76923050, 4126.53846126, 4197.30769217,8.57
4127.69230742, 4123.84615357, 4123.20512793, 4119.99999973, 4123.71794844, 3993.46153791, 4037.43589702, 3986.28205073, 4038.20512779, 4128.84615357, 4102.43589709, 4125.64102537, 4127.94871767, 4197.43589730,8.57
4116.15384588, 4118.71794844, 4112.82051255, 4117.82051255, 4125.25640998, 4026.66666618, 4067.94871754, 4022.82051234, 4079.48717914, 4126.92307665, 4106.92307665, 4118.97435870, 4125.25640998, 4195.25641012,8.57
4129.23076896, 4124.74358947, 4122.94871767, 4126.66666639, 4126.28205101, 3999.74358919, 4029.99999952, 3985.76923022, 4038.07692266, 4127.56410229, 4100.51282017, 4123.33333306, 4125.64102537, 4199.74358961,8.57
4120.25640998, 4121.92307665, 4116.92307665, 4120.76923050, 4125.76923050, 3985.51281996, 4014.23076875, 3966.15384553, 4015.25640977, 4128.84615357, 4096.02564068, 4123.07692280, 4126.53846126, 4198.84615371,8.57
4120.64102537, 4122.82051255, 4119.48717921, 4119.99999973, 4127.56410229, 4022.05128157, 4055.64102523, 4005.25640977, 4058.33333292, 4127.69230742, 4099.35897402, 4119.99999973, 4125.51282024, 4199.99999986,8.57
4126.53846126, 4125.38461511, 4127.69230742, 4127.05128178, 4128.20512793, 4019.74358926, 4057.30769189, 4012.69230721, 4069.23076882, 4127.69230742, 4100.25640991, 4120.89743562, 4125.76923050, 4199.87179474,8.57
4108.84615357, 4116.92307665, 4115.38461511, 4116.15384588, 4124.61538434, 3989.74358919, 4022.43589695, 3979.35897381, 4027.30769183, 4128.97435870, 4092.17948684, 4113.97435870, 4126.66666639, 4194.87179474,8.57
4122.30769203, 4127.94871767, 4122.69230742, 4120.89743562, 4125.25640998, 4004.10256362, 4033.46153798, 3981.92307637, 4027.43589695, 4128.07692280, 4093.71794837, 4121.79487152, 4129.10256383, 4199.61538448,8.57
4121.28205101, 4126.53846126, 4120.25640998, 4123.20512793, 4124.23076896, 4036.15384567, 4073.33333299, 4022.82051234, 4080.89743555, 4126.92307665, 4103.33333306, 4124.99999973, 4127.56410229, 4197.82051269,8.57
4118.84615357, 4120.76923050, 4120.76923050, 4119.61538434, 4124.35897408, 4023.58974311, 4064.35897395, 4019.87179439, 4066.28205087, 4128.20512793, 4101.79487145, 4118.46153819, 4123.33333306, 4194.74358961,8.57
4130.38461511, 4127.82051255, 4130.51282024, 4126.28205101, 4125.64102537, 4001.79487124, 4039.87179446, 3992.05128150, 4014.99999952, 4129.61538434, 4098.71794837, 4124.23076896, 4123.58974332, 4197.94871781,8.57
4113.07692280, 4118.97435870, 4116.92307665, 4118.84615357, 4122.94871767, 3998.20512765, 4041.02564061, 3995.12820458, 4024.35897388, 4127.94871767, 4097.94871761, 4120.38461511, 4125.12820485, 4196.53846140,8.57
4119.48717921, 4123.07692280, 4125.12820485, 4121.92307665, 4125.76923050, 3994.61538406, 4038.33333292, 3996.28205073, 4031.79487131, 4128.07692280, 4097.82051248, 4119.61538434, 4128.46153819, 4196.53846140,8.57
4123.97435870, 4126.41025614, 4129.23076896, 4122.69230742, 4127.05128178, 4020.64102516, 4058.84615343, 4015.25640977, 4039.48717907, 4128.46153819, 4102.30769196, 4124.87179460, 4127.94871767, 4196.28205115,8.57
4116.15384588, 4120.25640998, 4119.61538434, 4117.05128178, 4123.84615357, 4069.35897395, 4116.92307665, 4087.69230735, 4119.35897408, 4127.43589716, 4106.02564075, 4120.12820485, 4123.84615357, 4196.79487166,8.57
4124.87179460, 4128.20512793, 4128.97435870, 4126.28205101, 4124.35897408, 4067.05128164, 4116.79487152, 4095.12820478, 4136.28205108, 4125.76923050, 4105.64102537, 4121.79487152, 4128.07692280, 4197.69230756,8.57
4116.79487152, 4126.02564075, 4122.05128178, 4120.76923050, 4124.48717921, 4030.25640977, 4065.51282010, 4022.17948670, 4052.82051241, 4124.10256383, 4100.38461504, 4122.69230742, 4130.38461511, 4194.74358961,8.57
4124.48717921, 4128.07692280, 4122.94871767, 4121.02564075, 4124.99999973, 4039.23076882, 4081.41025607, 4038.20512779, 4068.33333292, 4124.10256383, 4098.33333299, 4125.12820485, 4130.38461511, 4196.28205115,8.57
4128.46153819, 4126.92307665, 4127.82051255, 4127.17948691, 4124.61538434, 4041.66666625, 4096.92307658, 4075.89743555, 4113.97435870, 4126.41025614, 4098.58974325, 4127.43589716, 4131.92307665, 4198.20512807,8.57
4116.66666639, 4117.05128178, 4120.12820485, 4121.79487152, 4122.30769203, 4004.74358926, 4046.53846113, 4017.30769183, 4053.84615343, 4129.10256383, 4094.23076889, 4122.30769203, 4128.20512793, 4196.41025628,8.57
4126.66666639, 4126.15384588, 4125.89743562, 4125.76923050, 4125.12820485, 4024.23076875, 4059.10256369, 4010.12820465, 4042.43589702, 4128.58974332, 4096.28205094, 4128.46153819, 4127.94871767, 4197.94871781,8.57
4123.46153819, 4125.25640998, 4122.30769203, 4124.61538434, 4124.10256383, 4066.79487138, 4113.07692280, 4073.33333299, 4100.76923043, 4126.28205101, 4099.35897402, 4129.10256383, 4131.92307665, 4196.28205115,8.57
4120.51282024, 4120.76923050, 4123.71794844, 4122.82051255, 4119.87179460, 4038.07692266, 4081.79487145, 4052.56410215, 4074.74358940, 4126.28205101, 4094.10256376, 4123.46153819, 4131.92307665, 4197.69230756,8.57
4126.15384588, 4125.64102537, 4129.10256383, 4126.28205101, 4123.58974332, 4025.51282003, 4061.53846113, 4026.66666618, 4053.33333292, 4128.20512793, 4091.66666632, 4125.25640998, 4131.28205101, 4203.84615378,8.57
4119.61538434, 4123.20512793, 4118.84615357, 4120.76923050, 4126.02564075, 4067.82051241, 4106.92307665, 4070.64102530, 4104.48717921, 4127.69230742, 4091.92307658, 4123.71794844, 4129.74358947, 4202.82051275,8.57
4122.30769203, 4125.64102537, 4122.94871767, 4122.05128178, 4122.17948691, 4048.58974318, 4088.07692273, 4054.61538420, 4088.46153812, 4125.89743562, 4089.48717914, 4128.71794844, 4129.99999973, 4204.23076917,8.57
4120.51282024, 4123.97435870, 4125.51282024, 4123.71794844, 4120.51282024, 4014.10256362, 4053.07692266, 4022.94871747, 4056.02564061, 4126.92307665, 4091.28205094, 4129.74358947, 4132.17948691, 4204.10256404,8.57
4117.43589716, 4120.64102537, 4120.25640998, 4121.66666639, 4124.48717921, 4044.61538420, 4089.99999966, 4056.02564061, 4093.33333299, 4127.43589716, 4091.92307658, 4122.43589716, 4130.25640998, 4199.23076910,8.57
4125.25640998, 4127.43589716, 4122.56410229, 4123.97435870, 4126.15384588, 4052.30769189, 4099.23076889, 4066.92307651, 4105.51282024, 4127.56410229, 4088.84615350, 4129.48717921, 4129.61538434, 4198.46153833,8.57
4120.12820485, 4126.92307665, 4119.99999973, 4120.89743562, 4123.46153819, 4031.15384567, 4071.92307658, 4053.20512779, 4086.28205094, 4126.79487152, 4087.05128171, 4129.23076896, 4129.23076896, 4198.97435884,8.57
4117.30769203, 4121.92307665, 4119.74358947, 4121.28205101, 4123.58974332, 4065.64102523, 4108.07692280, 4088.97435863, 4116.15384588, 4126.41025614, 4093.46153812, 4123.20512793, 4127.17948691, 4202.56410250,8.57
4127.30769203, 4124.87179460, 4124.61538434, 4126.66666639, 4125.64102537, 4093.71794837, 4139.61538441, 4103.20512793, 4132.56410229, 4128.71794844, 4101.02564068, 4129.74358947, 4128.20512793, 4201.79487173,8.57
4123.84615357, 4123.84615357, 4122.56410229, 4122.30769203, 4125.12820485, 4054.23076882, 4098.58974325, 4067.69230728, 4106.79487152, 4128.97435870, 4094.23076889, 4126.53846126, 4127.43589716, 4195.89743576,8.57
4120.12820485, 4122.94871767, 4122.05128178, 4119.87179460, 4125.12820485, 4012.82051234, 4059.87179446, 4050.25640984, 4088.71794837, 4126.53846126, 4085.64102530, 4124.10256383, 4126.41025614, 4196.28205115,8.57
4120.76923050, 4123.58974332, 4122.05128178, 4120.25640998, 4125.64102537, 4015.12820465, 4070.12820478, 4055.12820472, 4083.71794837, 4126.66666639, 4087.05128171, 4124.99999973, 4125.12820485, 4195.64102551,8.57
4116.15384588, 4122.56410229, 4119.35897408, 4117.30769203, 4122.17948691, 4049.61538420, 4108.97435870, 4085.25640991, 4114.87179460, 4128.07692280, 4094.61538427, 4123.20512793, 4125.76923050, 4197.69230756,8.57
4120.12820485, 4125.51282024, 4121.92307665, 4121.41025614, 4120.38461511, 4076.66666632, 4127.69230742, 4110.25640998, 4146.28205108, 4128.20512793, 4098.33333299, 4127.05128178, 4128.97435870, 4203.20512814,8.57
4120.76923050, 4122.05128178, 4117.43589716, 4120.89743562, 4124.23076896, 4058.20512779, 4101.02564068, 4084.23076889, 4118.97435870, 4128.46153819, 4090.76923043, 4121.79487152, 4126.66666639, 4198.07692294,8.57
4122.05128178, 4124.99999973, 4126.02564075, 4126.15384588, 4124.74358947, 4071.02564068, 4108.46153819, 4094.23076889, 4132.17948691, 4126.79487152, 4095.25640991, 4123.84615357, 4126.15384588, 4193.97435884,8.57
4119.35897408, 4124.74358947, 4126.53846126, 4122.43589716, 4122.17948691, 4030.51282003, 4070.12820478, 4059.48717907, 4100.25640991, 4127.94871767, 4093.46153812, 4119.61538434, 4126.92307665, 4194.99999986,8.57
4121.41025614, 4126.15384588, 4127.56410229, 4123.46153819, 4120.12820485, 4029.61538413, 4071.92307658, 4067.17948677, 4102.30769196, 4126.79487152, 4101.02564068, 4124.74358947, 4128.20512793, 4196.66666653,8.57
4118.33333306, 4123.46153819, 4122.94871767, 4124.35897408, 4121.79487152, 4059.48717907, 4104.87179460, 4102.17948684, 4139.10256390, 4124.87179460, 4105.38461511, 4125.25640998, 4126.79487152, 4196.15384602,8.57
4120.12820485, 4122.94871767, 4124.99999973, 4124.74358947, 4123.20512793, 4061.15384574, 4104.35897408, 4091.02564068, 4132.56410229, 4125.25640998, 4102.30769196, 4124.61538434, 4129.35897408, 4198.71794858,8.57
4124.61538434, 4123.33333306, 4126.41025614, 4123.84615357, 4122.30769203, 4042.17948677, 4082.56410222, 4064.35897395, 4102.30769196, 4128.07692280, 4103.07692280, 4127.30769203, 4129.87179460, 4199.10256397,8.57
4122.82051255, 4123.71794844, 4124.23076896, 4122.05128178, 4122.17948691, 4045.25640984, 4086.66666632, 4071.28205094, 4103.97435870, 4129.74358947, 4105.51282024, 4121.28205101, 4126.02564075, 4195.12820499,8.57
4123.20512793, 4127.69230742, 4129.10256383, 4124.99999973, 4121.53846126, 4064.10256369, 4106.02564075, 4087.30769196, 4119.23076896, 4128.20512793, 4106.41025614, 4124.74358947, 4131.53846126, 4195.25641012,8.57
4121.28205101, 4124.61538434, 4124.87179460, 4121.15384588, 4121.92307665, 4047.30769189, 4085.76923043, 4063.58974318, 4090.12820478, 4126.79487152, 4104.10256383, 4127.17948691, 4130.38461511, 4196.15384602,8.57
4126.41025614, 4124.23076896, 4123.84615357, 4120.76923050, 4126.41025614, 4016.92307644, 4049.10256369, 4026.66666618, 4045.64102523, 4127.56410229, 4105.64102537, 4125.76923050, 4123.58974332, 4199.23076910,8.57
4129.10256383, 4126.53846126, 4127.17948691, 4125.64102537, 4127.94871767, 4050.76923036, 4083.97435863, 4064.10256369, 4084.10256376, 4127.56410229, 4112.30769203, 4126.92307665, 4128.84615357, 4200.25641012,8.57
4124.48717921, 4124.35897408, 4123.71794844, 4124.23076896, 4124.74358947, 4107.43589716, 4147.69230749, 4136.15384595, 4158.58974339, 4125.51282024, 4112.17948691, 4123.71794844, 4131.66666639, 4199.74358961,8.57
4125.76923050, 4123.97435870, 4121.53846126, 4124.61538434, 4122.43589716, 4095.12820478, 4132.69230742, 4124.48717921, 4146.53846133, 4127.69230742, 4109.10256383, 4126.41025614, 4128.33333306, 4202.17948711,8.57
4122.17948691, 4124.10256383, 4119.61538434, 4122.69230742, 4123.71794844, 4058.58974318, 4085.64102530, 4070.12820478, 4093.20512786, 4131.92307665, 4110.64102537, 4124.99999973, 4126.28205101, 4200.38461525,8.57
4124.10256383, 4128.33333306, 4126.15384588, 4120.89743562, 4124.23076896, 4069.23076882, 4100.51282017, 4088.33333299, 4109.23076896, 4130.89743562, 4116.28205101, 4124.99999973, 4127.43589716, 4199.99999986,8.57
4119.48717921, 4127.82051255, 4125.38461511, 4120.64102537, 4121.92307665, 4081.28205094, 4124.74358947, 4126.15384588, 4143.71794851, 4126.79487152, 4120.12820485, 4126.15384588, 4128.46153819, 4199.99999986,8.57
4112.30769203, 4120.12820485, 4117.69230742, 4120.76923050, 4122.56410229, 4077.30769196, 4115.51282024, 4117.30769203, 4135.76923056, 4126.28205101, 4117.82051255, 4121.28205101, 4127.56410229, 4199.10256397,8.57
4122.56410229, 4118.33333306, 4121.92307665, 4125.38461511, 4123.58974332, 4077.94871761, 4103.71794844, 4099.48717914, 4113.46153819, 4126.66666639, 4116.79487152, 4125.76923050, 4127.05128178, 4201.41025634,8.57
4120.38461511, 4119.23076896, 4119.35897408, 4122.94871767, 4120.76923050, 4078.46153812, 4108.07692280, 4102.94871767, 4109.48717921, 4127.17948691, 4115.64102537, 4124.10256383, 4124.99999973, 4199.48717935,8.57
4120.51282024, 4123.33333306, 4120.51282024, 4124.87179460, 4120.12820485, 4083.58974325, 4121.02564075, 4119.87179460, 4127.17948691, 4129.10256383, 4116.15384588, 4119.99999973, 4125.76923050, 4198.84615371,8.57
4124.61538434, 4122.43589716, 4123.58974332, 4127.17948691, 4122.43589716, 4079.35897402, 4107.56410229, 4102.43589709, 4114.23076896, 4129.87179460, 4117.82051255, 4124.35897408, 4128.20512793, 4198.07692294,8.57
4119.48717921, 4117.82051255, 4119.61538434, 4118.97435870, 4123.84615357, 4070.76923043, 4094.48717914, 4078.46153812, 4090.76923043, 4128.97435870, 4113.20512793, 4120.89743562, 4126.92307665, 4196.92307679,8.57
4123.46153819, 4124.99999973, 4125.38461511, 4120.89743562, 4125.25640998, 4075.12820478, 4111.15384588, 4094.87179453, 4104.87179460, 4128.71794844, 4112.94871767, 4122.69230742, 4126.53846126, 4203.33333327,8.57
4119.48717921, 4126.66666639, 4123.33333306, 4125.64102537, 4125.89743562, 4074.74358940, 4111.02564075, 4103.84615357, 4119.74358947, 4127.94871767, 4113.07692280, 4123.46153819, 4127.69230742, 4200.76923063,8.57
4115.89743562, 4120.76923050, 4117.30769203, 4122.43589716, 4124.35897408, 4072.30769196, 4096.92307658, 4088.97435863, 4116.28205101, 4127.69230742, 4111.15384588, 4119.61538434, 4127.69230742, 4195.38461525,8.57
4124.74358947, 4124.99999973, 4122.94871767, 4124.23076896, 4123.84615357, 4083.71794837, 4109.74358947, 4093.71794837, 4117.17948691, 4127.30769203, 4115.76923050, 4124.35897408, 4130.12820485, 4198.33333320,8.57
4122.56410229, 4126.28205101, 4121.53846126, 4121.41025614, 4124.10256383, 4076.92307658, 4107.82051255, 4095.12820478, 4101.53846119, 4126.41025614, 4113.97435870, 4120.51282024, 4131.53846126, 4196.53846140,8.57
4119.99999973, 4123.97435870, 4120.25640998, 4120.89743562, 4123.46153819, 4071.41025607, 4100.76923043, 4090.64102530, 4096.02564068, 4126.41025614, 4109.48717921, 4118.20512793, 4131.53846126, 4196.41025628,8.57
4125.38461511, 4125.38461511, 4123.46153819, 4127.43589716, 4124.74358947, 4109.61538434, 4141.28205108, 4128.58974332, 4142.05128185, 4126.92307665, 4114.23076896, 4123.58974332, 4131.66666639, 4198.97435884,8.57
4121.02564075, 4121.02564075, 4119.87179460, 4123.46153819, 4126.66666639, 4100.89743555, 4131.66666639, 4122.30769203, 4136.02564082, 4128.07692280, 4111.66666639, 4116.79487152, 4129.23076896, 4198.20512807,8.57
4122.69230742, 4123.58974332, 4124.48717921, 4122.82051255, 4125.76923050, 4043.58974318, 4071.02564068, 4062.43589702, 4079.10256376, 4127.82051255, 4103.20512793, 4119.35897408, 4128.84615357, 4200.12820499,8.57
4123.84615357, 4127.82051255, 4127.56410229, 4126.53846126, 4124.10256383, 4064.10256369, 4093.71794837, 4084.35897402, 4108.97435870, 4124.48717921, 4106.53846126, 4123.84615357, 4126.53846126, 4197.69230756,8.57
4118.33333306, 4122.17948691, 4122.43589716, 4123.58974332, 4124.87179460, 4125.51282024, 4153.20512800, 4149.61538441, 4178.97435884, 4124.48717921, 4112.56410229, 4120.64102537, 4125.76923050, 4195.38461525,8.57
4124.23076896, 4123.33333306, 4123.84615357, 4124.61538434, 4125.89743562, 4118.20512793, 4139.10256390, 4136.92307672, 4163.84615364, 4126.53846126, 4110.25640998, 4125.38461511, 4131.53846126, 4197.43589730,8.57
4119.48717921, 4123.84615357, 4121.66666639, 4121.02564075, 4122.17948691, 4095.25640991, 4113.20512793, 4108.58974332, 4132.05128178, 4125.25640998, 4102.05128171, 4122.30769203, 4130.25640998, 4197.69230756,8.57
4117.69230742, 4125.12820485, 4124.74358947, 4119.87179460, 4121.41025614, 4100.38461504, 4111.66666639, 4110.76923050, 4138.07692287, 4125.51282024, 4097.56410222, 4120.64102537, 4128.46153819, 4199.61538448,8.57
4125.76923050, 4127.43589716, 4126.28205101, 4124.10256383, 4124.87179460, 4094.10256376, 4093.71794837, 4094.10256376, 4123.46153819, 4130.25640998, 4098.58974325, 4122.69230742, 4130.12820485, 4197.94871781,8.57
4122.82051255, 4122.17948691, 4120.51282024, 4121.79487152, 4122.43589716, 4101.92307658, 4101.53846119, 4096.02564068, 4129.10256383, 4130.76923050, 4101.66666632, 4122.05128178, 4130.38461511, 4197.17948704,8.57
4123.71794844, 4123.97435870, 4126.79487152, 4122.43589716, 4119.61538434, 4120.25640998, 4121.53846126, 4102.82051255, 4158.46153826, 4127.30769203, 4100.51282017, 4125.89743562, 4129.35897408, 4198.46153833,8.57
4122.30769203, 4122.94871767, 4124.48717921, 4119.61538434, 4122.30769203, 4099.35897402, 4086.66666632, 4049.74358933, 4125.51282024, 4126.02564075, 4090.51282017, 4122.05128178, 4126.92307665, 4195.76923063,8.57
4123.33333306, 4120.64102537, 4121.41025614, 4120.51282024, 4124.23076896, 4092.30769196, 4072.43589709, 4030.25640977, 4099.87179453, 4127.30769203, 4091.92307658, 4123.33333306, 4131.92307665, 4197.56410243,8.57
4128.07692280, 4125.51282024, 4127.17948691, 4127.82051255, 4123.46153819, 4127.17948691, 4117.05128178, 4086.02564068, 4143.58974339, 4128.97435870, 4099.35897402, 4123.20512793, 4133.33333306, 4198.20512807,8.57
4125.51282024, 4124.74358947, 4123.71794844, 4122.30769203, 4123.46153819, 4130.38461511, 4119.48717921, 4088.58974325, 4147.69230749, 4128.58974332, 4094.48717914, 4119.35897408, 4129.23076896, 4196.53846140,8.57
4126.92307665, 4126.28205101, 4122.30769203, 4120.89743562, 4125.38461511, 4106.79487152, 4088.07692273, 4052.94871754, 4114.10256383, 4128.07692280, 4090.89743555, 4126.79487152, 4130.89743562, 4198.84615371,8.57
4121.92307665, 4125.12820485, 4121.53846126, 4122.94871767, 4125.76923050, 4111.53846126, 4096.53846119, 4073.84615350, 4128.97435870, 4127.43589716, 4091.28205094, 4123.84615357, 4130.51282024, 4200.89743576,8.57
4121.41025614, 4121.53846126, 4123.46153819, 4121.41025614, 4124.23076896, 4124.87179460, 4104.87179460, 4089.23076889, 4142.82051262, 4127.17948691, 4091.53846119, 4122.69230742, 4131.15384588, 4203.84615378,8.57
4124.99999973, 4122.94871767, 4125.51282024, 4122.05128178, 4123.07692280, 4139.87179467, 4113.97435870, 4094.10256376, 4153.46153826, 4126.41025614, 4093.20512786, 4125.12820485, 4132.43589716, 4202.82051275,8.57
4119.74358947, 4123.46153819, 4122.17948691, 4118.84615357, 4123.71794844, 4135.89743569, 4120.64102537, 4104.99999973, 4159.23076903, 4125.64102537, 4092.94871761, 4119.48717921, 4130.25640998, 4199.74358961,8.57
4122.69230742, 4125.89743562, 4124.87179460, 4118.84615357, 4124.48717921, 4088.71794837, 4075.64102530, 4057.56410215, 4097.94871761, 4126.66666639, 4089.10256376, 4123.20512793, 4129.35897408, 4199.74358961,8.57
4123.33333306, 4123.46153819, 4121.79487152, 4120.76923050, 4124.48717921, 4092.69230735, 4078.46153812, 4050.38461497, 4098.71794837, 4127.43589716, 4089.10256376, 4123.07692280, 4131.15384588, 4196.79487166,8.57
4123.58974332, 4118.20512793, 4119.48717921, 4121.15384588, 4124.48717921, 4142.05128185, 4132.30769203, 4110.25640998, 4168.84615371, 4126.66666639, 4097.30769196, 4121.41025614, 4132.05128178, 4199.35897422,8.57
4124.35897408, 4119.48717921, 4122.17948691, 4120.51282024, 4124.74358947, 4128.46153819, 4107.69230742, 4090.12820478, 4138.58974339, 4126.28205101, 4096.15384581, 4121.92307665, 4129.48717921, 4203.46153840,8.57
4116.15384588, 4121.79487152, 4119.61538434, 4117.05128178, 4123.58974332, 4101.15384581, 4071.53846119, 4044.87179446, 4086.79487145, 4126.79487152, 4086.92307658, 4116.02564075, 4128.20512793, 4200.38461525,8.57
4117.30769203, 4124.23076896, 4121.41025614, 4121.53846126, 4123.71794844, 4126.02564075, 4106.53846126, 4079.74358940, 4124.99999973, 4125.89743562, 4087.82051248, 4121.15384588, 4129.87179460, 4198.46153833,8.57
4118.46153819, 4121.15384588, 4120.12820485, 4124.35897408, 4126.53846126, 4145.64102544, 4132.43589716, 4110.25640998, 4158.33333313, 4126.02564075, 4092.43589709, 4123.07692280, 4128.84615357, 4196.02564089,8.57
4116.41025614, 4118.71794844, 4119.48717921, 4120.38461511, 4128.07692280, 4108.33333306, 4084.61538427, 4056.79487138, 4099.61538427, 4127.69230742, 4087.94871761, 4117.17948691, 4127.94871767, 4194.48717935,8.57
4117.94871767, 4122.43589716, 4122.69230742, 4120.38461511, 4125.38461511, 4077.56410222, 4042.17948677, 4005.64102516, 4038.07692266, 4127.94871767, 4084.48717914, 4113.58974332, 4128.71794844, 4194.35897422,8.57
4119.74358947, 4121.53846126, 4121.15384588, 4121.28205101, 4122.94871767, 4102.43589709, 4068.84615343, 4031.41025593, 4063.71794830, 4126.79487152, 4088.97435863, 4112.82051255, 4127.43589716, 4194.10256397,8.57
4126.15384588, 4122.30769203, 4124.61538434, 4123.58974332, 4123.84615357, 4140.89743569, 4121.79487152, 4094.48717914, 4137.69230749, 4127.56410229, 4096.02564068, 4120.64102537, 4128.71794844, 4196.79487166,8.57
4121.15384588, 4123.84615357, 4121.15384588, 4122.30769203, 4124.48717921, 4139.87179467, 4124.87179460, 4109.48717921, 4153.97435877, 4129.10256383, 4090.89743555, 4117.43589716, 4128.46153819, 4194.48717935,8.57
4118.20512793, 4123.84615357, 4118.84615357, 4120.12820485, 4124.23076896, 4122.30769203, 4097.30769196, 4080.89743555, 4119.48717921, 4128.20512793, 4085.51282017, 4116.02564075, 4127.56410229, 4194.61538448,8.57
4123.20512793, 4125.25640998, 4123.84615357, 4123.46153819, 4121.66666639, 4122.56410229, 4093.84615350, 4072.94871761, 4115.51282024, 4128.46153819, 4094.48717914, 4123.71794844, 4129.61538434, 4197.69230756,8.57
4122.17948691, 4124.23076896, 4120.89743562, 4122.56410229, 4121.28205101, 4123.58974332, 4098.33333299, 4078.20512786, 4119.87179460, 4128.33333306, 4098.71794837, 4117.30769203, 4127.56410229, 4197.43589730,8.57
4125.64102537, 4127.69230742, 4123.97435870, 4121.92307665, 4125.89743562, 4127.05128178, 4103.97435870, 4087.94871761, 4122.69230742, 4127.17948691, 4096.41025607, 4116.92307665, 4128.97435870, 4196.92307679,8.57
4119.74358947, 4126.41025614, 4124.10256383, 4119.99999973, 4126.15384588, 4125.38461511, 4096.28205094, 4083.58974325, 4118.84615357, 4128.33333306, 4093.07692273, 4119.99999973, 4130.38461511, 4194.48717935,8.57
4120.38461511, 4122.43589716, 4125.25640998, 4121.79487152, 4123.46153819, 4117.30769203, 4086.15384581, 4065.12820472, 4100.76923043, 4130.12820485, 4094.48717914, 4119.99999973, 4129.61538434, 4196.79487166,8.57
4126.41025614, 4125.25640998, 4128.97435870, 4126.28205101, 4122.17948691, 4124.48717921, 4104.10256383, 4077.56410222, 4109.48717921, 4129.61538434, 4104.74358947, 4123.07692280, 4131.92307665, 4195.51282038,8.57
4120.89743562, 4124.10256383, 4126.28205101, 4119.99999973, 4122.17948691, 4117.05128178, 4098.07692273, 4077.30769196, 4110.12820485, 4127.30769203, 4104.23076896, 4119.48717921, 4130.51282024, 4191.41025628,8.57
4130.25640998, 4127.17948691, 4132.69230742, 4123.33333306, 4125.64102537, 4106.41025614, 4078.58974325, 4057.17948677, 4089.87179453, 4127.56410229, 4098.33333299, 4124.99999973, 4133.46153819, 4199.61538448,8.57
4126.02564075, 4125.89743562, 4123.46153819, 4127.17948691, 4124.61538434, 4127.69230742, 4100.12820478, 4075.76923043, 4102.30769196, 4127.56410229, 4096.92307658, 4123.07692280, 4132.94871767, 4199.61538448,8.57
4122.94871767, 4124.23076896, 4119.61538434, 4123.71794844, 4121.79487152, 4135.12820485, 4109.23076896, 4089.87179453, 4114.48717921, 4126.92307665, 4096.28205094, 4115.76923050, 4126.15384588, 4195.76923063,8.57
4130.51282024, 4128.58974332, 4130.89743562, 4126.02564075, 4124.23076896, 4096.92307658, 4066.15384574, 4046.53846113, 4074.74358940, 4127.43589716, 4096.53846119, 4123.97435870, 4129.48717921, 4197.43589730,8.57
4119.99999973, 4124.23076896, 4122.69230742, 4123.20512793, 4126.53846126, 4095.12820478, 4068.97435856, 4051.92307651, 4083.58974325, 4128.20512793, 4094.87179453, 4124.10256383, 4133.20512793, 4199.48717935,8.57
4129.61538434, 4126.92307665, 4128.71794844, 4126.41025614, 4128.33333306, 4125.12820485, 4104.74358947, 4098.33333299, 4131.41025614, 4128.46153819, 4098.07692273, 4126.53846126, 4132.05128178, 4202.17948711,8.57
4128.33333306, 4124.48717921, 4131.53846126, 4127.17948691, 4124.48717921, 4113.46153819, 4084.23076889, 4069.99999966, 4103.46153819, 4127.30769203, 4099.87179453, 4125.64102537, 4129.87179460, 4195.64102551,8.57
4121.28205101, 4123.07692280, 4124.48717921, 4122.17948691, 4122.94871767, 4100.25640991, 4067.94871754, 4047.17948677, 4077.30769196, 4126.66666639, 4095.89743555, 4120.76923050, 4131.53846126, 4197.82051269,8.57
4130.76923050, 4130.76923050, 4127.82051255, 4125.64102537, 4125.25640998, 4106.41025614, 4081.92307658, 4076.41025607, 4093.46153812, 4129.10256383, 4097.69230735, 4127.17948691, 4134.74358947, 4203.84615378,8.57
4118.20512793, 4124.23076896, 4120.51282024, 4121.92307665, 4122.82051255, 4099.87179453, 4074.74358940, 4069.99999966, 4071.92307658, 4130.76923050, 4098.33333299, 4121.66666639, 4129.35897408, 4198.07692294,8.57
4129.48717921, 4128.84615357, 4129.87179460, 4123.97435870, 4126.66666639, 4095.51282017, 4064.99999959, 4046.79487138, 4047.82051241, 4128.71794844, 4095.25640991, 4123.84615357, 4129.48717921, 4201.66666660,8.57
4129.61538434, 4127.94871767, 4129.48717921, 4124.99999973, 4127.17948691, 4091.02564068, 4057.82051241, 4043.33333292, 4049.74358933, 4127.56410229, 4090.64102530, 4126.79487152, 4132.17948691, 4200.76923063,8.57
4116.28205101, 4119.10256383, 4120.64102537, 4122.05128178, 4124.87179460, 4094.23076889, 4057.05128164, 4046.41025600, 4049.23076882, 4127.82051255, 4092.43589709, 4119.10256383, 4129.23076896, 4196.92307679,8.57
4132.56410229, 4127.43589716, 4130.51282024, 4128.46153819, 4129.61538434, 4132.56410229, 4096.53846119, 4075.89743555, 4078.71794837, 4127.82051255, 4103.58974332, 4124.35897408, 4131.92307665, 4200.12820499,8.57
4121.28205101, 4122.56410229, 4118.58974332, 4120.38461511, 4125.12820485, 4158.97435877, 4130.76923050, 4111.02564075, 4119.99999973, 4127.43589716, 4103.58974332, 4120.89743562, 4133.07692280, 4197.56410243,8.57
4128.97435870, 4125.76923050, 4124.35897408, 4119.61538434, 4124.61538434, 4128.33333306, 4102.30769196, 4090.12820478, 4095.89743555, 4126.41025614, 4097.56410222, 4121.79487152, 4132.56410229, 4202.17948711,8.57
4132.43589716, 4129.23076896, 4130.38461511, 4126.02564075, 4127.56410229, 4104.61538434, 4074.99999966, 4055.38461497, 4054.99999959, 4126.66666639, 4094.61538427, 4124.10256383, 4131.41025614, 4200.64102551,8.57
4111.66666639, 4119.10256383, 4115.38461511, 4119.35897408, 4124.48717921, 4115.76923050, 4083.97435863, 4060.76923036, 4062.69230728, 4128.33333306, 4090.89743555, 4114.23076896, 4128.71794844, 4195.51282038,8.57
4132.94871767, 4130.25640998, 4131.41025614, 4126.02564075, 4126.92307665, 4117.69230742, 4088.33333299, 4078.58974325, 4087.82051248, 4130.12820485, 4095.51282017, 4122.43589716, 4132.82051255, 4201.92307686,8.57
4125.76923050, 4127.94871767, 4127.56410229, 4124.48717921, 4124.87179460, 4104.23076896, 4071.41025607, 4069.87179453, 4082.30769196, 4129.48717921, 4095.64102530, 4119.61538434, 4129.87179460, 4198.07692294,8.57
4113.97435870, 4118.20512793, 4117.05128178, 4117.30769203, 4122.82051255, 4101.41025607, 4053.71794830, 4043.58974318, 4053.58974318, 4127.94871767, 4087.69230735, 4111.92307665, 4128.97435870, 4196.15384602,8.57
4128.20512793, 4126.15384588, 4132.17948691, 4126.66666639, 4126.15384588, 4121.92307665, 4062.30769189, 4053.97435856, 4059.48717907, 4128.46153819, 4090.51282017, 4123.07692280, 4136.02564082, 4198.97435884,8.57
4112.82051255, 4119.35897408, 4122.30769203, 4123.71794844, 4124.23076896, 4138.20512800, 4077.69230735, 4075.25640991, 4079.10256376, 4129.23076896, 4091.28205094, 4115.76923050, 4132.43589716, 4193.33333320,8.57
4112.56410229, 4116.53846126, 4118.07692280, 4119.61538434, 4122.69230742, 4136.53846133, 4079.61538427, 4066.41025600, 4071.79487145, 4127.69230742, 4087.82051248, 4115.12820485, 4130.38461511, 4198.07692294,8.57
4128.33333306, 4127.43589716, 4128.46153819, 4126.28205101, 4122.56410229, 4136.02564082, 4079.61538427, 4065.76923036, 4069.61538420, 4125.89743562, 4091.41025607, 4127.69230742, 4134.74358947, 4199.61538448,8.57
4109.99999973, 4119.99999973, 4115.51282024, 4118.97435870, 4120.12820485, 4138.46153826, 4080.64102530, 4073.97435863, 4077.82051248, 4127.82051255, 4090.89743555, 4114.48717921, 4128.84615357, 4188.97435884,8.57
4114.35897408, 4120.25640998, 4121.79487152, 4121.66666639, 4122.17948691, 4131.15384588, 4076.53846119, 4064.61538420, 4066.66666625, 4129.10256383, 4090.12820478, 4118.71794844, 4126.41025614, 4195.51282038,8.57
4123.84615357, 4124.61538434, 4127.43589716, 4126.79487152, 4123.97435870, 4126.02564075, 4075.25640991, 4056.41025600, 4057.30769189, 4126.41025614, 4091.02564068, 4125.25640998, 4128.58974332, 4197.30769217,8.57
4095.64102530, 4109.10256383, 4108.58974332, 4111.92307665, 4116.92307665, 4137.56410236, 4080.12820478, 4064.23076882, 4070.12820478, 4124.74358947, 4087.94871761, 4108.97435870, 4125.51282024, 4191.02564089,8.57
4123.07692280, 4123.20512793, 4130.64102537, 4123.46153819, 4121.66666639, 4142.30769210, 4076.92307658, 4064.74358933, 4069.35897395, 4126.92307665, 4092.30769196, 4127.05128178, 4130.38461511, 4204.61538455,8.57
4127.56410229, 4128.58974332, 4127.82051255, 4125.64102537, 4127.82051255, 4126.02564075, 4062.56410215, 4051.15384574, 4058.33333292, 4129.23076896, 4093.33333299, 4126.53846126, 4129.61538434, 4199.87179474,8.57
4110.12820485, 4117.43589716, 4115.89743562, 4118.33333306, 4121.53846126, 4113.33333306, 4056.79487138, 4055.64102523, 4085.25640991, 4127.05128178, 4086.53846119, 4116.66666639, 4127.69230742, 4195.51282038,8.57
4145.38461518, 4133.58974332, 4141.53846133, 4135.12820485, 4123.07692280, 4120.76923050, 4067.17948677, 4072.82051248, 4115.12820485, 4126.53846126, 4087.17948684, 4134.23076896, 4134.10256383, 4201.66666660,8.57
