AF3,F7,F3,FC5,T7,P7,O1,O2,P8,T8,FC6,F4,F8,AF4,Label
4125.64102537, 4127.17948691, 4129.35897408, 4127.05128178, 4122.56410229, 4197.82051269, 4208.58974352, 4192.05128192, 4183.46153833, 4127.94871767, 4117.56410229, 4123.58974332, 4133.07692280, 4195.89743576,8.57
4118.97435870, 4123.46153819, 4120.89743562, 4122.43589716, 4124.48717921, 4197.43589730, 4214.61538455, 4203.20512814, 4196.53846140, 4129.74358947, 4114.10256383, 4111.41025614, 4128.97435870, 4194.35897422,8.57
4127.30769203, 4126.15384588, 4128.33333306, 4128.20512793, 4124.87179460, 4199.74358961, 4222.43589737, 4220.89743583, 4212.82051275, 4129.74358947, 4120.12820485, 4126.28205101, 4133.84615357, 4198.46153833,8.57
4121.15384588, 4122.94871767, 4122.30769203, 4126.28205101, 4123.07692280, 4207.05128199, 4229.48717942, 4239.35897436, 4227.30769224, 4126.02564075, 4120.89743562, 4120.38461511, 4131.53846126, 4191.79487166,8.57
4122.05128178, 4124.48717921, 4121.41025614, 4126.28205101, 4125.76923050, 4193.58974345, 4219.48717942, 4232.43589737, 4218.33333327, 4125.12820485, 4116.15384588, 4117.05128178, 4128.97435870, 4192.17948704,8.57
4125.25640998, 4125.64102537, 4123.97435870, 4126.66666639, 4129.48717921, 4173.33333320, 4198.58974345, 4210.12820506, 4197.17948704, 4127.94871767, 4118.58974332, 4125.64102537, 4135.25640998, 4193.58974345,8.57
4119.23076896, 4118.84615357, 4117.56410229, 4120.38461511, 4124.48717921, 4191.28205115, 4210.25641019, 4218.71794865, 4204.87179481, 4129.35897408, 4116.66666639, 4112.94871767, 4134.87179460, 4191.02564089,8.57
4126.28205101, 4124.35897408, 4123.33333306, 4127.17948691, 4120.76923050, 4206.15384609, 4225.76923070, 4231.79487173, 4218.97435891, 4128.71794844, 4117.43589716, 4119.74358947, 4134.35897408, 4192.43589730,8.57
4119.10256383, 4124.23076896, 4118.84615357, 4124.99999973, 4121.28205101, 4172.43589730, 4197.17948704, 4206.28205122, 4197.30769217, 4128.71794844, 4117.17948691, 4117.05128178, 4127.69230742, 4188.46153833,8.57
4117.82051255, 4124.23076896, 4122.56410229, 4121.02564075, 4125.89743562, 4159.87179467, 4186.79487166, 4191.28205115, 4182.17948704, 4128.84615357, 4118.46153819, 4115.64102537, 4127.94871767, 4194.74358961,8.57
4125.64102537, 4126.66666639, 4129.61538434, 4125.89743562, 4128.97435870, 4199.74358961, 4230.76923070, 4225.12820506, 4220.89743583, 4128.97435870, 4123.84615357, 4126.28205101, 4136.02564082, 4195.89743576,8.57
4118.71794844, 4120.38461511, 4119.48717921, 4123.58974332, 4122.82051255, 4215.25641019, 4251.53846154, 4247.30769231, 4243.58974359, 4127.82051255, 4121.66666639, 4112.56410229, 4128.33333306, 4187.94871781,8.57
4126.02564075, 4125.64102537, 4125.25640998, 4128.84615357, 4124.23076896, 4197.82051269, 4232.30769224, 4227.43589737, 4218.20512814, 4126.41025614, 4125.12820485, 4122.17948691, 4131.79487152, 4195.89743576,8.57
4126.41025614, 4126.53846126, 4126.28205101, 4128.07692280, 4130.64102537, 4201.02564096, 4232.94871788, 4220.12820506, 4209.23076917, 4127.43589716, 4123.71794844, 4126.92307665, 4137.43589723, 4196.53846140,8.57
4119.10256383, 4120.89743562, 4123.33333306, 4122.69230742, 4126.28205101, 4206.66666660, 4238.46153847, 4231.02564096, 4220.64102558, 4128.71794844, 4118.33333306, 4117.30769203, 4131.53846126, 4195.64102551,8.57
4123.58974332, 4124.35897408, 4128.46153819, 4127.05128178, 4120.12820485, 4194.99999986, 4226.28205122, 4229.99999993, 4220.76923070, 4129.74358947, 4123.58974332, 4125.76923050, 4133.97435870, 4199.48717935,8.57
4118.33333306, 4122.17948691, 4118.20512793, 4125.89743562, 4121.66666639, 4190.51282038, 4219.87179481, 4215.25641019, 4202.94871788, 4130.12820485, 4117.69230742, 4116.53846126, 4132.69230742, 4196.02564089,8.57
4121.92307665, 4123.71794844, 4121.41025614, 4125.89743562, 4126.02564075, 4183.84615371, 4211.15384609, 4198.33333320, 4175.25641012, 4129.87179460, 4114.87179460, 4123.20512793, 4133.07692280, 4200.38461525,8.57
4126.15384588, 4124.74358947, 4126.79487152, 4124.99999973, 4124.99999973, 4171.92307679, 4201.41025634, 4196.41025628, 4171.53846140, 4130.25640998, 4119.35897408, 4129.35897408, 4133.46153819, 4197.94871781,8.57
4119.10256383, 4121.15384588, 4117.69230742, 4124.74358947, 4120.12820485, 4168.20512807, 4200.51282038, 4203.58974352, 4188.33333320, 4130.12820485, 4116.66666639, 4118.20512793, 4128.33333306, 4193.71794858,8.57
4122.94871767, 4123.84615357, 4120.89743562, 4128.84615357, 4123.58974332, 4161.41025621, 4197.56410243, 4198.97435884, 4186.02564089, 4129.35897408, 4117.82051255, 4132.43589716, 4131.66666639, 4198.84615371,8.57
4120.64102537, 4120.25640998, 4122.05128178, 4123.07692280, 4126.53846126, 4155.51282031, 4198.33333320, 4199.23076910, 4184.99999986, 4127.69230742, 4117.69230742, 4128.58974332, 4128.84615357, 4194.10256397,8.57
4121.15384588, 4120.25640998, 4126.41025614, 4124.10256383, 4125.51282024, 4169.61538448, 4210.25641019, 4210.64102558, 4202.94871788, 4128.07692280, 4118.58974332, 4126.02564075, 4127.94871767, 4193.33333320,8.57
4125.64102537, 4126.15384588, 4127.94871767, 4127.69230742, 4127.05128178, 4184.10256397, 4217.56410250, 4205.12820506, 4201.66666660, 4129.23076896, 4120.12820485, 4132.43589716, 4133.84615357, 4194.61538448,8.57
4120.51282024, 4122.17948691, 4120.25640998, 4123.84615357, 4124.23076896, 4184.48717935, 4218.97435891, 4192.30769217, 4187.17948704, 4128.84615357, 4117.56410229, 4121.92307665, 4130.76923050, 4192.82051269,8.57
4123.84615357, 4121.53846126, 4127.56410229, 4126.66666639, 4123.58974332, 4187.43589730, 4224.61538455, 4197.17948704, 4180.38461525, 4128.20512793, 4120.38461511, 4133.46153819, 4132.56410229, 4194.35897422,8.57
4123.33333306, 4122.94871767, 4126.41025614, 4124.74358947, 4126.92307665, 4190.51282038, 4223.33333327, 4204.10256404, 4180.64102551, 4127.05128178, 4118.71794844, 4133.33333306, 4132.05128178, 4190.38461525,8.57
4122.82051255, 4124.10256383, 4122.43589716, 4124.35897408, 4127.30769203, 4181.41025628, 4213.58974352, 4202.17948711, 4186.53846140, 4127.43589716, 4117.17948691, 4127.56410229, 4133.07692280, 4195.51282038,8.57
4126.79487152, 4125.51282024, 4125.89743562, 4127.05128178, 4127.17948691, 4174.61538448, 4208.84615378, 4200.64102551, 4187.82051269, 4130.38461511, 4120.12820485, 4135.76923056, 4136.79487159, 4199.48717935,8.57
4121.53846126, 4122.82051255, 4122.17948691, 4121.66666639, 4123.46153819, 4171.79487166, 4204.74358968, 4199.99999986, 4182.05128192, 4130.51282024, 4117.94871767, 4129.10256383, 4130.12820485, 4195.64102551,8.57
4123.20512793, 4123.58974332, 4125.51282024, 4124.61538434, 4122.56410229, 4167.30769210, 4197.69230756, 4195.38461525, 4179.35897422, 4128.33333306, 4121.41025614, 4136.02564082, 4133.97435870, 4199.74358961,8.57
4115.51282024, 4121.28205101, 4116.92307665, 4119.87179460, 4125.51282024, 4201.41025634, 4231.15384609, 4220.76923070, 4198.07692294, 4130.25640998, 4111.66666639, 4122.82051255, 4129.23076896, 4190.89743576,8.57
4127.94871767, 4126.66666639, 4127.17948691, 4124.87179460, 4126.66666639, 4197.69230756, 4224.23076917, 4212.17948711, 4197.69230756, 4129.99999973, 4117.30769203, 4131.92307665, 4132.17948691, 4193.33333320,8.57
4128.71794844, 4127.17948691, 4126.41025614, 4127.17948691, 4125.76923050, 4191.79487166, 4220.12820506, 4209.99999993, 4203.20512814, 4128.46153819, 4115.25640998, 4123.71794844, 4129.35897408, 4188.84615371,8.57
4107.56410229, 4117.94871767, 4114.48717921, 4123.97435870, 4117.30769203, 4193.71794858, 4217.69230763, 4214.35897429, 4204.23076917, 4127.69230742, 4111.53846126, 4119.23076896, 4128.07692280, 4189.74358961,8.57
4117.17948691, 4123.58974332, 4123.58974332, 4127.05128178, 4121.02564075, 4195.76923063, 4211.92307686, 4215.12820506, 4207.43589737, 4128.20512793, 4116.53846126, 4129.99999973, 4132.56410229, 4195.51282038,8.57
4131.53846126, 4131.53846126, 4134.10256383, 4129.87179460, 4128.33333306, 4188.71794858, 4202.94871788, 4204.23076917, 4200.38461525, 4128.33333306, 4116.53846126, 4127.43589716, 4131.02564075, 4196.41025628,8.57
4123.97435870, 4127.30769203, 4130.12820485, 4128.07692280, 4124.74358947, 4174.87179474, 4193.20512807, 4192.17948704, 4184.10256397, 4127.30769203, 4117.17948691, 4131.66666639, 4135.38461518, 4198.58974345,8.57
4118.71794844, 4122.69230742, 4119.99999973, 4123.07692280, 4120.25640998, 4174.48717935, 4195.38461525, 4193.84615371, 4178.97435884, 4127.05128178, 4116.41025614, 4125.89743562, 4133.33333306, 4197.56410243,8.57
4124.74358947, 4125.38461511, 4121.66666639, 4123.71794844, 4122.82051255, 4171.92307679, 4190.51282038, 4184.61538448, 4173.46153833, 4129.74358947, 4117.30769203, 4129.23076896, 4132.94871767, 4201.02564096,8.57
4132.43589716, 4127.17948691, 4131.02564075, 4126.41025614, 4127.82051255, 4142.69230749, 4162.05128185, 4152.43589723, 4147.43589723, 4132.30769203, 4118.71794844, 4134.23076896, 4136.66666646, 4198.84615371,8.57
4127.05128178, 4120.25640998, 4124.74358947, 4124.48717921, 4121.66666639, 4145.12820492, 4171.15384602, 4161.53846133, 4151.41025621, 4129.61538434, 4114.99999973, 4119.87179460, 4131.02564075, 4196.02564089,8.57
4129.35897408, 4121.92307665, 4123.33333306, 4125.76923050, 4121.92307665, 4195.51282038, 4229.61538455, 4221.02564096, 4204.23076917, 4127.43589716, 4119.61538434, 4129.87179460, 4134.23076896, 4202.94871788,8.57
4127.43589716, 4124.48717921, 4122.56410229, 4123.46153819, 4128.07692280, 4219.61538455, 4253.84615385, 4259.48717949, 4247.05128206, 4130.38461511, 4119.10256383, 4125.25640998, 4133.46153819, 4196.15384602,8.57
4118.97435870, 4122.17948691, 4120.89743562, 4121.66666639, 4124.10256383, 4206.15384609, 4234.23076923, 4249.61538462, 4243.20512821, 4131.53846126, 4114.74358947, 4118.20512793, 4131.79487152, 4193.46153833,8.57
4125.12820485, 4123.97435870, 4126.79487152, 4124.23076896, 4124.48717921, 4201.15384609, 4224.87179481, 4222.94871788, 4212.43589737, 4129.10256383, 4116.66666639, 4129.87179460, 4135.38461518, 4195.25641012,8.57
4120.25640998, 4121.02564075, 4121.92307665, 4120.89743562, 4123.71794844, 4199.35897422, 4223.46153840, 4209.99999993, 4196.66666653, 4127.56410229, 4114.87179460, 4120.38461511, 4129.23076896, 4188.71794858,8.57
4120.25640998, 4121.02564075, 4121.92307665, 4120.89743562, 4123.71794844, 4199.35897422, 4223.46153840, 4209.99999993, 4196.66666653, 4127.56410229, 4114.87179460, 4120.38461511, 4129.23076896, 4188.71794858,8.57
4121.15384588, 4123.07692280, 4124.87179460, 4123.33333306, 4122.94871767, 4193.84615371, 4220.64102558, 4217.69230763, 4203.97435891, 4128.07692280, 4118.46153819, 4127.30769203, 4132.82051255, 4192.05128192,8.57
4122.17948691, 4122.82051255, 4123.71794844, 4123.58974332, 4123.71794844, 4201.66666660, 4233.84615385, 4241.15384616, 4222.17948711, 4126.53846126, 4116.28205101, 4125.12820485, 4134.23076896, 4191.15384602,8.57
4116.66666639, 4119.99999973, 4118.46153819, 4123.46153819, 4120.12820485, 4197.17948704, 4231.53846147, 4238.84615385, 4223.20512814, 4127.30769203, 4112.94871767, 4120.25640998, 4129.74358947, 4193.07692294,8.57
4127.30769203, 4124.74358947, 4128.84615357, 4128.97435870, 4123.84615357, 4163.20512800, 4189.23076910, 4188.33333320, 4179.10256397, 4130.76923050, 4118.71794844, 4137.94871774, 4133.07692280, 4196.79487166,8.57
4123.07692280, 4124.10256383, 4124.61538434, 4124.35897408, 4123.97435870, 4163.20512800, 4185.64102551, 4179.48717935, 4169.10256397, 4127.30769203, 4117.43589716, 4128.20512793, 4131.53846126, 4192.82051269,8.57
4120.76923050, 4127.94871767, 4123.97435870, 4126.41025614, 4121.02564075, 4214.61538455, 4244.74358975, 4244.74358975, 4233.84615385, 4125.25640998, 4122.69230742, 4131.92307665, 4135.51282031, 4198.71794858,8.57
4122.82051255, 4124.99999973, 4124.87179460, 4127.43589716, 4121.92307665, 4239.61538462, 4268.33333341, 4269.74358982, 4270.12820520, 4127.56410229, 4123.33333306, 4134.35897408, 4133.46153819, 4198.97435884,8.57
4116.53846126, 4115.76923050, 4121.15384588, 4122.82051255, 4122.82051255, 4215.12820506, 4234.35897436, 4227.69230763, 4231.53846147, 4128.20512793, 4118.71794844, 4124.87179460, 4127.17948691, 4198.84615371,8.57
4123.20512793, 4122.56410229, 4128.46153819, 4127.69230742, 4123.84615357, 4202.05128199, 4222.94871788, 4221.53846147, 4209.10256404, 4131.02564075, 4126.92307665, 4136.15384595, 4135.25640998, 4200.51282038,8.57
4117.17948691, 4123.33333306, 4119.48717921, 4123.71794844, 4120.89743562, 4208.97435891, 4238.58974359, 4246.28205129, 4227.05128199, 4131.79487152, 4123.71794844, 4126.53846126, 4131.66666639, 4192.94871781,8.57
4116.53846126, 4120.38461511, 4119.48717921, 4122.17948691, 4121.53846126, 4206.66666660, 4241.79487180, 4253.58974359, 4242.17948718, 4127.30769203, 4121.28205101, 4128.97435870, 4129.10256383, 4198.20512807,8.57
4121.53846126, 4121.66666639, 4126.41025614, 4124.48717921, 4121.92307665, 4205.25641019, 4242.43589744, 4260.89743590, 4249.10256411, 4124.61538434, 4123.33333306, 4131.41025614, 4131.15384588, 4198.46153833,8.57
4114.87179460, 4122.69230742, 4123.58974332, 4121.92307665, 4119.99999973, 4211.53846147, 4245.89743590, 4258.46153847, 4242.94871795, 4126.41025614, 4119.23076896, 4120.64102537, 4125.38461511, 4192.94871781,8.57
4121.02564075, 4125.25640998, 4128.20512793, 4124.48717921, 4123.07692280, 4211.28205122, 4242.69230770, 4241.02564103, 4226.53846147, 4127.56410229, 4121.02564075, 4133.33333306, 4127.82051255, 4196.66666653,8.57
4117.30769203, 4120.25640998, 4117.82051255, 4121.41025614, 4122.43589716, 4205.76923070, 4239.61538462, 4239.10256411, 4223.07692301, 4127.69230742, 4118.58974332, 4123.97435870, 4128.20512793, 4192.43589730,8.57
4117.30769203, 4120.25640998, 4117.82051255, 4121.41025614, 4122.43589716, 4205.76923070, 4239.61538462, 4239.10256411, 4223.07692301, 4127.69230742, 4118.58974332, 4123.97435870, 4128.20512793, 4192.43589730,8.57
4119.48717921, 4123.58974332, 4120.25640998, 4122.17948691, 4123.20512793, 4205.89743583, 4241.15384616, 4248.71794872, 4231.28205122, 4129.10256383, 4118.58974332, 4125.76923050, 4129.35897408, 4193.07692294,8.57
4126.92307665, 4127.69230742, 4128.46153819, 4123.58974332, 4125.12820485, 4213.20512814, 4244.48717949, 4245.00000000, 4234.87179488, 4128.97435870, 4122.43589716, 4134.48717921, 4130.64102537, 4192.94871781,8.57
4119.48717921, 4121.79487152, 4119.61538434, 4122.30769203, 4122.17948691, 4214.87179481, 4237.94871795, 4227.30769224, 4220.51282045, 4126.53846126, 4119.99999973, 4121.53846126, 4127.69230742, 4194.74358961,8.57
4123.20512793, 4123.07692280, 4125.38461511, 4127.43589716, 4124.74358947, 4209.23076917, 4227.43589737, 4216.79487173, 4206.02564096, 4127.69230742, 4119.23076896, 4132.43589716, 4132.56410229, 4200.89743576,8.57
4118.33333306, 4121.41025614, 4120.25640998, 4123.58974332, 4123.71794844, 4206.66666660, 4231.28205122, 4228.33333327, 4217.56410250, 4127.43589716, 4116.15384588, 4129.35897408, 4129.99999973, 4191.79487166,8.57
4120.89743562, 4123.33333306, 4122.82051255, 4127.56410229, 4121.41025614, 4206.02564096, 4238.97435898, 4242.43589744, 4234.48717949, 4125.76923050, 4119.35897408, 4128.58974332, 4131.66666639, 4193.20512807,8.57
4128.07692280, 4127.17948691, 4130.38461511, 4131.02564075, 4123.20512793, 4205.89743583, 4233.84615385, 4234.23076923, 4227.56410250, 4129.23076896, 4122.05128178, 4136.15384595, 4136.41025621, 4197.82051269,8.57
4119.23076896, 4123.97435870, 4118.84615357, 4120.64102537, 4120.76923050, 4201.92307686, 4227.94871788, 4225.76923070, 4219.23076917, 4130.25640998, 4117.05128178, 4122.69230742, 4130.89743562, 4195.76923063,8.57
4126.66666639, 4126.79487152, 4125.38461511, 4122.69230742, 4122.82051255, 4196.02564089, 4227.05128199, 4227.82051275, 4217.17948711, 4126.28205101, 4122.05128178, 4134.23076896, 4135.89743569, 4200.12820499,8.57
4123.71794844, 4124.23076896, 4124.87179460, 4122.82051255, 4125.51282024, 4201.66666660, 4231.92307686, 4233.46153840, 4220.12820506, 4127.05128178, 4120.25640998, 4133.46153819, 4132.94871767, 4196.28205115,8.57
4121.66666639, 4122.82051255, 4122.17948691, 4121.79487152, 4125.38461511, 4212.56410250, 4244.48717949, 4259.74358975, 4252.69230770, 4129.87179460, 4116.28205101, 4126.79487152, 4130.76923050, 4198.71794858,8.57
4128.46153819, 4123.84615357, 4126.79487152, 4126.79487152, 4125.76923050, 4224.48717942, 4259.35897436, 4285.76923084, 4279.87179495, 4129.35897408, 4122.05128178, 4133.97435870, 4138.84615364, 4199.48717935,8.57
4117.43589716, 4119.61538434, 4119.99999973, 4122.69230742, 4124.23076896, 4231.41025634, 4258.97435898, 4262.05128206, 4245.64102564, 4129.10256383, 4119.61538434, 4122.69230742, 4130.38461511, 4193.71794858,8.57
4122.82051255, 4128.07692280, 4127.82051255, 4124.99999973, 4126.15384588, 4212.82051275, 4235.38461539, 4218.58974352, 4202.30769224, 4128.46153819, 4118.84615357, 4132.82051255, 4129.10256383, 4199.10256397,8.57
4121.15384588, 4126.02564075, 4122.17948691, 4125.51282024, 4124.99999973, 4189.99999986, 4218.46153840, 4216.28205122, 4205.89743583, 4127.17948691, 4117.56410229, 4131.66666639, 4131.02564075, 4194.74358961,8.57
4116.79487152, 4119.23076896, 4117.30769203, 4122.05128178, 4124.23076896, 4201.79487173, 4225.64102558, 4230.64102558, 4213.71794865, 4129.10256383, 4117.17948691, 4120.76923050, 4129.48717921, 4192.82051269,8.57
4124.99999973, 4124.74358947, 4127.69230742, 4124.87179460, 4125.25640998, 4217.69230763, 4237.94871795, 4239.10256411, 4216.79487173, 4129.61538434, 4121.15384588, 4133.71794844, 4131.02564075, 4195.12820499,8.57
4117.05128178, 4122.56410229, 4118.33333306, 4122.43589716, 4122.17948691, 4206.79487173, 4236.66666667, 4249.10256411, 4237.43589744, 4127.43589716, 4117.56410229, 4126.53846126, 4127.94871767, 4191.53846140,8.57
4125.38461511, 4124.87179460, 4124.99999973, 4123.58974332, 4124.23076896, 4199.99999986, 4225.76923070, 4248.46153847, 4242.94871795, 4128.33333306, 4119.99999973, 4135.38461518, 4133.84615357, 4200.38461525,8.57
4126.92307665, 4125.64102537, 4129.23076896, 4125.25640998, 4123.84615357, 4210.25641019, 4229.23076917, 4245.64102564, 4234.10256411, 4129.23076896, 4120.89743562, 4138.33333313, 4131.28205101, 4200.76923063,8.57
4117.82051255, 4123.07692280, 4121.79487152, 4126.66666639, 4121.79487152, 4216.28205122, 4245.12820513, 4256.66666667, 4243.07692308, 4127.56410229, 4119.35897408, 4125.89743562, 4125.38461511, 4197.43589730,8.57
4126.28205101, 4127.56410229, 4128.07692280, 4130.25640998, 4124.23076896, 4211.92307686, 4245.25641026, 4259.61538462, 4249.74358975, 4128.84615357, 4125.25640998, 4136.53846133, 4134.87179460, 4199.74358961,8.57
4119.99999973, 4123.46153819, 4119.99999973, 4121.66666639, 4121.15384588, 4204.35897429, 4232.82051275, 4246.66666667, 4238.33333334, 4126.79487152, 4121.66666639, 4126.02564075, 4130.89743562, 4193.71794858,8.57
4123.58974332, 4123.58974332, 4123.71794844, 4125.51282024, 4121.53846126, 4206.41025634, 4238.07692308, 4245.89743590, 4235.00000000, 4125.89743562, 4123.97435870, 4129.23076896, 4129.61538434, 4197.56410243,8.57
4126.41025614, 4125.76923050, 4126.02564075, 4129.48717921, 4122.69230742, 4217.94871788, 4255.38461539, 4271.02564110, 4259.10256411, 4128.84615357, 4126.15384588, 4133.97435870, 4131.53846126, 4198.58974345,8.57
4116.53846126, 4121.02564075, 4118.07692280, 4120.51282024, 4122.17948691, 4214.48717942, 4248.71794872, 4272.82051289, 4261.53846154, 4128.84615357, 4118.33333306, 4121.66666639, 4126.28205101, 4197.05128192,8.57
4125.89743562, 4122.94871767, 4131.02564075, 4127.05128178, 4125.89743562, 4192.17948704, 4219.87179481, 4225.25641019, 4208.46153840, 4127.82051255, 4121.15384588, 4135.76923056, 4130.12820485, 4199.23076910,8.57
4120.64102537, 4120.89743562, 4125.38461511, 4127.17948691, 4124.35897408, 4195.25641012, 4220.89743583, 4209.48717942, 4188.20512807, 4127.82051255, 4121.79487152, 4126.02564075, 4126.02564075, 4191.15384602,8.57
4120.12820485, 4122.94871767, 4124.10256383, 4121.66666639, 4124.35897408, 4226.02564096, 4258.71794872, 4264.74358975, 4250.89743590, 4129.10256383, 4123.07692280, 4123.46153819, 4126.28205101, 4196.15384602,8.57
4128.97435870, 4127.56410229, 4131.92307665, 4127.43589716, 4124.74358947, 4236.53846154, 4273.97435905, 4296.41025648, 4287.82051289, 4130.25640998, 4124.48717921, 4134.74358947, 4131.53846126, 4197.82051269,8.57
4121.53846126, 4122.82051255, 4122.17948691, 4128.46153819, 4123.71794844, 4219.35897429, 4250.51282052, 4267.56410264, 4258.20512821, 4128.46153819, 4118.20512793, 4120.89743562, 4127.05128178, 4189.74358961,8.57
4127.05128178, 4125.76923050, 4125.25640998, 4126.66666639, 4125.76923050, 4202.17948711, 4230.38461532, 4242.69230770, 4237.05128206, 4126.02564075, 4122.56410229, 4130.12820485, 4129.74358947, 4195.51282038,8.57
4122.82051255, 4124.10256383, 4121.53846126, 4121.02564075, 4120.89743562, 4195.76923063, 4224.74358968, 4228.97435891, 4224.35897429, 4126.53846126, 4124.61538434, 4129.74358947, 4128.97435870, 4196.79487166,8.57
4121.28205101, 4121.92307665, 4123.33333306, 4125.25640998, 4121.41025614, 4194.61538448, 4221.28205122, 4217.05128199, 4205.25641019, 4130.12820485, 4124.87179460, 4128.20512793, 4131.02564075, 4199.74358961,8.57
4128.33333306, 4125.51282024, 4132.05128178, 4128.46153819, 4125.25640998, 4188.33333320, 4217.82051275, 4224.23076917, 4210.76923070, 4128.71794844, 4124.61538434, 4136.15384595, 4134.87179460, 4198.07692294,8.57
4115.76923050, 4122.17948691, 4119.48717921, 4115.76923050, 4120.51282024, 4175.38461525, 4207.17948711, 4221.66666660, 4207.43589737, 4122.82051255, 4116.92307665, 4122.30769203, 4127.56410229, 4193.71794858,8.57
4125.51282024, 4126.02564075, 4124.23076896, 4120.89743562, 4122.69230742, 4173.20512807, 4203.46153840, 4208.97435891, 4191.79487166, 4123.07692280, 4122.82051255, 4133.84615357, 4134.74358947, 4204.23076917,8.57
4128.71794844, 4124.23076896, 4124.61538434, 4127.56410229, 4126.53846126, 4181.66666653, 4213.20512814, 4212.30769224, 4199.74358961, 4126.92307665, 4125.25640998, 4131.79487152, 4135.51282031, 4200.76923063,8.57
4119.10256383, 4120.51282024, 4119.10256383, 4121.53846126, 4123.07692280, 4162.82051262, 4196.15384602, 4193.46153833, 4185.76923063, 4127.56410229, 4117.82051255, 4122.05128178, 4126.02564075, 4197.56410243,8.57
4126.02564075, 4126.66666639, 4125.89743562, 4122.43589716, 4123.84615357, 4134.87179460, 4164.74358954, 4159.48717928, 4149.87179467, 4129.23076896, 4119.74358947, 4137.43589723, 4130.38461511, 4198.84615371,8.57
4117.82051255, 4122.69230742, 4116.53846126, 4122.69230742, 4122.69230742, 4163.84615364, 4196.79487166, 4193.58974345, 4184.48717935, 4128.97435870, 4121.15384588, 4123.97435870, 4127.56410229, 4189.48717935,8.57
4121.66666639, 4121.79487152, 4122.69230742, 4125.25640998, 4124.35897408, 4221.15384609, 4265.12820513, 4263.58974359, 4258.84615385, 4127.30769203, 4126.79487152, 4126.79487152, 4129.99999973, 4194.99999986,8.57
4123.46153819, 4124.23076896, 4125.89743562, 4123.84615357, 4127.43589716, 4222.82051275, 4266.53846154, 4268.46153853, 4265.38461539, 4127.05128178, 4125.89743562, 4131.28205101, 4133.97435870, 4196.79487166,8.57
4113.84615357, 4126.15384588, 4117.82051255, 4121.92307665, 4123.58974332, 4185.76923063, 4222.82051275, 4228.97435891, 4222.05128199, 4128.58974332, 4119.23076896, 4119.87179460, 4128.07692280, 4193.71794858,8.57
4127.56410229, 4131.02564075, 4129.87179460, 4128.46153819, 4124.23076896, 4171.28205115, 4203.46153840, 4203.07692301, 4191.15384602, 4129.99999973, 4125.12820485, 4133.58974332, 4132.05128178, 4196.15384602,8.57
4122.30769203, 4122.56410229, 4124.74358947, 4124.99999973, 4124.99999973, 4170.76923063, 4205.89743583, 4204.99999993, 4190.64102551, 4128.33333306, 4122.82051255, 4124.23076896, 4129.10256383, 4190.64102551,8.57
4120.12820485, 4123.58974332, 4125.38461511, 4123.84615357, 4125.12820485, 4180.51282038, 4217.94871788, 4231.79487173, 4218.71794865, 4126.66666639, 4120.38461511, 4125.76923050, 4131.02564075, 4196.15384602,8.57
4128.84615357, 4128.71794844, 4128.58974332, 4125.89743562, 4125.51282024, 4202.30769224, 4234.61538462, 4240.51282052, 4229.23076917, 4127.17948691, 4124.48717921, 4135.12820485, 4135.38461518, 4195.64102551,8.57
4119.35897408, 4119.61538434, 4114.35897408, 4123.07692280, 4121.41025614, 4195.12820499, 4223.71794865, 4207.56410250, 4196.28205115, 4128.58974332, 4122.43589716, 4123.07692280, 4128.58974332, 4191.41025628,8.57
4128.71794844, 4124.61538434, 4125.64102537, 4128.84615357, 4123.20512793, 4161.28205108, 4196.28205115, 4184.23076910, 4176.28205115, 4130.12820485, 4123.58974332, 4140.38461518, 4133.33333306, 4199.87179474,8.57
4123.84615357, 4126.66666639, 4124.35897408, 4124.35897408, 4123.71794844, 4152.17948697, 4197.82051269, 4206.41025634, 4206.53846147, 4128.97435870, 4122.05128178, 4132.56410229, 4132.05128178, 4193.33333320,8.57
4117.69230742, 4125.51282024, 4117.69230742, 4122.43589716, 4122.94871767, 4160.76923056, 4212.05128199, 4228.33333327, 4231.15384609, 4125.64102537, 4125.64102537, 4125.76923050, 4130.38461511, 4197.05128192,8.57
4130.76923050, 4129.99999973, 4127.56410229, 4127.82051255, 4126.79487152, 4165.64102544, 4216.02564096, 4227.69230763, 4227.43589737, 4125.64102537, 4129.87179460, 4142.56410236, 4134.99999973, 4201.41025634,8.57
4117.56410229, 4122.56410229, 4119.48717921, 4121.66666639, 4123.33333306, 4187.30769217, 4230.64102558, 4241.28205129, 4240.51282052, 4127.69230742, 4123.46153819, 4126.02564075, 4127.56410229, 4192.30769217,8.57
4122.69230742, 4123.84615357, 4123.58974332, 4124.87179460, 4122.94871767, 4199.99999986, 4241.02564103, 4252.43589744, 4251.41025641, 4126.66666639, 4124.87179460, 4134.48717921, 4132.56410229, 4201.92307686,8.57
4126.41025614, 4127.82051255, 4122.17948691, 4124.48717921, 4125.51282024, 4178.58974345, 4223.84615378, 4231.02564096, 4228.33333327, 4126.41025614, 4121.66666639, 4136.15384595, 4134.61538434, 4197.94871781,8.57
4115.89743562, 4126.15384588, 4119.23076896, 4123.33333306, 4123.07692280, 4163.71794851, 4209.99999993, 4209.61538455, 4205.51282045, 4129.99999973, 4118.71794844, 4125.38461511, 4130.76923050, 4192.17948704,8.57
4123.46153819, 4124.87179460, 4127.69230742, 4127.17948691, 4125.25640998, 4166.02564082, 4206.53846147, 4201.28205122, 4195.64102551, 4130.51282024, 4122.43589716, 4136.41025621, 4133.71794844, 4197.05128192,8.57
4113.33333306, 4118.58974332, 4115.76923050, 4119.74358947, 4122.69230742, 4160.25641005, 4196.02564089, 4192.17948704, 4191.15384602, 4126.79487152, 4117.05128178, 4123.58974332, 4128.97435870, 4189.35897422,8.57
4121.79487152, 4126.66666639, 4126.41025614, 4125.25640998, 4122.43589716, 4144.10256390, 4185.64102551, 4196.02564089, 4197.17948704, 4128.07692280, 4121.15384588, 4132.69230742, 4135.89743569, 4191.66666653,8.57
4128.33333306, 4126.92307665, 4128.58974332, 4127.43589716, 4125.12820485, 4134.74358947, 4176.66666653, 4194.74358961, 4192.82051269, 4128.58974332, 4124.23076896, 4133.07692280, 4135.64102544, 4190.89743576,8.57
4118.33333306, 4117.43589716, 4116.41025614, 4119.35897408, 4124.35897408, 4138.46153826, 4173.07692294, 4174.10256397, 4177.94871781, 4125.76923050, 4120.25640998, 4121.41025614, 4128.71794844, 4192.94871781,8.57
4129.35897408, 4124.35897408, 4128.33333306, 4124.23076896, 4126.66666639, 4148.33333313, 4183.71794858, 4181.28205115, 4185.38461525, 4129.74358947, 4124.61538434, 4142.05128185, 4139.10256390, 4198.33333320,8.57
4116.15384588, 4123.46153819, 4119.10256383, 4122.43589716, 4122.56410229, 4142.82051262, 4181.15384602, 4194.61538448, 4188.46153833, 4129.48717921, 4119.48717921, 4128.46153819, 4135.38461518, 4190.38461525,8.57
4117.82051255, 4123.07692280, 4119.10256383, 4121.15384588, 4121.28205101, 4136.28205108, 4167.82051262, 4172.43589730, 4164.87179467, 4125.12820485, 4120.51282024, 4129.74358947, 4134.23076896, 4200.89743576,8.57
4125.89743562, 4123.07692280, 4122.43589716, 4121.79487152, 4122.43589716, 4166.02564082, 4193.58974345, 4186.66666653, 4187.69230756, 4126.79487152, 4125.12820485, 4137.56410236, 4136.41025621, 4202.30769224,8.57
4110.25640998, 4118.84615357, 4113.97435870, 4117.82051255, 4121.15384588, 4180.51282038, 4217.05128199, 4227.30769224, 4229.35897429, 4129.10256383, 4119.23076896, 4124.23076896, 4129.74358947, 4194.74358961,8.57
4122.05128178, 4125.51282024, 4127.05128178, 4122.17948691, 4125.64102537, 4138.07692287, 4179.10256397, 4190.76923063, 4186.15384602, 4126.53846126, 4119.74358947, 4140.89743569, 4134.87179460, 4201.53846147,8.57
4116.66666639, 4120.12820485, 4119.10256383, 4119.35897408, 4121.92307665, 4111.66666639, 4147.82051262, 4149.61538441, 4142.43589723, 4127.17948691, 4116.02564075, 4129.99999973, 4132.30769203, 4196.79487166,8.57
4113.71794844, 4118.58974332, 4116.79487152, 4120.64102537, 4119.61538434, 4131.41025614, 4166.02564082, 4189.23076910, 4186.02564089, 4131.66666639, 4118.58974332, 4128.46153819, 4133.84615357, 4199.23076910,8.57
4126.15384588, 4124.99999973, 4125.12820485, 4124.23076896, 4124.48717921, 4133.58974332, 4167.43589723, 4198.71794858, 4202.30769224, 4129.74358947, 4124.74358947, 4139.48717928, 4136.02564082, 4197.05128192,8.57
4114.48717921, 4123.97435870, 4114.61538434, 4121.41025614, 4126.28205101, 4107.30769203, 4138.33333313, 4146.15384595, 4153.71794851, 4127.05128178, 4120.64102537, 4123.07692280, 4125.89743562, 4190.64102551,8.57
4122.30769203, 4127.43589716, 4123.58974332, 4127.69230742, 4127.43589716, 4112.43589716, 4145.12820492, 4145.64102544, 4147.56410236, 4130.25640998, 4122.43589716, 4132.30769203, 4132.56410229, 4195.76923063,8.57
4120.76923050, 4120.12820485, 4122.94871767, 4122.56410229, 4121.41025614, 4133.33333306, 4166.53846133, 4171.92307679, 4160.38461518, 4129.74358947, 4120.25640998, 4123.07692280, 4131.92307665, 4186.79487166,8.57
4118.33333306, 4119.87179460, 4123.33333306, 4120.38461511, 4122.94871767, 4108.20512793, 4137.69230749, 4139.35897415, 4123.33333306, 4125.89743562, 4120.89743562, 4124.99999973, 4128.07692280, 4190.25641012,8.57
4126.79487152, 4127.56410229, 4130.38461511, 4126.53846126, 4130.12820485, 4083.07692273, 4117.05128178, 4122.69230742, 4117.43589716, 4127.17948691, 4124.10256383, 4139.99999980, 4133.20512793, 4193.84615371,8.57
4116.79487152, 4120.38461511, 4121.92307665, 4121.79487152, 4123.20512793, 4122.69230742, 4162.30769210, 4177.30769217, 4181.79487166, 4128.33333306, 4123.58974332, 4124.10256383, 4130.89743562, 4189.23076910,8.57
4126.02564075, 4124.87179460, 4131.79487152, 4125.25640998, 4122.30769203, 4163.58974339, 4198.97435884, 4216.41025634, 4219.87179481, 4128.46153819, 4132.05128178, 4138.58974339, 4136.41025621, 4200.25641012,8.57
4122.05128178, 4127.69230742, 4125.51282024, 4125.12820485, 4123.71794844, 4146.66666646, 4176.79487166, 4195.38461525, 4197.69230756, 4129.61538434, 4127.30769203, 4137.69230749, 4132.30769203, 4195.64102551,8.57
4119.87179460, 4123.97435870, 4120.89743562, 4125.25640998, 4118.71794844, 4126.53846126, 4155.38461518, 4180.38461525, 4185.76923063, 4129.23076896, 4120.89743562, 4131.66666639, 4131.15384588, 4196.02564089,8.57
4130.89743562, 4128.07692280, 4129.99999973, 4128.58974332, 4119.61538434, 4125.89743562, 4155.38461518, 4186.66666653, 4188.58974345, 4128.46153819, 4127.05128178, 4140.89743569, 4139.10256390, 4200.76923063,8.57
4119.48717921, 4126.28205101, 4119.10256383, 4121.53846126, 4122.69230742, 4111.41025614, 4141.02564082, 4163.20512800, 4159.61538441, 4127.82051255, 4123.84615357, 4124.48717921, 4129.87179460, 4196.02564089,8.57
4126.79487152, 4127.30769203, 4124.74358947, 4125.89743562, 4125.64102537, 4096.15384581, 4123.20512793, 4125.89743562, 4129.23076896, 4128.33333306, 4124.87179460, 4136.15384595, 4134.99999973, 4199.99999986,8.57
4122.56410229, 4122.56410229, 4120.76923050, 4125.89743562, 4121.41025614, 4094.99999966, 4122.56410229, 4121.28205101, 4130.25640998, 4129.87179460, 4125.12820485, 4135.12820485, 4139.99999980, 4193.20512807,8.57
4115.25640998, 4122.05128178, 4117.17948691, 4121.66666639, 4121.28205101, 4098.46153812, 4127.43589716, 4133.33333306, 4130.76923050, 4130.89743562, 4121.41025614, 4126.66666639, 4133.58974332, 4192.82051269,8.57
4122.56410229, 4127.56410229, 4126.28205101, 4125.89743562, 4125.64102537, 4097.17948684, 4124.10256383, 4131.92307665, 4120.25640998, 4129.87179460, 4122.43589716, 4136.28205108, 4131.66666639, 4195.76923063,8.57
4111.92307665, 4119.87179460, 4118.07692280, 4123.97435870, 4121.53846126, 4098.84615350, 4127.17948691, 4139.23076903, 4133.33333306, 4128.46153819, 4118.20512793, 4123.46153819, 4127.43589716, 4194.99999986,8.57
4120.76923050, 4123.46153819, 4127.69230742, 4128.84615357, 4125.51282024, 4111.41025614, 4141.41025621, 4161.15384595, 4160.76923056, 4128.33333306, 4123.84615357, 4133.84615357, 4132.82051255, 4201.15384609,8.57
4121.15384588, 4125.38461511, 4126.79487152, 4125.76923050, 4126.28205101, 4100.51282017, 4122.82051255, 4146.53846133, 4146.15384595, 4126.41025614, 4124.87179460, 4129.99999973, 4131.15384588, 4191.02564089,8.57
4120.76923050, 4123.84615357, 4123.58974332, 4121.79487152, 4122.43589716, 4089.23076889, 4107.17948691, 4134.74358947, 4133.20512793, 4127.05128178, 4121.28205101, 4126.41025614, 4129.74358947, 4190.64102551,8.57
4131.53846126, 4128.33333306, 4131.53846126, 4125.89743562, 4127.94871767, 4124.99999973, 4141.66666646, 4162.56410236, 4157.17948697, 4131.15384588, 4128.71794844, 4142.82051262, 4135.64102544, 4195.89743576,8.57
4116.79487152, 4122.56410229, 4117.69230742, 4121.15384588, 4128.07692280, 4143.84615364, 4158.58974339, 4167.30769210, 4164.48717928, 4130.12820485, 4127.43589716, 4128.97435870, 4130.76923050, 4191.53846140,8.57
4125.12820485, 4125.38461511, 4127.17948691, 4125.25640998, 4125.38461511, 4109.99999973, 4129.74358947, 4140.12820492, 4141.28205108, 4126.02564075, 4126.66666639, 4142.05128185, 4137.30769210, 4198.20512807,8.57
4126.28205101, 4124.99999973, 4129.35897408, 4125.12820485, 4122.30769203, 4096.28205094, 4120.89743562, 4139.61538441, 4138.84615364, 4127.17948691, 4126.79487152, 4142.05128185, 4136.41025621, 4194.87179474,8.57
4116.79487152, 4123.33333306, 4118.07692280, 4119.74358947, 4120.76923050, 4117.69230742, 4137.69230749, 4154.48717928, 4152.82051262, 4127.43589716, 4126.41025614, 4128.46153819, 4130.76923050, 4198.46153833,8.57
4124.35897408, 4127.94871767, 4126.53846126, 4123.58974332, 4124.87179460, 4117.94871767, 4133.84615357, 4151.15384595, 4145.12820492, 4125.38461511, 4127.43589716, 4142.05128185, 4137.69230749, 4203.20512814,8.57
4113.84615357, 4122.43589716, 4122.56410229, 4120.38461511, 4123.58974332, 4104.61538434, 4126.66666639, 4154.35897415, 4138.46153826, 4126.41025614, 4120.89743562, 4131.15384588, 4130.51282024, 4193.20512807,8.57
4124.74358947, 4128.58974332, 4129.99999973, 4124.74358947, 4124.35897408, 4108.97435870, 4131.92307665, 4162.17948697, 4143.84615364, 4128.71794844, 4128.20512793, 4137.17948697, 4132.30769203, 4199.23076910,8.57
4125.38461511, 4129.10256383, 4126.02564075, 4126.53846126, 4123.58974332, 4113.46153819, 4132.69230742, 4159.23076903, 4147.56410236, 4128.07692280, 4130.25640998, 4136.28205108, 4135.12820485, 4196.41025628,8.57
4112.43589716, 4124.35897408, 4117.17948691, 4122.05128178, 4118.97435870, 4107.94871767, 4135.12820485, 4167.82051262, 4151.79487159, 4127.82051255, 4121.15384588, 4125.25640998, 4130.76923050, 4192.43589730,8.57
4125.38461511, 4134.23076896, 4130.25640998, 4126.53846126, 4124.48717921, 4102.94871767, 4132.05128178, 4166.02564082, 4155.12820492, 4129.61538434, 4126.02564075, 4140.38461518, 4137.69230749, 4194.87179474,8.57
4114.61538434, 4126.92307665, 4118.33333306, 4121.66666639, 4126.53846126, 4107.30769203, 4121.41025614, 4138.97435877, 4150.51282031, 4129.23076896, 4125.12820485, 4122.94871767, 4130.76923050, 4188.33333320,8.57
4118.97435870, 4124.35897408, 4123.58974332, 4125.64102537, 4126.28205101, 4104.99999973, 4111.92307665, 4114.35897408, 4120.51282024, 4129.87179460, 4125.76923050, 4126.28205101, 4129.10256383, 4195.51282038,8.57
4126.79487152, 4129.10256383, 4131.15384588, 4129.23076896, 4126.28205101, 4096.79487145, 4113.20512793, 4116.79487152, 4097.17948684, 4130.64102537, 4128.20512793, 4138.07692287, 4132.94871767, 4193.20512807,8.57
4113.58974332, 4123.33333306, 4116.28205101, 4121.02564075, 4124.10256383, 4105.64102537, 4124.99999973, 4132.43589716, 4112.30769203, 4129.35897408, 4124.61538434, 4121.66666639, 4129.74358947, 4188.97435884,8.57
4125.89743562, 4126.15384588, 4127.30769203, 4127.17948691, 4127.05128178, 4107.94871767, 4126.66666639, 4134.23076896, 4126.92307665, 4131.53846126, 4132.43589716, 4138.84615364, 4138.07692287, 4196.15384602,8.57
4121.15384588, 4121.66666639, 4123.97435870, 4125.64102537, 4122.82051255, 4087.69230735, 4105.12820485, 4118.07692280, 4107.43589716, 4131.15384588, 4129.48717921, 4135.38461518, 4133.71794844, 4191.41025628,8.57
4121.02564075, 4123.33333306, 4122.94871767, 4125.12820485, 4121.92307665, 4091.41025607, 4101.53846119, 4119.10256383, 4103.20512793, 4126.41025614, 4124.74358947, 4132.82051255, 4132.82051255, 4197.30769217,8.57
4126.79487152, 4130.12820485, 4130.25640998, 4129.48717921, 4125.76923050, 4132.30769203, 4141.92307672, 4157.17948697, 4143.33333313, 4126.66666639, 4129.87179460, 4143.97435877, 4142.30769210, 4199.87179474,8.57
4111.92307665, 4122.30769203, 4119.23076896, 4123.07692280, 4120.64102537, 4142.69230749, 4157.05128185, 4178.33333320, 4167.30769210, 4129.35897408, 4128.20512793, 4128.71794844, 4138.84615364, 4198.33333320,8.57
4123.97435870, 4122.94871767, 4129.35897408, 4125.38461511, 4119.48717921, 4106.28205101, 4121.66666639, 4154.35897415, 4150.12820492, 4126.92307665, 4131.15384588, 4139.74358954, 4139.99999980, 4207.17948711,8.57
4122.56410229, 4122.94871767, 4124.23076896, 4123.20512793, 4118.46153819, 4097.69230735, 4108.71794844, 4133.84615357, 4135.25640998, 4125.25640998, 4128.58974332, 4133.97435870, 4133.58974332, 4195.89743576,8.57
4119.99999973, 4124.74358947, 4117.17948691, 4122.30769203, 4121.02564075, 4114.74358947, 4120.76923050, 4128.71794844, 4122.94871767, 4129.10256383, 4123.71794844, 4125.76923050, 4130.76923050, 4192.94871781,8.57
4128.33333306, 4126.92307665, 4126.02564075, 4127.82051255, 4124.35897408, 4109.87179460, 4118.71794844, 4133.20512793, 4114.23076896, 4130.89743562, 4126.41025614, 4137.43589723, 4138.71794851, 4196.02564089,8.57
4114.23076896, 4118.20512793, 4117.30769203, 4121.79487152, 4119.87179460, 4111.53846126, 4120.76923050, 4142.69230749, 4123.20512793, 4126.28205101, 4124.99999973, 4123.33333306, 4132.05128178, 4189.35897422,8.57
4122.05128178, 4123.20512793, 4123.58974332, 4123.46153819, 4122.69230742, 4120.64102537, 4126.41025614, 4138.84615364, 4122.94871767, 4125.76923050, 4130.51282024, 4134.35897408, 4134.87179460, 4194.87179474,8.57
4120.12820485, 4122.69230742, 4120.51282024, 4121.79487152, 4124.10256383, 4114.87179460, 4123.58974332, 4134.99999973, 4115.38461511, 4128.84615357, 4128.46153819, 4132.30769203, 4135.12820485, 4190.76923063,8.57
4113.58974332, 4119.99999973, 4118.33333306, 4119.87179460, 4122.56410229, 4111.41025614, 4124.48717921, 4140.64102544, 4123.20512793, 4126.53846126, 4122.82051255, 4120.64102537, 4128.20512793, 4190.64102551,8.57
4126.28205101, 4128.33333306, 4133.20512793, 4128.33333306, 4126.02564075, 4114.99999973, 4127.17948691, 4138.84615364, 4127.05128178, 4124.74358947, 4127.43589716, 4137.82051262, 4132.82051255, 4195.38461525,8.57
4117.05128178, 4123.71794844, 4121.92307665, 4124.10256383, 4121.92307665, 4124.87179460, 4140.51282031, 4149.99999980, 4138.97435877, 4127.43589716, 4124.10256383, 4126.92307665, 4132.30769203, 4190.12820499,8.57
4124.10256383, 4126.02564075, 4126.66666639, 4125.38461511, 4123.33333306, 4130.38461511, 4154.10256390, 4171.79487166, 4168.33333320, 4130.38461511, 4128.07692280, 4132.82051255, 4137.94871774, 4196.02564089,8.57
4126.92307665, 4127.69230742, 4128.97435870, 4127.82051255, 4125.89743562, 4118.33333306, 4139.74358954, 4161.92307672, 4161.92307672, 4129.87179460, 4131.79487152, 4137.05128185, 4135.89743569, 4191.79487166,8.57
4117.94871767, 4123.71794844, 4116.15384588, 4122.56410229, 4121.41025614, 4113.58974332, 4130.12820485, 4146.28205108, 4132.30769203, 4126.53846126, 4125.38461511, 4127.56410229, 4129.23076896, 4191.92307679,8.57
4128.84615357, 4127.56410229, 4125.51282024, 4126.92307665, 4126.66666639, 4119.35897408, 4136.28205108, 4149.23076903, 4128.46153819, 4128.07692280, 4127.69230742, 4145.25641005, 4140.64102544, 4199.35897422,8.57
4115.76923050, 4122.56410229, 4119.48717921, 4125.64102537, 4125.25640998, 4101.92307658, 4113.20512793, 4123.33333306, 4108.20512793, 4128.58974332, 4124.99999973, 4129.23076896, 4137.05128185, 4190.38461525,8.57
4118.33333306, 4125.89743562, 4124.35897408, 4125.51282024, 4121.15384588, 4091.79487145, 4094.48717914, 4093.97435863, 4077.69230735, 4127.43589716, 4126.02564075, 4130.76923050, 4134.74358947, 4196.28205115,8.57
4131.15384588, 4130.38461511, 4131.53846126, 4126.15384588, 4125.38461511, 4121.66666639, 4126.53846126, 4124.48717921, 4106.79487152, 4127.69230742, 4131.02564075, 4145.38461518, 4138.46153826, 4198.20512807,8.57
4120.89743562, 4124.10256383, 4121.02564075, 4126.28205101, 4124.61538434, 4142.43589723, 4160.51282031, 4170.25641012, 4156.41025621, 4129.35897408, 4129.10256383, 4128.20512793, 4132.94871767, 4193.84615371,8.57
4126.92307665, 4128.71794844, 4128.58974332, 4133.58974332, 4126.53846126, 4133.20512793, 4158.97435877, 4180.89743576, 4165.89743569, 4130.12820485, 4133.84615357, 4138.20512800, 4137.69230749, 4200.38461525,8.57
4119.87179460, 4126.41025614, 4120.25640998, 4126.53846126, 4126.02564075, 4137.82051262, 4161.02564082, 4189.87179474, 4173.97435884, 4127.82051255, 4132.30769203, 4131.28205101, 4133.58974332, 4192.82051269,8.57
4119.99999973, 4125.25640998, 4118.71794844, 4126.28205101, 4124.10256383, 4153.07692287, 4168.07692287, 4190.89743576, 4174.99999986, 4128.84615357, 4132.17948691, 4126.92307665, 4130.76923050, 4191.79487166,8.57
4122.82051255, 4126.53846126, 4122.94871767, 4127.94871767, 4123.46153819, 4141.66666646, 4155.64102544, 4172.69230756, 4153.07692287, 4130.64102537, 4135.64102544, 4136.41025621, 4134.48717921, 4191.28205115,8.57
4105.64102537, 4118.97435870, 4111.15384588, 4116.79487152, 4119.10256383, 4119.23076896, 4141.79487159, 4169.87179474, 4151.92307672, 4126.15384588, 4129.10256383, 4124.74358947, 4129.99999973, 4191.53846140,8.57
4111.41025614, 4122.30769203, 4119.23076896, 4122.69230742, 4120.12820485, 4112.94871767, 4134.61538434, 4168.97435884, 4152.56410236, 4125.12820485, 4130.64102537, 4135.25640998, 4137.56410236, 4198.97435884,8.57
4110.25640998, 4118.97435870, 4112.56410229, 4124.61538434, 4119.35897408, 4101.28205094, 4115.38461511, 4139.23076903, 4119.61538434, 4127.94871767, 4130.51282024, 4129.99999973, 4137.43589723, 4190.76923063,8.57
4117.69230742, 4116.92307665, 4115.25640998, 4122.82051255, 4121.66666639, 4077.94871761, 4087.30769196, 4102.17948684, 4084.61538427, 4128.71794844, 4128.33333306, 4130.12820485, 4136.41025621, 4192.69230756,8.57
4120.76923050, 4119.10256383, 4123.71794844, 4127.56410229, 4122.05128178, 4085.12820478, 4091.53846119, 4100.25640991, 4082.94871761, 4129.35897408, 4128.46153819, 4137.69230749, 4141.53846133, 4195.25641012,8.57
4102.94871767, 4111.02564075, 4107.43589716, 4120.25640998, 4115.89743562, 4124.10256383, 4131.66666639, 4145.51282031, 4124.35897408, 4129.23076896, 4122.56410229, 4123.33333306, 4136.92307672, 4194.35897422,8.57
4118.20512793, 4115.76923050, 4117.94871767, 4118.20512793, 4120.25640998, 4138.97435877, 4151.15384595, 4181.53846140, 4159.10256390, 4126.28205101, 4127.69230742, 4141.92307672, 4140.38461518, 4201.66666660,8.57
4111.53846126, 4116.15384588, 4115.64102537, 4114.35897408, 4120.64102537, 4116.66666639, 4126.66666639, 4152.05128185, 4132.94871767, 4125.76923050, 4129.35897408, 4135.38461518, 4134.48717921, 4195.64102551,8.57
4105.89743562, 4117.05128178, 4109.61538434, 4112.82051255, 4117.30769203, 4096.15384581, 4097.82051248, 4108.07692280, 4095.12820478, 4126.66666639, 4127.43589716, 4126.53846126, 4131.02564075, 4200.64102551,8.57
4113.84615357, 4120.38461511, 4117.30769203, 4119.61538434, 4118.71794844, 4093.84615350, 4098.97435863, 4114.10256383, 4111.53846126, 4126.41025614, 4131.41025614, 4134.99999973, 4139.48717928, 4200.89743576,8.57
4105.64102537, 4113.97435870, 4111.28205101, 4117.05128178, 4120.25640998, 4098.46153812, 4112.17948691, 4140.76923056, 4139.87179467, 4126.66666639, 4126.28205101, 4116.15384588, 4132.94871767, 4191.41025628,8.57
4124.61538434, 4125.12820485, 4121.66666639, 4121.15384588, 4124.48717921, 4095.12820478, 4106.92307665, 4133.84615357, 4118.71794844, 4126.66666639, 4128.97435870, 4129.10256383, 4132.69230742, 4197.30769217,8.57
4120.25640998, 4125.76923050, 4114.48717921, 4119.74358947, 4121.15384588, 4088.46153812, 4096.28205094, 4111.02564075, 4089.61538427, 4127.69230742, 4129.61538434, 4123.71794844, 4133.20512793, 4193.20512807,8.57
4114.99999973, 4118.58974332, 4113.97435870, 4116.66666639, 4120.51282024, 4100.51282017, 4105.64102537, 4114.99999973, 4097.69230735, 4128.58974332, 4122.94871767, 4112.17948691, 4133.84615357, 4196.41025628,8.57
4125.12820485, 4124.23076896, 4127.56410229, 4123.46153819, 4126.66666639, 4116.92307665, 4120.25640998, 4132.69230742, 4115.38461511, 4128.07692280, 4128.84615357, 4128.07692280, 4138.20512800, 4196.53846140,8.57
4110.89743562, 4122.56410229, 4115.38461511, 4120.38461511, 4122.56410229, 4112.69230742, 4123.20512793, 4143.33333313, 4131.02564075, 4128.84615357, 4127.82051255, 4115.12820485, 4127.17948691, 4187.30769217,8.57
4126.41025614, 4129.61538434, 4129.48717921, 4124.35897408, 4123.58974332, 4108.71794844, 4131.53846126, 4161.79487159, 4157.30769210, 4130.38461511, 4127.05128178, 4127.43589716, 4131.66666639, 4196.28205115,8.57
4126.53846126, 4130.12820485, 4131.66666639, 4125.89743562, 4127.17948691, 4119.74358947, 4141.92307672, 4174.10256397, 4164.48717928, 4128.58974332, 4129.87179460, 4130.38461511, 4137.56410236, 4193.33333320,8.57
4118.97435870, 4124.10256383, 4121.28205101, 4123.20512793, 4123.97435870, 4127.05128178, 4139.23076903, 4152.69230749, 4127.05128178, 4128.58974332, 4125.89743562, 4117.94871767, 4131.66666639, 4194.10256397,8.57
4132.56410229, 4131.41025614, 4132.30769203, 4129.23076896, 4125.64102537, 4130.25640998, 4137.94871774, 4140.76923056, 4113.58974332, 4131.66666639, 4129.35897408, 4135.64102544, 4137.82051262, 4199.87179474,8.57
4118.07692280, 4127.17948691, 4121.15384588, 4123.33333306, 4123.97435870, 4131.02564075, 4145.38461518, 4162.30769210, 4150.76923056, 4128.46153819, 4128.07692280, 4126.02564075, 4132.94871767, 4193.58974345,8.57
4126.92307665, 4128.84615357, 4128.07692280, 4127.17948691, 4125.64102537, 4121.53846126, 4144.61538441, 4168.84615371, 4164.35897415, 4126.53846126, 4128.33333306, 4133.20512793, 4132.43589716, 4200.38461525,8.57
4132.56410229, 4132.43589716, 4132.30769203, 4133.58974332, 4125.25640998, 4127.43589716, 4145.25641005, 4161.02564082, 4149.35897415, 4131.41025614, 4130.76923050, 4140.38461518, 4136.92307672, 4196.02564089,8.57
4121.02564075, 4126.02564075, 4119.23076896, 4125.64102537, 4122.05128178, 4151.41025621, 4162.94871774, 4174.74358961, 4161.92307672, 4131.53846126, 4127.82051255, 4123.58974332, 4131.53846126, 4193.71794858,8.57
4134.23076896, 4131.53846126, 4129.48717921, 4128.33333306, 4127.69230742, 4153.58974339, 4168.07692287, 4187.69230756, 4180.25641012, 4128.58974332, 4131.92307665, 4134.87179460, 4137.43589723, 4199.61538448,8.57
4123.71794844, 4128.33333306, 4122.43589716, 4127.82051255, 4126.02564075, 4138.84615364, 4150.25641005, 4176.53846140, 4165.12820492, 4127.30769203, 4126.53846126, 4127.05128178, 4134.35897408, 4190.64102551,8.57
4125.12820485, 4127.17948691, 4124.48717921, 4125.89743562, 4126.28205101, 4130.38461511, 4140.51282031, 4162.30769210, 4145.25641005, 4127.43589716, 4124.99999973, 4128.46153819, 4131.66666639, 4196.02564089,8.57
4128.97435870, 4131.02564075, 4131.66666639, 4129.35897408, 4128.46153819, 4138.07692287, 4148.20512800, 4168.71794858, 4148.20512800, 4129.99999973, 4130.12820485, 4132.82051255, 4134.23076896, 4196.02564089,8.57
4118.33333306, 4125.89743562, 4122.69230742, 4126.28205101, 4123.84615357, 4147.56410236, 4149.48717928, 4173.97435884, 4149.61538441, 4129.10256383, 4122.30769203, 4117.94871767, 4129.48717921, 4191.02564089,8.57
4134.48717921, 4131.28205101, 4134.99999973, 4133.07692280, 4128.07692280, 4127.82051255, 4129.74358947, 4153.84615364, 4133.20512793, 4125.76923050, 4125.64102537, 4136.92307672, 4133.58974332, 4196.02564089,8.57
4126.79487152, 4128.71794844, 4128.33333306, 4131.02564075, 4126.66666639, 4119.61538434, 4127.30769203, 4149.61538441, 4136.53846133, 4124.61538434, 4128.84615357, 4131.41025614, 4129.10256383, 4189.87179474,8.57
4126.28205101, 4128.20512793, 4128.46153819, 4124.87179460, 4123.84615357, 4152.82051262, 4158.07692287, 4181.28205115, 4165.25641005, 4124.48717921, 4126.41025614, 4129.87179460, 4130.38461511, 4195.76923063,8.57
4135.64102544, 4134.74358947, 4138.58974339, 4131.53846126, 4126.79487152, 4162.94871774, 4164.99999980, 4188.97435884, 4165.76923056, 4125.51282024, 4126.28205101, 4143.20512800, 4137.69230749, 4198.20512807,8.57
4119.74358947, 4129.35897408, 4122.94871767, 4126.15384588, 4125.25640998, 4137.82051262, 4142.17948697, 4163.71794851, 4140.89743569, 4126.66666639, 4122.56410229, 4125.64102537, 4131.79487152, 4193.46153833,8.57
4132.82051255, 4135.38461518, 4132.43589716, 4127.17948691, 4128.07692280, 4137.17948697, 4139.35897415, 4160.51282031, 4138.07692287, 4127.82051255, 4128.97435870, 4137.69230749, 4135.38461518, 4197.82051269,8.57
4129.23076896, 4135.76923056, 4130.76923050, 4129.87179460, 4127.17948691, 4146.79487159, 4147.17948697, 4168.33333320, 4149.48717928, 4128.84615357, 4126.28205101, 4135.38461518, 4132.05128178, 4191.41025628,8.57
4125.25640998, 4132.05128178, 4124.35897408, 4126.41025614, 4127.69230742, 4137.69230749, 4141.28205108, 4158.46153826, 4144.87179467, 4131.28205101, 4117.17948691, 4128.97435870, 4130.76923050, 4199.23076910,8.57
4140.25641005, 4138.07692287, 4137.17948697, 4131.66666639, 4132.30769203, 4139.10256390, 4141.53846133, 4151.53846133, 4131.41025614, 4132.43589716, 4121.79487152, 4140.12820492, 4137.56410236, 4201.66666660,8.57
4127.05128178, 4129.99999973, 4126.53846126, 4127.05128178, 4126.41025614, 4146.66666646, 4146.02564082, 4148.97435877, 4120.76923050, 4128.58974332, 4119.87179460, 4123.33333306, 4128.97435870, 4192.69230756,8.57
4134.10256383, 4128.46153819, 4130.51282024, 4126.28205101, 4127.69230742, 4143.71794851, 4144.10256390, 4147.05128185, 4123.20512793, 4129.48717921, 4121.53846126, 4134.87179460, 4133.46153819, 4199.10256397,8.57
4130.76923050, 4129.23076896, 4126.92307665, 4127.05128178, 4128.71794844, 4143.84615364, 4144.61538441, 4151.02564082, 4132.17948691, 4132.05128178, 4121.53846126, 4133.58974332, 4134.23076896, 4192.69230756,8.57
4122.05128178, 4125.12820485, 4120.38461511, 4126.41025614, 4124.61538434, 4147.82051262, 4147.69230749, 4154.35897415, 4133.58974332, 4127.56410229, 4118.07692280, 4122.82051255, 4127.17948691, 4194.35897422,8.57
4131.02564075, 4130.38461511, 4132.94871767, 4133.46153819, 4125.76923050, 4150.38461518, 4151.02564082, 4156.02564082, 4139.74358954, 4125.38461511, 4122.82051255, 4137.56410236, 4132.17948691, 4197.17948704,8.57
4116.53846126, 4125.64102537, 4121.28205101, 4123.20512793, 4122.69230742, 4152.69230749, 4154.87179467, 4160.51282031, 4144.35897415, 4129.61538434, 4119.48717921, 4123.07692280, 4128.33333306, 4189.99999986,8.57
4124.99999973, 4125.12820485, 4128.33333306, 4120.25640998, 4124.35897408, 4148.97435877, 4152.17948697, 4165.38461518, 4134.87179460, 4130.89743562, 4121.66666639, 4130.89743562, 4132.94871767, 4198.46153833,8.57
4124.48717921, 4127.30769203, 4130.12820485, 4127.94871767, 4125.51282024, 4143.71794851, 4146.79487159, 4163.58974339, 4134.10256383, 4127.82051255, 4125.76923050, 4134.87179460, 4135.76923056, 4192.56410243,8.57
4116.41025614, 4123.71794844, 4117.17948691, 4122.30769203, 4124.35897408, 4154.23076903, 4150.25641005, 4158.20512800, 4141.92307672, 4127.05128178, 4121.92307665, 4124.23076896, 4130.89743562, 4191.53846140,8.57
4133.33333306, 4128.07692280, 4132.17948691, 4124.61538434, 4128.58974332, 4168.58974345, 4158.58974339, 4156.66666646, 4136.02564082, 4129.23076896, 4124.61538434, 4140.64102544, 4136.02564082, 4201.41025634,8.57
4116.79487152, 4122.69230742, 4124.48717921, 4124.35897408, 4123.20512793, 4166.02564082, 4157.05128185, 4155.25641005, 4128.07692280, 4129.35897408, 4121.02564075, 4130.89743562, 4131.92307665, 4193.84615371,8.57
4116.41025614, 4125.25640998, 4122.82051255, 4123.07692280, 4121.28205101, 4159.74358954, 4150.76923056, 4151.28205108, 4132.30769203, 4127.05128178, 4122.94871767, 4135.25640998, 4136.66666646, 4194.87179474,8.57
4128.46153819, 4128.97435870, 4124.99999973, 4125.51282024, 4123.58974332, 4162.82051262, 4150.12820492, 4144.10256390, 4130.12820485, 4127.43589716, 4122.94871767, 4138.71794851, 4139.87179467, 4194.35897422,8.57
4117.82051255, 4120.76923050, 4113.33333306, 4121.15384588, 4123.07692280, 4159.48717928, 4148.20512800, 4140.12820492, 4123.58974332, 4129.99999973, 4114.99999973, 4121.79487152, 4129.23076896, 4195.38461525,8.57
4123.20512793, 4126.79487152, 4124.35897408, 4123.84615357, 4126.15384588, 4145.89743569, 4140.89743569, 4138.33333313, 4122.82051255, 4131.02564075, 4122.94871767, 4137.69230749, 4135.51282031, 4201.53846147,8.57
4115.89743562, 4125.12820485, 4118.07692280, 4118.97435870, 4121.53846126, 4148.71794851, 4147.82051262, 4143.58974339, 4128.20512793, 4128.33333306, 4123.84615357, 4129.23076896, 4133.97435870, 4193.33333320,8.57
4121.15384588, 4122.17948691, 4118.33333306, 4118.71794844, 4121.41025614, 4163.07692287, 4163.58974339, 4153.07692287, 4134.74358947, 4126.15384588, 4119.35897408, 4125.64102537, 4131.79487152, 4194.23076910,8.57
4126.66666639, 4125.25640998, 4125.51282024, 4125.38461511, 4124.48717921, 4161.92307672, 4162.30769210, 4151.66666646, 4131.92307665, 4127.56410229, 4121.79487152, 4135.89743569, 4135.64102544, 4191.15384602,8.57
4111.41025614, 4121.02564075, 4116.15384588, 4118.71794844, 4120.89743562, 4161.28205108, 4160.25641005, 4152.30769210, 4126.92307665, 4128.58974332, 4119.61538434, 4121.79487152, 4129.48717921, 4187.94871781,8.57
4125.64102537, 4127.69230742, 4128.97435870, 4123.84615357, 4126.15384588, 4167.56410236, 4166.66666646, 4160.89743569, 4129.87179460, 4129.74358947, 4122.82051255, 4132.05128178, 4134.23076896, 4195.38461525,8.57
4123.97435870, 4127.43589716, 4124.23076896, 4128.20512793, 4125.38461511, 4166.92307672, 4167.05128185, 4164.74358954, 4137.43589723, 4129.10256383, 4121.02564075, 4127.69230742, 4133.20512793, 4190.25641012,8.57
4124.48717921, 4127.17948691, 4121.92307665, 4126.79487152, 4123.46153819, 4163.20512800, 4163.71794851, 4158.84615364, 4138.58974339, 4126.53846126, 4119.61538434, 4126.15384588, 4132.43589716, 4193.71794858,8.57
4136.28205108, 4134.87179460, 4133.97435870, 4128.33333306, 4130.51282024, 4158.71794851, 4155.89743569, 4151.92307672, 4128.97435870, 4125.64102537, 4122.56410229, 4138.84615364, 4137.17948697, 4194.48717935,8.57
4123.71794844, 4129.10256383, 4122.69230742, 4119.99999973, 4129.74358947, 4154.87179467, 4151.28205108, 4154.23076903, 4128.33333306, 4126.02564075, 4117.69230742, 4125.12820485, 4130.38461511, 4192.69230756,8.57
4133.07692280, 4131.02564075, 4131.79487152, 4127.17948691, 4127.05128178, 4159.35897415, 4159.74358954, 4164.35897415, 4143.97435877, 4129.10256383, 4123.46153819, 4138.71794851, 4136.66666646, 4202.17948711,8.57
4129.99999973, 4130.12820485, 4132.94871767, 4131.15384588, 4125.51282024, 4163.07692287, 4166.15384595, 4165.89743569, 4151.15384595, 4131.15384588, 4126.02564075, 4138.71794851, 4136.66666646, 4192.82051269,8.57
4126.02564075, 4126.66666639, 4126.15384588, 4123.46153819, 4125.76923050, 4155.12820492, 4157.30769210, 4152.30769210, 4136.53846133, 4131.02564075, 4122.43589716, 4127.30769203, 4131.92307665, 4190.89743576,8.57
4137.82051262, 4132.43589716, 4135.64102544, 4129.10256383, 4127.94871767, 4144.74358954, 4146.66666646, 4139.87179467, 4121.79487152, 4130.12820485, 4123.97435870, 4139.87179467, 4138.33333313, 4196.66666653,8.57
4123.97435870, 4123.71794844, 4127.94871767, 4129.61538434, 4123.84615357, 4131.92307665, 4132.94871767, 4127.43589716, 4110.12820485, 4128.33333306, 4115.38461511, 4129.61538434, 4133.46153819, 4192.05128192,8.57
4132.30769203, 4125.89743562, 4134.87179460, 4131.28205101, 4127.30769203, 4124.23076896, 4121.15384588, 4112.05128178, 4092.56410222, 4128.97435870, 4114.87179460, 4138.71794851, 4135.64102544, 4197.56410243,8.57
4136.53846133, 4134.10256383, 4133.33333306, 4131.41025614, 4129.99999973, 4143.46153826, 4138.07692287, 4121.28205101, 4094.99999966, 4130.38461511, 4117.30769203, 4139.23076903, 4136.66666646, 4196.41025628,8.57
4129.48717921, 4130.76923050, 4126.79487152, 4127.05128178, 4129.23076896, 4168.33333320, 4164.61538441, 4147.82051262, 4118.84615357, 4128.07692280, 4113.33333306, 4125.25640998, 4131.53846126, 4198.33333320,8.57
4134.99999973, 4131.02564075, 4137.43589723, 4130.76923050, 4130.76923050, 4168.20512807, 4165.89743569, 4155.64102544, 4132.82051255, 4127.05128178, 4117.69230742, 4137.94871774, 4135.64102544, 4198.33333320,8.57
4117.94871767, 4124.10256383, 4122.69230742, 4123.20512793, 4124.35897408, 4159.74358954, 4157.94871774, 4153.46153826, 4137.05128185, 4129.23076896, 4117.56410229, 4124.87179460, 4129.74358947, 4188.46153833,8.57
4124.74358947, 4127.69230742, 4127.94871767, 4124.10256383, 4126.02564075, 4159.74358954, 4157.56410236, 4158.46153826, 4140.25641005, 4128.33333306, 4120.25640998, 4128.71794844, 4129.61538434, 4195.51282038,8.57
4128.07692280, 4129.74358947, 4132.05128178, 4128.84615357, 4127.17948691, 4163.33333313, 4154.74358954, 4158.46153826, 4139.61538441, 4125.64102537, 4121.53846126, 4137.05128185, 4132.30769203, 4192.94871781,8.57
4113.46153819, 4121.53846126, 4117.30769203, 4120.51282024, 4122.30769203, 4163.20512800, 4151.92307672, 4149.23076903, 4133.20512793, 4127.05128178, 4116.15384588, 4123.58974332, 4131.15384588, 4188.07692294,8.57
4124.87179460, 4125.76923050, 4128.33333306, 4124.48717921, 4124.87179460, 4150.25641005, 4148.58974339, 4136.53846133, 4114.61538434, 4131.02564075, 4120.76923050, 4137.94871774, 4136.92307672, 4195.12820499,8.57
4115.76923050, 4119.87179460, 4119.74358947, 4123.46153819, 4123.84615357, 4134.35897408, 4133.71794844, 4119.35897408, 4092.30769196, 4129.87179460, 4119.61538434, 4133.71794844, 4130.12820485, 4192.82051269,8.57
4116.53846126, 4119.99999973, 4116.66666639, 4119.74358947, 4125.12820485, 4134.35897408, 4127.17948691, 4116.66666639, 4092.82051248, 4128.33333306, 4118.84615357, 4131.41025614, 4130.76923050, 4195.12820499,8.57
4121.15384588, 4124.99999973, 4122.05128178, 4121.79487152, 4123.97435870, 4147.69230749, 4145.12820492, 4139.35897415, 4115.12820485, 4131.79487152, 4121.66666639, 4138.20512800, 4135.76923056, 4195.51282038,8.57
4108.97435870, 4117.82051255, 4113.58974332, 4117.82051255, 4118.97435870, 4163.58974339, 4164.10256390, 4161.28205108, 4136.28205108, 4129.48717921, 4116.02564075, 4127.94871767, 4128.84615357, 4195.25641012,8.57
4119.99999973, 4121.41025614, 4124.61538434, 4121.15384588, 4122.17948691, 4173.97435884, 4169.23076910, 4166.79487159, 4146.66666646, 4124.87179460, 4120.51282024, 4142.56410236, 4133.84615357, 4198.07692294,8.57
4115.89743562, 4120.38461511, 4116.92307665, 4119.99999973, 4121.92307665, 4170.64102551, 4164.48717928, 4160.76923056, 4142.82051262, 4126.92307665, 4120.51282024, 4134.74358947, 4133.46153819, 4189.74358961,8.57
4114.87179460, 4119.61538434, 4111.41025614, 4121.79487152, 4122.69230742, 4154.87179467, 4147.82051262, 4142.43589723, 4125.51282024, 4130.25640998, 4114.35897408, 4125.89743562, 4133.46153819, 4196.02564089,8.57
4121.02564075, 4123.84615357, 4121.28205101, 4124.48717921, 4123.07692280, 4146.66666646, 4131.15384588, 4116.66666639, 4106.15384588, 4130.12820485, 4117.05128178, 4137.30769210, 4139.99999980, 4199.74358961,8.57
4113.71794844, 4119.61538434, 4114.61538434, 4115.25640998, 4119.48717921, 4147.69230749, 4130.12820485, 4111.41025614, 4103.07692280, 4129.74358947, 4116.41025614, 4125.12820485, 4132.43589716, 4191.79487166,8.57
4113.71794844, 4119.61538434, 4114.61538434, 4115.25640998, 4119.48717921, 4147.69230749, 4130.12820485, 4111.41025614, 4103.07692280, 4129.74358947, 4116.41025614, 4125.12820485, 4132.43589716, 4191.79487166,8.57
4124.99999973, 4121.28205101, 4120.64102537, 4123.20512793, 4123.84615357, 4146.28205108, 4136.53846133, 4124.99999973, 4112.69230742, 4131.28205101, 4119.10256383, 4131.15384588, 4131.41025614, 4195.38461525,8.57
4119.87179460, 4121.02564075, 4117.17948691, 4126.28205101, 4124.10256383, 4149.61538441, 4143.33333313, 4136.79487159, 4123.20512793, 4130.12820485, 4118.58974332, 4127.17948691, 4132.94871767, 4192.94871781,8.57
4119.23076896, 4125.38461511, 4118.46153819, 4121.79487152, 4125.64102537, 4157.17948697, 4153.33333313, 4147.82051262, 4131.02564075, 4127.43589716, 4117.82051255, 4119.48717921, 4132.30769203, 4194.35897422,8.57
4129.10256383, 4131.28205101, 4130.38461511, 4126.66666639, 4130.38461511, 4159.48717928, 4159.35897415, 4150.76923056, 4126.66666639, 4128.07692280, 4122.56410229, 4132.94871767, 4133.33333306, 4195.76923063,8.57
4119.99999973, 4124.48717921, 4121.15384588, 4124.74358947, 4125.25640998, 4165.64102544, 4161.66666646, 4148.84615364, 4116.92307665, 4129.10256383, 4116.53846126, 4122.17948691, 4126.66666639, 4190.89743576,8.57
4130.38461511, 4128.33333306, 4129.23076896, 4129.61538434, 4124.61538434, 4165.38461518, 4158.07692287, 4145.25641005, 4113.46153819, 4128.07692280, 4116.79487152, 4126.41025614, 4132.56410229, 4196.79487166,8.57
4125.25640998, 4126.53846126, 4128.33333306, 4129.10256383, 4126.41025614, 4155.12820492, 4150.38461518, 4140.12820492, 4119.23076896, 4127.17948691, 4120.12820485, 4129.87179460, 4134.48717921, 4195.64102551,8.57
4114.99999973, 4122.56410229, 4119.99999973, 4123.07692280, 4125.76923050, 4161.15384595, 4156.41025621, 4148.71794851, 4132.05128178, 4127.82051255, 4119.74358947, 4125.64102537, 4127.30769203, 4196.15384602,8.57
4128.58974332, 4129.48717921, 4129.61538434, 4125.64102537, 4127.69230742, 4182.69230756, 4175.12820499, 4166.53846133, 4146.92307672, 4128.33333306, 4126.15384588, 4136.79487159, 4132.69230742, 4197.43589730,8.57
4120.38461511, 4122.69230742, 4120.25640998, 4119.10256383, 4123.71794844, 4190.12820499, 4188.84615371, 4175.12820499, 4161.41025621, 4128.33333306, 4123.07692280, 4124.61538434, 4130.64102537, 4194.35897422,8.57
4123.20512793, 4124.87179460, 4123.33333306, 4122.17948691, 4124.99999973, 4182.82051269, 4188.33333320, 4176.15384602, 4169.10256397, 4129.74358947, 4121.92307665, 4130.12820485, 4132.69230742, 4203.07692301,8.57
4129.23076896, 4129.23076896, 4128.33333306, 4126.02564075, 4130.12820485, 4183.20512807, 4184.61538448, 4177.30769217, 4164.10256390, 4128.97435870, 4124.35897408, 4134.48717921, 4136.41025621, 4197.30769217,8.57
4117.69230742, 4122.82051255, 4118.58974332, 4118.46153819, 4123.97435870, 4189.74358961, 4189.61538448, 4176.53846140, 4157.43589723, 4127.30769203, 4120.25640998, 4117.82051255, 4129.74358947, 4190.64102551,8.57
4126.41025614, 4129.74358947, 4128.20512793, 4126.15384588, 4123.71794844, 4186.66666653, 4194.61538448, 4180.25641012, 4159.87179467, 4130.76923050, 4126.02564075, 4129.61538434, 4134.48717921, 4200.89743576,8.57
4125.76923050, 4126.66666639, 4125.64102537, 4126.66666639, 4127.56410229, 4172.82051269, 4188.33333320, 4185.12820499, 4159.99999980, 4130.38461511, 4123.97435870, 4123.20512793, 4133.33333306, 4197.43589730,8.57
4122.43589716, 4124.35897408, 4122.56410229, 4121.15384588, 4124.10256383, 4171.66666653, 4190.64102551, 4187.69230756, 4157.56410236, 4127.43589716, 4118.46153819, 4117.30769203, 4130.12820485, 4193.20512807,8.57
4125.25640998, 4131.02564075, 4128.46153819, 4124.87179460, 4124.74358947, 4193.58974345, 4208.20512814, 4195.38461525, 4164.10256390, 4129.74358947, 4123.71794844, 4124.48717921, 4133.33333306, 4191.79487166,8.57
4116.41025614, 4121.66666639, 4120.38461511, 4120.76923050, 4123.97435870, 4206.15384609, 4210.89743583, 4193.33333320, 4163.71794851, 4130.25640998, 4119.99999973, 4114.87179460, 4128.58974332, 4191.15384602,8.57
4125.76923050, 4123.33333306, 4127.94871767, 4125.64102537, 4122.94871767, 4206.79487173, 4209.35897429, 4190.38461525, 4162.69230749, 4128.20512793, 4119.74358947, 4127.82051255, 4132.56410229, 4197.30769217,8.57
4128.46153819, 4131.02564075, 4126.53846126, 4129.10256383, 4122.82051255, 4221.41025634, 4232.56410250, 4216.79487173, 4193.46153833, 4128.97435870, 4122.82051255, 4127.17948691, 4133.71794844, 4193.07692294,8.57
4123.71794844, 4126.66666639, 4121.41025614, 4123.07692280, 4120.89743562, 4236.53846154, 4251.79487180, 4240.51282052, 4224.10256404, 4130.51282024, 4123.46153819, 4122.30769203, 4129.61538434, 4194.35897422,8.57
4131.28205101, 4128.97435870, 4134.74358947, 4126.92307665, 4123.33333306, 4227.05128199, 4241.41025641, 4230.25641019, 4216.66666660, 4129.99999973, 4126.28205101, 4132.56410229, 4132.94871767, 4198.97435884,8.57
4120.89743562, 4126.41025614, 4125.12820485, 4122.17948691, 4123.33333306, 4219.35897429, 4235.64102564, 4231.66666660, 4218.33333327, 4128.71794844, 4121.28205101, 4119.35897408, 4131.28205101, 4196.66666653,8.57
4125.64102537, 4128.46153819, 4125.12820485, 4123.97435870, 4123.84615357, 4225.76923070, 4243.84615385, 4245.76923077, 4232.94871788, 4128.20512793, 4124.61538434, 4129.61538434, 4134.48717921, 4201.02564096,8.57
4132.30769203, 4130.38461511, 4132.94871767, 4130.76923050, 4124.35897408, 4225.76923070, 4241.53846154, 4228.84615378, 4212.30769224, 4127.82051255, 4127.30769203, 4133.71794844, 4132.82051255, 4196.79487166,8.57
4118.58974332, 4121.66666639, 4125.25640998, 4121.15384588, 4122.43589716, 4219.61538455, 4230.51282045, 4209.23076917, 4185.12820499, 4128.46153819, 4120.89743562, 4119.10256383, 4127.05128178, 4196.53846140,8.57
4125.38461511, 4127.43589716, 4131.66666639, 4122.43589716, 4124.74358947, 4212.69230763, 4220.25641019, 4204.61538455, 4182.82051269, 4131.41025614, 4122.69230742, 4130.51282024, 4134.48717921, 4201.53846147,8.57
4122.17948691, 4125.51282024, 4124.87179460, 4123.07692280, 4121.41025614, 4206.79487173, 4215.76923070, 4194.99999986, 4179.99999986, 4132.43589716, 4121.79487152, 4122.94871767, 4131.53846126, 4193.71794858,8.57
4121.79487152, 4122.69230742, 4123.97435870, 4124.10256383, 4122.43589716, 4208.84615378, 4216.66666660, 4189.48717935, 4175.12820499, 4129.61538434, 4123.58974332, 4123.58974332, 4130.64102537, 4196.41025628,8.57
4129.10256383, 4131.02564075, 4130.38461511, 4130.76923050, 4127.82051255, 4214.35897429, 4219.61538455, 4196.28205115, 4181.66666653, 4129.10256383, 4124.35897408, 4131.53846126, 4133.58974332, 4197.69230756,8.57
4119.74358947, 4125.64102537, 4119.74358947, 4123.20512793, 4124.74358947, 4210.76923070, 4218.84615378, 4198.97435884, 4181.41025628, 4130.64102537, 4119.23076896, 4120.76923050, 4129.87179460, 4193.97435884,8.57
4129.23076896, 4129.10256383, 4125.64102537, 4123.84615357, 4125.25640998, 4200.89743576, 4214.23076917, 4200.76923063, 4183.07692294, 4131.41025614, 4122.17948691, 4128.97435870, 4133.33333306, 4197.94871781,8.57
4125.76923050, 4129.23076896, 4121.79487152, 4124.74358947, 4123.84615357, 4200.89743576, 4214.10256404, 4207.94871788, 4198.46153833, 4129.10256383, 4123.46153819, 4122.30769203, 4129.35897408, 4193.46153833,8.57
4121.92307665, 4124.48717921, 4123.84615357, 4126.28205101, 4124.35897408, 4206.79487173, 4222.05128199, 4210.51282045, 4198.46153833, 4126.92307665, 4123.97435870, 4123.84615357, 4130.12820485, 4195.76923063,8.57
4129.10256383, 4128.71794844, 4132.05128178, 4131.02564075, 4129.74358947, 4207.56410250, 4228.97435891, 4212.43589737, 4191.92307679, 4130.12820485, 4123.07692280, 4135.76923056, 4135.25640998, 4197.69230756,8.57
4118.07692280, 4124.61538434, 4117.56410229, 4118.07692280, 4127.94871767, 4202.56410250, 4223.46153840, 4209.74358968, 4193.07692294, 4130.25640998, 4121.53846126, 4123.46153819, 4130.25640998, 4192.69230756,8.57
4118.07692280, 4124.61538434, 4117.56410229, 4118.07692280, 4127.94871767, 4202.56410250, 4223.46153840, 4209.74358968, 4193.07692294, 4130.25640998, 4121.53846126, 4123.46153819, 4130.25640998, 4192.69230756,8.57
4128.84615357, 4128.07692280, 4127.05128178, 4119.61538434, 4126.79487152, 4198.46153833, 4211.15384609, 4194.74358961, 4174.74358961, 4126.28205101, 4128.07692280, 4134.74358947, 4132.17948691, 4196.92307679,8.57
4126.92307665, 4126.41025614, 4126.15384588, 4122.94871767, 4127.17948691, 4201.02564096, 4206.92307686, 4187.17948704, 4155.64102544, 4125.51282024, 4121.41025614, 4133.84615357, 4130.12820485, 4197.56410243,8.57
4119.23076896, 4121.15384588, 4118.58974332, 4121.66666639, 4126.28205101, 4203.20512814, 4209.23076917, 4194.61538448, 4171.79487166, 4127.05128178, 4117.69230742, 4128.20512793, 4133.20512793, 4198.07692294,8.57
4131.15384588, 4130.64102537, 4129.10256383, 4127.69230742, 4123.58974332, 4196.41025628, 4208.97435891, 4202.94871788, 4188.33333320, 4127.30769203, 4126.79487152, 4135.89743569, 4137.56410236, 4195.64102551,8.57
4118.71794844, 4126.41025614, 4119.23076896, 4119.10256383, 4120.38461511, 4192.17948704, 4212.69230763, 4208.84615378, 4185.51282038, 4128.58974332, 4123.46153819, 4121.02564075, 4128.20512793, 4191.41025628,8.57
4119.61538434, 4124.10256383, 4121.79487152, 4121.28205101, 4124.74358947, 4187.56410243, 4210.76923070, 4201.41025634, 4177.82051269, 4130.76923050, 4122.43589716, 4129.61538434, 4133.71794844, 4198.84615371,8.57
4121.53846126, 4126.41025614, 4120.89743562, 4126.53846126, 4124.61538434, 4184.23076910, 4203.33333327, 4180.12820499, 4160.12820492, 4128.20512793, 4120.25640998, 4127.82051255, 4135.89743569, 4195.89743576,8.57
4115.76923050, 4124.61538434, 4117.05128178, 4120.76923050, 4121.28205101, 4188.07692294, 4204.61538455, 4177.17948704, 4153.84615364, 4126.53846126, 4119.10256383, 4117.30769203, 4130.12820485, 4193.84615371,8.57
4125.76923050, 4128.33333306, 4131.02564075, 4123.84615357, 4122.94871767, 4171.92307679, 4191.28205115, 4179.87179474, 4161.02564082, 4128.71794844, 4126.66666639, 4129.48717921, 4133.46153819, 4192.56410243,8.57
4116.92307665, 4121.15384588, 4120.76923050, 4122.30769203, 4122.17948691, 4145.89743569, 4164.23076903, 4159.87179467, 4143.07692287, 4126.79487152, 4121.66666639, 4119.74358947, 4128.46153819, 4186.66666653,8.57
4121.79487152, 4122.69230742, 4122.43589716, 4126.66666639, 4123.84615357, 4161.15384595, 4172.05128192, 4160.38461518, 4131.79487152, 4127.43589716, 4119.61538434, 4123.84615357, 4129.48717921, 4194.87179474,8.57
4124.48717921, 4125.89743562, 4124.35897408, 4126.53846126, 4122.56410229, 4191.28205115, 4206.15384609, 4191.15384602, 4158.58974339, 4130.51282024, 4122.82051255, 4125.25640998, 4130.76923050, 4193.97435884,8.57
4113.97435870, 4121.02564075, 4116.02564075, 4117.94871767, 4120.12820485, 4191.02564089, 4208.58974352, 4199.74358961, 4174.74358961, 4128.58974332, 4122.56410229, 4119.48717921, 4129.48717921, 4190.76923063,8.57
4124.87179460, 4128.58974332, 4129.23076896, 4124.87179460, 4126.66666639, 4187.94871781, 4197.05128192, 4192.56410243, 4170.25641012, 4128.33333306, 4125.76923050, 4133.97435870, 4134.87179460, 4194.61538448,8.57
4124.87179460, 4128.58974332, 4129.23076896, 4124.87179460, 4126.66666639, 4187.94871781, 4197.05128192, 4192.56410243, 4170.25641012, 4128.33333306, 4125.76923050, 4133.97435870, 4134.87179460, 4194.61538448,8.57
4119.10256383, 4125.64102537, 4123.84615357, 4124.23076896, 4126.41025614, 4196.02564089, 4205.51282045, 4201.28205122, 4176.92307679, 4128.33333306, 4125.38461511, 4123.97435870, 4131.02564075, 4194.48717935,8.57
4122.94871767, 4128.07692280, 4125.89743562, 4123.97435870, 4126.28205101, 4186.41025628, 4203.97435891, 4196.79487166, 4176.02564089, 4125.64102537, 4128.33333306, 4128.58974332, 4134.87179460, 4200.51282038,8.57
4126.41025614, 4131.41025614, 4127.69230742, 4125.38461511, 4127.43589716, 4170.12820499, 4184.87179474, 4178.33333320, 4164.48717928, 4126.66666639, 4126.92307665, 4132.30769203, 4136.41025621, 4196.02564089,8.57
4118.97435870, 4124.48717921, 4119.99999973, 4121.41025614, 4123.46153819, 4164.61538441, 4174.10256397, 4174.61538448, 4164.35897415, 4128.20512793, 4123.58974332, 4120.76923050, 4130.12820485, 4194.48717935,8.57
4130.64102537, 4131.28205101, 4132.05128178, 4126.15384588, 4124.48717921, 4159.35897415, 4170.64102551, 4166.28205108, 4150.51282031, 4126.53846126, 4127.82051255, 4133.71794844, 4135.38461518, 4200.51282038,8.57
4121.79487152, 4128.84615357, 4124.99999973, 4121.02564075, 4123.46153819, 4153.84615364, 4165.25641005, 4147.43589723, 4126.53846126, 4125.89743562, 4119.99999973, 4126.79487152, 4130.89743562, 4193.71794858,8.57
4122.82051255, 4128.71794844, 4125.51282024, 4125.25640998, 4124.35897408, 4146.92307672, 4161.53846133, 4146.28205108, 4129.10256383, 4128.20512793, 4118.97435870, 4125.51282024, 4129.87179460, 4197.94871781,8.57
4126.28205101, 4130.38461511, 4124.99999973, 4128.46153819, 4123.97435870, 4143.07692287, 4162.82051262, 4161.28205108, 4148.20512800, 4128.84615357, 4123.84615357, 4128.07692280, 4133.97435870, 4198.07692294,8.57
4117.43589716, 4125.12820485, 4115.38461511, 4120.51282024, 4120.89743562, 4149.87179467, 4167.69230749, 4164.87179467, 4156.79487159, 4127.43589716, 4121.02564075, 4118.33333306, 4129.99999973, 4192.56410243,8.57
4128.58974332, 4128.97435870, 4128.46153819, 4127.94871767, 4125.38461511, 4148.71794851, 4163.58974339, 4145.12820492, 4141.66666646, 4127.17948691, 4124.48717921, 4129.87179460, 4131.53846126, 4195.64102551,8.57
4118.84615357, 4121.41025614, 4121.53846126, 4122.82051255, 4122.69230742, 4137.56410236, 4151.15384595, 4130.51282024, 4124.87179460, 4127.05128178, 4121.66666639, 4120.25640998, 4127.69230742, 4191.79487166,8.57
4118.84615357, 4124.10256383, 4121.28205101, 4120.25640998, 4121.92307665, 4141.53846133, 4156.41025621, 4139.35897415, 4127.17948691, 4126.92307665, 4122.69230742, 4120.12820485, 4128.58974332, 4195.38461525,8.57
4126.53846126, 4129.61538434, 4125.25640998, 4125.76923050, 4125.51282024, 4160.76923056, 4173.71794858, 4151.66666646, 4132.69230742, 4126.28205101, 4127.05128178, 4127.94871767, 4133.84615357, 4193.71794858,8.57
4117.17948691, 4126.28205101, 4119.23076896, 4121.92307665, 4120.89743562, 4154.61538441, 4166.53846133, 4146.66666646, 4125.89743562, 4125.51282024, 4124.10256383, 4117.94871767, 4130.25640998, 4189.87179474,8.57
4125.51282024, 4132.56410229, 4130.76923050, 4126.15384588, 4122.30769203, 4132.30769203, 4153.46153826, 4147.82051262, 4131.79487152, 4127.30769203, 4131.79487152, 4132.43589716, 4133.07692280, 4199.10256397,8.57
4121.53846126, 4122.43589716, 4120.64102537, 4121.66666639, 4123.33333306, 4141.66666646, 4169.74358961, 4169.87179474, 4157.05128185, 4127.30769203, 4132.56410229, 4129.48717921, 4131.28205101, 4197.69230756,8.57
4123.33333306, 4121.92307665, 4121.15384588, 4119.74358947, 4121.92307665, 4158.71794851, 4183.07692294, 4169.48717935, 4151.41025621, 4126.92307665, 4126.41025614, 4125.51282024, 4133.46153819, 4197.30769217,8.57
4122.94871767, 4126.66666639, 4126.79487152, 4119.48717921, 4121.41025614, 4148.20512800, 4168.20512807, 4143.97435877, 4121.53846126, 4128.97435870, 4125.51282024, 4129.74358947, 4138.46153826, 4197.43589730,8.57
4113.58974332, 4118.84615357, 4114.74358947, 4114.87179460, 4120.12820485, 4134.87179460, 4155.64102544, 4135.51282031, 4118.20512793, 4129.23076896, 4124.35897408, 4120.89743562, 4132.17948691, 4197.30769217,8.57
4124.74358947, 4123.33333306, 4121.79487152, 4122.82051255, 4122.56410229, 4138.20512800, 4159.48717928, 4141.66666646, 4129.87179460, 4126.92307665, 4128.46153819, 4135.25640998, 4135.25640998, 4202.05128199,8.57
4110.76923050, 4117.56410229, 4114.35897408, 4116.92307665, 4118.58974332, 4134.61538434, 4155.38461518, 4133.84615357, 4121.28205101, 4125.12820485, 4124.35897408, 4125.12820485, 4133.97435870, 4195.12820499,8.57
4111.15384588, 4119.35897408, 4114.99999973, 4119.10256383, 4119.35897408, 4123.33333306, 4143.84615364, 4123.97435870, 4109.87179460, 4127.94871767, 4119.87179460, 4118.20512793, 4130.64102537, 4197.30769217,8.57
4119.87179460, 4126.92307665, 4118.84615357, 4125.64102537, 4124.99999973, 4134.35897408, 4158.58974339, 4147.94871774, 4140.12820492, 4131.02564075, 4127.30769203, 4132.17948691, 4133.58974332, 4198.97435884,8.57
4110.25640998, 4119.48717921, 4109.99999973, 4113.71794844, 4121.53846126, 4164.87179467, 4195.12820499, 4189.23076910, 4186.92307679, 4127.43589716, 4127.56410229, 4119.10256383, 4128.84615357, 4190.89743576,8.57
4125.12820485, 4124.23076896, 4127.30769203, 4120.89743562, 4121.41025614, 4178.58974345, 4208.97435891, 4204.99999993, 4197.69230756, 4123.84615357, 4129.35897408, 4126.15384588, 4134.10256383, 4193.46153833,8.57
4116.92307665, 4122.05128178, 4119.35897408, 4123.46153819, 4121.02564075, 4169.99999986, 4194.61538448, 4186.28205115, 4174.87179474, 4126.02564075, 4129.10256383, 4123.84615357, 4132.82051255, 4191.53846140,8.57
4114.48717921, 4121.02564075, 4114.87179460, 4118.58974332, 4121.41025614, 4172.17948704, 4192.69230756, 4176.28205115, 4161.28205108, 4129.61538434, 4127.69230742, 4119.99999973, 4128.58974332, 4193.97435884,8.57
4131.53846126, 4131.28205101, 4133.20512793, 4122.69230742, 4125.25640998, 4177.94871781, 4203.07692301, 4187.69230756, 4169.61538448, 4130.76923050, 4132.30769203, 4133.84615357, 4134.99999973, 4194.87179474,8.57
4116.02564075, 4124.35897408, 4119.48717921, 4117.17948691, 4123.20512793, 4171.41025628, 4204.48717942, 4195.64102551, 4177.43589730, 4127.82051255, 4126.53846126, 4121.53846126, 4127.94871767, 4190.25641012,8.57
4121.66666639, 4125.76923050, 4124.23076896, 4124.23076896, 4124.99999973, 4175.89743576, 4207.82051275, 4197.43589730, 4176.79487166, 4125.38461511, 4127.56410229, 4132.17948691, 4130.51282024, 4197.82051269,8.57
4126.79487152, 4127.94871767, 4128.33333306, 4127.69230742, 4124.74358947, 4201.41025634, 4223.84615378, 4204.35897429, 4182.82051269, 4126.02564075, 4133.58974332, 4135.64102544, 4137.30769210, 4195.12820499,8.57
4119.87179460, 4121.41025614, 4115.51282024, 4117.43589716, 4122.94871767, 4209.35897429, 4229.87179481, 4211.15384609, 4193.46153833, 4126.15384588, 4129.10256383, 4122.69230742, 4134.87179460, 4195.12820499,8.57
4132.05128178, 4128.71794844, 4127.30769203, 4125.89743562, 4127.69230742, 4190.64102551, 4218.71794865, 4210.12820506, 4193.71794858, 4128.46153819, 4129.99999973, 4138.33333313, 4140.12820492, 4200.76923063,8.57
4122.05128178, 4126.92307665, 4122.82051255, 4127.43589716, 4123.07692280, 4197.82051269, 4228.58974352, 4220.76923070, 4205.51282045, 4130.25640998, 4129.74358947, 4127.69230742, 4134.48717921, 4192.82051269,8.57
4123.58974332, 4127.82051255, 4122.69230742, 4123.46153819, 4122.69230742, 4220.12820506, 4242.82051282, 4228.71794865, 4217.17948711, 4125.25640998, 4130.51282024, 4126.28205101, 4132.43589716, 4198.97435884,8.57
4131.28205101, 4132.56410229, 4130.51282024, 4125.76923050, 4128.71794844, 4206.53846147, 4220.12820506, 4206.79487173, 4193.84615371, 4123.46153819, 4129.74358947, 4137.94871774, 4136.66666646, 4201.66666660,8.57
4128.07692280, 4128.97435870, 4127.17948691, 4126.79487152, 4124.74358947, 4195.89743576, 4201.92307686, 4195.25641012, 4187.05128192, 4126.66666639, 4125.76923050, 4131.92307665, 4132.82051255, 4193.97435884,8.57
4125.64102537, 4128.20512793, 4126.53846126, 4122.82051255, 4126.28205101, 4192.43589730, 4199.23076910, 4191.53846140, 4183.97435884, 4127.43589716, 4126.02564075, 4132.82051255, 4132.69230742, 4196.15384602,8.57
4119.74358947, 4123.07692280, 4123.97435870, 4124.23076896, 4127.17948691, 4190.64102551, 4198.58974345, 4187.56410243, 4182.69230756, 4129.61538434, 4124.10256383, 4127.17948691, 4134.48717921, 4198.20512807,8.57
4127.56410229, 4126.92307665, 4131.79487152, 4130.25640998, 4123.71794844, 4187.05128192, 4192.05128192, 4178.58974345, 4173.97435884, 4130.12820485, 4131.79487152, 4137.56410236, 4138.84615364, 4196.28205115,8.57
4119.99999973, 4124.35897408, 4124.87179460, 4118.20512793, 4118.33333306, 4176.15384602, 4181.79487166, 4172.17948704, 4161.02564082, 4128.58974332, 4129.87179460, 4126.28205101, 4129.74358947, 4194.23076910,8.57
4125.38461511, 4124.99999973, 4130.76923050, 4120.38461511, 4124.48717921, 4165.89743569, 4174.23076910, 4164.74358954, 4147.94871774, 4129.23076896, 4128.71794844, 4129.87179460, 4132.05128178, 4204.10256404,8.57
4123.07692280, 4121.41025614, 4126.41025614, 4124.48717921, 4124.61538434, 4164.99999980, 4173.58974345, 4158.84615364, 4146.28205108, 4128.07692280, 4128.84615357, 4130.89743562, 4133.33333306, 4198.20512807,8.57
4119.48717921, 4126.66666639, 4122.56410229, 4124.10256383, 4119.48717921, 4169.35897422, 4174.23076910, 4160.64102544, 4154.10256390, 4127.56410229, 4126.79487152, 4126.28205101, 4127.82051255, 4194.10256397,8.57
4126.53846126, 4134.61538434, 4129.99999973, 4125.38461511, 4126.53846126, 4175.51282038, 4180.76923063, 4176.02564089, 4169.87179474, 4130.64102537, 4129.48717921, 4136.53846133, 4134.74358947, 4201.28205122,8.57
4122.30769203, 4125.38461511, 4122.69230742, 4119.74358947, 4128.71794844, 4179.48717935, 4191.66666653, 4189.35897422, 4187.17948704, 4129.48717921, 4127.94871767, 4122.82051255, 4131.28205101, 4195.51282038,8.57
4130.12820485, 4126.02564075, 4128.97435870, 4125.89743562, 4124.87179460, 4171.02564089, 4185.89743576, 4183.58974345, 4181.28205115, 4128.71794844, 4129.99999973, 4126.79487152, 4130.76923050, 4193.84615371,8.57
4121.15384588, 4124.61538434, 4122.30769203, 4123.58974332, 4123.07692280, 4160.25641005, 4174.35897422, 4173.71794858, 4168.58974345, 4130.89743562, 4130.76923050, 4128.07692280, 4133.46153819, 4192.30769217,8.57
4115.25640998, 4125.25640998, 4118.58974332, 4119.35897408, 4123.97435870, 4166.02564082, 4182.94871781, 4176.79487166, 4175.76923063, 4130.12820485, 4127.43589716, 4117.94871767, 4126.92307665, 4195.38461525,8.57
4127.69230742, 4133.58974332, 4131.53846126, 4125.25640998, 4124.87179460, 4164.35897415, 4183.07692294, 4170.12820499, 4165.51282031, 4129.35897408, 4132.30769203, 4129.61538434, 4128.46153819, 4198.20512807,8.57
4117.30769203, 4121.79487152, 4118.46153819, 4118.71794844, 4120.89743562, 4151.28205108, 4167.56410236, 4153.46153826, 4137.43589723, 4130.89743562, 4131.02564075, 4119.87179460, 4130.25640998, 4191.66666653,8.57
4123.20512793, 4124.61538434, 4126.79487152, 4126.28205101, 4124.10256383, 4172.43589730, 4187.94871781, 4173.97435884, 4158.33333313, 4130.12820485, 4130.89743562, 4122.94871767, 4133.33333306, 4196.66666653,8.57
4124.10256383, 4131.66666639, 4134.99999973, 4132.30769203, 4128.33333306, 4208.20512814, 4227.94871788, 4214.35897429, 4203.07692301, 4128.20512793, 4133.71794844, 4132.43589716, 4133.84615357, 4196.79487166,8.57
4117.43589716, 4122.17948691, 4119.23076896, 4121.79487152, 4125.38461511, 4205.89743583, 4224.99999993, 4215.25641019, 4202.17948711, 4129.10256383, 4129.87179460, 4124.99999973, 4130.76923050, 4195.25641012,8.57
4133.46153819, 4125.64102537, 4126.79487152, 4127.82051255, 4126.28205101, 4190.76923063, 4204.74358968, 4196.79487166, 4182.17948704, 4129.74358947, 4133.07692280, 4138.58974339, 4135.76923056, 4198.58974345,8.57
4120.12820485, 4124.35897408, 4121.79487152, 4128.71794844, 4122.30769203, 4192.05128192, 4206.02564096, 4200.89743576, 4191.79487166, 4127.82051255, 4130.12820485, 4129.35897408, 4129.87179460, 4192.82051269,8.57
4116.79487152, 4125.12820485, 4121.02564075, 4125.25640998, 4121.79487152, 4189.87179474, 4203.46153840, 4205.76923070, 4208.84615378, 4128.33333306, 4127.82051255, 4124.61538434, 4130.38461511, 4199.48717935,8.57
4132.82051255, 4129.10256383, 4129.74358947, 4125.76923050, 4126.15384588, 4187.69230756, 4197.43589730, 4197.43589730, 4199.35897422, 4129.87179460, 4132.05128178, 4134.61538434, 4138.07692287, 4200.25641012,8.57
4121.28205101, 4123.07692280, 4119.48717921, 4118.97435870, 4123.33333306, 4193.33333320, 4205.51282045, 4203.20512814, 4195.89743576, 4129.10256383, 4129.23076896, 4121.02564075, 4132.69230742, 4192.05128192,8.57
4123.97435870, 4129.74358947, 4127.56410229, 4124.48717921, 4124.61538434, 4188.20512807, 4201.28205122, 4200.25641012, 4196.53846140, 4128.84615357, 4133.20512793, 4130.76923050, 4134.99999973, 4199.23076910,8.57
4121.53846126, 4127.05128178, 4122.69230742, 4123.46153819, 4123.33333306, 4188.71794858, 4193.46153833, 4180.89743576, 4176.41025628, 4129.87179460, 4132.30769203, 4128.71794844, 4131.79487152, 4198.20512807,8.57
4118.58974332, 4121.41025614, 4116.28205101, 4118.58974332, 4122.56410229, 4205.51282045, 4208.33333327, 4186.79487166, 4171.41025628, 4130.25640998, 4128.46153819, 4121.28205101, 4126.66666639, 4197.69230756,8.57
4130.64102537, 4128.46153819, 4129.87179460, 4125.89743562, 4126.92307665, 4204.35897429, 4213.97435891, 4204.61538455, 4192.69230756, 4130.12820485, 4132.43589716, 4130.64102537, 4132.69230742, 4198.07692294,8.57
4120.38461511, 4121.79487152, 4120.89743562, 4121.41025614, 4124.87179460, 4186.15384602, 4196.02564089, 4196.92307679, 4192.82051269, 4128.84615357, 4129.99999973, 4117.56410229, 4130.25640998, 4192.17948704,8.57
4124.10256383, 4121.53846126, 4124.35897408, 4123.07692280, 4126.15384588, 4175.25641012, 4182.94871781, 4180.51282038, 4172.94871781, 4130.38461511, 4132.94871767, 4127.17948691, 4130.38461511, 4196.02564089,8.57
4123.71794844, 4125.38461511, 4127.69230742, 4126.53846126, 4126.28205101, 4174.87179474, 4185.76923063, 4182.30769217, 4178.46153833, 4132.17948691, 4132.17948691, 4130.64102537, 4130.76923050, 4193.58974345,8.57
4117.43589716, 4123.46153819, 4122.56410229, 4124.48717921, 4123.58974332, 4184.87179474, 4195.64102551, 4194.61538448, 4197.43589730, 4128.46153819, 4129.23076896, 4121.15384588, 4131.53846126, 4193.71794858,8.57
4132.30769203, 4129.74358947, 4128.58974332, 4128.58974332, 4126.53846126, 4195.76923063, 4206.02564096, 4201.79487173, 4199.99999986, 4126.15384588, 4133.33333306, 4132.05128178, 4136.28205108, 4194.61538448,8.57
4124.23076896, 4124.99999973, 4118.46153819, 4121.79487152, 4125.76923050, 4194.87179474, 4206.92307686, 4201.28205122, 4196.28205115, 4127.30769203, 4128.84615357, 4123.97435870, 4130.12820485, 4189.99999986,8.57
4123.97435870, 4123.84615357, 4125.38461511, 4124.61538434, 4124.87179460, 4187.30769217, 4201.41025634, 4202.69230763, 4202.94871788, 4129.87179460, 4129.10256383, 4130.64102537, 4134.99999973, 4199.87179474,8.57
4126.66666639, 4127.17948691, 4129.35897408, 4127.05128178, 4124.99999973, 4185.38461525, 4197.56410243, 4202.17948711, 4208.20512814, 4127.82051255, 4131.79487152, 4134.74358947, 4137.17948697, 4199.99999986,8.57
4117.56410229, 4124.87179460, 4117.43589716, 4119.61538434, 4123.20512793, 4180.89743576, 4190.25641012, 4188.58974345, 4192.17948704, 4124.35897408, 4130.25640998, 4122.05128178, 4130.12820485, 4197.30769217,8.57
4123.46153819, 4128.71794844, 4124.61538434, 4124.35897408, 4123.20512793, 4176.02564089, 4186.28205115, 4188.97435884, 4192.94871781, 4127.69230742, 4134.10256383, 4133.84615357, 4136.02564082, 4202.43589737,8.57
4118.33333306, 4126.02564075, 4123.46153819, 4122.43589716, 4121.15384588, 4178.07692294, 4189.87179474, 4200.12820499, 4206.41025634, 4128.58974332, 4130.12820485, 4126.28205101, 4133.33333306, 4196.02564089,8.57
4122.43589716, 4127.43589716, 4127.17948691, 4122.94871767, 4122.69230742, 4174.35897422, 4183.97435884, 4185.51282038, 4184.87179474, 4126.53846126, 4127.82051255, 4124.10256383, 4132.17948691, 4195.76923063,8.57
4122.30769203, 4124.35897408, 4124.74358947, 4125.89743562, 4122.82051255, 4169.10256397, 4175.64102551, 4172.69230756, 4169.99999986, 4128.46153819, 4131.28205101, 4129.35897408, 4133.84615357, 4194.10256397,8.57
4118.07692280, 4118.97435870, 4119.87179460, 4122.05128178, 4123.07692280, 4176.15384602, 4187.30769217, 4190.64102551, 4194.87179474, 4128.58974332, 4130.25640998, 4122.56410229, 4129.35897408, 4192.43589730,8.57
4130.89743562, 4129.61538434, 4134.99999973, 4126.92307665, 4128.58974332, 4181.28205115, 4196.41025628, 4199.23076910, 4204.23076917, 4126.53846126, 4130.76923050, 4131.53846126, 4133.07692280, 4196.28205115,8.57
4119.61538434, 4126.79487152, 4124.35897408, 4121.53846126, 4125.25640998, 4171.28205115, 4181.79487166, 4187.30769217, 4189.48717935, 4126.79487152, 4126.15384588, 4123.33333306, 4128.07692280, 4191.02564089,8.57
4120.12820485, 4124.74358947, 4123.46153819, 4118.97435870, 4123.71794844, 4164.10256390, 4174.74358961, 4181.53846140, 4189.23076910, 4127.56410229, 4128.71794844, 4128.33333306, 4129.10256383, 4193.07692294,8.57
4124.61538434, 4125.76923050, 4130.64102537, 4122.94871767, 4124.87179460, 4167.30769210, 4182.43589730, 4173.97435884, 4188.71794858, 4127.56410229, 4133.71794844, 4136.15384595, 4134.74358947, 4193.84615371,8.57
4115.51282024, 4120.64102537, 4121.02564075, 4122.69230742, 4123.58974332, 4165.64102544, 4181.15384602, 4164.23076903, 4176.53846140, 4128.20512793, 4128.84615357, 4121.28205101, 4129.87179460, 4194.10256397,8.57
4123.97435870, 4125.76923050, 4126.53846126, 4128.58974332, 4125.89743562, 4161.41025621, 4169.74358961, 4159.74358954, 4168.20512807, 4128.71794844, 4132.56410229, 4133.58974332, 4133.71794844, 4199.74358961,8.57
4123.97435870, 4125.76923050, 4126.53846126, 4128.58974332, 4125.89743562, 4161.41025621, 4169.74358961, 4159.74358954, 4168.20512807, 4128.71794844, 4132.56410229, 4133.58974332, 4133.71794844, 4199.74358961,8.57
4117.69230742, 4122.43589716, 4121.15384588, 4122.82051255, 4122.56410229, 4166.92307672, 4171.66666653, 4165.38461518, 4175.89743576, 4127.82051255, 4132.43589716, 4130.12820485, 4132.94871767, 4194.23076910,8.57
4122.17948691, 4123.97435870, 4123.58974332, 4123.33333306, 4123.58974332, 4180.12820499, 4192.82051269, 4194.48717935, 4204.48717942, 4129.61538434, 4135.38461518, 4128.46153819, 4133.58974332, 4197.05128192,8.57
4127.56410229, 4126.92307665, 4126.53846126, 4130.51282024, 4125.38461511, 4187.56410243, 4205.89743583, 4215.25641019, 4222.82051275, 4130.51282024, 4141.15384595, 4138.84615364, 4137.30769210, 4199.48717935,8.57
4115.51282024, 4120.51282024, 4114.74358947, 4122.43589716, 4118.97435870, 4180.12820499, 4189.48717935, 4197.94871781, 4212.43589737, 4126.66666639, 4135.25640998, 4124.87179460, 4130.12820485, 4196.28205115,8.57
4129.61538434, 4127.43589716, 4124.10256383, 4121.66666639, 4121.41025614, 4167.17948697, 4171.92307679, 4182.05128192, 4199.61538448, 4126.79487152, 4139.23076903, 4132.56410229, 4132.56410229, 4200.38461525,8.57
4124.99999973, 4124.61538434, 4116.15384588, 4119.87179460, 4123.58974332, 4173.33333320, 4184.61538448, 4191.28205115, 4193.97435884, 4130.25640998, 4140.64102544, 4129.10256383, 4134.23076896, 4194.61538448,8.57
4117.05128178, 4120.76923050, 4116.28205101, 4123.71794844, 4121.79487152, 4188.71794858, 4197.30769217, 4192.56410243, 4185.76923063, 4129.10256383, 4134.99999973, 4123.07692280, 4133.71794844, 4195.76923063,8.57
4125.89743562, 4124.87179460, 4127.05128178, 4126.41025614, 4121.92307665, 4179.23076910, 4180.25641012, 4178.46153833, 4176.02564089, 4127.43589716, 4134.61538434, 4134.61538434, 4134.87179460, 4198.71794858,8.57
4117.94871767, 4117.17948691, 4113.97435870, 4116.15384588, 4120.25640998, 4158.07692287, 4161.79487159, 4162.56410236, 4163.97435877, 4127.56410229, 4127.69230742, 4122.43589716, 4128.33333306, 4192.05128192,8.57
4122.94871767, 4121.53846126, 4122.82051255, 4123.84615357, 4124.74358947, 4160.89743569, 4169.10256397, 4160.25641005, 4164.10256390, 4128.07692280, 4128.71794844, 4128.84615357, 4132.17948691, 4196.28205115,8.57
4118.84615357, 4125.12820485, 4124.99999973, 4125.25640998, 4126.02564075, 4171.15384602, 4178.20512807, 4171.28205115, 4180.38461525, 4129.61538434, 4130.89743562, 4128.71794844, 4132.56410229, 4194.23076910,8.57
4122.17948691, 4126.15384588, 4122.94871767, 4121.02564075, 4123.33333306, 4153.07692287, 4155.64102544, 4158.46153826, 4169.48717935, 4129.35897408, 4126.15384588, 4122.69230742, 4129.74358947, 4192.43589730,8.57
4132.17948691, 4128.20512793, 4129.87179460, 4125.76923050, 4125.51282024, 4137.56410236, 4145.25641005, 4150.12820492, 4161.15384595, 4126.66666639, 4129.99999973, 4136.41025621, 4134.87179460, 4192.94871781,8.57
4116.53846126, 4120.12820485, 4117.56410229, 4119.99999973, 4124.87179460, 4171.02564089, 4189.10256397, 4190.51282038, 4197.05128192, 4127.94871767, 4131.15384588, 4126.79487152, 4132.82051255, 4191.66666653,8.57
4128.58974332, 4127.43589716, 4127.30769203, 4124.61538434, 4126.02564075, 4201.79487173, 4218.97435891, 4214.10256404, 4212.82051275, 4130.38461511, 4131.53846126, 4133.97435870, 4136.41025621, 4198.71794858,8.57
4129.35897408, 4126.02564075, 4127.82051255, 4125.51282024, 4124.10256383, 4183.46153833, 4197.94871781, 4190.89743576, 4191.92307679, 4128.07692280, 4133.46153819, 4138.20512800, 4132.82051255, 4194.10256397,8.57
4119.23076896, 4121.02564075, 4118.84615357, 4121.41025614, 4121.15384588, 4165.38461518, 4189.23076910, 4184.87179474, 4196.79487166, 4126.28205101, 4133.46153819, 4128.58974332, 4124.35897408, 4193.84615371,8.57
4128.46153819, 4128.71794844, 4128.58974332, 4126.15384588, 4123.97435870, 4174.10256397, 4199.23076910, 4189.87179474, 4202.05128199, 4131.41025614, 4134.48717921, 4138.71794851, 4134.99999973, 4201.02564096,8.57
4118.20512793, 4121.79487152, 4119.23076896, 4120.64102537, 4120.76923050, 4173.84615371, 4188.33333320, 4166.79487159, 4172.30769217, 4132.17948691, 4129.23076896, 4127.56410229, 4133.46153819, 4196.02564089,8.57
4124.23076896, 4125.12820485, 4124.48717921, 4125.25640998, 4122.69230742, 4163.84615364, 4175.76923063, 4153.71794851, 4158.58974339, 4127.05128178, 4130.76923050, 4129.99999973, 4128.58974332, 4195.64102551,8.57
4126.02564075, 4124.87179460, 4126.79487152, 4126.53846126, 4125.12820485, 4166.92307672, 4182.43589730, 4174.23076910, 4179.23076910, 4127.30769203, 4132.82051255, 4134.48717921, 4133.97435870, 4189.87179474,8.57
4118.84615357, 4119.35897408, 4118.46153819, 4121.53846126, 4120.25640998, 4168.46153833, 4184.23076910, 4187.05128192, 4189.99999986, 4130.76923050, 4127.94871767, 4122.30769203, 4129.87179460, 4191.28205115,8.57
4125.25640998, 4125.76923050, 4127.82051255, 4129.10256383, 4125.25640998, 4156.53846133, 4175.76923063, 4180.25641012, 4185.25641012, 4131.41025614, 4131.15384588, 4133.71794844, 4130.51282024, 4201.02564096,8.57
4115.89743562, 4118.07692280, 4120.89743562, 4123.71794844, 4127.17948691, 4160.38461518, 4180.51282038, 4187.43589730, 4186.79487166, 4129.35897408, 4128.46153819, 4126.66666639, 4129.99999973, 4190.12820499,8.57
4124.87179460, 4121.66666639, 4126.15384588, 4123.71794844, 4124.61538434, 4167.94871774, 4182.30769217, 4189.23076910, 4176.02564089, 4128.84615357, 4126.15384588, 4125.12820485, 4132.17948691, 4188.33333320,8.57
4128.58974332, 4126.53846126, 4127.82051255, 4126.66666639, 4124.35897408, 4148.33333313, 4161.41025621, 4162.17948697, 4150.76923056, 4130.64102537, 4128.46153819, 4131.41025614, 4135.25640998, 4195.64102551,8.57
4121.02564075, 4121.92307665, 4117.82051255, 4122.43589716, 4124.10256383, 4140.76923056, 4159.61538441, 4156.15384595, 4155.76923056, 4129.10256383, 4122.17948691, 4119.35897408, 4127.30769203, 4193.20512807,8.57
4130.76923050, 4126.66666639, 4128.71794844, 4127.30769203, 4126.15384588, 4169.23076910, 4188.33333320, 4177.69230756, 4176.28205115, 4126.92307665, 4125.64102537, 4133.58974332, 4130.38461511, 4194.10256397,8.57
4118.33333306, 4119.35897408, 4119.61538434, 4122.05128178, 4122.05128178, 4183.07692294, 4196.28205115, 4181.41025628, 4178.84615371, 4127.69230742, 4129.61538434, 4132.82051255, 4131.02564075, 4195.64102551,8.57
4119.74358947, 4122.43589716, 4122.94871767, 4124.23076896, 4121.79487152, 4163.33333313, 4179.48717935, 4171.66666653, 4177.05128192, 4127.56410229, 4130.64102537, 4129.48717921, 4133.07692280, 4200.89743576,8.57
4124.74358947, 4125.89743562, 4130.89743562, 4125.64102537, 4125.64102537, 4161.15384595, 4182.69230756, 4178.46153833, 4188.20512807, 4125.76923050, 4132.94871767, 4141.15384595, 4140.64102544, 4198.07692294,8.57
4113.71794844, 4118.46153819, 4116.79487152, 4119.48717921, 4123.07692280, 4182.69230756, 4203.33333327, 4197.56410243, 4202.82051275, 4127.05128178, 4126.28205101, 4127.82051255, 4134.23076896, 4193.97435884,8.57
4128.46153819, 4127.17948691, 4125.76923050, 4128.97435870, 4124.87179460, 4182.17948704, 4201.53846147, 4200.12820499, 4202.69230763, 4129.87179460, 4130.38461511, 4133.20512793, 4135.38461518, 4202.82051275,8.57
4124.87179460, 4125.76923050, 4124.35897408, 4123.33333306, 4123.58974332, 4168.07692287, 4186.53846140, 4184.10256397, 4191.53846140, 4128.71794844, 4131.53846126, 4132.05128178, 4135.25640998, 4196.02564089,8.57
4118.20512793, 4123.07692280, 4121.92307665, 4119.87179460, 4123.97435870, 4164.61538441, 4181.79487166, 4171.92307679, 4180.25641012, 4128.07692280, 4123.46153819, 4122.43589716, 4129.48717921, 4195.76923063,8.57
4126.53846126, 4124.74358947, 4127.94871767, 4126.53846126, 4126.92307665, 4160.12820492, 4172.94871781, 4161.79487159, 4157.82051262, 4130.64102537, 4125.38461511, 4134.61538434, 4132.05128178, 4202.17948711,8.57
4116.79487152, 4119.74358947, 4117.05128178, 4121.15384588, 4119.23076896, 4150.64102544, 4165.25641005, 4153.46153826, 4144.48717928, 4129.74358947, 4125.89743562, 4126.15384588, 4128.71794844, 4192.30769217,8.57
4123.71794844, 4128.97435870, 4124.74358947, 4127.05128178, 4120.51282024, 4154.48717928, 4178.84615371, 4168.20512807, 4174.87179474, 4128.97435870, 4127.43589716, 4131.15384588, 4131.41025614, 4193.07692294,8.57
4124.74358947, 4124.10256383, 4124.74358947, 4124.10256383, 4125.25640998, 4164.61538441, 4191.92307679, 4187.56410243, 4207.56410250, 4130.25640998, 4124.87179460, 4131.53846126, 4133.58974332, 4194.10256397,8.57
4116.66666639, 4117.82051255, 4117.94871767, 4119.48717921, 4120.51282024, 4158.97435877, 4182.69230756, 4179.99999986, 4190.89743576, 4129.23076896, 4123.07692280, 4119.61538434, 4128.46153819, 4194.35897422,8.57
4125.76923050, 4130.76923050, 4128.71794844, 4129.61538434, 4123.33333306, 4152.56410236, 4177.43589730, 4174.35897422, 4170.64102551, 4127.43589716, 4127.69230742, 4131.28205101, 4131.79487152, 4197.05128192,8.57
4118.07692280, 4123.84615357, 4120.64102537, 4121.15384588, 4125.51282024, 4158.97435877, 4185.25641012, 4182.30769217, 4178.84615371, 4127.43589716, 4122.30769203, 4124.23076896, 4129.99999973, 4190.51282038,8.57
4118.71794844, 4120.89743562, 4123.46153819, 4117.94871767, 4123.71794844, 4160.89743569, 4183.20512807, 4172.94871781, 4173.97435884, 4129.23076896, 4125.25640998, 4127.94871767, 4129.99999973, 4193.97435884,8.57
4124.48717921, 4128.07692280, 4129.87179460, 4124.23076896, 4124.48717921, 4156.28205108, 4177.43589730, 4159.61538441, 4157.94871774, 4128.97435870, 4131.53846126, 4135.38461518, 4130.25640998, 4196.79487166,8.57
4117.94871767, 4123.20512793, 4118.97435870, 4122.82051255, 4120.64102537, 4155.76923056, 4179.61538448, 4166.92307672, 4164.48717928, 4129.35897408, 4127.82051255, 4129.48717921, 4126.53846126, 4195.25641012,8.57
4126.28205101, 4125.89743562, 4126.15384588, 4124.87179460, 4119.99999973, 4152.82051262, 4177.94871781, 4169.48717935, 4168.20512807, 4129.48717921, 4131.79487152, 4140.64102544, 4133.20512793, 4197.56410243,8.57
4124.48717921, 4124.61538434, 4126.79487152, 4120.12820485, 4122.69230742, 4144.35897415, 4168.84615371, 4156.53846133, 4158.33333313, 4127.69230742, 4128.07692280, 4128.58974332, 4129.99999973, 4196.28205115,8.57
4124.35897408, 4122.30769203, 4127.43589716, 4120.89743562, 4124.35897408, 4146.28205108, 4173.58974345, 4160.89743569, 4168.20512807, 4128.71794844, 4123.58974332, 4129.23076896, 4129.23076896, 4202.05128199,8.57
4126.66666639, 4124.87179460, 4128.58974332, 4126.53846126, 4124.61538434, 4154.99999980, 4180.76923063, 4174.87179474, 4186.92307679, 4129.61538434, 4126.79487152, 4137.69230749, 4135.12820485, 4198.46153833,8.57
4117.43589716, 4122.43589716, 4120.12820485, 4121.02564075, 4122.43589716, 4158.84615364, 4174.23076910, 4170.12820499, 4183.20512807, 4128.20512793, 4125.38461511, 4124.23076896, 4131.02564075, 4192.17948704,8.57
4122.43589716, 4125.51282024, 4127.82051255, 4122.82051255, 4124.61538434, 4170.51282038, 4180.76923063, 4168.58974345, 4179.87179474, 4129.10256383, 4128.84615357, 4132.30769203, 4132.43589716, 4196.79487166,8.57
4117.82051255, 4123.58974332, 4122.17948691, 4122.56410229, 4121.79487152, 4183.33333320, 4197.94871781, 4182.30769217, 4190.25641012, 4129.10256383, 4129.23076896, 4125.25640998, 4128.84615357, 4191.41025628,8.57
4120.25640998, 4122.30769203, 4120.12820485, 4122.43589716, 4119.74358947, 4170.64102551, 4187.82051269, 4176.66666653, 4179.87179474, 4127.94871767, 4127.30769203, 4122.69230742, 4126.66666639, 4194.61538448,8.57
4124.61538434, 4122.69230742, 4124.35897408, 4124.48717921, 4126.41025614, 4152.43589723, 4168.33333320, 4159.23076903, 4157.30769210, 4129.87179460, 4128.07692280, 4132.94871767, 4128.97435870, 4197.05128192,8.57
4115.89743562, 4119.48717921, 4116.15384588, 4120.38461511, 4127.05128178, 4165.12820492, 4186.41025628, 4176.15384602, 4174.35897422, 4129.87179460, 4126.02564075, 4123.58974332, 4126.15384588, 4189.48717935,8.57
4127.05128178, 4127.82051255, 4126.53846126, 4126.92307665, 4125.12820485, 4187.56410243, 4212.56410250, 4203.07692301, 4204.61538455, 4128.46153819, 4133.20512793, 4133.71794844, 4134.10256383, 4192.56410243,8.57
4122.94871767, 4125.51282024, 4124.61538434, 4127.43589716, 4123.58974332, 4191.28205115, 4210.76923070, 4204.74358968, 4206.53846147, 4129.23076896, 4133.46153819, 4127.30769203, 4131.28205101, 4192.94871781,8.57
4123.58974332, 4123.33333306, 4125.51282024, 4123.84615357, 4125.64102537, 4185.51282038, 4208.58974352, 4206.41025634, 4208.97435891, 4129.99999973, 4128.97435870, 4119.48717921, 4126.53846126, 4196.15384602,8.57
4131.53846126, 4128.58974332, 4131.92307665, 4125.64102537, 4126.66666639, 4183.71794858, 4212.56410250, 4211.28205122, 4217.43589737, 4129.99999973, 4133.07692280, 4132.17948691, 4133.58974332, 4196.53846140,8.57
4119.99999973, 4121.66666639, 4116.92307665, 4120.64102537, 4121.79487152, 4187.69230756, 4210.64102558, 4198.97435884, 4198.20512807, 4127.30769203, 4129.87179460, 4122.17948691, 4131.15384588, 4192.56410243,8.57
4127.69230742, 4123.46153819, 4123.46153819, 4124.74358947, 4124.23076896, 4195.38461525, 4213.46153840, 4196.92307679, 4185.64102551, 4126.02564075, 4130.89743562, 4129.61538434, 4132.56410229, 4196.79487166,8.57
4123.58974332, 4122.69230742, 4124.10256383, 4123.84615357, 4123.71794844, 4196.28205115, 4218.58974352, 4214.61538455, 4213.58974352, 4129.35897408, 4132.30769203, 4131.15384588, 4131.41025614, 4192.69230756,8.57
4120.51282024, 4122.05128178, 4121.41025614, 4121.79487152, 4123.58974332, 4188.84615371, 4213.58974352, 4212.56410250, 4226.02564096, 4130.51282024, 4127.82051255, 4121.28205101, 4128.46153819, 4196.79487166,8.57
4126.02564075, 4124.87179460, 4126.41025614, 4129.10256383, 4125.89743562, 4192.94871781, 4213.46153840, 4199.35897422, 4205.76923070, 4129.48717921, 4128.58974332, 4130.25640998, 4132.43589716, 4200.38461525,8.57
4114.10256383, 4119.23076896, 4115.38461511, 4123.71794844, 4121.41025614, 4203.97435891, 4223.20512814, 4203.97435891, 4201.02564096, 4129.48717921, 4126.66666639, 4122.17948691, 4128.20512793, 4191.66666653,8.57
4126.92307665, 4125.38461511, 4125.76923050, 4123.46153819, 4125.38461511, 4202.56410250, 4222.94871788, 4212.69230763, 4214.48717942, 4128.97435870, 4129.48717921, 4127.69230742, 4132.17948691, 4194.48717935,8.57
4125.64102537, 4122.30769203, 4123.46153819, 4123.46153819, 4125.76923050, 4196.53846140, 4219.61538455, 4208.97435891, 4212.17948711, 4128.84615357, 4129.23076896, 4126.66666639, 4134.48717921, 4190.12820499,8.57
4119.23076896, 4118.58974332, 4116.02564075, 4121.41025614, 4122.69230742, 4204.10256404, 4226.41025634, 4210.51282045, 4211.02564096, 4127.94871767, 4124.99999973, 4115.64102537, 4130.51282024, 4190.38461525,8.57
4130.25640998, 4127.94871767, 4129.10256383, 4128.20512793, 4124.99999973, 4221.53846147, 4242.17948718, 4231.15384609, 4234.87179488, 4126.41025614, 4131.15384588, 4130.51282024, 4136.66666646, 4198.71794858,8.57
4117.30769203, 4121.53846126, 4119.74358947, 4124.35897408, 4122.30769203, 4232.69230763, 4253.58974359, 4243.58974359, 4251.53846154, 4126.92307665, 4130.64102537, 4122.43589716, 4131.66666639, 4190.51282038,8.57
4125.12820485, 4124.10256383, 4126.41025614, 4126.41025614, 4127.05128178, 4220.51282045, 4241.15384616, 4223.97435891, 4235.76923077, 4128.46153819, 4130.89743562, 4124.48717921, 4130.51282024, 4191.15384602,8.57
4127.05128178, 4125.64102537, 4128.46153819, 4126.53846126, 4125.51282024, 4201.15384609, 4220.64102558, 4206.79487173, 4219.10256404, 4128.97435870, 4135.64102544, 4133.46153819, 4135.25640998, 4192.17948704,8.57
4117.56410229, 4120.89743562, 4116.02564075, 4120.89743562, 4121.41025614, 4204.23076917, 4223.97435891, 4217.43589737, 4226.92307686, 4127.82051255, 4131.66666639, 4120.64102537, 4130.12820485, 4189.99999986,8.57
4135.89743569, 4128.71794844, 4129.10256383, 4129.87179460, 4129.48717921, 4215.89743583, 4237.43589744, 4229.35897429, 4238.58974359, 4128.33333306, 4133.07692280, 4133.33333306, 4134.23076896, 4197.17948704,8.57
4124.35897408, 4122.43589716, 4122.82051255, 4127.05128178, 4126.79487152, 4216.41025634, 4239.74358975, 4233.46153840, 4241.15384616, 4127.05128178, 4131.79487152, 4130.76923050, 4133.07692280, 4197.69230756,8.57
4121.41025614, 4122.30769203, 4124.48717921, 4124.74358947, 4122.82051255, 4213.46153840, 4239.23076923, 4234.10256411, 4233.71794865, 4123.97435870, 4129.48717921, 4125.12820485, 4131.92307665, 4199.10256397,8.57
4131.66666639, 4128.33333306, 4131.15384588, 4127.30769203, 4122.43589716, 4214.74358968, 4243.84615385, 4231.28205122, 4225.38461532, 4126.41025614, 4131.53846126, 4135.51282031, 4134.99999973, 4196.53846140,8.57
4117.43589716, 4119.48717921, 4116.02564075, 4118.20512793, 4118.84615357, 4211.02564096, 4245.12820513, 4235.76923077, 4235.89743590, 4129.99999973, 4127.56410229, 4121.66666639, 4128.33333306, 4191.41025628,8.57
4126.28205101, 4121.41025614, 4129.48717921, 4123.20512793, 4122.05128178, 4199.10256397, 4237.17948718, 4240.38461539, 4246.41025641, 4129.48717921, 4131.41025614, 4129.61538434, 4136.15384595, 4197.43589730,8.57
4122.17948691, 4121.28205101, 4126.79487152, 4125.25640998, 4120.89743562, 4195.25641012, 4229.48717942, 4232.69230763, 4240.25641026, 4126.66666639, 4130.25640998, 4130.12820485, 4137.56410236, 4192.69230756,8.57
4113.33333306, 4118.71794844, 4114.48717921, 4120.12820485, 4122.30769203, 4202.56410250, 4229.35897429, 4220.76923070, 4225.12820506, 4126.53846126, 4126.66666639, 4116.66666639, 4128.20512793, 4193.07692294,8.57
4128.20512793, 4125.76923050, 4126.92307665, 4126.79487152, 4128.20512793, 4199.35897422, 4226.02564096, 4208.71794865, 4206.92307686, 4128.46153819, 4132.43589716, 4130.76923050, 4135.76923056, 4199.99999986,8.57
4118.71794844, 4120.89743562, 4115.76923050, 4122.82051255, 4125.38461511, 4188.07692294, 4219.99999993, 4209.23076917, 4207.56410250, 4127.30769203, 4128.84615357, 4121.79487152, 4135.12820485, 4191.28205115,8.57
4117.94871767, 4120.89743562, 4117.94871767, 4123.33333306, 4124.10256383, 4190.51282038, 4225.76923070, 4227.17948711, 4228.33333327, 4126.53846126, 4130.64102537, 4126.02564075, 4131.15384588, 4193.71794858,8.57
4121.02564075, 4123.33333306, 4125.76923050, 4127.82051255, 4121.66666639, 4198.84615371, 4233.58974352, 4226.92307686, 4222.17948711, 4126.28205101, 4132.30769203, 4133.71794844, 4129.23076896, 4194.74358961,8.57
4114.87179460, 4117.94871767, 4120.76923050, 4122.17948691, 4121.92307665, 4186.92307679, 4218.71794865, 4198.07692294, 4185.25641012, 4124.61538434, 4124.48717921, 4118.97435870, 4127.43589716, 4190.51282038,8.57
4129.48717921, 4123.84615357, 4133.33333306, 4126.41025614, 4128.58974332, 4173.71794858, 4209.48717942, 4192.69230756, 4183.97435884, 4126.41025614, 4129.87179460, 4131.02564075, 4134.61538434, 4196.41025628,8.57
4120.76923050, 4122.30769203, 4122.05128178, 4122.05128178, 4123.33333306, 4194.10256397, 4236.66666667, 4228.71794865, 4224.35897429, 4127.82051255, 4131.02564075, 4124.74358947, 4130.38461511, 4192.69230756,8.57
4121.41025614, 4122.30769203, 4122.05128178, 4120.38461511, 4118.20512793, 4208.46153840, 4247.43589744, 4233.33333327, 4226.41025634, 4126.28205101, 4129.48717921, 4124.35897408, 4132.56410229, 4193.97435884,8.57
4132.43589716, 4127.69230742, 4133.71794844, 4128.20512793, 4123.07692280, 4184.10256397, 4212.56410250, 4187.69230756, 4181.79487166, 4125.89743562, 4132.30769203, 4134.99999973, 4136.66666646, 4193.58974345,8.57
4116.92307665, 4121.53846126, 4118.84615357, 4121.41025614, 4125.51282024, 4165.25641005, 4189.74358961, 4169.74358961, 4166.41025621, 4127.43589716, 4127.69230742, 4120.89743562, 4127.94871767, 4191.79487166,8.57
4129.10256383, 4124.35897408, 4124.99999973, 4124.74358947, 4124.10256383, 4166.41025621, 4197.43589730, 4189.87179474, 4188.33333320, 4127.94871767, 4129.23076896, 4134.74358947, 4133.33333306, 4201.02564096,8.57
4127.56410229, 4121.02564075, 4121.66666639, 4125.38461511, 4119.87179460, 4164.87179467, 4195.12820499, 4189.48717935, 4191.53846140, 4127.30769203, 4126.79487152, 4132.05128178, 4132.94871767, 4195.38461525,8.57
4117.30769203, 4121.66666639, 4119.48717921, 4122.69230742, 4122.94871767, 4161.02564082, 4181.41025628, 4166.15384595, 4165.76923056, 4127.69230742, 4122.56410229, 4121.92307665, 4127.94871767, 4195.89743576,8.57
4126.92307665, 4130.25640998, 4127.94871767, 4130.25640998, 4126.79487152, 4159.10256390, 4176.53846140, 4157.17948697, 4151.41025621, 4127.69230742, 4125.76923050, 4133.71794844, 4132.56410229, 4198.97435884,8.57
4117.43589716, 4118.07692280, 4116.02564075, 4123.20512793, 4123.58974332, 4154.48717928, 4180.76923063, 4166.15384595, 4163.84615364, 4127.05128178, 4125.76923050, 4122.43589716, 4129.99999973, 4191.92307679,8.57
4123.84615357, 4120.25640998, 4128.84615357, 4122.43589716, 4124.74358947, 4156.53846133, 4184.48717935, 4173.58974345, 4172.82051269, 4128.58974332, 4127.69230742, 4128.71794844, 4131.53846126, 4197.17948704,8.57
4122.43589716, 4127.05128178, 4128.58974332, 4124.48717921, 4123.84615357, 4160.51282031, 4178.71794858, 4164.74358954, 4154.99999980, 4129.23076896, 4123.46153819, 4126.02564075, 4129.35897408, 4192.94871781,8.57
4122.43589716, 4127.05128178, 4128.58974332, 4124.48717921, 4123.84615357, 4160.51282031, 4178.71794858, 4164.74358954, 4154.99999980, 4129.23076896, 4123.46153819, 4126.02564075, 4129.35897408, 4192.94871781,8.57
4119.61538434, 4120.76923050, 4117.82051255, 4125.25640998, 4121.53846126, 4150.51282031, 4166.92307672, 4148.58974339, 4140.38461518, 4129.10256383, 4124.35897408, 4117.17948691, 4127.69230742, 4190.89743576,8.57
4131.02564075, 4124.99999973, 4127.56410229, 4132.56410229, 4123.07692280, 4150.64102544, 4175.64102551, 4163.71794851, 4167.17948697, 4128.58974332, 4131.66666639, 4130.76923050, 4131.66666639, 4194.35897422,8.57
4119.74358947, 4123.46153819, 4119.35897408, 4123.33333306, 4124.87179460, 4168.58974345, 4194.48717935, 4187.30769217, 4190.12820499, 4126.28205101, 4126.79487152, 4119.35897408, 4127.05128178, 4191.92307679,8.57
4126.15384588, 4123.07692280, 4125.76923050, 4123.71794844, 4126.53846126, 4168.58974345, 4188.71794858, 4173.20512807, 4165.64102544, 4127.43589716, 4129.48717921, 4127.56410229, 4130.38461511, 4198.71794858,8.57
4127.17948691, 4124.87179460, 4128.58974332, 4130.12820485, 4123.07692280, 4154.35897415, 4174.61538448, 4154.61538441, 4145.76923056, 4129.10256383, 4129.48717921, 4131.66666639, 4130.89743562, 4196.28205115,8.57
4120.76923050, 4121.79487152, 4122.43589716, 4122.56410229, 4123.58974332, 4150.89743569, 4171.53846140, 4157.05128185, 4155.38461518, 4126.41025614, 4122.69230742, 4123.20512793, 4131.53846126, 4195.89743576,8.57
4130.89743562, 4126.15384588, 4130.25640998, 4125.38461511, 4125.89743562, 4147.17948697, 4166.02564082, 4154.99999980, 4153.97435877, 4125.76923050, 4127.30769203, 4137.56410236, 4138.58974339, 4199.74358961,8.57
4118.20512793, 4121.79487152, 4119.74358947, 4123.33333306, 4121.53846126, 4137.56410236, 4157.94871774, 4148.07692287, 4137.82051262, 4128.33333306, 4128.84615357, 4124.87179460, 4129.10256383, 4197.17948704,8.57
4122.94871767, 4121.28205101, 4124.99999973, 4123.46153819, 4121.66666639, 4133.71794844, 4155.12820492, 4144.48717928, 4129.74358947, 4129.48717921, 4129.23076896, 4128.20512793, 4130.38461511, 4203.84615378,8.57
4128.58974332, 4125.12820485, 4127.94871767, 4126.28205101, 4121.02564075, 4137.94871774, 4155.12820492, 4141.28205108, 4131.02564075, 4128.07692280, 4128.33333306, 4136.28205108, 4135.51282031, 4196.66666653,8.57
4119.48717921, 4120.38461511, 4116.66666639, 4118.33333306, 4122.56410229, 4149.23076903, 4160.76923056, 4149.74358954, 4141.41025621, 4126.28205101, 4126.41025614, 4125.25640998, 4129.23076896, 4190.89743576,8.57
4127.05128178, 4123.71794844, 4126.41025614, 4123.58974332, 4127.17948691, 4143.84615364, 4156.15384595, 4153.84615364, 4146.15384595, 4127.43589716, 4129.35897408, 4131.53846126, 4129.61538434, 4197.69230756,8.57
4117.69230742, 4120.76923050, 4120.12820485, 4124.87179460, 4124.74358947, 4118.46153819, 4134.48717921, 4129.35897408, 4125.76923050, 4128.71794844, 4128.71794844, 4121.53846126, 4128.71794844, 4193.97435884,8.57
4118.71794844, 4121.66666639, 4120.89743562, 4125.25640998, 4126.28205101, 4119.10256383, 4134.10256383, 4124.87179460, 4119.23076896, 4129.35897408, 4132.17948691, 4124.74358947, 4132.05128178, 4195.76923063,8.57
4123.58974332, 4125.89743562, 4125.25640998, 4130.12820485, 4124.48717921, 4138.07692287, 4150.89743569, 4151.79487159, 4144.48717928, 4128.33333306, 4131.02564075, 4126.92307665, 4131.15384588, 4193.07692294,8.57
4119.99999973, 4121.53846126, 4119.23076896, 4124.23076896, 4122.43589716, 4135.12820485, 4149.99999980, 4155.64102544, 4147.82051262, 4128.97435870, 4125.76923050, 4114.99999973, 4126.66666639, 4191.92307679,8.57
4130.12820485, 4126.53846126, 4128.20512793, 4128.07692280, 4126.15384588, 4128.46153819, 4143.84615364, 4146.02564082, 4132.94871767, 4130.51282024, 4130.89743562, 4129.23076896, 4131.53846126, 4198.07692294,8.57
4118.46153819, 4123.46153819, 4119.35897408, 4126.02564075, 4124.35897408, 4132.56410229, 4146.15384595, 4156.15384595, 4149.87179467, 4127.05128178, 4126.41025614, 4122.43589716, 4128.84615357, 4192.30769217,8.57
4122.43589716, 4121.92307665, 4122.82051255, 4123.33333306, 4124.74358947, 4125.76923050, 4138.84615364, 4153.71794851, 4159.10256390, 4126.53846126, 4124.74358947, 4123.33333306, 4131.92307665, 4196.02564089,8.57
4133.07692280, 4127.94871767, 4129.74358947, 4128.84615357, 4124.74358947, 4118.97435870, 4129.35897408, 4127.82051255, 4122.43589716, 4130.25640998, 4129.99999973, 4131.66666639, 4135.25640998, 4198.20512807,8.57
4120.25640998, 4124.48717921, 4119.23076896, 4121.79487152, 4123.33333306, 4126.79487152, 4131.79487152, 4118.84615357, 4102.56410229, 4128.20512793, 4127.56410229, 4118.33333306, 4132.30769203, 4193.97435884,8.57
4126.02564075, 4126.66666639, 4128.84615357, 4123.71794844, 4123.58974332, 4128.97435870, 4133.33333306, 4122.69230742, 4112.56410229, 4124.48717921, 4132.05128178, 4130.25640998, 4138.46153826, 4196.28205115,8.57
4122.69230742, 4122.82051255, 4121.53846126, 4126.28205101, 4122.05128178, 4128.84615357, 4137.94871774, 4120.12820485, 4109.87179460, 4126.02564075, 4132.30769203, 4126.02564075, 4132.43589716, 4196.28205115,8.57
4124.10256383, 4121.15384588, 4119.35897408, 4124.23076896, 4125.76923050, 4132.30769203, 4143.58974339, 4125.51282024, 4113.71794844, 4129.10256383, 4130.51282024, 4123.07692280, 4130.89743562, 4202.17948711,8.57
4127.82051255, 4126.79487152, 4128.84615357, 4126.66666639, 4125.12820485, 4122.05128178, 4134.61538434, 4133.58974332, 4130.89743562, 4130.76923050, 4133.97435870, 4133.33333306, 4135.76923056, 4197.05128192,8.57
4114.61538434, 4120.51282024, 4118.71794844, 4120.89743562, 4121.28205101, 4110.25640998, 4126.79487152, 4132.17948691, 4129.10256383, 4130.51282024, 4131.79487152, 4119.61538434, 4126.66666639, 4192.30769217,8.57
4122.82051255, 4123.20512793, 4123.58974332, 4127.05128178, 4126.15384588, 4117.17948691, 4134.99999973, 4130.51282024, 4121.28205101, 4129.74358947, 4137.56410236, 4127.43589716, 4131.28205101, 4199.48717935,8.57
4119.87179460, 4125.12820485, 4119.87179460, 4130.38461511, 4124.35897408, 4129.23076896, 4139.74358954, 4130.64102537, 4126.53846126, 4129.10256383, 4138.46153826, 4122.82051255, 4135.12820485, 4191.53846140,8.57
4118.46153819, 4121.28205101, 4119.87179460, 4123.84615357, 4123.71794844, 4129.99999973, 4134.61538434, 4123.20512793, 4123.33333306, 4128.71794844, 4133.20512793, 4115.38461511, 4130.38461511, 4192.82051269,8.57
4128.07692280, 4125.12820485, 4129.23076896, 4127.05128178, 4127.94871767, 4123.58974332, 4132.30769203, 4117.17948691, 4113.71794844, 4128.58974332, 4139.35897415, 4128.84615357, 4130.76923050, 4197.56410243,8.57
4118.58974332, 4121.02564075, 4119.23076896, 4122.56410229, 4124.87179460, 4116.79487152, 4130.25640998, 4115.51282024, 4112.69230742, 4127.17948691, 4139.87179467, 4119.99999973, 4128.33333306, 4191.02564089,8.57
4126.66666639, 4124.10256383, 4129.74358947, 4124.61538434, 4124.10256383, 4116.28205101, 4128.33333306, 4114.99999973, 4110.64102537, 4127.56410229, 4138.71794851, 4127.69230742, 4132.94871767, 4194.10256397,8.57
4124.99999973, 4126.15384588, 4128.84615357, 4128.20512793, 4124.61538434, 4122.43589716, 4132.30769203, 4124.10256383, 4112.17948691, 4128.46153819, 4140.38461518, 4127.82051255, 4132.56410229, 4193.07692294,8.57
4119.74358947, 4122.82051255, 4118.20512793, 4123.20512793, 4122.30769203, 4124.10256383, 4137.82051262, 4128.84615357, 4112.05128178, 4128.07692280, 4140.64102544, 4119.48717921, 4130.12820485, 4195.76923063,8.57
4130.38461511, 4128.71794844, 4132.43589716, 4129.23076896, 4122.17948691, 4117.94871767, 4131.15384588, 4113.97435870, 4096.02564068, 4129.23076896, 4143.07692287, 4132.56410229, 4136.53846133, 4198.58974345,8.57
4116.53846126, 4121.28205101, 4122.82051255, 4127.30769203, 4123.46153819, 4115.76923050, 4124.87179460, 4110.12820485, 4095.38461504, 4130.89743562, 4139.10256390, 4121.79487152, 4133.07692280, 4193.84615371,8.57
4122.94871767, 4122.05128178, 4122.94871767, 4126.79487152, 4125.51282024, 4123.46153819, 4132.94871767, 4131.02564075, 4123.84615357, 4130.76923050, 4143.58974339, 4126.41025614, 4135.64102544, 4202.05128199,8.57
4128.97435870, 4127.82051255, 4127.94871767, 4126.41025614, 4124.23076896, 4133.20512793, 4141.02564082, 4138.33333313, 4133.84615357, 4128.33333306, 4146.15384595, 4128.20512793, 4137.56410236, 4200.38461525,8.57
4113.46153819, 4120.64102537, 4116.15384588, 4118.33333306, 4123.71794844, 4129.10256383, 4136.66666646, 4127.82051255, 4115.25640998, 4128.33333306, 4138.71794851, 4114.23076896, 4133.07692280, 4197.30769217,8.57
4125.89743562, 4123.84615357, 4125.12820485, 4126.79487152, 4126.92307665, 4118.97435870, 4132.69230742, 4125.51282024, 4111.79487152, 4130.64102537, 4144.99999980, 4131.53846126, 4138.33333313, 4202.05128199,8.57
4121.53846126, 4121.15384588, 4119.23076896, 4123.07692280, 4120.76923050, 4124.35897408, 4139.10256390, 4132.94871767, 4130.25640998, 4128.20512793, 4147.69230749, 4120.64102537, 4131.79487152, 4194.23076910,8.57
4118.20512793, 4121.92307665, 4119.10256383, 4122.05128178, 4118.84615357, 4133.07692280, 4140.38461518, 4134.61538434, 4138.46153826, 4126.92307665, 4150.25641005, 4115.38461511, 4130.64102537, 4196.41025628,8.57
4125.12820485, 4127.94871767, 4126.66666639, 4131.28205101, 4123.71794844, 4124.74358947, 4131.66666639, 4123.46153819, 4123.46153819, 4129.99999973, 4151.02564082, 4126.02564075, 4136.15384595, 4193.84615371,8.57
