AF3,F7,F3,FC5,T7,P7,O1,O2,P8,T8,FC6,F4,F8,AF4,Label
4122.43589716, 4123.58974332, 4127.05128178, 4121.41025614, 4122.30769203, 4163.46153826, 4184.35897422, 4190.51282038, 4181.92307679, 4129.61538434, 4122.43589716, 4130.38461511, 4131.66666639, 4197.17948704,8.57
4118.84615357, 4120.89743562, 4120.25640998, 4119.10256383, 4116.79487152, 4169.61538448, 4189.23076910, 4188.84615371, 4175.64102551, 4129.61538434, 4121.92307665, 4128.71794844, 4130.38461511, 4197.17948704,8.57
4118.07692280, 4122.82051255, 4117.56410229, 4121.15384588, 4123.20512793, 4166.53846133, 4189.74358961, 4187.56410243, 4181.41025628, 4129.99999973, 4122.82051255, 4129.99999973, 4132.69230742, 4200.64102551,8.57
4119.35897408, 4123.07692280, 4120.64102537, 4121.66666639, 4126.66666639, 4153.84615364, 4183.46153833, 4184.61538448, 4188.84615371, 4128.20512793, 4123.58974332, 4126.41025614, 4132.82051255, 4197.94871781,8.57
4123.58974332, 4122.17948691, 4124.87179460, 4121.02564075, 4121.41025614, 4154.23076903, 4186.15384602, 4184.35897422, 4173.33333320, 4126.15384588, 4121.28205101, 4126.66666639, 4131.53846126, 4197.94871781,8.57
4121.15384588, 4123.97435870, 4121.53846126, 4121.66666639, 4119.99999973, 4158.97435877, 4187.43589730, 4191.41025628, 4164.87179467, 4127.17948691, 4118.84615357, 4129.48717921, 4132.17948691, 4197.56410243,8.57
4114.99999973, 4123.58974332, 4114.87179460, 4123.20512793, 4123.07692280, 4143.71794851, 4169.35897422, 4182.69230756, 4167.30769210, 4128.71794844, 4118.07692280, 4125.89743562, 4130.12820485, 4193.07692294,8.57
4120.76923050, 4121.02564075, 4118.58974332, 4127.56410229, 4123.84615357, 4142.69230749, 4164.99999980, 4167.69230749, 4158.71794851, 4128.46153819, 4122.05128178, 4126.79487152, 4129.99999973, 4195.51282038,8.57
4119.99999973, 4120.64102537, 4119.10256383, 4123.20512793, 4124.23076896, 4165.51282031, 4190.12820499, 4188.71794858, 4175.25641012, 4126.92307665, 4126.28205101, 4125.38461511, 4133.07692280, 4198.20512807,8.57
4115.51282024, 4123.46153819, 4117.17948691, 4118.46153819, 4126.41025614, 4169.61538448, 4203.07692301, 4214.35897429, 4208.07692301, 4128.46153819, 4125.76923050, 4122.17948691, 4133.46153819, 4195.51282038,8.57
4117.94871767, 4122.30769203, 4120.12820485, 4124.10256383, 4125.38461511, 4161.15384595, 4192.94871781, 4199.87179474, 4196.15384602, 4130.12820485, 4123.46153819, 4122.69230742, 4131.79487152, 4194.87179474,8.57
4118.58974332, 4119.99999973, 4119.23076896, 4125.51282024, 4122.30769203, 4162.17948697, 4184.87179474, 4180.25641012, 4172.05128192, 4128.20512793, 4123.20512793, 4121.53846126, 4130.76923050, 4196.53846140,8.57
4120.64102537, 4122.56410229, 4121.79487152, 4122.56410229, 4123.84615357, 4164.10256390, 4185.25641012, 4183.71794858, 4184.99999986, 4126.53846126, 4126.66666639, 4124.35897408, 4132.56410229, 4196.28205115,8.57
4119.23076896, 4123.71794844, 4123.20512793, 4122.82051255, 4125.89743562, 4162.43589723, 4184.99999986, 4181.66666653, 4186.15384602, 4126.79487152, 4126.79487152, 4125.38461511, 4131.15384588, 4193.58974345,8.57
4119.61538434, 4124.35897408, 4123.33333306, 4124.87179460, 4125.12820485, 4160.12820492, 4181.02564089, 4173.46153833, 4160.76923056, 4128.20512793, 4124.23076896, 4123.07692280, 4128.84615357, 4194.10256397,8.57
4121.28205101, 4123.20512793, 4124.99999973, 4122.43589716, 4123.46153819, 4157.17948697, 4185.64102551, 4184.74358961, 4167.30769210, 4127.69230742, 4125.25640998, 4124.23076896, 4131.15384588, 4194.35897422,8.57
4119.74358947, 4121.41025614, 4123.46153819, 4119.10256383, 4123.33333306, 4159.74358954, 4195.51282038, 4200.89743576, 4193.84615371, 4124.87179460, 4124.23076896, 4122.69230742, 4131.92307665, 4192.56410243,8.57
4121.53846126, 4127.17948691, 4125.89743562, 4124.10256383, 4124.61538434, 4165.89743569, 4197.30769217, 4205.12820506, 4196.53846140, 4125.76923050, 4122.30769203, 4122.56410229, 4129.99999973, 4193.20512807,8.57
4116.28205101, 4126.28205101, 4123.33333306, 4124.87179460, 4122.94871767, 4166.66666646, 4193.07692294, 4196.53846140, 4183.97435884, 4129.48717921, 4122.69230742, 4122.17948691, 4131.15384588, 4193.58974345,8.57
4118.07692280, 4124.10256383, 4125.76923050, 4122.17948691, 4122.94871767, 4169.99999986, 4193.84615371, 4187.82051269, 4182.43589730, 4128.71794844, 4126.28205101, 4124.99999973, 4135.64102544, 4197.05128192,8.57
4127.56410229, 4128.07692280, 4131.66666639, 4123.46153819, 4125.89743562, 4169.74358961, 4192.56410243, 4190.89743576, 4191.02564089, 4127.05128178, 4127.56410229, 4131.41025614, 4134.61538434, 4197.69230756,8.57
4121.92307665, 4121.79487152, 4124.10256383, 4121.92307665, 4123.58974332, 4162.56410236, 4183.58974345, 4190.51282038, 4188.33333320, 4128.71794844, 4122.82051255, 4127.05128178, 4129.35897408, 4194.87179474,8.57
4121.15384588, 4121.02564075, 4124.10256383, 4125.12820485, 4121.53846126, 4156.66666646, 4175.38461525, 4173.20512807, 4164.48717928, 4127.82051255, 4122.43589716, 4125.25640998, 4128.97435870, 4197.56410243,8.57
4122.82051255, 4126.41025614, 4125.89743562, 4127.94871767, 4124.10256383, 4150.12820492, 4169.48717935, 4149.10256390, 4134.48717921, 4126.92307665, 4121.28205101, 4126.92307665, 4128.46153819, 4194.74358961,8.57
4121.41025614, 4124.35897408, 4124.87179460, 4126.66666639, 4125.51282024, 4154.61538441, 4179.61538448, 4163.20512800, 4151.15384595, 4129.61538434, 4119.48717921, 4128.20512793, 4128.71794844, 4192.94871781,8.57
4123.97435870, 4123.58974332, 4127.43589716, 4128.20512793, 4123.97435870, 4169.99999986, 4203.07692301, 4207.69230763, 4203.97435891, 4129.61538434, 4124.23076896, 4131.66666639, 4132.56410229, 4198.84615371,8.57
4121.66666639, 4123.97435870, 4123.97435870, 4124.48717921, 4122.43589716, 4174.48717935, 4211.15384609, 4216.02564096, 4216.92307686, 4125.76923050, 4127.43589716, 4126.28205101, 4132.82051255, 4196.53846140,8.57
4124.48717921, 4126.53846126, 4125.89743562, 4124.87179460, 4122.30769203, 4171.28205115, 4206.02564096, 4195.64102551, 4197.82051269, 4126.41025614, 4127.82051255, 4126.28205101, 4131.15384588, 4193.07692294,8.57
4124.10256383, 4124.74358947, 4125.51282024, 4126.79487152, 4122.69230742, 4176.79487166, 4207.94871788, 4204.23076917, 4199.23076910, 4128.71794844, 4127.17948691, 4131.28205101, 4131.02564075, 4196.28205115,8.57
4122.94871767, 4121.53846126, 4119.87179460, 4121.79487152, 4122.82051255, 4184.61538448, 4215.25641019, 4224.23076917, 4208.71794865, 4128.07692280, 4124.74358947, 4129.87179460, 4132.17948691, 4199.10256397,8.57
4129.23076896, 4124.61538434, 4121.02564075, 4123.84615357, 4123.20512793, 4185.64102551, 4217.17948711, 4219.87179481, 4208.33333327, 4128.33333306, 4124.61538434, 4128.58974332, 4133.84615357, 4198.58974345,8.57
4125.51282024, 4125.51282024, 4123.20512793, 4128.20512793, 4122.69230742, 4183.20512807, 4213.07692301, 4212.30769224, 4210.38461532, 4128.46153819, 4126.41025614, 4128.33333306, 4132.94871767, 4197.82051269,8.57
4124.74358947, 4126.15384588, 4129.23076896, 4128.07692280, 4124.99999973, 4176.66666653, 4205.76923070, 4208.84615378, 4200.89743576, 4126.66666639, 4126.15384588, 4131.79487152, 4133.33333306, 4197.94871781,8.57
4123.33333306, 4124.74358947, 4128.97435870, 4124.61538434, 4126.15384588, 4171.53846140, 4200.38461525, 4199.48717935, 4182.69230756, 4126.02564075, 4122.56410229, 4130.64102537, 4133.46153819, 4194.99999986,8.57
4119.87179460, 4122.82051255, 4125.12820485, 4123.58974332, 4124.35897408, 4174.74358961, 4202.56410250, 4194.61538448, 4181.92307679, 4128.71794844, 4120.89743562, 4128.97435870, 4133.20512793, 4196.28205115,8.57
4123.84615357, 4124.74358947, 4127.43589716, 4125.12820485, 4123.84615357, 4174.48717935, 4205.51282045, 4204.87179481, 4195.38461525, 4129.74358947, 4124.35897408, 4132.69230742, 4136.02564082, 4198.07692294,8.57
4120.51282024, 4119.99999973, 4124.10256383, 4121.02564075, 4123.46153819, 4167.17948697, 4200.51282038, 4214.23076917, 4205.12820506, 4127.82051255, 4124.74358947, 4127.82051255, 4134.87179460, 4195.76923063,8.57
4121.79487152, 4119.99999973, 4125.38461511, 4119.87179460, 4123.97435870, 4169.35897422, 4197.56410243, 4202.30769224, 4198.33333320, 4126.28205101, 4122.69230742, 4128.97435870, 4133.07692280, 4200.12820499,8.57
4122.30769203, 4124.61538434, 4126.41025614, 4122.17948691, 4123.84615357, 4180.51282038, 4209.87179481, 4201.41025634, 4196.92307679, 4127.56410229, 4126.53846126, 4132.56410229, 4134.74358947, 4203.20512814,8.57
4118.07692280, 4121.92307665, 4119.87179460, 4123.84615357, 4123.20512793, 4189.87179474, 4229.74358968, 4228.33333327, 4215.89743583, 4126.66666639, 4128.71794844, 4125.12820485, 4134.48717921, 4200.38461525,8.57
4123.33333306, 4122.05128178, 4120.38461511, 4126.41025614, 4125.64102537, 4193.07692294, 4234.61538462, 4240.76923077, 4231.15384609, 4124.99999973, 4128.84615357, 4124.74358947, 4134.74358947, 4198.84615371,8.57
4122.17948691, 4124.35897408, 4120.12820485, 4122.05128178, 4125.76923050, 4187.43589730, 4222.56410250, 4220.64102558, 4220.64102558, 4127.94871767, 4129.48717921, 4125.89743562, 4131.92307665, 4196.28205115,8.57
4122.30769203, 4126.15384588, 4121.41025614, 4120.89743562, 4123.07692280, 4182.30769217, 4214.74358968, 4204.87179481, 4197.82051269, 4130.12820485, 4127.30769203, 4127.43589716, 4131.92307665, 4196.53846140,8.57
4121.79487152, 4124.48717921, 4121.41025614, 4122.82051255, 4121.28205101, 4185.38461525, 4220.12820506, 4212.30769224, 4194.23076910, 4127.56410229, 4125.12820485, 4129.74358947, 4134.74358947, 4198.20512807,8.57
4115.12820485, 4119.74358947, 4118.97435870, 4120.38461511, 4121.92307665, 4182.17948704, 4220.64102558, 4220.38461532, 4207.69230763, 4124.74358947, 4124.87179460, 4124.48717921, 4130.76923050, 4196.66666653,8.57
4120.89743562, 4123.58974332, 4123.20512793, 4120.76923050, 4122.94871767, 4163.58974339, 4204.10256404, 4205.89743583, 4194.74358961, 4127.30769203, 4123.07692280, 4127.56410229, 4130.25640998, 4196.92307679,8.57
4120.89743562, 4124.87179460, 4120.51282024, 4119.35897408, 4122.69230742, 4164.35897415, 4202.82051275, 4196.28205115, 4178.71794858, 4129.10256383, 4120.25640998, 4127.56410229, 4132.05128178, 4196.66666653,8.57
4117.82051255, 4122.69230742, 4119.10256383, 4121.02564075, 4122.82051255, 4191.92307679, 4231.41025634, 4223.84615378, 4208.71794865, 4127.43589716, 4123.97435870, 4122.30769203, 4131.15384588, 4196.28205115,8.57
4121.28205101, 4122.69230742, 4123.46153819, 4127.30769203, 4122.94871767, 4209.99999993, 4250.64102564, 4248.97435898, 4242.05128206, 4128.20512793, 4128.97435870, 4124.99999973, 4130.64102537, 4195.89743576,8.57
4119.10256383, 4121.92307665, 4120.51282024, 4125.89743562, 4124.23076896, 4204.48717942, 4245.12820513, 4245.38461539, 4246.28205129, 4129.87179460, 4128.07692280, 4125.25640998, 4131.02564075, 4195.64102551,8.57
4120.25640998, 4124.74358947, 4118.84615357, 4125.38461511, 4126.28205101, 4195.12820499, 4237.05128206, 4236.02564103, 4242.43589744, 4127.56410229, 4128.46153819, 4126.53846126, 4133.20512793, 4196.66666653,8.57
4118.71794844, 4125.89743562, 4116.92307665, 4125.38461511, 4123.71794844, 4194.23076910, 4233.33333327, 4226.02564096, 4227.56410250, 4125.38461511, 4127.69230742, 4126.41025614, 4132.82051255, 4193.46153833,8.57
4117.69230742, 4124.74358947, 4118.46153819, 4122.17948691, 4122.94871767, 4186.79487166, 4225.51282045, 4214.35897429, 4210.25641019, 4128.46153819, 4123.97435870, 4123.71794844, 4129.61538434, 4193.20512807,8.57
4120.89743562, 4124.99999973, 4123.07692280, 4123.07692280, 4125.38461511, 4183.97435884, 4226.66666660, 4213.84615378, 4216.02564096, 4128.71794844, 4123.20512793, 4125.89743562, 4130.12820485, 4195.76923063,8.57
4116.92307665, 4122.17948691, 4119.99999973, 4122.82051255, 4122.94871767, 4195.12820499, 4231.02564096, 4211.41025634, 4210.76923070, 4125.51282024, 4122.43589716, 4124.35897408, 4132.30769203, 4194.23076910,8.57
4119.23076896, 4122.30769203, 4122.56410229, 4123.58974332, 4122.05128178, 4194.74358961, 4226.79487173, 4205.89743583, 4198.20512807, 4126.15384588, 4123.71794844, 4124.35897408, 4131.41025614, 4195.76923063,8.57
4120.89743562, 4124.35897408, 4123.97435870, 4123.71794844, 4123.84615357, 4191.28205115, 4238.97435898, 4233.07692301, 4232.43589737, 4127.82051255, 4129.35897408, 4125.38461511, 4129.87179460, 4196.66666653,8.57
4118.07692280, 4124.48717921, 4119.87179460, 4121.66666639, 4123.33333306, 4204.10256404, 4260.00000000, 4262.56410257, 4266.53846154, 4127.30769203, 4130.89743562, 4123.97435870, 4131.02564075, 4194.48717935,8.57
4124.23076896, 4124.48717921, 4124.74358947, 4126.53846126, 4124.35897408, 4211.15384609, 4256.53846154, 4249.23076923, 4246.79487180, 4127.69230742, 4128.71794844, 4125.76923050, 4133.71794844, 4191.41025628,8.57
4123.46153819, 4122.17948691, 4123.97435870, 4126.41025614, 4124.10256383, 4204.10256404, 4248.33333334, 4233.20512814, 4229.87179481, 4128.46153819, 4127.69230742, 4123.20512793, 4131.15384588, 4189.74358961,8.57
4121.66666639, 4124.35897408, 4123.46153819, 4124.10256383, 4122.43589716, 4206.53846147, 4255.00000000, 4243.97435898, 4248.46153847, 4127.30769203, 4128.07692280, 4125.38461511, 4128.33333306, 4195.51282038,8.57
4123.97435870, 4128.46153819, 4126.28205101, 4127.56410229, 4122.56410229, 4213.84615378, 4256.15384616, 4248.20512821, 4254.10256411, 4126.53846126, 4126.53846126, 4129.61538434, 4130.25640998, 4196.15384602,8.57
4121.28205101, 4126.02564075, 4123.84615357, 4124.74358947, 4123.58974332, 4213.33333327, 4252.69230770, 4241.66666667, 4249.74358975, 4125.89743562, 4126.28205101, 4124.48717921, 4131.15384588, 4192.17948704,8.57
4125.25640998, 4126.02564075, 4128.46153819, 4123.71794844, 4125.38461511, 4209.48717942, 4253.71794872, 4245.64102564, 4260.76923077, 4126.28205101, 4130.51282024, 4125.51282024, 4131.15384588, 4194.35897422,8.57
4124.35897408, 4124.10256383, 4128.20512793, 4127.56410229, 4123.58974332, 4204.35897429, 4250.89743590, 4252.17948718, 4261.79487180, 4129.23076896, 4127.94871767, 4126.66666639, 4132.05128178, 4193.97435884,8.57
4122.56410229, 4124.74358947, 4126.15384588, 4127.69230742, 4122.69230742, 4194.10256397, 4238.97435898, 4241.02564103, 4235.38461539, 4129.74358947, 4122.17948691, 4125.89743562, 4133.71794844, 4193.84615371,8.57
4125.51282024, 4129.99999973, 4130.64102537, 4125.38461511, 4127.17948691, 4186.66666653, 4229.10256404, 4219.48717942, 4211.66666660, 4128.20512793, 4124.87179460, 4127.69230742, 4134.23076896, 4195.64102551,8.57
4121.79487152, 4124.48717921, 4124.48717921, 4120.76923050, 4125.25640998, 4190.25641012, 4232.30769224, 4213.20512814, 4217.17948711, 4127.69230742, 4126.66666639, 4126.02564075, 4133.71794844, 4194.35897422,8.57
4127.17948691, 4123.46153819, 4124.48717921, 4123.71794844, 4121.66666639, 4198.20512807, 4242.69230770, 4222.56410250, 4229.74358968, 4127.43589716, 4125.25640998, 4132.56410229, 4133.84615357, 4196.92307679,8.57
4129.61538434, 4128.07692280, 4129.10256383, 4127.17948691, 4125.38461511, 4212.82051275, 4260.38461539, 4243.20512821, 4246.92307693, 4126.79487152, 4127.82051255, 4136.79487159, 4132.05128178, 4195.51282038,8.57
4123.58974332, 4126.15384588, 4126.28205101, 4124.99999973, 4128.58974332, 4231.15384609, 4280.25641033, 4263.33333334, 4267.17948725, 4126.41025614, 4132.30769203, 4130.38461511, 4130.64102537, 4193.84615371,8.57
4124.99999973, 4124.99999973, 4128.20512793, 4126.92307665, 4126.28205101, 4230.25641019, 4277.82051289, 4259.61538462, 4264.48717949, 4124.74358947, 4133.71794844, 4131.66666639, 4132.69230742, 4199.23076910,8.57
4121.92307665, 4122.43589716, 4124.74358947, 4123.33333306, 4122.56410229, 4215.12820506, 4261.02564103, 4241.41025641, 4244.74358975, 4123.71794844, 4129.23076896, 4131.53846126, 4131.79487152, 4198.07692294,8.57
4122.69230742, 4122.56410229, 4121.41025614, 4120.64102537, 4123.33333306, 4212.82051275, 4258.07692308, 4235.00000000, 4236.66666667, 4125.89743562, 4127.17948691, 4133.07692280, 4131.92307665, 4196.15384602,8.57
4127.05128178, 4127.94871767, 4125.76923050, 4127.17948691, 4127.05128178, 4214.87179481, 4260.89743590, 4241.53846154, 4248.84615385, 4128.84615357, 4132.30769203, 4135.64102544, 4133.84615357, 4197.56410243,8.57
4120.25640998, 4126.15384588, 4123.97435870, 4126.15384588, 4124.99999973, 4209.87179481, 4261.92307693, 4256.79487180, 4269.23076930, 4129.10256383, 4135.12820485, 4130.64102537, 4131.66666639, 4198.33333320,8.57
4122.82051255, 4124.48717921, 4124.61538434, 4123.20512793, 4121.02564075, 4214.74358968, 4268.20512828, 4263.07692308, 4267.56410264, 4126.28205101, 4133.58974332, 4133.84615357, 4135.25640998, 4201.02564096,8.57
4126.15384588, 4126.79487152, 4124.35897408, 4125.64102537, 4125.12820485, 4223.97435891, 4272.17948725, 4251.53846154, 4247.05128206, 4123.84615357, 4127.17948691, 4132.56410229, 4135.12820485, 4197.82051269,8.57
4121.53846126, 4126.53846126, 4124.48717921, 4126.15384588, 4128.07692280, 4223.71794865, 4272.17948725, 4251.41025641, 4247.56410257, 4126.02564075, 4123.97435870, 4127.69230742, 4131.66666639, 4194.48717935,8.57
4124.61538434, 4125.64102537, 4129.35897408, 4123.33333306, 4121.28205101, 4219.99999993, 4272.82051289, 4259.23076923, 4256.66666667, 4128.07692280, 4129.23076896, 4133.33333306, 4136.53846133, 4198.46153833,8.57
4120.25640998, 4123.58974332, 4124.35897408, 4119.48717921, 4117.05128178, 4220.89743583, 4271.28205136, 4252.82051282, 4254.48717949, 4126.92307665, 4130.64102537, 4131.53846126, 4138.07692287, 4199.99999986,8.57
4119.35897408, 4126.15384588, 4123.33333306, 4123.07692280, 4122.94871767, 4219.74358968, 4265.38461539, 4247.05128206, 4253.84615385, 4128.20512793, 4129.61538434, 4132.56410229, 4136.92307672, 4198.20512807,8.57
4123.46153819, 4127.43589716, 4125.38461511, 4126.53846126, 4127.82051255, 4212.56410250, 4256.41025641, 4241.15384616, 4246.15384616, 4130.64102537, 4128.97435870, 4133.71794844, 4133.33333306, 4196.53846140,8.57
4119.48717921, 4123.84615357, 4121.92307665, 4120.51282024, 4125.25640998, 4212.05128199, 4255.76923077, 4234.48717949, 4236.28205129, 4128.84615357, 4127.43589716, 4127.82051255, 4130.51282024, 4198.20512807,8.57
4121.92307665, 4125.25640998, 4123.46153819, 4119.74358947, 4124.74358947, 4222.82051275, 4270.89743597, 4245.76923077, 4246.41025641, 4127.30769203, 4129.10256383, 4132.17948691, 4134.61538434, 4199.74358961,8.57
4119.35897408, 4123.84615357, 4118.20512793, 4124.23076896, 4126.53846126, 4229.35897429, 4279.87179495, 4260.00000000, 4260.12820513, 4128.97435870, 4126.66666639, 4129.10256383, 4132.43589716, 4196.53846140,8.57
4117.94871767, 4122.56410229, 4117.30769203, 4124.61538434, 4123.46153819, 4226.02564096, 4274.23076930, 4258.84615385, 4259.87179488, 4130.38461511, 4124.35897408, 4125.89743562, 4128.71794844, 4200.38461525,8.57
4120.89743562, 4123.46153819, 4123.71794844, 4120.12820485, 4120.64102537, 4226.92307686, 4276.41025648, 4256.53846154, 4256.41025641, 4129.99999973, 4127.30769203, 4131.66666639, 4131.79487152, 4201.02564096,8.57
4118.07692280, 4120.89743562, 4120.25640998, 4117.94871767, 4122.43589716, 4237.56410257, 4285.64102571, 4257.17948718, 4260.64102564, 4128.97435870, 4127.56410229, 4128.97435870, 4132.69230742, 4194.61538448,8.57
4122.82051255, 4123.20512793, 4119.61538434, 4123.20512793, 4125.38461511, 4237.30769231, 4285.12820520, 4262.05128206, 4277.43589751, 4127.30769203, 4129.74358947, 4132.43589716, 4133.46153819, 4196.53846140,8.57
4121.66666639, 4124.48717921, 4122.30769203, 4123.20512793, 4125.64102537, 4229.48717942, 4284.87179495, 4273.46153853, 4285.00000007, 4124.87179460, 4132.30769203, 4129.61538434, 4131.92307665, 4196.15384602,8.57
4117.94871767, 4120.89743562, 4122.94871767, 4121.53846126, 4124.74358947, 4231.41025634, 4288.07692315, 4274.61538469, 4269.87179495, 4125.25640998, 4129.23076896, 4121.79487152, 4129.87179460, 4196.15384602,8.57
4120.89743562, 4120.51282024, 4122.43589716, 4125.25640998, 4123.97435870, 4235.89743590, 4283.58974366, 4264.23076923, 4263.84615385, 4129.35897408, 4127.69230742, 4126.66666639, 4133.71794844, 4198.71794858,8.57
4116.41025614, 4121.79487152, 4117.56410229, 4125.12820485, 4123.97435870, 4238.33333334, 4288.20512828, 4270.00000007, 4281.02564110, 4130.51282024, 4127.56410229, 4123.33333306, 4132.69230742, 4195.51282038,8.57
4115.51282024, 4123.97435870, 4121.53846126, 4125.51282024, 4126.66666639, 4238.46153847, 4297.94871802, 4277.69230777, 4280.25641033, 4127.30769203, 4127.69230742, 4123.84615357, 4127.56410229, 4197.43589730,8.57
4117.05128178, 4122.43589716, 4124.23076896, 4125.89743562, 4127.30769203, 4225.38461532, 4278.20512828, 4254.87179488, 4249.61538462, 4126.66666639, 4124.74358947, 4127.82051255, 4128.71794844, 4197.56410243,8.57
4118.20512793, 4123.71794844, 4122.94871767, 4124.74358947, 4123.20512793, 4201.66666660, 4243.71794872, 4219.99999993, 4222.17948711, 4128.46153819, 4121.15384588, 4122.17948691, 4130.38461511, 4194.35897422,8.57
4123.07692280, 4129.10256383, 4124.61538434, 4124.23076896, 4122.43589716, 4197.56410243, 4245.12820513, 4216.15384609, 4223.84615378, 4129.23076896, 4124.99999973, 4124.10256383, 4130.64102537, 4194.23076910,8.57
4121.53846126, 4124.61538434, 4119.35897408, 4122.17948691, 4125.38461511, 4220.89743583, 4275.64102571, 4245.12820513, 4256.02564103, 4129.10256383, 4129.35897408, 4125.76923050, 4131.79487152, 4192.43589730,8.57
4123.46153819, 4123.71794844, 4121.53846126, 4124.61538434, 4127.05128178, 4241.41025641, 4295.00000007, 4268.97435905, 4285.89743597, 4128.71794844, 4129.61538434, 4127.94871767, 4134.10256383, 4194.99999986,8.57
4121.66666639, 4126.79487152, 4125.51282024, 4123.97435870, 4126.28205101, 4245.51282052, 4299.48717963, 4275.00000007, 4290.00000007, 4129.10256383, 4127.82051255, 4127.17948691, 4132.30769203, 4196.28205115,8.57
4119.23076896, 4124.74358947, 4122.94871767, 4121.41025614, 4126.02564075, 4243.84615385, 4299.23076930, 4273.84615392, 4277.43589751, 4128.33333306, 4124.87179460, 4122.56410229, 4128.46153819, 4194.23076910,8.57
4125.51282024, 4124.10256383, 4126.28205101, 4126.02564075, 4126.02564075, 4239.23076923, 4292.69230777, 4264.74358975, 4261.02564103, 4127.30769203, 4126.66666639, 4128.84615357, 4132.69230742, 4194.99999986,8.57
4120.25640998, 4122.43589716, 4127.17948691, 4125.51282024, 4123.20512793, 4230.89743583, 4287.17948725, 4259.23076923, 4260.64102564, 4127.43589716, 4129.74358947, 4129.61538434, 4132.94871767, 4192.94871781,8.57
4120.12820485, 4125.51282024, 4127.43589716, 4124.99999973, 4123.20512793, 4243.20512821, 4300.64102578, 4274.87179495, 4278.97435905, 4128.07692280, 4129.23076896, 4129.10256383, 4130.64102537, 4192.94871781,8.57
4123.71794844, 4127.17948691, 4123.58974332, 4124.87179460, 4126.53846126, 4256.92307693, 4308.58974373, 4278.07692315, 4280.89743597, 4127.56410229, 4126.15384588, 4126.79487152, 4132.94871767, 4192.82051269,8.57
4118.97435870, 4123.46153819, 4123.84615357, 4121.28205101, 4127.30769203, 4232.17948711, 4287.56410264, 4253.97435898, 4260.25641026, 4127.69230742, 4124.48717921, 4122.17948691, 4131.02564075, 4192.17948704,8.57
4124.48717921, 4125.89743562, 4131.92307665, 4123.71794844, 4126.92307665, 4214.99999993, 4279.10256418, 4255.89743590, 4262.30769231, 4128.07692280, 4125.38461511, 4128.97435870, 4130.64102537, 4196.66666653,8.57
4124.48717921, 4125.38461511, 4126.41025614, 4123.07692280, 4126.79487152, 4237.56410257, 4299.10256418, 4282.30769238, 4280.64102571, 4128.33333306, 4122.82051255, 4126.15384588, 4130.51282024, 4195.64102551,8.57
4121.02564075, 4123.07692280, 4123.58974332, 4122.17948691, 4127.94871767, 4246.41025641, 4304.48717963, 4284.48717956, 4280.76923084, 4129.99999973, 4121.15384588, 4125.12820485, 4130.89743562, 4195.64102551,8.57
4121.41025614, 4124.74358947, 4125.89743562, 4125.12820485, 4127.43589716, 4233.20512814, 4294.10256418, 4275.00000007, 4280.89743597, 4131.15384588, 4126.02564075, 4132.56410229, 4133.71794844, 4197.30769217,8.57
4122.30769203, 4125.51282024, 4124.99999973, 4124.99999973, 4123.46153819, 4238.46153847, 4300.51282066, 4282.82051289, 4292.69230777, 4128.20512793, 4132.17948691, 4129.87179460, 4133.07692280, 4195.38461525,8.57
4127.94871767, 4127.43589716, 4131.02564075, 4125.64102537, 4122.17948691, 4242.05128206, 4304.10256425, 4284.61538469, 4292.56410264, 4125.89743562, 4137.17948697, 4132.05128178, 4132.43589716, 4197.43589730,8.57
4123.20512793, 4125.38461511, 4125.64102537, 4122.43589716, 4124.10256383, 4230.12820506, 4294.10256418, 4269.35897443, 4277.30769238, 4128.07692280, 4133.71794844, 4132.94871767, 4130.51282024, 4198.33333320,8.57
4119.99999973, 4124.74358947, 4122.05128178, 4122.17948691, 4124.99999973, 4228.84615378, 4292.94871802, 4261.79487180, 4268.46153853, 4128.97435870, 4131.28205101, 4132.17948691, 4130.76923050, 4198.71794858,8.57
4123.07692280, 4127.43589716, 4130.64102537, 4127.17948691, 4124.61538434, 4233.46153840, 4294.87179495, 4269.23076930, 4271.92307700, 4128.58974332, 4133.58974332, 4132.30769203, 4133.58974332, 4198.71794858,8.57
4120.25640998, 4125.76923050, 4128.97435870, 4125.38461511, 4122.56410229, 4232.69230763, 4293.84615392, 4276.66666674, 4273.20512828, 4128.71794844, 4129.74358947, 4129.61538434, 4132.43589716, 4195.89743576,8.57
4125.51282024, 4128.97435870, 4127.30769203, 4124.74358947, 4121.41025614, 4233.84615385, 4295.76923084, 4274.23076930, 4272.94871802, 4128.97435870, 4128.20512793, 4136.66666646, 4132.82051255, 4195.76923063,8.57
4126.41025614, 4127.94871767, 4125.12820485, 4124.23076896, 4126.02564075, 4239.87179488, 4301.92307707, 4274.48717956, 4283.97435905, 4128.20512793, 4129.74358947, 4135.51282031, 4132.94871767, 4196.53846140,8.57
4124.48717921, 4121.92307665, 4126.66666639, 4123.71794844, 4130.38461511, 4246.41025641, 4308.07692322, 4283.97435905, 4293.33333341, 4127.69230742, 4130.12820485, 4131.15384588, 4132.82051255, 4198.71794858,8.57
4129.10256383, 4125.25640998, 4130.89743562, 4127.43589716, 4125.76923050, 4248.84615385, 4309.10256425, 4287.82051289, 4279.74358982, 4128.84615357, 4130.12820485, 4134.74358947, 4132.43589716, 4197.82051269,8.57
4121.02564075, 4124.10256383, 4120.51282024, 4121.79487152, 4120.38461511, 4238.46153847, 4303.84615399, 4282.56410264, 4263.20512821, 4130.38461511, 4129.10256383, 4130.51282024, 4131.28205101, 4195.25641012,8.57
4122.69230742, 4123.97435870, 4121.02564075, 4121.02564075, 4123.46153819, 4222.94871788, 4297.43589751, 4278.71794879, 4262.94871795, 4128.71794844, 4129.35897408, 4134.23076896, 4135.89743569, 4201.41025634,8.57
4125.89743562, 4126.79487152, 4128.07692280, 4126.66666639, 4124.35897408, 4218.46153840, 4293.33333341, 4279.35897443, 4271.79487187, 4126.41025614, 4128.97435870, 4135.51282031, 4134.48717921, 4201.79487173,8.57
4117.17948691, 4123.20512793, 4120.38461511, 4123.07692280, 4122.17948691, 4223.97435891, 4290.51282059, 4283.20512828, 4278.71794879, 4128.46153819, 4128.46153819, 4129.23076896, 4129.35897408, 4196.41025628,8.57
4124.23076896, 4124.23076896, 4120.51282024, 4123.71794844, 4125.25640998, 4237.69230770, 4302.56410271, 4298.20512828, 4299.74358989, 4130.12820485, 4130.51282024, 4134.61538434, 4131.92307665, 4199.87179474,8.57
4123.20512793, 4120.38461511, 4121.02564075, 4123.46153819, 4123.20512793, 4243.33333334, 4308.84615399, 4301.66666681, 4312.56410271, 4128.07692280, 4129.74358947, 4131.02564075, 4130.76923050, 4198.97435884,8.57
4120.89743562, 4119.35897408, 4123.20512793, 4123.46153819, 4123.71794844, 4235.00000000, 4291.41025648, 4272.94871802, 4283.07692315, 4127.17948691, 4125.89743562, 4126.41025614, 4129.35897408, 4197.17948704,8.57
4124.10256383, 4124.87179460, 4127.30769203, 4128.84615357, 4128.97435870, 4232.82051275, 4283.07692315, 4246.41025641, 4245.12820513, 4128.97435870, 4122.17948691, 4130.25640998, 4131.15384588, 4196.02564089,8.57
4112.94871767, 4119.10256383, 4117.69230742, 4123.33333306, 4123.33333306, 4234.35897436, 4286.41025648, 4244.61538462, 4234.48717949, 4128.84615357, 4121.53846126, 4127.05128178, 4128.71794844, 4193.07692294,8.57
4122.05128178, 4123.20512793, 4120.38461511, 4123.58974332, 4121.53846126, 4225.25641019, 4283.07692315, 4255.00000000, 4247.56410257, 4127.56410229, 4127.17948691, 4128.46153819, 4130.25640998, 4195.76923063,8.57
4124.23076896, 4122.43589716, 4120.12820485, 4124.35897408, 4126.92307665, 4223.33333327, 4291.15384623, 4266.28205129, 4261.66666667, 4128.07692280, 4128.33333306, 4124.74358947, 4132.30769203, 4194.35897422,8.57
4115.89743562, 4114.35897408, 4115.25640998, 4119.35897408, 4126.02564075, 4239.87179488, 4314.61538476, 4282.94871802, 4272.05128212, 4128.71794844, 4124.61538434, 4122.69230742, 4131.28205101, 4195.12820499,8.57
4125.12820485, 4124.35897408, 4122.56410229, 4126.15384588, 4127.05128178, 4240.89743590, 4310.64102578, 4287.82051289, 4270.51282059, 4127.56410229, 4124.61538434, 4129.61538434, 4132.30769203, 4197.56410243,8.57
4113.71794844, 4121.41025614, 4114.48717921, 4119.87179460, 4127.30769203, 4226.92307686, 4290.25641033, 4277.30769238, 4263.07692308, 4127.82051255, 4124.99999973, 4122.43589716, 4132.05128178, 4194.23076910,8.57
4117.43589716, 4120.51282024, 4120.38461511, 4120.76923050, 4122.82051255, 4230.25641019, 4296.41025648, 4279.10256418, 4265.25641026, 4129.10256383, 4127.69230742, 4126.15384588, 4131.92307665, 4197.82051269,8.57
4124.48717921, 4126.41025614, 4125.25640998, 4129.48717921, 4122.94871767, 4237.82051282, 4305.38461553, 4284.87179495, 4263.46153847, 4127.05128178, 4128.97435870, 4127.69230742, 4129.10256383, 4194.87179474,8.57
4111.92307665, 4119.87179460, 4116.15384588, 4124.87179460, 4126.92307665, 4233.97435898, 4300.51282066, 4283.46153853, 4264.35897436, 4127.30769203, 4127.82051255, 4118.97435870, 4127.30769203, 4192.56410243,8.57
4126.53846126, 4126.28205101, 4128.07692280, 4132.05128178, 4129.87179460, 4238.07692308, 4305.25641040, 4288.84615392, 4275.38461546, 4130.51282024, 4128.97435870, 4129.48717921, 4131.15384588, 4197.82051269,8.57
4116.28205101, 4120.51282024, 4120.64102537, 4127.17948691, 4126.02564075, 4252.05128206, 4317.30769245, 4297.30769238, 4286.66666674, 4129.87179460, 4126.92307665, 4126.79487152, 4130.12820485, 4192.17948704,8.57
4113.58974332, 4119.61538434, 4122.82051255, 4124.23076896, 4124.23076896, 4242.56410257, 4303.71794886, 4276.28205136, 4268.07692315, 4128.58974332, 4126.28205101, 4124.35897408, 4130.76923050, 4193.07692294,8.57
4127.94871767, 4133.97435870, 4131.28205101, 4132.30769203, 4127.30769203, 4221.92307686, 4283.46153853, 4253.20512821, 4238.97435898, 4128.84615357, 4128.20512793, 4127.56410229, 4131.41025614, 4196.15384602,8.57
4111.53846126, 4123.84615357, 4117.30769203, 4124.87179460, 4124.10256383, 4228.33333327, 4296.53846161, 4278.20512828, 4257.30769231, 4127.30769203, 4131.79487152, 4122.82051255, 4127.43589716, 4194.23076910,8.57
4123.58974332, 4123.84615357, 4130.64102537, 4132.05128178, 4124.74358947, 4238.46153847, 4301.92307707, 4294.61538469, 4277.17948725, 4127.43589716, 4135.25640998, 4133.71794844, 4131.41025614, 4197.56410243,8.57
4119.23076896, 4123.84615357, 4125.51282024, 4130.12820485, 4127.82051255, 4224.35897429, 4275.00000007, 4262.05128206, 4247.82051282, 4129.23076896, 4129.48717921, 4128.71794844, 4132.82051255, 4193.58974345,8.57
4114.23076896, 4121.53846126, 4119.61538434, 4123.07692280, 4125.89743562, 4218.20512814, 4274.10256418, 4249.10256411, 4233.20512814, 4128.46153819, 4128.97435870, 4124.87179460, 4130.25640998, 4193.97435884,8.57
4133.33333306, 4130.25640998, 4134.87179460, 4131.02564075, 4125.89743562, 4244.61538462, 4312.05128219, 4286.79487187, 4271.15384623, 4127.94871767, 4137.30769210, 4133.46153819, 4128.97435870, 4193.33333320,8.57
4118.07692280, 4121.53846126, 4123.46153819, 4124.74358947, 4124.74358947, 4262.05128206, 4324.74358989, 4302.69230784, 4287.82051289, 4126.92307665, 4135.51282031, 4126.15384588, 4127.56410229, 4187.43589730,8.57
4124.61538434, 4126.41025614, 4129.35897408, 4128.58974332, 4126.53846126, 4247.69230770, 4304.61538476, 4278.97435905, 4268.20512828, 4127.17948691, 4132.17948691, 4132.17948691, 4131.53846126, 4193.71794858,8.57
4126.66666639, 4128.33333306, 4128.46153819, 4128.97435870, 4126.66666639, 4252.05128206, 4309.48717963, 4280.76923084, 4274.61538469, 4129.61538434, 4134.61538434, 4129.23076896, 4130.12820485, 4191.79487166,8.57
4117.82051255, 4121.41025614, 4119.61538434, 4123.07692280, 4122.82051255, 4271.15384623, 4325.89743604, 4302.30769245, 4291.66666674, 4129.35897408, 4135.51282031, 4125.51282024, 4129.74358947, 4193.20512807,8.57
4131.41025614, 4130.38461511, 4129.87179460, 4131.79487152, 4123.97435870, 4250.51282052, 4308.71794886, 4293.20512828, 4280.38461546, 4126.53846126, 4131.28205101, 4136.15384595, 4133.07692280, 4200.51282038,8.57
4120.38461511, 4126.28205101, 4122.30769203, 4124.99999973, 4122.94871767, 4219.10256404, 4282.17948725, 4269.23076930, 4257.69230770, 4126.79487152, 4125.76923050, 4129.35897408, 4129.99999973, 4194.48717935,8.57
4120.89743562, 4126.02564075, 4123.84615357, 4124.10256383, 4124.99999973, 4220.76923070, 4278.46153853, 4263.46153847, 4245.12820513, 4129.61538434, 4124.74358947, 4131.41025614, 4131.28205101, 4195.38461525,8.57
4124.99999973, 4128.20512793, 4124.87179460, 4128.84615357, 4129.10256383, 4222.94871788, 4281.66666674, 4265.64102564, 4244.35897436, 4130.12820485, 4123.33333306, 4135.38461518, 4133.58974332, 4198.33333320,8.57
4122.69230742, 4122.05128178, 4122.30769203, 4126.28205101, 4126.28205101, 4202.17948711, 4264.74358975, 4248.71794872, 4232.30769224, 4129.87179460, 4121.79487152, 4133.07692280, 4133.07692280, 4196.15384602,8.57
4134.74358947, 4127.30769203, 4131.66666639, 4131.41025614, 4124.61538434, 4198.84615371, 4253.07692308, 4232.82051275, 4213.07692301, 4130.38461511, 4120.89743562, 4134.23076896, 4132.94871767, 4194.74358961,8.57
4124.23076896, 4126.15384588, 4122.30769203, 4127.30769203, 4125.12820485, 4232.30769224, 4281.92307700, 4253.58974359, 4232.82051275, 4128.84615357, 4119.35897408, 4127.94871767, 4131.41025614, 4194.48717935,8.57
4119.99999973, 4123.20512793, 4121.53846126, 4124.99999973, 4124.99999973, 4250.76923077, 4309.35897450, 4279.10256418, 4265.76923077, 4126.28205101, 4124.74358947, 4134.10256383, 4133.58974332, 4198.97435884,8.57
4123.71794844, 4121.15384588, 4125.64102537, 4128.07692280, 4125.76923050, 4237.05128206, 4301.02564117, 4276.15384623, 4260.12820513, 4127.05128178, 4126.41025614, 4132.56410229, 4135.25640998, 4197.82051269,8.57
4122.05128178, 4120.89743562, 4121.02564075, 4125.25640998, 4126.28205101, 4234.61538462, 4296.41025648, 4276.15384623, 4259.23076923, 4129.74358947, 4122.82051255, 4126.02564075, 4136.28205108, 4198.84615371,8.57
4129.99999973, 4129.61538434, 4125.51282024, 4125.76923050, 4124.74358947, 4232.69230763, 4294.48717956, 4278.46153853, 4270.12820520, 4128.58974332, 4124.87179460, 4134.87179460, 4137.17948697, 4200.25641012,8.57
4123.71794844, 4123.97435870, 4120.51282024, 4121.28205101, 4121.66666639, 4211.41025634, 4277.82051289, 4265.38461539, 4255.38461539, 4125.38461511, 4125.12820485, 4131.02564075, 4135.76923056, 4195.12820499,8.57
4124.23076896, 4121.92307665, 4120.89743562, 4121.53846126, 4125.12820485, 4204.74358968, 4276.53846161, 4262.17948718, 4236.15384616, 4127.30769203, 4123.07692280, 4130.12820485, 4137.17948697, 4197.56410243,8.57
4128.71794844, 4128.33333306, 4128.84615357, 4129.35897408, 4127.30769203, 4216.15384609, 4286.92307700, 4269.48717956, 4233.33333327, 4128.84615357, 4121.02564075, 4131.79487152, 4133.33333306, 4197.17948704,8.57
4121.02564075, 4124.23076896, 4123.58974332, 4127.43589716, 4120.64102537, 4218.07692301, 4285.51282059, 4269.35897443, 4235.25641026, 4126.28205101, 4118.58974332, 4128.46153819, 4130.76923050, 4195.64102551,8.57
4122.30769203, 4122.69230742, 4120.38461511, 4126.53846126, 4122.17948691, 4221.15384609, 4290.25641033, 4270.89743597, 4241.92307693, 4124.61538434, 4116.92307665, 4134.23076896, 4136.28205108, 4198.71794858,8.57
4119.23076896, 4120.76923050, 4119.23076896, 4124.61538434, 4128.84615357, 4228.84615378, 4295.76923084, 4272.43589751, 4244.35897436, 4126.53846126, 4116.15384588, 4130.12820485, 4133.33333306, 4198.33333320,8.57
4119.74358947, 4120.12820485, 4119.61538434, 4123.20512793, 4127.43589716, 4225.89743583, 4283.20512828, 4259.35897436, 4229.87179481, 4128.84615357, 4119.23076896, 4127.56410229, 4129.99999973, 4200.64102551,8.57
4121.15384588, 4123.58974332, 4116.02564075, 4123.58974332, 4122.94871767, 4223.71794865, 4277.94871802, 4254.74358975, 4230.25641019, 4129.10256383, 4118.33333306, 4130.38461511, 4133.46153819, 4197.43589730,8.57
4115.51282024, 4123.20512793, 4112.56410229, 4121.28205101, 4123.33333306, 4227.05128199, 4278.97435905, 4258.71794872, 4237.43589744, 4129.35897408, 4115.89743562, 4126.66666639, 4133.20512793, 4194.74358961,8.57
4119.99999973, 4124.23076896, 4122.17948691, 4127.30769203, 4128.58974332, 4223.71794865, 4272.69230777, 4245.38461539, 4223.46153840, 4129.23076896, 4121.02564075, 4128.58974332, 4133.07692280, 4199.74358961,8.57
4118.58974332, 4123.46153819, 4119.87179460, 4127.69230742, 4130.12820485, 4219.61538455, 4272.43589751, 4237.69230770, 4223.84615378, 4128.97435870, 4121.41025614, 4126.41025614, 4134.10256383, 4196.15384602,8.57
4117.05128178, 4120.89743562, 4116.02564075, 4123.46153819, 4126.15384588, 4219.48717942, 4273.84615392, 4248.58974359, 4239.35897436, 4129.23076896, 4116.66666639, 4123.97435870, 4132.69230742, 4192.69230756,8.57
4120.76923050, 4122.82051255, 4120.12820485, 4124.87179460, 4123.20512793, 4215.38461532, 4264.87179488, 4248.97435898, 4228.71794865, 4129.35897408, 4115.76923050, 4124.23076896, 4130.25640998, 4195.64102551,8.57
4118.71794844, 4125.25640998, 4121.66666639, 4124.99999973, 4127.69230742, 4217.56410250, 4262.30769231, 4243.84615385, 4218.97435891, 4129.74358947, 4114.74358947, 4122.82051255, 4131.66666639, 4197.30769217,8.57
4119.35897408, 4124.99999973, 4124.87179460, 4126.02564075, 4129.23076896, 4235.25641026, 4276.02564110, 4255.25641026, 4238.33333334, 4129.35897408, 4114.87179460, 4126.53846126, 4134.99999973, 4194.10256397,8.57
4113.58974332, 4120.51282024, 4116.41025614, 4123.07692280, 4122.43589716, 4235.38461539, 4276.02564110, 4257.69230770, 4242.69230770, 4129.61538434, 4117.69230742, 4126.15384588, 4133.97435870, 4190.25641012,8.57
4115.25640998, 4122.05128178, 4114.74358947, 4125.38461511, 4123.46153819, 4222.69230763, 4265.89743590, 4247.56410257, 4227.94871788, 4129.87179460, 4118.46153819, 4126.92307665, 4133.07692280, 4192.17948704,8.57
4122.82051255, 4124.35897408, 4120.89743562, 4128.84615357, 4128.46153819, 4223.58974352, 4265.76923077, 4249.23076923, 4222.94871788, 4128.46153819, 4116.79487152, 4124.48717921, 4132.56410229, 4190.64102551,8.57
4120.25640998, 4119.87179460, 4119.87179460, 4124.87179460, 4125.38461511, 4219.48717942, 4259.48717949, 4244.87179488, 4215.64102558, 4128.07692280, 4117.56410229, 4119.99999973, 4129.35897408, 4190.76923063,8.57
4121.92307665, 4124.35897408, 4122.82051255, 4127.30769203, 4124.87179460, 4209.87179481, 4252.43589744, 4237.30769231, 4215.12820506, 4127.94871767, 4122.30769203, 4127.43589716, 4131.92307665, 4195.76923063,8.57
4120.12820485, 4127.05128178, 4121.66666639, 4127.43589716, 4127.05128178, 4220.89743583, 4268.58974366, 4253.97435898, 4237.30769231, 4128.33333306, 4122.43589716, 4126.41025614, 4133.46153819, 4193.97435884,8.57
4121.79487152, 4126.79487152, 4126.28205101, 4126.15384588, 4124.74358947, 4239.87179488, 4290.89743597, 4273.97435905, 4247.69230770, 4129.74358947, 4120.25640998, 4124.74358947, 4131.02564075, 4193.07692294,8.57
4122.82051255, 4128.58974332, 4129.10256383, 4127.05128178, 4123.07692280, 4240.89743590, 4288.07692315, 4271.41025648, 4242.82051282, 4130.38461511, 4118.97435870, 4126.28205101, 4131.02564075, 4194.48717935,8.57
4120.76923050, 4126.79487152, 4123.20512793, 4124.87179460, 4125.89743562, 4236.79487180, 4279.87179495, 4265.64102564, 4253.07692308, 4128.84615357, 4118.46153819, 4124.10256383, 4132.17948691, 4195.12820499,8.57
4126.02564075, 4129.10256383, 4125.38461511, 4128.97435870, 4127.94871767, 4241.53846154, 4283.33333341, 4265.00000000, 4252.30769231, 4128.58974332, 4121.15384588, 4129.87179460, 4134.10256383, 4196.53846140,8.57
4120.76923050, 4125.38461511, 4124.35897408, 4131.02564075, 4127.05128178, 4250.76923077, 4285.38461546, 4257.30769231, 4223.20512814, 4128.71794844, 4118.97435870, 4128.20512793, 4133.20512793, 4194.87179474,8.57
4129.35897408, 4127.05128178, 4131.53846126, 4133.46153819, 4128.46153819, 4243.71794872, 4275.76923084, 4246.66666667, 4206.53846147, 4126.66666639, 4116.02564075, 4129.10256383, 4133.58974332, 4195.76923063,8.57
4129.61538434, 4131.66666639, 4132.69230742, 4132.69230742, 4125.12820485, 4210.51282045, 4253.71794872, 4233.46153840, 4205.51282045, 4126.02564075, 4118.33333306, 4133.07692280, 4133.20512793, 4194.74358961,8.57
4127.17948691, 4131.66666639, 4131.79487152, 4129.99999973, 4123.33333306, 4204.87179481, 4249.48717949, 4231.66666660, 4207.30769224, 4127.43589716, 4118.97435870, 4134.99999973, 4132.56410229, 4196.15384602,8.57
4146.28205108, 4136.41025621, 4143.33333313, 4135.64102544, 4128.46153819, 4232.56410250, 4268.84615392, 4250.89743590, 4226.53846147, 4130.64102537, 4120.38461511, 4139.87179467, 4137.69230749, 4199.99999986,8.57
4131.79487152, 4130.12820485, 4129.10256383, 4129.87179460, 4126.66666639, 4237.17948718, 4274.48717956, 4252.17948718, 4234.35897436, 4131.66666639, 4119.10256383, 4130.25640998, 4134.35897408, 4195.51282038,8.57
4140.64102544, 4139.74358954, 4135.25640998, 4134.35897408, 4130.89743562, 4216.28205122, 4257.17948718, 4228.71794865, 4211.28205122, 4127.82051255, 4121.02564075, 4136.28205108, 4134.74358947, 4199.10256397,8.57
4142.56410236, 4142.30769210, 4140.25641005, 4136.28205108, 4131.53846126, 4211.92307686, 4249.10256411, 4229.23076917, 4208.71794865, 4126.02564075, 4123.71794844, 4141.02564082, 4137.69230749, 4196.79487166,8.57
4118.33333306, 4126.41025614, 4123.71794844, 4124.35897408, 4124.61538434, 4231.53846147, 4264.10256411, 4251.66666667, 4228.71794865, 4128.71794844, 4118.97435870, 4127.82051255, 4133.84615357, 4194.23076910,8.57
4140.12820492, 4137.56410236, 4138.20512800, 4134.61538434, 4129.74358947, 4242.43589744, 4275.64102571, 4253.20512821, 4231.02564096, 4130.76923050, 4121.02564075, 4135.38461518, 4137.17948697, 4199.61538448,8.57
4123.07692280, 4130.64102537, 4125.12820485, 4132.05128178, 4127.94871767, 4231.15384609, 4271.41025648, 4245.64102564, 4228.20512814, 4128.33333306, 4123.71794844, 4130.51282024, 4136.15384595, 4191.66666653,8.57
4114.35897408, 4126.02564075, 4121.41025614, 4126.79487152, 4124.10256383, 4214.23076917, 4260.38461539, 4245.12820513, 4223.20512814, 4128.46153819, 4121.41025614, 4131.15384588, 4133.58974332, 4196.66666653,8.57
4130.12820485, 4133.58974332, 4132.82051255, 4129.87179460, 4125.38461511, 4211.28205122, 4252.43589744, 4235.12820513, 4206.41025634, 4129.23076896, 4116.92307665, 4139.23076903, 4134.99999973, 4201.15384609,8.57
4110.64102537, 4118.71794844, 4112.94871767, 4116.79487152, 4122.43589716, 4220.25641019, 4256.53846154, 4230.51282045, 4207.17948711, 4125.51282024, 4114.61538434, 4125.51282024, 4133.07692280, 4194.61538448,8.57
4121.92307665, 4123.84615357, 4121.28205101, 4121.28205101, 4126.66666639, 4222.17948711, 4263.07692308, 4242.05128206, 4218.84615378, 4125.12820485, 4120.76923050, 4133.07692280, 4135.51282031, 4199.74358961,8.57
4121.79487152, 4127.94871767, 4123.58974332, 4125.51282024, 4124.61538434, 4213.46153840, 4252.82051282, 4240.12820513, 4213.58974352, 4129.87179460, 4119.35897408, 4136.79487159, 4135.12820485, 4198.71794858,8.57
4112.94871767, 4119.87179460, 4111.53846126, 4118.33333306, 4120.76923050, 4197.43589730, 4232.56410250, 4220.25641019, 4201.28205122, 4130.12820485, 4112.82051255, 4127.30769203, 4133.71794844, 4197.56410243,8.57
4125.51282024, 4123.71794844, 4117.17948691, 4121.02564075, 4124.35897408, 4195.25641012, 4228.71794865, 4210.64102558, 4193.07692294, 4127.43589716, 4115.25640998, 4133.58974332, 4135.89743569, 4201.28205122,8.57
4115.12820485, 4123.97435870, 4116.66666639, 4122.30769203, 4121.53846126, 4221.15384609, 4252.82051282, 4232.82051275, 4207.17948711, 4127.69230742, 4118.71794844, 4129.99999973, 4131.53846126, 4197.94871781,8.57
4114.61538434, 4121.28205101, 4118.58974332, 4121.28205101, 4120.76923050, 4244.61538462, 4278.58974366, 4262.69230770, 4238.33333334, 4127.05128178, 4119.74358947, 4127.43589716, 4131.02564075, 4199.10256397,8.57
4123.20512793, 4120.51282024, 4119.99999973, 4123.20512793, 4123.07692280, 4234.35897436, 4269.61538469, 4250.38461539, 4228.58974352, 4126.92307665, 4118.33333306, 4131.53846126, 4135.51282031, 4200.38461525,8.57
4110.25640998, 4119.99999973, 4111.53846126, 4121.92307665, 4119.48717921, 4214.87179481, 4244.61538462, 4219.74358968, 4194.87179474, 4129.23076896, 4116.53846126, 4124.35897408, 4133.84615357, 4197.05128192,8.57
4113.71794844, 4122.69230742, 4114.99999973, 4121.79487152, 4119.99999973, 4217.56410250, 4245.51282052, 4228.58974352, 4205.51282045, 4129.35897408, 4119.99999973, 4124.48717921, 4132.43589716, 4199.87179474,8.57
4121.79487152, 4122.05128178, 4118.46153819, 4121.66666639, 4123.07692280, 4226.02564096, 4255.51282052, 4249.10256411, 4229.10256404, 4127.69230742, 4121.41025614, 4126.28205101, 4132.94871767, 4198.84615371,8.57
4101.53846119, 4115.64102537, 4106.28205101, 4117.17948691, 4119.35897408, 4225.25641019, 4253.46153847, 4241.92307693, 4219.48717942, 4125.51282024, 4116.02564075, 4120.89743562, 4131.79487152, 4195.12820499,8.57
4112.94871767, 4125.38461511, 4115.64102537, 4124.48717921, 4123.84615357, 4225.25641019, 4255.51282052, 4238.20512821, 4211.28205122, 4123.84615357, 4115.38461511, 4129.35897408, 4133.71794844, 4199.61538448,8.57
4110.64102537, 4120.25640998, 4110.12820485, 4120.76923050, 4124.99999973, 4220.25641019, 4252.05128206, 4241.79487180, 4211.02564096, 4123.58974332, 4115.51282024, 4122.56410229, 4132.43589716, 4193.58974345,8.57
4088.58974325, 4106.28205101, 4095.12820478, 4111.41025614, 4115.12820485, 4213.46153840, 4239.35897436, 4227.94871788, 4197.56410243, 4125.12820485, 4113.46153819, 4112.17948691, 4131.28205101, 4192.05128192,8.57
4120.12820485, 4126.15384588, 4121.79487152, 4126.79487152, 4122.69230742, 4220.12820506, 4243.71794872, 4224.61538455, 4199.61538448, 4125.38461511, 4114.23076896, 4127.30769203, 4134.99999973, 4200.25641012,8.57
4110.89743562, 4122.17948691, 4117.69230742, 4124.23076896, 4125.38461511, 4219.10256404, 4246.92307693, 4230.51282045, 4208.20512814, 4125.64102537, 4112.30769203, 4121.15384588, 4132.43589716, 4191.79487166,8.57
4103.97435870, 4113.46153819, 4112.56410229, 4118.97435870, 4120.51282024, 4202.94871788, 4234.23076923, 4218.20512814, 4193.33333320, 4128.46153819, 4115.64102537, 4119.48717921, 4132.56410229, 4191.28205115,8.57
4131.15384588, 4126.66666639, 4127.05128178, 4127.69230742, 4124.35897408, 4204.74358968, 4239.74358975, 4216.15384609, 4190.25641012, 4129.35897408, 4120.25640998, 4130.51282024, 4133.58974332, 4196.79487166,8.57
4117.82051255, 4123.33333306, 4115.76923050, 4125.25640998, 4123.46153819, 4225.76923070, 4265.38461539, 4239.87179488, 4207.56410250, 4127.82051255, 4117.82051255, 4126.79487152, 4131.28205101, 4193.07692294,8.57
4116.66666639, 4123.58974332, 4116.53846126, 4125.64102537, 4124.99999973, 4231.28205122, 4271.41025648, 4245.25641026, 4202.69230763, 4126.79487152, 4115.76923050, 4126.92307665, 4132.94871767, 4191.02564089,8.57
4121.41025614, 4125.12820485, 4120.12820485, 4126.28205101, 4125.89743562, 4226.02564096, 4261.28205129, 4231.02564096, 4191.15384602, 4126.79487152, 4113.71794844, 4123.20512793, 4131.92307665, 4189.48717935,8.57
4120.12820485, 4126.15384588, 4119.48717921, 4126.66666639, 4123.84615357, 4229.35897429, 4262.30769231, 4240.38461539, 4213.97435891, 4127.05128178, 4114.87179460, 4125.12820485, 4133.20512793, 4193.07692294,8.57
4119.23076896, 4125.89743562, 4119.74358947, 4124.35897408, 4125.25640998, 4229.87179481, 4261.66666667, 4251.53846154, 4234.48717949, 4127.30769203, 4116.92307665, 4124.74358947, 4135.25640998, 4192.56410243,8.57
4120.12820485, 4124.48717921, 4124.48717921, 4124.74358947, 4126.41025614, 4217.05128199, 4243.71794872, 4232.56410250, 4209.10256404, 4128.97435870, 4117.30769203, 4122.05128178, 4134.10256383, 4192.05128192,8.57
4128.33333306, 4130.12820485, 4128.20512793, 4130.12820485, 4127.82051255, 4208.84615378, 4233.46153840, 4212.82051275, 4179.99999986, 4129.99999973, 4116.53846126, 4129.74358947, 4134.99999973, 4194.61538448,8.57
4120.64102537, 4124.87179460, 4119.61538434, 4124.99999973, 4124.99999973, 4217.82051275, 4242.69230770, 4212.94871788, 4181.92307679, 4130.64102537, 4112.56410229, 4127.69230742, 4132.82051255, 4192.30769217,8.57
4123.33333306, 4123.33333306, 4127.69230742, 4125.76923050, 4123.97435870, 4213.20512814, 4237.05128206, 4211.53846147, 4185.76923063, 4128.84615357, 4110.89743562, 4129.61538434, 4132.30769203, 4194.61538448,8.57
4121.66666639, 4126.79487152, 4127.94871767, 4129.87179460, 4124.74358947, 4192.05128192, 4215.89743583, 4203.97435891, 4178.07692294, 4124.74358947, 4112.94871767, 4129.99999973, 4130.76923050, 4192.30769217,8.57
4116.28205101, 4126.66666639, 4119.48717921, 4128.33333306, 4122.82051255, 4189.99999986, 4216.79487173, 4205.25641019, 4180.76923063, 4124.87179460, 4114.99999973, 4126.53846126, 4129.10256383, 4190.76923063,8.57
4116.28205101, 4126.66666639, 4119.48717921, 4128.33333306, 4122.82051255, 4189.99999986, 4216.79487173, 4205.25641019, 4180.76923063, 4124.87179460, 4114.99999973, 4126.53846126, 4129.10256383, 4190.76923063,8.57
4125.76923050, 4127.82051255, 4125.64102537, 4127.94871767, 4124.10256383, 4207.82051275, 4238.20512821, 4219.74358968, 4202.05128199, 4129.10256383, 4114.74358947, 4131.15384588, 4131.66666639, 4195.51282038,8.57
4121.79487152, 4123.33333306, 4123.71794844, 4123.97435870, 4125.64102537, 4223.07692301, 4250.51282052, 4237.05128206, 4219.61538455, 4129.48717921, 4113.33333306, 4129.87179460, 4131.66666639, 4193.07692294,8.57
4124.61538434, 4126.53846126, 4126.41025614, 4126.15384588, 4124.99999973, 4219.35897429, 4242.05128206, 4231.15384609, 4208.46153840, 4123.33333306, 4116.15384588, 4132.56410229, 4131.53846126, 4195.12820499,8.57
4125.64102537, 4128.97435870, 4127.94871767, 4127.17948691, 4124.61538434, 4209.48717942, 4230.76923070, 4212.56410250, 4187.05128192, 4122.56410229, 4117.82051255, 4131.66666639, 4131.79487152, 4196.79487166,8.57
4120.38461511, 4123.84615357, 4123.97435870, 4124.23076896, 4125.25640998, 4212.94871788, 4236.02564103, 4217.94871788, 4189.87179474, 4129.10256383, 4116.79487152, 4129.74358947, 4132.69230742, 4195.25641012,8.57
4129.99999973, 4127.69230742, 4128.97435870, 4128.58974332, 4126.79487152, 4219.74358968, 4241.53846154, 4224.87179481, 4188.07692294, 4128.97435870, 4118.97435870, 4138.07692287, 4134.10256383, 4198.58974345,8.57
4125.12820485, 4126.41025614, 4124.61538434, 4126.15384588, 4127.17948691, 4215.12820506, 4233.46153840, 4213.07692301, 4165.38461518, 4125.12820485, 4119.61538434, 4133.97435870, 4130.12820485, 4196.92307679,8.57
4121.41025614, 4124.87179460, 4126.66666639, 4124.74358947, 4125.89743562, 4203.20512814, 4224.23076917, 4204.74358968, 4160.51282031, 4127.56410229, 4121.66666639, 4132.69230742, 4130.38461511, 4194.35897422,8.57
4123.84615357, 4126.28205101, 4129.74358947, 4126.66666639, 4122.43589716, 4182.56410243, 4208.20512814, 4193.07692294, 4158.20512800, 4129.99999973, 4124.35897408, 4135.64102544, 4134.10256383, 4194.99999986,8.57
4122.82051255, 4124.48717921, 4122.30769203, 4123.46153819, 4122.56410229, 4172.82051269, 4198.58974345, 4186.41025628, 4151.53846133, 4127.82051255, 4124.99999973, 4134.87179460, 4133.84615357, 4198.97435884,8.57
4128.58974332, 4127.05128178, 4124.61538434, 4125.38461511, 4127.17948691, 4193.46153833, 4219.35897429, 4205.89743583, 4168.97435884, 4125.64102537, 4127.05128178, 4138.84615364, 4134.10256383, 4201.15384609,8.57
4122.17948691, 4124.35897408, 4122.56410229, 4122.05128178, 4126.53846126, 4208.33333327, 4236.02564103, 4221.41025634, 4187.69230756, 4124.61538434, 4123.71794844, 4133.07692280, 4132.94871767, 4196.66666653,8.57
4121.41025614, 4124.99999973, 4123.33333306, 4119.74358947, 4122.94871767, 4200.38461525, 4226.79487173, 4215.76923070, 4187.94871781, 4127.30769203, 4121.02564075, 4132.69230742, 4132.56410229, 4196.92307679,8.57
4127.17948691, 4126.28205101, 4127.17948691, 4124.23076896, 4123.07692280, 4188.20512807, 4212.82051275, 4200.89743576, 4170.25641012, 4129.61538434, 4119.35897408, 4134.61538434, 4134.74358947, 4197.43589730,8.57
4122.56410229, 4120.76923050, 4120.12820485, 4123.33333306, 4125.64102537, 4173.33333320, 4197.17948704, 4178.97435884, 4137.94871774, 4126.92307665, 4114.74358947, 4131.15384588, 4133.07692280, 4198.46153833,8.57
4122.94871767, 4123.20512793, 4115.38461511, 4122.56410229, 4125.38461511, 4164.35897415, 4187.69230756, 4169.48717935, 4125.76923050, 4127.43589716, 4114.99999973, 4135.25640998, 4132.82051255, 4202.30769224,8.57
4120.89743562, 4122.94871767, 4116.28205101, 4121.53846126, 4122.30769203, 4176.92307679, 4202.56410250, 4188.71794858, 4146.79487159, 4129.23076896, 4117.82051255, 4131.28205101, 4134.23076896, 4199.99999986,8.57
4122.17948691, 4121.79487152, 4123.07692280, 4120.76923050, 4123.20512793, 4190.25641012, 4218.07692301, 4202.17948711, 4157.43589723, 4126.15384588, 4120.38461511, 4130.25640998, 4133.97435870, 4198.71794858,8.57
4122.56410229, 4123.97435870, 4123.58974332, 4123.46153819, 4124.10256383, 4185.76923063, 4211.92307686, 4190.89743576, 4146.41025621, 4125.89743562, 4119.48717921, 4131.66666639, 4130.64102537, 4198.33333320,8.57
4114.74358947, 4121.53846126, 4116.15384588, 4120.89743562, 4122.05128178, 4182.05128192, 4201.41025634, 4180.12820499, 4144.48717928, 4128.07692280, 4113.71794844, 4124.74358947, 4130.12820485, 4196.15384602,8.57
4118.97435870, 4124.35897408, 4118.07692280, 4118.58974332, 4125.12820485, 4177.30769217, 4193.84615371, 4178.84615371, 4152.17948697, 4127.56410229, 4114.99999973, 4129.48717921, 4133.84615357, 4198.20512807,8.57
4120.38461511, 4124.74358947, 4117.94871767, 4121.53846126, 4127.30769203, 4166.92307672, 4192.82051269, 4184.99999986, 4160.25641005, 4127.17948691, 4119.35897408, 4132.05128178, 4130.25640998, 4196.28205115,8.57
4118.58974332, 4118.97435870, 4117.17948691, 4125.25640998, 4124.61538434, 4162.69230749, 4195.76923063, 4186.66666653, 4158.33333313, 4126.15384588, 4119.10256383, 4128.46153819, 4129.48717921, 4194.48717935,8.57
4118.20512793, 4119.35897408, 4119.74358947, 4123.84615357, 4123.20512793, 4164.87179467, 4189.10256397, 4177.05128192, 4147.56410236, 4126.41025614, 4116.53846126, 4127.82051255, 4133.97435870, 4193.07692294,8.57
4113.33333306, 4122.17948691, 4117.82051255, 4121.02564075, 4122.17948691, 4161.66666646, 4178.58974345, 4166.79487159, 4135.76923056, 4129.35897408, 4112.43589716, 4125.38461511, 4130.64102537, 4193.46153833,8.57
4121.02564075, 4122.94871767, 4119.99999973, 4127.69230742, 4122.94871767, 4162.30769210, 4179.35897422, 4161.41025621, 4120.38461511, 4127.94871767, 4109.48717921, 4126.92307665, 4131.02564075, 4199.61538448,8.57
4120.76923050, 4122.05128178, 4119.74358947, 4128.97435870, 4125.38461511, 4182.05128192, 4193.71794858, 4171.79487166, 4123.58974332, 4125.38461511, 4108.84615357, 4124.99999973, 4134.10256383, 4197.69230756,8.57
4114.61538434, 4122.43589716, 4122.56410229, 4127.69230742, 4126.92307665, 4183.46153833, 4194.74358961, 4181.53846140, 4138.58974339, 4126.15384588, 4110.64102537, 4124.74358947, 4133.58974332, 4193.58974345,8.57
4118.97435870, 4123.20512793, 4127.05128178, 4130.89743562, 4127.94871767, 4140.76923056, 4159.23076903, 4155.51282031, 4115.25640998, 4126.92307665, 4109.23076896, 4127.56410229, 4133.84615357, 4196.92307679,8.57
4118.71794844, 4121.53846126, 4118.97435870, 4123.07692280, 4124.87179460, 4124.99999973, 4143.20512800, 4137.69230749, 4097.17948684, 4126.92307665, 4107.56410229, 4122.94871767, 4133.58974332, 4197.30769217,8.57
4119.87179460, 4124.10256383, 4124.35897408, 4123.20512793, 4122.05128178, 4159.74358954, 4174.99999986, 4166.92307672, 4133.46153819, 4126.79487152, 4111.15384588, 4123.71794844, 4131.53846126, 4193.33333320,8.57
4115.51282024, 4123.20512793, 4127.94871767, 4128.97435870, 4122.56410229, 4161.92307672, 4181.41025628, 4176.53846140, 4151.41025621, 4125.76923050, 4112.56410229, 4123.58974332, 4131.02564075, 4190.12820499,8.57
4116.02564075, 4122.56410229, 4121.79487152, 4128.71794844, 4123.20512793, 4139.99999980, 4157.56410236, 4153.33333313, 4132.56410229, 4127.05128178, 4114.23076896, 4123.46153819, 4133.07692280, 4193.84615371,8.57
4125.76923050, 4127.69230742, 4123.84615357, 4128.71794844, 4123.20512793, 4159.99999980, 4166.79487159, 4158.20512800, 4137.05128185, 4128.97435870, 4116.92307665, 4129.99999973, 4131.79487152, 4194.10256397,8.57
4120.38461511, 4123.58974332, 4120.64102537, 4123.71794844, 4125.51282024, 4175.38461525, 4179.10256397, 4166.66666646, 4145.51282031, 4128.71794844, 4113.20512793, 4127.82051255, 4128.84615357, 4190.38461525,8.57
4122.17948691, 4122.69230742, 4124.99999973, 4126.02564075, 4127.17948691, 4157.43589723, 4164.61538441, 4149.10256390, 4135.51282031, 4129.10256383, 4113.71794844, 4129.99999973, 4134.23076896, 4193.97435884,8.57
4124.74358947, 4124.87179460, 4128.20512793, 4130.25640998, 4123.33333306, 4157.17948697, 4166.28205108, 4150.76923056, 4141.02564082, 4128.07692280, 4118.33333306, 4131.53846126, 4135.51282031, 4191.15384602,8.57
4118.97435870, 4123.58974332, 4124.23076896, 4125.38461511, 4121.53846126, 4167.43589723, 4177.82051269, 4162.69230749, 4137.56410236, 4127.56410229, 4116.02564075, 4126.28205101, 4129.87179460, 4189.10256397,8.57
4123.20512793, 4126.53846126, 4126.92307665, 4125.89743562, 4125.64102537, 4157.05128185, 4168.58974345, 4151.28205108, 4110.51282024, 4129.10256383, 4112.05128178, 4129.35897408, 4132.69230742, 4195.51282038,8.57
4121.02564075, 4123.07692280, 4122.05128178, 4126.53846126, 4125.51282024, 4156.92307672, 4171.28205115, 4156.53846133, 4126.02564075, 4127.94871767, 4113.97435870, 4128.84615357, 4134.99999973, 4194.74358961,8.57
4123.71794844, 4126.15384588, 4127.05128178, 4127.69230742, 4122.94871767, 4167.05128185, 4181.41025628, 4179.35897422, 4164.87179467, 4127.05128178, 4118.71794844, 4132.05128178, 4133.07692280, 4194.23076910,8.57
4128.20512793, 4131.28205101, 4132.82051255, 4126.41025614, 4122.56410229, 4145.64102544, 4157.82051262, 4164.61538441, 4149.10256390, 4128.46153819, 4114.87179460, 4133.07692280, 4131.15384588, 4194.61538448,8.57
4121.15384588, 4123.97435870, 4124.35897408, 4121.66666639, 4123.84615357, 4114.74358947, 4127.94871767, 4129.99999973, 4107.05128178, 4129.74358947, 4107.69230742, 4127.43589716, 4130.64102537, 4194.48717935,8.57
4125.64102537, 4126.28205101, 4126.79487152, 4126.79487152, 4126.41025614, 4119.23076896, 4134.48717921, 4129.35897408, 4106.53846126, 4130.38461511, 4111.28205101, 4132.43589716, 4134.10256383, 4196.02564089,8.57
4124.74358947, 4127.69230742, 4125.51282024, 4129.35897408, 4122.56410229, 4141.15384595, 4155.25641005, 4150.12820492, 4129.87179460, 4128.97435870, 4114.35897408, 4132.30769203, 4133.46153819, 4194.99999986,8.57
4123.33333306, 4124.61538434, 4122.69230742, 4127.17948691, 4119.48717921, 4149.61538441, 4163.71794851, 4160.12820492, 4139.10256390, 4126.66666639, 4113.07692280, 4133.71794844, 4133.97435870, 4197.17948704,8.57
4124.74358947, 4126.53846126, 4124.87179460, 4127.94871767, 4124.23076896, 4162.43589723, 4177.94871781, 4171.28205115, 4151.53846133, 4128.97435870, 4116.92307665, 4136.66666646, 4136.66666646, 4199.87179474,8.57
4117.69230742, 4123.20512793, 4122.82051255, 4125.51282024, 4124.35897408, 4175.38461525, 4190.64102551, 4184.35897422, 4165.12820492, 4131.53846126, 4120.76923050, 4131.53846126, 4134.48717921, 4197.94871781,8.57
4123.71794844, 4126.02564075, 4127.43589716, 4128.84615357, 4120.76923050, 4150.51282031, 4167.17948697, 4163.58974339, 4137.82051262, 4128.33333306, 4116.28205101, 4134.87179460, 4133.58974332, 4195.51282038,8.57
4123.33333306, 4128.07692280, 4125.51282024, 4129.48717921, 4121.92307665, 4138.97435877, 4156.02564082, 4147.17948697, 4126.15384588, 4128.07692280, 4113.07692280, 4130.76923050, 4134.23076896, 4193.58974345,8.57
4118.58974332, 4123.58974332, 4120.25640998, 4124.10256383, 4124.99999973, 4169.23076910, 4183.71794858, 4168.58974345, 4162.82051262, 4131.02564075, 4120.64102537, 4130.64102537, 4136.15384595, 4198.20512807,8.57
4124.48717921, 4126.92307665, 4120.76923050, 4126.53846126, 4124.99999973, 4169.61538448, 4184.35897422, 4169.10256397, 4158.71794851, 4129.48717921, 4121.53846126, 4139.23076903, 4135.51282031, 4200.89743576,8.57
4121.02564075, 4127.05128178, 4114.48717921, 4124.99999973, 4122.82051255, 4143.71794851, 4158.97435877, 4151.53846133, 4128.33333306, 4127.69230742, 4111.53846126, 4132.94871767, 4132.56410229, 4196.41025628,8.57
4123.58974332, 4124.48717921, 4118.46153819, 4123.33333306, 4123.46153819, 4142.94871774, 4161.53846133, 4160.76923056, 4137.56410236, 4129.35897408, 4112.43589716, 4133.20512793, 4136.02564082, 4198.71794858,8.57
4125.76923050, 4125.12820485, 4123.58974332, 4126.02564075, 4122.30769203, 4154.23076903, 4173.58974345, 4168.46153833, 4147.43589723, 4130.25640998, 4115.76923050, 4137.43589723, 4137.17948697, 4201.28205122,8.57
4121.66666639, 4125.38461511, 4120.38461511, 4124.23076896, 4122.05128178, 4147.30769210, 4165.25641005, 4155.38461518, 4134.10256383, 4127.82051255, 4111.15384588, 4137.05128185, 4133.07692280, 4199.99999986,8.57
4124.35897408, 4124.74358947, 4119.74358947, 4123.71794844, 4126.66666639, 4134.87179460, 4153.58974339, 4149.48717928, 4132.05128178, 4127.30769203, 4111.15384588, 4137.30769210, 4131.66666639, 4197.56410243,8.57
4119.23076896, 4119.87179460, 4116.15384588, 4120.64102537, 4124.61538434, 4134.99999973, 4149.35897415, 4146.92307672, 4131.92307665, 4128.33333306, 4113.84615357, 4128.20512793, 4132.69230742, 4194.99999986,8.57
4119.87179460, 4121.53846126, 4118.46153819, 4118.33333306, 4119.35897408, 4141.02564082, 4146.41025621, 4137.82051262, 4125.76923050, 4128.58974332, 4113.33333306, 4129.99999973, 4136.92307672, 4197.69230756,8.57
4123.58974332, 4123.07692280, 4120.25640998, 4119.87179460, 4121.02564075, 4137.56410236, 4144.10256390, 4138.71794851, 4133.33333306, 4128.07692280, 4112.94871767, 4134.10256383, 4137.43589723, 4197.43589730,8.57
4119.10256383, 4119.99999973, 4117.30769203, 4122.82051255, 4124.87179460, 4128.07692280, 4141.28205108, 4141.28205108, 4135.76923056, 4125.64102537, 4115.38461511, 4127.43589716, 4134.61538434, 4196.41025628,8.57
4117.43589716, 4122.43589716, 4119.48717921, 4126.15384588, 4125.51282024, 4136.92307672, 4151.15384595, 4143.58974339, 4130.12820485, 4126.02564075, 4113.33333306, 4126.79487152, 4134.10256383, 4196.92307679,8.57
4112.82051255, 4121.41025614, 4115.64102537, 4119.74358947, 4123.33333306, 4148.33333313, 4158.97435877, 4145.76923056, 4125.12820485, 4128.33333306, 4105.64102537, 4128.33333306, 4131.66666639, 4194.48717935,8.57
4115.38461511, 4120.64102537, 4115.89743562, 4120.51282024, 4123.33333306, 4137.56410236, 4147.05128185, 4137.56410236, 4119.35897408, 4129.61538434, 4103.71794844, 4129.74358947, 4131.66666639, 4197.17948704,8.57
4116.92307665, 4122.17948691, 4120.25640998, 4127.94871767, 4125.12820485, 4134.74358947, 4150.64102544, 4141.15384595, 4130.12820485, 4128.33333306, 4106.41025614, 4126.79487152, 4133.58974332, 4196.66666653,8.57
4113.71794844, 4120.76923050, 4117.43589716, 4124.23076896, 4124.23076896, 4162.05128185, 4184.48717935, 4170.64102551, 4160.89743569, 4125.89743562, 4110.25640998, 4123.71794844, 4131.28205101, 4195.12820499,8.57
4120.64102537, 4123.07692280, 4118.71794844, 4123.33333306, 4124.23076896, 4178.20512807, 4196.92307679, 4187.82051269, 4174.74358961, 4125.25640998, 4116.41025614, 4129.99999973, 4130.51282024, 4198.20512807,8.57
4116.66666639, 4122.69230742, 4117.94871767, 4123.46153819, 4124.23076896, 4157.30769210, 4172.17948704, 4171.79487166, 4157.56410236, 4125.89743562, 4114.10256383, 4124.23076896, 4131.41025614, 4193.20512807,8.57
4114.23076896, 4121.92307665, 4120.38461511, 4124.87179460, 4123.84615357, 4144.99999980, 4166.28205108, 4168.33333320, 4156.15384595, 4128.97435870, 4111.02564075, 4119.23076896, 4132.69230742, 4192.69230756,8.57
4118.46153819, 4122.43589716, 4123.58974332, 4128.20512793, 4123.20512793, 4157.43589723, 4180.76923063, 4183.71794858, 4175.12820499, 4129.87179460, 4116.79487152, 4126.53846126, 4131.41025614, 4197.56410243,8.57
4114.61538434, 4121.53846126, 4119.23076896, 4124.99999973, 4123.33333306, 4160.51282031, 4176.66666653, 4178.71794858, 4168.97435884, 4127.56410229, 4116.28205101, 4126.28205101, 4129.61538434, 4193.97435884,8.57
4120.38461511, 4125.51282024, 4123.84615357, 4128.71794844, 4123.71794844, 4158.46153826, 4173.84615371, 4172.56410243, 4157.05128185, 4127.56410229, 4111.92307665, 4126.28205101, 4133.84615357, 4193.20512807,8.57
4120.25640998, 4123.84615357, 4123.33333306, 4131.15384588, 4122.30769203, 4171.53846140, 4188.07692294, 4183.46153833, 4171.15384602, 4129.48717921, 4113.33333306, 4126.15384588, 4132.82051255, 4194.74358961,8.57
4119.10256383, 4122.82051255, 4121.66666639, 4128.84615357, 4124.99999973, 4179.48717935, 4191.53846140, 4184.99999986, 4176.66666653, 4128.58974332, 4114.48717921, 4125.89743562, 4131.28205101, 4193.71794858,8.57
4122.43589716, 4128.97435870, 4122.94871767, 4127.43589716, 4127.82051255, 4160.38461518, 4173.33333320, 4168.46153833, 4158.46153826, 4127.56410229, 4111.41025614, 4128.33333306, 4138.97435877, 4192.17948704,8.57
4114.48717921, 4125.12820485, 4116.66666639, 4123.58974332, 4125.76923050, 4149.87179467, 4167.17948697, 4161.28205108, 4153.20512800, 4128.07692280, 4107.82051255, 4123.07692280, 4138.07692287, 4191.15384602,8.57
4120.12820485, 4126.28205101, 4123.33333306, 4127.56410229, 4125.64102537, 4171.41025628, 4188.33333320, 4177.82051269, 4168.33333320, 4127.05128178, 4113.46153819, 4124.74358947, 4133.71794844, 4192.05128192,8.57
4122.82051255, 4128.20512793, 4124.99999973, 4129.35897408, 4126.92307665, 4166.79487159, 4186.28205115, 4176.02564089, 4159.99999980, 4127.17948691, 4115.38461511, 4126.92307665, 4136.41025621, 4189.74358961,8.57
4120.12820485, 4124.10256383, 4123.33333306, 4125.12820485, 4127.69230742, 4129.23076896, 4149.35897415, 4143.20512800, 4130.76923050, 4128.07692280, 4107.43589716, 4128.33333306, 4135.64102544, 4190.76923063,8.57
4124.87179460, 4125.89743562, 4128.84615357, 4124.23076896, 4127.17948691, 4132.43589716, 4148.84615364, 4137.30769210, 4130.38461511, 4127.94871767, 4106.66666639, 4134.48717921, 4132.05128178, 4195.12820499,8.57
4116.66666639, 4123.46153819, 4120.51282024, 4121.15384588, 4123.84615357, 4169.74358961, 4191.79487166, 4176.41025628, 4165.38461518, 4128.07692280, 4110.12820485, 4128.97435870, 4132.17948691, 4190.89743576,8.57
4122.43589716, 4126.66666639, 4124.74358947, 4124.87179460, 4122.94871767, 4183.33333320, 4211.66666660, 4207.56410250, 4196.66666653, 4128.71794844, 4109.48717921, 4133.33333306, 4136.02564082, 4190.64102551,8.57
4130.64102537, 4130.51282024, 4132.30769203, 4130.25640998, 4123.58974332, 4175.51282038, 4197.82051269, 4206.41025634, 4200.76923063, 4128.46153819, 4108.07692280, 4137.94871774, 4134.23076896, 4194.10256397,8.57
4121.66666639, 4124.87179460, 4125.12820485, 4126.41025614, 4123.20512793, 4175.12820499, 4193.07692294, 4203.71794865, 4197.82051269, 4128.33333306, 4108.97435870, 4128.71794844, 4131.66666639, 4196.28205115,8.57
4125.12820485, 4126.92307665, 4126.79487152, 4126.28205101, 4125.76923050, 4195.76923063, 4215.89743583, 4224.10256404, 4213.71794865, 4127.17948691, 4111.66666639, 4131.28205101, 4134.74358947, 4198.71794858,8.57
4127.43589716, 4126.28205101, 4126.28205101, 4126.15384588, 4124.99999973, 4202.43589737, 4218.46153840, 4224.23076917, 4208.97435891, 4125.51282024, 4111.15384588, 4133.33333306, 4133.07692280, 4194.87179474,8.57
4127.30769203, 4125.25640998, 4127.94871767, 4129.10256383, 4121.92307665, 4163.97435877, 4171.53846140, 4168.84615371, 4150.12820492, 4128.07692280, 4106.79487152, 4133.71794844, 4132.30769203, 4193.84615371,8.57
4125.64102537, 4126.02564075, 4127.82051255, 4130.89743562, 4122.17948691, 4141.53846133, 4145.38461518, 4136.15384595, 4117.82051255, 4130.38461511, 4102.94871767, 4131.92307665, 4136.15384595, 4195.89743576,8.57
4120.89743562, 4122.17948691, 4121.41025614, 4125.76923050, 4122.56410229, 4167.30769210, 4176.53846140, 4169.87179474, 4159.23076903, 4128.20512793, 4106.79487152, 4129.74358947, 4135.89743569, 4195.76923063,8.57
4128.58974332, 4127.43589716, 4127.56410229, 4126.15384588, 4124.35897408, 4184.87179474, 4199.35897422, 4193.46153833, 4187.56410243, 4128.07692280, 4113.07692280, 4137.82051262, 4133.71794844, 4196.92307679,8.57
4122.30769203, 4128.71794844, 4125.76923050, 4123.20512793, 4125.89743562, 4181.66666653, 4195.64102551, 4189.87179474, 4179.23076910, 4130.25640998, 4109.35897408, 4131.79487152, 4131.66666639, 4194.99999986,8.57
4120.25640998, 4126.66666639, 4119.99999973, 4121.66666639, 4124.87179460, 4182.69230756, 4202.05128199, 4203.71794865, 4193.46153833, 4127.94871767, 4106.66666639, 4128.84615357, 4133.58974332, 4196.15384602,8.57
4128.58974332, 4127.56410229, 4121.92307665, 4125.89743562, 4121.28205101, 4189.23076910, 4216.28205122, 4222.94871788, 4216.92307686, 4125.51282024, 4110.51282024, 4137.69230749, 4134.74358947, 4199.35897422,8.57
4118.20512793, 4122.30769203, 4119.10256383, 4122.94871767, 4120.38461511, 4196.15384602, 4222.17948711, 4226.79487173, 4212.82051275, 4128.71794844, 4111.02564075, 4131.02564075, 4133.20512793, 4198.46153833,8.57
4119.35897408, 4122.94871767, 4122.94871767, 4125.38461511, 4126.28205101, 4184.99999986, 4206.53846147, 4210.25641019, 4188.20512807, 4129.10256383, 4107.30769203, 4129.10256383, 4135.89743569, 4198.33333320,8.57
4122.82051255, 4122.82051255, 4120.76923050, 4127.30769203, 4126.92307665, 4171.41025628, 4190.64102551, 4190.12820499, 4168.58974345, 4125.25640998, 4103.07692280, 4132.30769203, 4135.12820485, 4198.07692294,8.57
4118.33333306, 4118.97435870, 4113.33333306, 4122.43589716, 4122.43589716, 4194.99999986, 4213.58974352, 4206.41025634, 4182.69230756, 4126.53846126, 4106.79487152, 4130.89743562, 4134.35897408, 4199.99999986,8.57
4119.99999973, 4120.89743562, 4118.46153819, 4123.84615357, 4124.48717921, 4215.51282045, 4231.92307686, 4224.87179481, 4196.41025628, 4130.25640998, 4113.97435870, 4132.17948691, 4135.76923056, 4199.35897422,8.57
4117.30769203, 4123.33333306, 4120.25640998, 4123.07692280, 4125.89743562, 4194.74358961, 4209.35897429, 4198.71794858, 4168.46153833, 4128.97435870, 4109.48717921, 4126.53846126, 4130.51282024, 4194.10256397,8.57
4120.76923050, 4125.51282024, 4119.48717921, 4120.25640998, 4122.30769203, 4191.79487166, 4208.97435891, 4191.28205115, 4167.69230749, 4126.92307665, 4107.56410229, 4126.02564075, 4132.30769203, 4195.89743576,8.57
4118.46153819, 4122.17948691, 4116.92307665, 4121.41025614, 4123.58974332, 4212.69230763, 4234.23076923, 4222.56410250, 4207.69230763, 4127.17948691, 4115.38461511, 4127.69230742, 4139.23076903, 4196.53846140,8.57
4113.33333306, 4118.58974332, 4117.94871767, 4122.05128178, 4125.89743562, 4194.61538448, 4216.66666660, 4215.64102558, 4196.28205115, 4127.82051255, 4113.46153819, 4126.02564075, 4137.69230749, 4195.12820499,8.57
4118.58974332, 4122.17948691, 4120.12820485, 4121.15384588, 4121.92307665, 4170.25641012, 4192.56410243, 4191.92307679, 4167.69230749, 4127.05128178, 4106.53846126, 4129.48717921, 4134.48717921, 4196.02564089,8.57
4113.97435870, 4120.25640998, 4113.20512793, 4118.84615357, 4119.23076896, 4188.20512807, 4212.05128199, 4211.41025634, 4192.82051269, 4126.79487152, 4109.35897408, 4125.38461511, 4133.20512793, 4193.46153833,8.57
4113.71794844, 4118.84615357, 4117.30769203, 4123.84615357, 4123.58974332, 4196.79487166, 4221.15384609, 4227.17948711, 4208.07692301, 4128.71794844, 4113.46153819, 4128.07692280, 4133.97435870, 4197.43589730,8.57
4117.30769203, 4122.43589716, 4121.66666639, 4124.23076896, 4126.66666639, 4182.17948704, 4206.92307686, 4212.69230763, 4187.30769217, 4130.38461511, 4109.35897408, 4130.38461511, 4132.94871767, 4199.23076910,8.57
4116.92307665, 4121.15384588, 4119.23076896, 4119.35897408, 4125.25640998, 4182.94871781, 4207.94871788, 4207.05128199, 4182.17948704, 4128.84615357, 4109.99999973, 4122.05128178, 4132.05128178, 4194.35897422,8.57
4120.51282024, 4122.05128178, 4124.61538434, 4127.56410229, 4124.48717921, 4192.69230756, 4214.61538455, 4207.17948711, 4181.28205115, 4127.17948691, 4117.30769203, 4122.56410229, 4136.66666646, 4192.30769217,8.57
4115.38461511, 4121.41025614, 4120.25640998, 4129.23076896, 4124.10256383, 4207.69230763, 4225.12820506, 4213.20512814, 4184.23076910, 4128.58974332, 4117.05128178, 4122.94871767, 4134.87179460, 4191.41025628,8.57
4117.05128178, 4122.17948691, 4120.51282024, 4125.25640998, 4127.30769203, 4228.33333327, 4241.02564103, 4226.02564096, 4195.12820499, 4128.71794844, 4117.05128178, 4123.07692280, 4133.46153819, 4192.94871781,8.57
4121.41025614, 4125.38461511, 4124.74358947, 4129.35897408, 4129.87179460, 4221.66666660, 4231.92307686, 4213.58974352, 4182.43589730, 4127.17948691, 4117.17948691, 4123.46153819, 4135.25640998, 4190.89743576,8.57
4115.12820485, 4122.43589716, 4118.33333306, 4128.46153819, 4125.25640998, 4211.66666660, 4226.15384609, 4209.10256404, 4186.02564089, 4126.41025614, 4116.53846126, 4122.43589716, 4132.17948691, 4190.89743576,8.57
4117.56410229, 4124.48717921, 4122.43589716, 4128.46153819, 4124.23076896, 4224.74358968, 4245.51282052, 4238.84615385, 4223.07692301, 4128.84615357, 4123.46153819, 4127.69230742, 4130.89743562, 4195.76923063,8.57
4115.38461511, 4123.84615357, 4122.43589716, 4126.02564075, 4126.66666639, 4220.12820506, 4240.00000000, 4242.43589744, 4218.33333327, 4129.99999973, 4120.51282024, 4125.12820485, 4130.25640998, 4192.69230756,8.57
4117.56410229, 4121.92307665, 4122.56410229, 4124.10256383, 4126.41025614, 4197.94871781, 4218.33333327, 4219.48717942, 4187.17948704, 4126.66666639, 4109.23076896, 4123.46153819, 4131.66666639, 4192.05128192,8.57
4123.33333306, 4125.38461511, 4128.07692280, 4128.46153819, 4123.97435870, 4199.10256397, 4224.35897429, 4223.07692301, 4195.51282038, 4126.41025614, 4108.97435870, 4127.17948691, 4133.20512793, 4192.43589730,8.57
4114.48717921, 4123.07692280, 4122.56410229, 4126.66666639, 4122.82051255, 4214.10256404, 4238.97435898, 4236.79487180, 4214.99999993, 4128.84615357, 4112.43589716, 4125.25640998, 4130.38461511, 4191.02564089,8.57
4118.33333306, 4124.74358947, 4124.99999973, 4127.17948691, 4125.64102537, 4214.48717942, 4238.07692308, 4233.71794865, 4211.41025634, 4129.35897408, 4112.82051255, 4127.43589716, 4132.05128178, 4193.07692294,8.57
4122.82051255, 4126.41025614, 4125.51282024, 4127.05128178, 4125.12820485, 4208.20512814, 4236.02564103, 4233.20512814, 4209.99999993, 4127.82051255, 4112.05128178, 4126.02564075, 4135.12820485, 4192.82051269,8.57
4122.05128178, 4125.51282024, 4125.76923050, 4125.64102537, 4124.10256383, 4207.69230763, 4234.23076923, 4228.20512814, 4206.53846147, 4128.20512793, 4108.84615357, 4127.17948691, 4135.64102544, 4196.66666653,8.57
4122.94871767, 4124.48717921, 4130.38461511, 4128.46153819, 4126.53846126, 4214.35897429, 4233.84615385, 4216.15384609, 4194.74358961, 4128.84615357, 4105.51282024, 4135.25640998, 4134.35897408, 4199.74358961,8.57
4117.17948691, 4121.15384588, 4124.23076896, 4125.64102537, 4126.15384588, 4216.92307686, 4239.74358975, 4218.84615378, 4194.35897422, 4128.58974332, 4105.76923050, 4131.53846126, 4132.30769203, 4192.56410243,8.57
4126.66666639, 4128.71794844, 4127.69230742, 4125.76923050, 4125.12820485, 4209.61538455, 4237.30769231, 4224.99999993, 4199.10256397, 4129.10256383, 4109.35897408, 4131.53846126, 4133.46153819, 4190.76923063,8.57
4127.17948691, 4131.53846126, 4128.20512793, 4128.07692280, 4124.23076896, 4221.79487173, 4242.94871795, 4234.35897436, 4214.61538455, 4128.46153819, 4109.61538434, 4133.07692280, 4132.56410229, 4193.33333320,8.57
4121.02564075, 4125.76923050, 4121.79487152, 4128.07692280, 4125.38461511, 4240.38461539, 4258.58974359, 4253.71794872, 4237.05128206, 4127.05128178, 4107.05128178, 4132.56410229, 4130.51282024, 4195.89743576,8.57
4126.92307665, 4126.66666639, 4124.74358947, 4127.94871767, 4125.89743562, 4222.56410250, 4250.76923077, 4256.41025641, 4232.94871788, 4128.20512793, 4105.25640998, 4132.69230742, 4132.43589716, 4194.87179474,8.57
4121.53846126, 4124.99999973, 4123.84615357, 4121.15384588, 4122.82051255, 4194.35897422, 4225.89743583, 4235.12820513, 4210.89743583, 4128.71794844, 4103.20512793, 4126.02564075, 4133.84615357, 4193.97435884,8.57
4124.87179460, 4129.99999973, 4126.79487152, 4126.28205101, 4123.46153819, 4200.76923063, 4224.10256404, 4225.38461532, 4210.64102558, 4126.92307665, 4105.64102537, 4135.51282031, 4136.02564082, 4200.12820499,8.57
4125.38461511, 4129.61538434, 4121.66666639, 4132.17948691, 4125.25640998, 4231.28205122, 4253.33333334, 4244.74358975, 4231.28205122, 4126.79487152, 4109.48717921, 4139.10256390, 4134.87179460, 4199.23076910,8.57
4120.76923050, 4121.15384588, 4118.07692280, 4125.38461511, 4123.46153819, 4242.82051282, 4270.51282059, 4253.07692308, 4234.10256411, 4128.07692280, 4110.64102537, 4128.97435870, 4133.20512793, 4197.82051269,8.57
4127.43589716, 4126.15384588, 4127.30769203, 4126.79487152, 4122.94871767, 4225.12820506, 4256.92307693, 4236.28205129, 4220.12820506, 4127.94871767, 4112.69230742, 4131.66666639, 4136.15384595, 4201.41025634,8.57
4121.79487152, 4128.20512793, 4122.43589716, 4128.07692280, 4121.79487152, 4213.84615378, 4246.15384616, 4226.79487173, 4210.76923070, 4127.30769203, 4106.92307665, 4130.12820485, 4134.74358947, 4198.97435884,8.57
4125.64102537, 4127.05128178, 4120.76923050, 4126.15384588, 4122.43589716, 4228.58974352, 4262.30769231, 4246.79487180, 4219.23076917, 4127.69230742, 4104.87179460, 4131.53846126, 4135.51282031, 4199.23076910,8.57
4124.87179460, 4124.48717921, 4118.46153819, 4125.38461511, 4125.64102537, 4240.00000000, 4276.66666674, 4269.87179495, 4238.33333334, 4129.74358947, 4113.58974332, 4129.99999973, 4134.99999973, 4197.56410243,8.57
4124.87179460, 4124.48717921, 4118.46153819, 4125.38461511, 4125.64102537, 4240.00000000, 4276.66666674, 4269.87179495, 4238.33333334, 4129.74358947, 4113.58974332, 4129.99999973, 4134.99999973, 4197.56410243,8.57
4117.69230742, 4121.66666639, 4118.33333306, 4126.53846126, 4123.97435870, 4233.46153840, 4270.76923084, 4273.07692315, 4249.61538462, 4129.35897408, 4115.89743562, 4127.43589716, 4132.56410229, 4197.69230756,8.57
4124.99999973, 4125.38461511, 4125.12820485, 4128.07692280, 4122.94871767, 4219.74358968, 4256.02564103, 4260.25641026, 4238.97435898, 4127.05128178, 4111.53846126, 4134.87179460, 4135.64102544, 4199.61538448,8.57
4120.76923050, 4119.48717921, 4116.41025614, 4122.17948691, 4124.74358947, 4207.30769224, 4244.87179488, 4242.82051282, 4219.10256404, 4127.17948691, 4110.76923050, 4129.23076896, 4133.71794844, 4197.56410243,8.57
4125.25640998, 4119.10256383, 4120.12820485, 4124.61538434, 4125.51282024, 4208.33333327, 4246.53846154, 4234.61538462, 4214.35897429, 4128.58974332, 4116.92307665, 4133.07692280, 4132.17948691, 4201.28205122,8.57
4119.74358947, 4122.17948691, 4121.28205101, 4123.33333306, 4124.23076896, 4218.20512814, 4254.87179488, 4238.71794872, 4217.82051275, 4127.05128178, 4116.66666639, 4133.97435870, 4134.99999973, 4199.23076910,8.57
4109.74358947, 4119.35897408, 4113.71794844, 4116.92307665, 4123.46153819, 4223.58974352, 4255.64102564, 4236.79487180, 4210.76923070, 4125.12820485, 4109.99999973, 4125.76923050, 4132.56410229, 4196.53846140,8.57
4124.74358947, 4123.97435870, 4119.87179460, 4126.41025614, 4123.20512793, 4224.74358968, 4250.00000000, 4219.35897429, 4204.23076917, 4128.84615357, 4111.28205101, 4131.92307665, 4130.89743562, 4199.35897422,8.57
4118.58974332, 4121.79487152, 4116.02564075, 4128.07692280, 4120.51282024, 4225.89743583, 4253.46153847, 4215.76923070, 4217.82051275, 4131.41025614, 4110.76923050, 4125.38461511, 4132.69230742, 4196.41025628,8.57
4116.53846126, 4121.15384588, 4120.89743562, 4122.69230742, 4125.38461511, 4235.64102564, 4270.25641033, 4235.25641026, 4236.66666667, 4128.07692280, 4108.97435870, 4124.99999973, 4135.76923056, 4199.87179474,8.57
4120.25640998, 4124.87179460, 4126.15384588, 4124.87179460, 4128.58974332, 4253.33333334, 4287.17948725, 4257.56410257, 4257.17948718, 4126.15384588, 4114.35897408, 4130.89743562, 4133.97435870, 4198.97435884,8.57
4111.02564075, 4121.41025614, 4117.56410229, 4123.46153819, 4121.41025614, 4257.17948718, 4295.76923084, 4276.53846161, 4277.43589751, 4126.79487152, 4118.84615357, 4126.28205101, 4131.41025614, 4193.71794858,8.57
4122.05128178, 4125.25640998, 4122.94871767, 4124.48717921, 4122.17948691, 4248.07692308, 4296.41025648, 4282.82051289, 4270.25641033, 4128.20512793, 4118.84615357, 4130.12820485, 4136.41025621, 4195.76923063,8.57
4123.07692280, 4125.38461511, 4120.51282024, 4125.25640998, 4126.28205101, 4246.92307693, 4294.61538469, 4278.84615392, 4254.10256411, 4128.71794844, 4114.74358947, 4122.43589716, 4134.87179460, 4193.33333320,8.57
4116.28205101, 4121.28205101, 4116.66666639, 4124.87179460, 4124.61538434, 4247.82051282, 4293.71794879, 4278.71794879, 4261.79487180, 4128.97435870, 4115.51282024, 4121.15384588, 4131.66666639, 4194.23076910,8.57
4122.17948691, 4123.97435870, 4123.20512793, 4127.05128178, 4123.97435870, 4241.15384616, 4289.87179495, 4275.89743597, 4267.69230777, 4129.74358947, 4120.38461511, 4131.41025614, 4133.33333306, 4197.05128192,8.57
4117.17948691, 4121.41025614, 4118.58974332, 4121.41025614, 4121.79487152, 4228.20512814, 4274.61538469, 4252.17948718, 4241.53846154, 4128.58974332, 4117.56410229, 4123.97435870, 4131.41025614, 4194.48717935,8.57
4115.89743562, 4123.20512793, 4124.23076896, 4124.23076896, 4120.38461511, 4229.74358968, 4271.02564110, 4244.23076923, 4228.46153840, 4126.66666639, 4116.28205101, 4123.07692280, 4133.97435870, 4195.12820499,8.57
4116.15384588, 4124.10256383, 4127.94871767, 4129.48717921, 4124.87179460, 4251.79487180, 4292.30769238, 4263.58974359, 4248.07692308, 4127.17948691, 4119.99999973, 4126.28205101, 4135.51282031, 4192.69230756,8.57
4115.64102537, 4118.33333306, 4119.23076896, 4124.10256383, 4127.82051255, 4272.69230777, 4318.58974373, 4285.64102571, 4282.05128212, 4127.82051255, 4124.48717921, 4122.69230742, 4132.05128178, 4192.17948704,8.57
4124.23076896, 4123.46153819, 4123.58974332, 4127.94871767, 4124.99999973, 4287.94871802, 4339.48717970, 4314.74358989, 4315.89743604, 4125.25640998, 4130.76923050, 4127.30769203, 4133.58974332, 4195.64102551,8.57
4119.48717921, 4124.48717921, 4123.58974332, 4127.30769203, 4123.46153819, 4292.43589751, 4336.41025662, 4318.46153860, 4305.89743604, 4124.99999973, 4129.10256383, 4126.15384588, 4133.07692280, 4192.82051269,8.57
4118.20512793, 4119.74358947, 4122.82051255, 4122.17948691, 4128.20512793, 4276.92307700, 4312.69230784, 4284.74358982, 4264.74358975, 4128.33333306, 4122.94871767, 4125.12820485, 4131.15384588, 4194.35897422,8.57
4122.69230742, 4123.07692280, 4125.89743562, 4125.12820485, 4128.07692280, 4237.94871795, 4279.10256418, 4250.12820513, 4234.74358975, 4129.48717921, 4120.89743562, 4131.79487152, 4132.56410229, 4196.79487166,8.57
4113.71794844, 4124.74358947, 4120.38461511, 4125.25640998, 4121.53846126, 4225.89743583, 4266.41025641, 4246.53846154, 4230.12820506, 4130.25640998, 4121.41025614, 4128.58974332, 4131.41025614, 4191.66666653,8.57
4121.53846126, 4126.53846126, 4127.82051255, 4126.41025614, 4122.05128178, 4273.07692315, 4306.79487194, 4283.84615392, 4262.56410257, 4131.41025614, 4125.38461511, 4131.92307665, 4133.84615357, 4193.46153833,8.57
4126.41025614, 4124.99999973, 4129.23076896, 4124.23076896, 4125.25640998, 4298.46153853, 4335.00000021, 4310.25641040, 4289.48717956, 4128.46153819, 4125.38461511, 4134.87179460, 4136.92307672, 4195.12820499,8.57
4118.07692280, 4123.58974332, 4121.66666639, 4122.69230742, 4123.46153819, 4268.33333341, 4306.02564117, 4286.28205136, 4266.53846154, 4124.48717921, 4122.43589716, 4128.07692280, 4135.64102544, 4193.07692294,8.57
4123.84615357, 4127.94871767, 4128.07692280, 4126.79487152, 4123.33333306, 4235.00000000, 4267.43589751, 4245.00000000, 4227.30769224, 4126.53846126, 4123.58974332, 4130.38461511, 4136.02564082, 4195.51282038,8.57
4119.23076896, 4124.23076896, 4123.58974332, 4124.48717921, 4123.71794844, 4252.17948718, 4287.30769238, 4264.87179488, 4254.87179488, 4130.51282024, 4126.41025614, 4127.56410229, 4133.58974332, 4194.35897422,8.57
4118.58974332, 4124.74358947, 4122.69230742, 4125.38461511, 4122.82051255, 4299.48717963, 4337.82051303, 4319.48717963, 4311.92307707, 4127.69230742, 4130.12820485, 4128.33333306, 4133.58974332, 4195.51282038,8.57
4128.58974332, 4126.28205101, 4128.46153819, 4126.66666639, 4125.76923050, 4298.58974366, 4332.94871816, 4315.00000014, 4299.61538476, 4125.12820485, 4129.35897408, 4132.56410229, 4134.99999973, 4197.05128192,8.57
4124.87179460, 4120.12820485, 4124.10256383, 4123.20512793, 4127.43589716, 4245.38461539, 4279.35897443, 4267.56410264, 4247.30769231, 4129.35897408, 4123.58974332, 4129.87179460, 4133.46153819, 4194.61538448,8.57
4121.79487152, 4122.43589716, 4125.38461511, 4125.76923050, 4124.74358947, 4243.20512821, 4282.56410264, 4276.92307700, 4256.66666667, 4130.89743562, 4123.33333306, 4133.58974332, 4135.89743569, 4196.28205115,8.57
4118.33333306, 4122.94871767, 4124.48717921, 4123.71794844, 4122.56410229, 4297.82051289, 4340.89743611, 4330.38461553, 4309.61538476, 4126.79487152, 4128.58974332, 4132.43589716, 4138.97435877, 4196.15384602,8.57
4124.74358947, 4123.58974332, 4126.15384588, 4122.82051255, 4125.51282024, 4285.12820520, 4327.43589758, 4323.20512835, 4302.30769245, 4126.28205101, 4127.82051255, 4134.87179460, 4138.97435877, 4198.46153833,8.57
4128.07692280, 4127.43589716, 4127.17948691, 4127.43589716, 4127.56410229, 4229.99999993, 4266.28205129, 4270.25641033, 4251.53846154, 4128.33333306, 4119.48717921, 4135.12820485, 4135.89743569, 4198.97435884,8.57
4121.41025614, 4126.41025614, 4123.46153819, 4125.25640998, 4124.87179460, 4232.30769224, 4258.20512821, 4248.33333334, 4231.53846147, 4126.41025614, 4117.43589716, 4129.87179460, 4135.38461518, 4196.15384602,8.57
4127.56410229, 4127.43589716, 4126.92307665, 4123.58974332, 4124.23076896, 4253.84615385, 4277.43589751, 4254.35897436, 4239.35897436, 4125.12820485, 4123.58974332, 4133.84615357, 4136.79487159, 4197.43589730,8.57
4124.87179460, 4125.25640998, 4124.87179460, 4120.64102537, 4124.35897408, 4242.82051282, 4279.74358982, 4263.46153847, 4243.07692308, 4127.17948691, 4126.15384588, 4130.38461511, 4133.07692280, 4198.33333320,8.57
4122.82051255, 4125.25640998, 4123.07692280, 4121.15384588, 4124.35897408, 4224.61538455, 4271.28205136, 4261.15384616, 4227.94871788, 4127.56410229, 4124.23076896, 4130.64102537, 4134.61538434, 4201.28205122,8.57
4121.92307665, 4125.51282024, 4122.43589716, 4123.33333306, 4122.05128178, 4225.64102558, 4265.25641026, 4249.23076923, 4210.76923070, 4127.17948691, 4121.79487152, 4131.28205101, 4136.79487159, 4197.82051269,8.57
4120.64102537, 4121.41025614, 4122.69230742, 4121.02564075, 4120.38461511, 4215.51282045, 4251.66666667, 4234.61538462, 4197.94871781, 4128.58974332, 4118.97435870, 4130.89743562, 4134.74358947, 4196.53846140,8.57
4125.89743562, 4123.71794844, 4124.23076896, 4123.58974332, 4123.07692280, 4187.56410243, 4234.23076923, 4221.53846147, 4186.92307679, 4128.07692280, 4117.05128178, 4134.74358947, 4133.58974332, 4199.74358961,8.57
4116.92307665, 4124.10256383, 4114.87179460, 4124.61538434, 4121.53846126, 4178.46153833, 4226.28205122, 4214.61538455, 4185.25641012, 4126.15384588, 4113.58974332, 4126.53846126, 4131.79487152, 4198.33333320,8.57
4119.61538434, 4122.30769203, 4117.69230742, 4124.74358947, 4120.38461511, 4182.56410243, 4219.23076917, 4204.48717942, 4175.64102551, 4126.28205101, 4110.25640998, 4130.76923050, 4135.12820485, 4201.41025634,8.57
4120.38461511, 4121.28205101, 4119.35897408, 4124.23076896, 4122.82051255, 4165.89743569, 4204.87179481, 4191.28205115, 4158.58974339, 4125.51282024, 4108.07692280, 4131.79487152, 4136.28205108, 4197.69230756,8.57
4115.89743562, 4122.05128178, 4116.53846126, 4121.41025614, 4124.35897408, 4147.56410236, 4199.61538448, 4193.58974345, 4164.35897415, 4122.69230742, 4109.10256383, 4124.99999973, 4132.69230742, 4194.74358961,8.57
4122.56410229, 4123.58974332, 4120.51282024, 4124.48717921, 4127.43589716, 4151.15384595, 4199.35897422, 4192.94871781, 4164.61538441, 4123.71794844, 4113.97435870, 4130.89743562, 4131.79487152, 4197.43589730,8.57
4113.58974332, 4118.20512793, 4112.94871767, 4123.20512793, 4128.20512793, 4151.66666646, 4192.43589730, 4186.41025628, 4152.69230749, 4127.05128178, 4111.79487152, 4128.58974332, 4130.64102537, 4196.02564089,8.57
4117.56410229, 4121.02564075, 4118.07692280, 4121.92307665, 4126.15384588, 4128.84615357, 4177.69230756, 4179.87179474, 4142.69230749, 4127.94871767, 4109.87179460, 4130.76923050, 4134.61538434, 4199.61538448,8.57
4118.33333306, 4122.82051255, 4119.87179460, 4123.33333306, 4123.20512793, 4110.38461511, 4164.87179467, 4166.53846133, 4121.15384588, 4128.20512793, 4113.84615357, 4125.25640998, 4133.46153819, 4194.48717935,8.57
4111.66666639, 4115.51282024, 4113.46153819, 4123.84615357, 4124.23076896, 4129.10256383, 4181.92307679, 4176.15384602, 4125.51282024, 4128.71794844, 4116.79487152, 4120.89743562, 4128.84615357, 4191.41025628,8.57
4125.12820485, 4121.66666639, 4125.38461511, 4128.33333306, 4127.43589716, 4144.10256390, 4201.28205122, 4196.79487166, 4158.46153826, 4128.58974332, 4120.89743562, 4132.43589716, 4133.97435870, 4196.79487166,8.57
4117.56410229, 4123.58974332, 4119.87179460, 4123.07692280, 4123.71794844, 4130.12820485, 4182.43589730, 4178.71794858, 4147.69230749, 4128.58974332, 4116.28205101, 4120.89743562, 4131.92307665, 4190.89743576,8.57
4114.74358947, 4121.53846126, 4118.33333306, 4121.79487152, 4122.05128178, 4128.20512793, 4172.43589730, 4160.51282031, 4119.61538434, 4127.30769203, 4109.23076896, 4121.79487152, 4129.35897408, 4191.92307679,8.57
4120.89743562, 4124.35897408, 4123.97435870, 4130.51282024, 4122.94871767, 4138.71794851, 4188.71794858, 4178.20512807, 4141.41025621, 4125.76923050, 4108.46153819, 4129.10256383, 4131.79487152, 4194.48717935,8.57
4112.43589716, 4120.89743562, 4117.30769203, 4125.25640998, 4121.02564075, 4132.17948691, 4182.94871781, 4177.17948704, 4149.10256390, 4126.53846126, 4100.64102530, 4120.38461511, 4127.94871767, 4193.71794858,8.57
4122.17948691, 4125.64102537, 4125.76923050, 4124.23076896, 4122.69230742, 4126.92307665, 4172.17948704, 4167.56410236, 4126.79487152, 4127.94871767, 4092.43589709, 4129.99999973, 4128.97435870, 4194.87179474,8.57
4122.43589716, 4127.43589716, 4124.23076896, 4127.56410229, 4122.69230742, 4129.35897408, 4181.28205115, 4181.02564089, 4132.94871767, 4125.76923050, 4088.58974325, 4127.69230742, 4129.61538434, 4189.61538448,8.57
4117.82051255, 4123.20512793, 4119.87179460, 4124.99999973, 4123.58974332, 4113.46153819, 4175.12820499, 4178.58974345, 4141.66666646, 4124.99999973, 4087.17948684, 4122.43589716, 4129.99999973, 4192.94871781,8.57
4126.79487152, 4125.38461511, 4125.76923050, 4128.71794844, 4126.79487152, 4107.69230742, 4167.69230749, 4168.71794858, 4129.61538434, 4128.07692280, 4087.82051248, 4130.64102537, 4131.41025614, 4192.17948704,8.57
4122.17948691, 4123.46153819, 4118.58974332, 4127.56410229, 4122.56410229, 4107.94871767, 4162.05128185, 4159.99999980, 4106.15384588, 4127.82051255, 4084.10256376, 4126.28205101, 4127.30769203, 4187.82051269,8.57
4124.35897408, 4126.92307665, 4124.10256383, 4128.20512793, 4118.58974332, 4108.84615357, 4159.61538441, 4148.20512800, 4100.38461504, 4127.94871767, 4085.64102530, 4128.97435870, 4129.10256383, 4198.58974345,8.57
4119.48717921, 4124.74358947, 4127.05128178, 4130.64102537, 4120.64102537, 4152.17948697, 4198.07692294, 4175.25641012, 4143.58974339, 4131.15384588, 4093.20512786, 4130.64102537, 4131.28205101, 4199.74358961,8.57
4114.10256383, 4121.15384588, 4121.15384588, 4128.33333306, 4123.58974332, 4167.05128185, 4214.74358968, 4199.35897422, 4167.17948697, 4129.10256383, 4097.69230735, 4126.92307665, 4127.94871767, 4194.99999986,8.57
4126.66666639, 4128.84615357, 4128.84615357, 4128.84615357, 4125.25640998, 4114.35897408, 4169.35897422, 4167.82051262, 4125.64102537, 4127.17948691, 4094.61538427, 4132.69230742, 4127.30769203, 4197.94871781,8.57
4119.87179460, 4123.58974332, 4125.12820485, 4126.15384588, 4121.92307665, 4103.07692280, 4162.05128185, 4161.41025621, 4115.51282024, 4129.61538434, 4087.94871761, 4129.74358947, 4127.43589716, 4196.66666653,8.57
4121.53846126, 4121.15384588, 4124.87179460, 4128.33333306, 4122.82051255, 4133.84615357, 4195.89743576, 4197.69230756, 4154.23076903, 4129.87179460, 4088.46153812, 4129.10256383, 4130.38461511, 4195.89743576,8.57
4128.20512793, 4126.41025614, 4128.97435870, 4129.35897408, 4126.92307665, 4101.53846119, 4166.02564082, 4175.12820499, 4134.10256383, 4127.30769203, 4086.41025607, 4133.33333306, 4129.99999973, 4194.61538448,8.57
4118.58974332, 4123.46153819, 4121.92307665, 4123.46153819, 4125.25640998, 4097.17948684, 4155.25641005, 4157.30769210, 4116.15384588, 4127.94871767, 4083.71794837, 4131.53846126, 4127.43589716, 4192.69230756,8.57
4122.69230742, 4126.28205101, 4124.35897408, 4126.53846126, 4124.23076896, 4149.99999980, 4202.05128199, 4193.71794858, 4153.20512800, 4128.46153819, 4089.61538427, 4135.38461518, 4132.43589716, 4196.92307679,8.57
4121.41025614, 4126.79487152, 4124.23076896, 4126.02564075, 4123.46153819, 4132.05128178, 4193.07692294, 4185.51282038, 4145.51282031, 4127.05128178, 4089.87179453, 4132.17948691, 4132.69230742, 4196.79487166,8.57
4119.99999973, 4126.92307665, 4123.20512793, 4126.28205101, 4124.10256383, 4089.10256376, 4157.43589723, 4149.48717928, 4100.38461504, 4128.07692280, 4086.02564068, 4130.51282024, 4129.99999973, 4196.02564089,8.57
4125.51282024, 4127.94871767, 4122.43589716, 4126.92307665, 4125.12820485, 4089.74358940, 4151.66666646, 4135.51282031, 4078.71794837, 4129.23076896, 4085.76923043, 4136.41025621, 4133.97435870, 4199.48717935,8.57
4122.56410229, 4124.10256383, 4117.56410229, 4120.51282024, 4120.76923050, 4085.51282017, 4140.89743569, 4115.64102537, 4062.82051241, 4129.10256383, 4082.94871761, 4130.76923050, 4132.82051255, 4201.02564096,8.57
4125.76923050, 4126.79487152, 4126.41025614, 4124.35897408, 4119.74358947, 4060.12820472, 4119.23076896, 4097.30769196, 4046.41025600, 4129.48717921, 4081.15384581, 4131.53846126, 4129.10256383, 4202.17948711,8.57
4123.07692280, 4124.99999973, 4125.51282024, 4126.02564075, 4121.66666639, 4050.38461497, 4124.10256383, 4114.10256383, 4057.69230728, 4127.43589716, 4081.66666632, 4134.87179460, 4130.89743562, 4199.87179474,8.57
4122.30769203, 4123.84615357, 4118.07692280, 4124.99999973, 4122.43589716, 4032.05128157, 4119.74358947, 4117.82051255, 4060.89743548, 4126.15384588, 4076.92307658, 4131.66666639, 4131.41025614, 4199.74358961,8.57
4125.25640998, 4127.69230742, 4121.66666639, 4126.41025614, 4122.94871767, 3989.48717894, 4075.51282017, 4078.58974325, 4028.46153798, 4127.94871767, 4071.53846119, 4132.30769203, 4129.61538434, 4202.69230763,8.57
4117.82051255, 4122.56410229, 4120.12820485, 4120.76923050, 4123.07692280, 3965.89743528, 4044.35897395, 4050.76923036, 4001.79487124, 4126.53846126, 4073.46153812, 4128.97435870, 4128.97435870, 4200.89743576,8.57
4122.17948691, 4127.17948691, 4121.79487152, 4119.74358947, 4124.99999973, 3969.10256348, 4050.12820472, 4053.33333292, 3998.20512765, 4126.66666639, 4078.46153812, 4132.82051255, 4131.02564075, 4200.64102551,8.57
4121.92307665, 4129.48717921, 4120.64102537, 4121.41025614, 4125.38461511, 3981.15384560, 4062.69230728, 4058.97435856, 3999.23076868, 4131.41025614, 4075.64102530, 4134.10256383, 4130.76923050, 4198.07692294,8.57
4118.58974332, 4120.64102537, 4118.84615357, 4123.20512793, 4123.97435870, 3979.74358919, 4054.87179446, 4044.35897395, 3986.28205073, 4131.79487152, 4070.64102530, 4127.30769203, 4129.23076896, 4197.05128192,8.57
4124.35897408, 4121.79487152, 4119.48717921, 4124.10256383, 4123.97435870, 3978.07692252, 4053.20512779, 4041.15384574, 3985.38461483, 4127.43589716, 4071.92307658, 4129.61538434, 4131.92307665, 4197.69230756,8.57
4119.48717921, 4123.07692280, 4114.61538434, 4118.46153819, 4122.56410229, 3969.87179425, 4048.07692266, 4041.02564061, 3981.79487124, 4127.05128178, 4067.43589702, 4130.12820485, 4130.89743562, 4195.12820499,8.57
4123.20512793, 4123.46153819, 4121.28205101, 4121.66666639, 4123.33333306, 3946.02564040, 4022.94871747, 4014.48717900, 3948.84615322, 4128.97435870, 4059.99999959, 4132.43589716, 4129.87179460, 4197.43589730,8.57
4119.74358947, 4122.43589716, 4119.48717921, 4124.74358947, 4126.41025614, 3945.76923015, 4020.64102516, 4007.94871747, 3940.12820451, 4128.46153819, 4061.41025600, 4129.99999973, 4129.23076896, 4197.17948704,8.57
4113.46153819, 4121.02564075, 4117.82051255, 4120.51282024, 4125.64102537, 3957.17948656, 4034.23076875, 4026.15384567, 3964.35897374, 4127.69230742, 4067.17948677, 4124.74358947, 4128.33333306, 4196.92307679,8.57
4122.82051255, 4122.56410229, 4129.48717921, 4125.25640998, 4124.35897408, 3935.38461469, 4018.07692259, 4012.43589695, 3962.56410194, 4127.43589716, 4069.48717907, 4127.94871767, 4128.97435870, 4198.84615371,8.57
4114.99999973, 4120.51282024, 4121.15384588, 4124.35897408, 4125.12820485, 3903.20512744, 3991.53846099, 3987.05128150, 3947.56410194, 4127.17948691, 4064.74358933, 4124.35897408, 4125.89743562, 4197.43589730,8.57
4117.94871767, 4125.51282024, 4121.15384588, 4123.58974332, 4125.64102537, 3914.74358905, 4010.76923029, 4018.84615336, 3978.46153791, 4126.92307665, 4064.23076882, 4127.69230742, 4127.30769203, 4199.61538448,8.57
4117.30769203, 4125.12820485, 4123.33333306, 4126.79487152, 4124.87179460, 3944.99999938, 4046.15384574, 4060.51282010, 4011.28205080, 4126.92307665, 4066.02564061, 4126.02564075, 4129.10256383, 4194.35897422,8.57
4112.56410229, 4120.64102537, 4118.07692280, 4124.48717921, 4125.64102537, 3930.89743521, 4025.25640977, 4024.99999952, 3968.58974297, 4128.97435870, 4059.48717907, 4123.58974332, 4127.30769203, 4189.87179474,8.57
4128.33333306, 4130.64102537, 4125.76923050, 4128.07692280, 4125.25640998, 3890.64102488, 3975.64102509, 3957.94871733, 3893.71794796, 4128.84615357, 4051.92307651, 4132.43589716, 4127.56410229, 4192.05128192,8.57
4120.64102537, 4126.28205101, 4122.05128178, 4127.69230742, 4122.69230742, 3900.38461462, 3987.82051227, 3972.43589688, 3910.51281982, 4126.66666639, 4052.94871754, 4123.46153819, 4124.87179460, 4191.53846140,8.57
4136.28205108, 4129.23076896, 4136.53846133, 4132.56410229, 4131.66666639, 3946.92307630, 4041.92307651, 4038.33333292, 3985.64102509, 4127.43589716, 4064.35897395, 4130.25640998, 4131.28205101, 4198.33333320,8.57
4141.53846133, 4135.12820485, 4140.64102544, 4134.35897408, 4134.23076896, 3951.53846092, 4042.43589702, 4043.58974318, 3992.94871740, 4127.69230742, 4068.33333292, 4134.23076896, 4135.25640998, 4194.35897422,8.57
4129.99999973, 4130.51282024, 4132.69230742, 4128.97435870, 4129.35897408, 3922.30769162, 4003.71794817, 4006.28205080, 3961.15384553, 4125.25640998, 4064.23076882, 4126.79487152, 4130.25640998, 4196.92307679,8.57
4159.87179467, 4145.64102544, 4157.05128185, 4143.20512800, 4139.74358954, 3918.84615316, 4006.02564054, 4017.56410208, 3980.51281996, 4127.30769203, 4073.33333299, 4142.69230749, 4133.20512793, 4205.25641019,8.57
4127.30769203, 4133.07692280, 4133.58974332, 4135.51282031, 4131.53846126, 3925.25640957, 4024.61538413, 4045.51282010, 4004.35897388, 4129.74358947, 4078.46153812, 4126.66666639, 4129.23076896, 4186.92307679,8.57
4121.92307665, 4127.69230742, 4130.64102537, 4131.53846126, 4123.33333306, 3909.87179418, 4006.66666618, 4017.17948670, 3962.82051220, 4127.69230742, 4074.48717914, 4125.38461511, 4129.74358947, 4191.02564089,8.57
4145.12820492, 4137.94871774, 4146.53846133, 4138.84615364, 4134.23076896, 3898.33333257, 3987.82051227, 3983.20512765, 3920.64102495, 4127.94871767, 4068.33333292, 4139.61538441, 4131.79487152, 4194.74358961,8.57
4111.28205101, 4117.94871767, 4114.35897408, 4122.05128178, 4129.48717921, 3913.20512751, 4002.43589688, 3994.99999945, 3934.35897367, 4130.25640998, 4059.99999959, 4124.10256383, 4124.23076896, 4187.43589730,8.57
4134.74358947, 4127.94871767, 4133.84615357, 4132.69230742, 4129.10256383, 3937.69230700, 4029.48717900, 4021.41025593, 3969.74358912, 4129.87179460, 4063.84615343, 4137.17948697, 4132.05128178, 4200.51282038,8.57
4125.64102537, 4130.38461511, 4134.23076896, 4135.89743569, 4129.99999973, 3953.71794810, 4044.87179446, 4041.02564061, 3996.79487124, 4128.20512793, 4067.05128164, 4132.82051255, 4128.97435870, 4194.23076910,8.57
4109.87179460, 4122.17948691, 4117.82051255, 4121.41025614, 4127.17948691, 3952.17948656, 4039.35897395, 4041.15384574, 4000.12820458, 4127.43589716, 4069.61538420, 4126.15384588, 4120.89743562, 4195.38461525,8.57
4109.87179460, 4122.17948691, 4117.82051255, 4121.41025614, 4127.17948691, 3952.17948656, 4039.35897395, 4041.15384574, 4000.12820458, 4127.43589716, 4069.61538420, 4126.15384588, 4120.89743562, 4195.38461525,8.57
4134.87179460, 4129.74358947, 4132.05128178, 4129.48717921, 4128.46153819, 3939.74358912, 4029.61538413, 4029.74358926, 3995.51281996, 4127.94871767, 4075.64102530, 4137.69230749, 4126.79487152, 4201.53846147,8.57
4134.87179460, 4129.74358947, 4132.05128178, 4129.48717921, 4128.46153819, 3939.74358912, 4029.61538413, 4029.74358926, 3995.51281996, 4127.94871767, 4075.64102530, 4137.69230749, 4126.79487152, 4201.53846147,8.57
4109.61538434, 4117.82051255, 4118.71794844, 4125.64102537, 4121.28205101, 3937.17948649, 4040.89743548, 4044.87179446, 4009.99999952, 4127.17948691, 4073.46153812, 4124.23076896, 4125.38461511, 4194.35897422,8.57
4127.69230742, 4126.41025614, 4131.92307665, 4125.89743562, 4124.48717921, 3939.87179425, 4051.02564061, 4064.99999959, 4016.28205080, 4126.28205101, 4075.89743555, 4135.76923056, 4127.43589716, 4201.92307686,8.57
4129.48717921, 4127.30769203, 4126.79487152, 4123.71794844, 4124.74358947, 3928.97435828, 4032.69230721, 4037.05128164, 3982.94871740, 4128.84615357, 4067.69230728, 4136.28205108, 4125.89743562, 4196.15384602,8.57
4111.92307665, 4117.05128178, 4115.12820485, 4120.12820485, 4120.89743562, 3906.79487110, 4010.51282003, 4002.05128150, 3954.48717887, 4130.51282024, 4053.97435856, 4129.48717921, 4125.12820485, 4193.84615371,8.57
4133.07692280, 4129.35897408, 4137.43589723, 4130.12820485, 4126.28205101, 3901.28205052, 4011.28205080, 4009.87179439, 3968.20512758, 4128.46153819, 4055.89743548, 4144.87179467, 4133.58974332, 4197.43589730,8.57
4111.53846126, 4122.56410229, 4123.07692280, 4123.07692280, 4124.74358947, 3922.30769162, 4029.48717900, 4032.30769183, 3992.30769176, 4126.28205101, 4052.56410215, 4133.20512793, 4128.84615357, 4191.53846140,8.57
4121.66666639, 4125.76923050, 4125.51282024, 4126.28205101, 4126.53846126, 3942.05128143, 4051.41025600, 4048.07692266, 4001.66666611, 4128.20512793, 4046.28205087, 4136.28205108, 4128.58974332, 4200.64102551,8.57
4129.23076896, 4130.12820485, 4130.51282024, 4129.61538434, 4125.38461511, 3970.64102502, 4087.30769196, 4085.51282017, 4034.74358926, 4129.23076896, 4047.43589702, 4139.35897415, 4129.48717921, 4197.17948704,8.57
4111.66666639, 4119.48717921, 4121.79487152, 4120.38461511, 4119.61538434, 3993.20512765, 4110.12820485, 4118.46153819, 4079.74358940, 4125.12820485, 4049.48717907, 4129.61538434, 4125.38461511, 4195.25641012,8.57
4133.46153819, 4130.12820485, 4137.17948697, 4126.66666639, 4124.87179460, 3957.94871733, 4074.61538427, 4078.33333299, 4044.35897395, 4126.28205101, 4046.02564061, 4142.43589723, 4128.58974332, 4204.99999993,8.57
4116.53846126, 4125.25640998, 4121.79487152, 4122.69230742, 4122.94871767, 3919.35897367, 4038.84615343, 4033.20512772, 3981.79487124, 4130.51282024, 4041.28205087, 4132.94871767, 4125.89743562, 4196.41025628,8.57
4117.82051255, 4123.07692280, 4119.99999973, 4122.56410229, 4123.58974332, 3933.07692239, 4052.43589702, 4054.61538420, 3994.74358919, 4129.74358947, 4049.87179446, 4130.12820485, 4128.20512793, 4197.05128192,8.57
4128.20512793, 4127.82051255, 4128.33333306, 4127.05128178, 4127.56410229, 3937.17948649, 4054.35897395, 4058.84615343, 4005.38461490, 4128.33333306, 4051.28205087, 4135.76923056, 4131.92307665, 4197.82051269,8.57
4110.64102537, 4119.23076896, 4118.58974332, 4121.28205101, 4124.48717921, 3919.35897367, 4033.84615336, 4026.92307644, 3976.79487124, 4128.20512793, 4041.79487138, 4128.46153819, 4126.41025614, 4196.53846140,8.57
4133.71794844, 4126.79487152, 4132.94871767, 4127.69230742, 4128.97435870, 3939.87179425, 4048.46153805, 4042.30769189, 3996.28205073, 4126.53846126, 4047.30769189, 4141.41025621, 4128.84615357, 4203.71794865,8.57
4122.30769203, 4122.05128178, 4121.28205101, 4122.56410229, 4125.89743562, 3957.30769169, 4056.41025600, 4060.38461497, 4020.64102516, 4126.28205101, 4049.99999959, 4136.02564082, 4127.94871767, 4194.10256397,8.57
4118.33333306, 4121.66666639, 4121.15384588, 4121.53846126, 4122.82051255, 3924.35897367, 4011.02564054, 4009.99999952, 3966.53846092, 4128.46153819, 4042.05128164, 4130.51282024, 4126.79487152, 4192.69230756,8.57
4132.94871767, 4129.35897408, 4130.38461511, 4130.64102537, 4126.66666639, 3918.33333264, 4001.66666611, 3987.17948663, 3941.41025579, 4127.69230742, 4044.23076882, 4134.23076896, 4129.35897408, 4194.48717935,8.57
4109.61538434, 4118.46153819, 4109.23076896, 4119.74358947, 4120.51282024, 3972.56410201, 4066.02564061, 4052.69230728, 4011.66666618, 4127.43589716, 4052.69230728, 4126.53846126, 4127.30769203, 4190.89743576,8.57
4123.33333306, 4124.48717921, 4123.07692280, 4122.30769203, 4123.46153819, 3984.10256355, 4081.02564068, 4075.12820478, 4032.56410208, 4130.38461511, 4056.15384574, 4135.76923056, 4130.89743562, 4198.84615371,8.57
4116.79487152, 4123.58974332, 4123.20512793, 4125.38461511, 4126.02564075, 3925.64102495, 4013.58974311, 4002.43589688, 3960.64102502, 4129.10256383, 4050.25640984, 4127.82051255, 4126.02564075, 4195.12820499,8.57
4106.15384588, 4118.33333306, 4112.94871767, 4118.20512793, 4122.69230742, 3904.87179411, 3994.61538406, 3977.17948663, 3936.66666598, 4125.25640998, 4052.30769189, 4123.84615357, 4121.66666639, 4196.79487166,8.57
4125.25640998, 4125.89743562, 4124.48717921, 4122.69230742, 4126.02564075, 3953.20512758, 4056.41025600, 4049.99999959, 4002.69230714, 4127.17948691, 4064.61538420, 4134.35897408, 4126.92307665, 4198.33333320,8.57
4108.33333306, 4121.15384588, 4117.82051255, 4123.07692280, 4125.38461511, 3976.02564047, 4081.66666632, 4081.92307658, 4030.12820465, 4130.51282024, 4063.84615343, 4121.66666639, 4125.12820485, 4189.35897422,8.57
4114.87179460, 4125.25640998, 4124.99999973, 4127.30769203, 4125.51282024, 3945.89743528, 4041.79487138, 4034.61538413, 3981.92307637, 4129.48717921, 4064.23076882, 4126.53846126, 4128.20512793, 4194.74358961,8.57
4120.76923050, 4122.30769203, 4121.15384588, 4124.48717921, 4123.07692280, 3934.74358905, 4030.12820465, 4027.94871747, 3978.33333278, 4127.69230742, 4066.02564061, 4128.20512793, 4124.99999973, 4192.30769217,8.57
4113.46153819, 4113.84615357, 4114.10256383, 4115.25640998, 4120.64102537, 3944.35897374, 4049.74358933, 4055.76923036, 4009.99999952, 4126.79487152, 4061.66666625, 4124.35897408, 4121.92307665, 4192.43589730,8.57
4123.71794844, 4124.35897408, 4128.33333306, 4120.76923050, 4125.12820485, 3932.69230700, 4033.71794824, 4027.43589695, 3973.84615329, 4126.28205101, 4059.99999959, 4133.07692280, 4129.61538434, 4195.89743576,8.57
4109.10256383, 4120.51282024, 4118.46153819, 4122.05128178, 4122.94871767, 3917.05128136, 4002.94871740, 3985.76923022, 3926.15384546, 4127.43589716, 4057.17948677, 4122.17948691, 4127.69230742, 4189.48717935,8.57
4114.10256383, 4118.33333306, 4119.61538434, 4125.76923050, 4123.33333306, 3912.30769162, 3998.97435842, 3983.46153791, 3931.66666598, 4128.58974332, 4056.66666625, 4125.25640998, 4125.38461511, 4196.53846140,8.57
4119.61538434, 4123.33333306, 4124.99999973, 4123.46153819, 4124.10256383, 3923.07692239, 4010.25640977, 3988.46153791, 3937.94871726, 4127.30769203, 4056.92307651, 4131.66666639, 4122.56410229, 4195.12820499,8.57
4108.33333306, 4119.99999973, 4117.05128178, 4114.10256383, 4122.30769203, 3947.30769169, 4026.28205080, 3999.10256355, 3943.07692246, 4126.66666639, 4063.58974318, 4124.87179460, 4120.51282024, 4190.12820499,8.57
4119.87179460, 4125.51282024, 4126.66666639, 4124.74358947, 4123.97435870, 3945.89743528, 4029.23076875, 4009.35897388, 3959.10256348, 4129.10256383, 4075.25640991, 4131.28205101, 4126.79487152, 4195.89743576,8.57
4112.82051255, 4122.56410229, 4121.15384588, 4125.25640998, 4122.82051255, 3925.38461469, 4018.33333285, 4000.51281996, 3954.74358912, 4128.97435870, 4070.51282017, 4127.05128178, 4126.02564075, 4192.43589730,8.57
4114.35897408, 4119.10256383, 4117.56410229, 4118.97435870, 4123.84615357, 3932.56410187, 4021.28205080, 4002.56410201, 3954.35897374, 4125.89743562, 4069.10256369, 4126.02564075, 4125.64102537, 4193.97435884,8.57
4121.92307665, 4123.84615357, 4121.02564075, 4124.74358947, 4126.28205101, 3939.99999938, 4024.23076875, 4007.56410208, 3964.48717887, 4126.28205101, 4081.79487145, 4128.33333306, 4128.46153819, 4196.28205115,8.57
4112.69230742, 4121.53846126, 4114.35897408, 4123.71794844, 4123.58974332, 3923.07692239, 4010.64102516, 3986.92307637, 3946.92307630, 4128.07692280, 4085.64102530, 4122.17948691, 4126.66666639, 4194.35897422,8.57
4123.84615357, 4124.61538434, 4122.69230742, 4124.87179460, 4122.05128178, 3908.97435828, 3995.38461483, 3969.10256348, 3922.30769162, 4127.69230742, 4081.41025607, 4133.07692280, 4129.10256383, 4196.53846140,8.57
4117.94871767, 4122.05128178, 4118.84615357, 4124.35897408, 4119.61538434, 3889.99999924, 3968.71794810, 3947.94871733, 3893.33333257, 4128.07692280, 4076.79487145, 4132.82051255, 4129.74358947, 4193.20512807,8.57
4115.64102537, 4119.35897408, 4115.12820485, 4121.66666639, 4123.07692280, 3874.48717873, 3949.23076861, 3924.23076854, 3873.46153770, 4128.46153819, 4075.51282017, 4127.05128178, 4127.69230742, 4193.97435884,8.57
4123.33333306, 4123.84615357, 4123.20512793, 4124.35897408, 4126.66666639, 3888.58974283, 3970.64102502, 3941.28205066, 3904.99999924, 4127.17948691, 4081.79487145, 4132.17948691, 4126.28205101, 4195.89743576,8.57
4108.97435870, 4120.76923050, 4119.10256383, 4120.12820485, 4119.99999973, 3894.35897360, 3978.71794817, 3949.48717887, 3916.53846085, 4127.43589716, 4082.82051248, 4130.12820485, 4125.51282024, 4195.38461525,8.57
4117.43589716, 4123.33333306, 4123.58974332, 4121.28205101, 4120.38461511, 3878.58974283, 3954.23076861, 3923.07692239, 3882.56410180, 4128.58974332, 4078.71794837, 4133.07692280, 4129.10256383, 4197.94871781,8.57
4123.07692280, 4123.71794844, 4120.25640998, 4122.30769203, 4124.87179460, 3892.94871719, 3970.89743528, 3945.25640963, 3903.33333257, 4127.69230742, 4077.17948684, 4130.12820485, 4127.56410229, 4194.74358961,8.57
4117.56410229, 4121.15384588, 4117.94871767, 4120.76923050, 4123.07692280, 3924.74358905, 4013.46153798, 3993.33333278, 3956.41025579, 4127.82051255, 4082.82051248, 4132.82051255, 4127.43589716, 4197.56410243,8.57
4121.15384588, 4125.89743562, 4126.53846126, 4124.10256383, 4122.56410229, 3901.53846078, 3986.02564047, 3960.51281989, 3925.38461469, 4128.33333306, 4085.25640991, 4140.12820492, 4132.05128178, 4198.97435884,8.57
4114.87179460, 4122.17948691, 4117.69230742, 4120.89743562, 4123.71794844, 3869.35897353, 3948.33333271, 3919.23076854, 3881.66666591, 4127.17948691, 4079.10256376, 4128.07692280, 4127.30769203, 4194.74358961,8.57
4121.79487152, 4121.92307665, 4117.69230742, 4122.43589716, 4123.46153819, 3905.12820437, 3987.69230714, 3957.05128143, 3916.28205059, 4128.33333306, 4080.89743555, 4131.15384588, 4128.33333306, 4202.43589737,8.57
4122.05128178, 4123.07692280, 4122.05128178, 4122.94871767, 4121.66666639, 3947.43589681, 4030.38461490, 3993.97435842, 3959.35897374, 4129.61538434, 4089.35897402, 4135.12820485, 4132.30769203, 4200.12820499,8.57
4112.17948691, 4119.10256383, 4117.69230742, 4118.71794844, 4122.43589716, 3954.10256348, 4037.82051241, 4004.35897388, 3981.15384560, 4126.79487152, 4096.15384581, 4126.41025614, 4128.33333306, 4193.46153833,8.57
4121.41025614, 4121.15384588, 4119.87179460, 4121.28205101, 4123.20512793, 3941.92307630, 4025.64102516, 3997.05128150, 3970.38461476, 4126.53846126, 4095.25640991, 4130.25640998, 4128.46153819, 4195.76923063,8.57
4122.17948691, 4119.87179460, 4118.07692280, 4120.89743562, 4121.79487152, 3924.35897367, 4004.61538413, 3972.56410201, 3936.92307623, 4127.69230742, 4084.74358940, 4129.35897408, 4127.82051255, 4195.76923063,8.57
4118.46153819, 4119.61538434, 4121.02564075, 4120.76923050, 4122.05128178, 3923.84615316, 4006.92307644, 3976.15384560, 3943.58974297, 4125.25640998, 4084.35897402, 4129.35897408, 4126.02564075, 4199.87179474,8.57
4115.89743562, 4120.51282024, 4119.48717921, 4121.66666639, 4120.76923050, 3942.82051220, 4028.58974311, 4000.89743535, 3974.99999945, 4124.61538434, 4091.53846119, 4129.48717921, 4127.43589716, 4202.05128199,8.57
4113.07692280, 4118.71794844, 4114.23076896, 4117.43589716, 4119.35897408, 3959.48717887, 4038.07692266, 4002.82051227, 3975.12820458, 4128.33333306, 4092.94871761, 4125.89743562, 4128.84615357, 4198.58974345,8.57
4118.07692280, 4123.07692280, 4119.35897408, 4118.97435870, 4122.05128178, 3972.69230714, 4047.30769189, 3999.74358919, 3971.02564040, 4128.20512793, 4096.92307658, 4131.28205101, 4130.38461511, 4196.53846140,8.57
4111.92307665, 4120.76923050, 4115.25640998, 4120.25640998, 4121.53846126, 3983.84615329, 4064.35897395, 4020.38461490, 3996.92307637, 4125.64102537, 4098.71794837, 4128.97435870, 4127.69230742, 4196.79487166,8.57
4110.51282024, 4116.02564075, 4113.46153819, 4118.20512793, 4118.58974332, 3958.33333271, 4041.15384574, 4004.10256362, 3979.74358919, 4127.82051255, 4090.89743555, 4129.23076896, 4126.79487152, 4197.69230756,8.57
4115.76923050, 4118.20512793, 4114.99999973, 4118.07692280, 4121.15384588, 3938.20512751, 4020.25640977, 3975.51281996, 3941.28205066, 4131.15384588, 4084.87179453, 4129.99999973, 4128.33333306, 4193.71794858,8.57
4114.61538434, 4118.46153819, 4113.07692280, 4117.05128178, 4124.99999973, 3972.17948663, 4056.15384574, 4011.53846106, 3972.05128150, 4129.23076896, 4089.48717914, 4124.48717921, 4126.79487152, 4195.25641012,8.57
4116.79487152, 4118.07692280, 4119.10256383, 4120.89743562, 4127.56410229, 4003.84615329, 4088.20512786, 4051.92307651, 4017.30769183, 4126.79487152, 4093.46153812, 4130.64102537, 4124.74358947, 4201.28205122,8.57
4110.76923050, 4118.71794844, 4114.61538434, 4122.17948691, 4125.89743562, 4000.38461483, 4083.33333299, 4046.15384574, 4014.87179439, 4126.02564075, 4088.58974325, 4128.58974332, 4122.30769203, 4195.76923063,8.57
4111.92307665, 4123.33333306, 4113.71794844, 4120.12820485, 4124.48717921, 3986.41025586, 4069.10256369, 4026.41025593, 3994.23076868, 4125.76923050, 4082.69230735, 4124.23076896, 4122.82051255, 4192.43589730,8.57
4116.15384588, 4123.97435870, 4122.05128178, 4124.74358947, 4125.51282024, 3981.28205073, 4062.05128164, 4014.35897388, 3980.25640970, 4128.33333306, 4081.28205094, 4128.20512793, 4124.99999973, 4195.89743576,8.57
4109.87179460, 4116.41025614, 4119.23076896, 4123.20512793, 4125.12820485, 3978.97435842, 4059.48717907, 4010.38461490, 3978.58974304, 4129.99999973, 4082.82051248, 4127.17948691, 4123.84615357, 4196.92307679,8.57
4118.07692280, 4120.64102537, 4123.33333306, 4123.20512793, 4123.97435870, 3988.46153791, 4075.51282017, 4027.56410208, 4001.41025586, 4127.82051255, 4089.10256376, 4127.82051255, 4125.51282024, 4197.05128192,8.57
4119.74358947, 4122.43589716, 4125.38461511, 4124.74358947, 4124.10256383, 4023.33333285, 4117.69230742, 4070.89743555, 4044.48717907, 4125.64102537, 4092.17948684, 4127.05128178, 4128.33333306, 4191.92307679,8.57
4115.64102537, 4118.46153819, 4121.28205101, 4122.82051255, 4126.66666639, 4041.79487138, 4134.99999973, 4093.71794837, 4062.05128164, 4126.28205101, 4087.17948684, 4125.12820485, 4127.94871767, 4191.28205115,8.57
4119.87179460, 4123.46153819, 4123.07692280, 4123.84615357, 4126.53846126, 4018.20512772, 4107.30769203, 4068.97435856, 4035.89743541, 4127.69230742, 4081.79487145, 4129.87179460, 4128.33333306, 4195.25641012,8.57
4115.25640998, 4122.43589716, 4120.25640998, 4121.15384588, 4124.35897408, 4004.61538413, 4094.10256376, 4049.99999959, 4022.05128157, 4126.41025614, 4075.89743555, 4128.71794844, 4127.56410229, 4191.41025628,8.57
4118.20512793, 4122.56410229, 4123.33333306, 4125.25640998, 4125.89743562, 4031.41025593, 4116.28205101, 4068.46153805, 4038.07692266, 4125.25640998, 4074.48717914, 4129.35897408, 4127.17948691, 4191.53846140,8.57
4120.12820485, 4124.48717921, 4123.20512793, 4127.30769203, 4127.94871767, 4053.46153805, 4129.99999973, 4081.92307658, 4043.07692266, 4127.17948691, 4077.17948684, 4131.28205101, 4127.69230742, 4195.25641012,8.57
4124.61538434, 4128.20512793, 4124.61538434, 4128.33333306, 4126.66666639, 4071.41025607, 4147.56410236, 4080.12820478, 4051.41025600, 4125.12820485, 4082.56410222, 4131.28205101, 4128.33333306, 4195.25641012,8.57
4122.30769203, 4126.02564075, 4125.51282024, 4122.43589716, 4121.53846126, 4057.43589702, 4138.58974339, 4071.53846119, 4047.69230728, 4126.41025614, 4078.97435863, 4129.10256383, 4129.10256383, 4196.28205115,8.57
4121.02564075, 4124.23076896, 4122.69230742, 4120.51282024, 4121.15384588, 4074.99999966, 4152.82051262, 4081.41025607, 4062.05128164, 4126.53846126, 4076.15384581, 4131.79487152, 4129.10256383, 4197.43589730,8.57
4121.02564075, 4124.23076896, 4122.69230742, 4120.51282024, 4121.15384588, 4074.99999966, 4152.82051262, 4081.41025607, 4062.05128164, 4126.53846126, 4076.15384581, 4131.79487152, 4129.10256383, 4197.43589730,8.57
4124.23076896, 4126.41025614, 4122.56410229, 4124.23076896, 4125.51282024, 4086.15384581, 4162.94871774, 4079.74358940, 4065.38461497, 4127.56410229, 4070.25640991, 4136.53846133, 4130.38461511, 4198.20512807,8.57
4118.20512793, 4122.30769203, 4121.15384588, 4118.46153819, 4122.17948691, 4097.94871761, 4179.61538448, 4092.30769196, 4084.35897402, 4127.30769203, 4067.69230728, 4128.71794844, 4129.35897408, 4197.30769217,8.57
4122.30769203, 4126.66666639, 4130.25640998, 4123.20512793, 4120.12820485, 4103.46153819, 4180.76923063, 4089.74358940, 4081.41025607, 4126.41025614, 4070.51282017, 4129.74358947, 4128.20512793, 4197.43589730,8.57
4119.23076896, 4125.25640998, 4126.79487152, 4125.64102537, 4121.53846126, 4071.02564068, 4147.94871774, 4050.76923036, 4036.92307651, 4126.79487152, 4068.20512779, 4134.23076896, 4128.20512793, 4195.64102551,8.57
4116.66666639, 4119.99999973, 4119.23076896, 4119.99999973, 4122.05128178, 4063.07692266, 4151.79487159, 4056.79487138, 4044.23076882, 4126.66666639, 4067.05128164, 4129.61538434, 4128.97435870, 4196.28205115,8.57
4120.25640998, 4124.10256383, 4123.84615357, 4120.89743562, 4122.56410229, 4106.02564075, 4203.07692301, 4109.74358947, 4103.84615357, 4126.53846126, 4074.61538427, 4132.43589716, 4129.10256383, 4199.35897422,8.57
4116.79487152, 4123.20512793, 4122.69230742, 4121.79487152, 4122.30769203, 4134.74358947, 4231.53846147, 4131.41025614, 4123.97435870, 4127.17948691, 4076.15384581, 4133.58974332, 4127.43589716, 4198.71794858,8.57
4123.97435870, 4124.99999973, 4123.33333306, 4123.33333306, 4124.74358947, 4134.61538434, 4223.71794865, 4120.64102537, 4104.99999973, 4127.43589716, 4072.17948684, 4131.92307665, 4128.84615357, 4199.48717935,8.57
4123.46153819, 4123.46153819, 4119.48717921, 4122.05128178, 4126.92307665, 4136.66666646, 4221.28205122, 4117.69230742, 4104.99999973, 4128.20512793, 4073.58974325, 4132.17948691, 4131.02564075, 4199.74358961,8.57
