AF3,F7,F3,FC5,T7,P7,O1,O2,P8,T8,FC6,F4,F8,AF4,Label
4136.28205108, 4124.35897408, 4115.76923050, 4126.28205101, 4124.35897408, 4133.97435870, 4110.25640998, 4098.97435863, 4099.87179453, 4129.35897408, 4373.33333362, 4133.97435870, 4130.89743562, 4197.82051269,8.57
4147.05128185, 4131.28205101, 4126.28205101, 4130.64102537, 4129.10256383, 4128.20512793, 4100.25640991, 4092.17948684, 4085.64102530, 4131.41025614, 4367.30769259, 4137.43589723, 4133.33333306, 4197.30769217,8.57
4127.43589716, 4119.74358947, 4111.15384588, 4124.61538434, 4120.89743562, 4124.35897408, 4094.74358940, 4089.23076889, 4081.53846119, 4127.43589716, 4367.17948746, 4126.92307665, 4127.82051255, 4192.30769217,8.57
4148.33333313, 4128.84615357, 4127.94871767, 4134.99999973, 4128.84615357, 4132.94871767, 4112.05128178, 4108.58974332, 4104.61538434, 4128.97435870, 4377.17948746, 4139.23076903, 4133.20512793, 4194.48717935,8.57
4139.61538441, 4122.05128178, 4115.38461511, 4127.94871767, 4124.35897408, 4139.99999980, 4123.97435870, 4120.38461511, 4112.17948691, 4132.94871767, 4374.35897464, 4127.82051255, 4131.15384588, 4191.92307679,8.57
4142.94871774, 4127.43589716, 4122.82051255, 4131.79487152, 4120.89743562, 4133.07692280, 4112.30769203, 4106.41025614, 4094.48717914, 4129.10256383, 4364.74358996, 4135.12820485, 4134.10256383, 4193.71794858,8.57
4144.61538441, 4131.53846126, 4128.20512793, 4136.92307672, 4126.66666639, 4128.84615357, 4107.17948691, 4104.99999973, 4096.66666632, 4127.94871767, 4366.02564131, 4137.56410236, 4135.38461518, 4192.69230756,8.57
4134.10256383, 4123.97435870, 4117.17948691, 4132.17948691, 4124.48717921, 4137.56410236, 4122.05128178, 4121.66666639, 4110.76923050, 4131.53846126, 4371.92307720, 4131.53846126, 4133.20512793, 4194.61538448,8.57
4148.58974339, 4130.89743562, 4134.35897408, 4137.82051262, 4126.02564075, 4135.38461518, 4119.87179460, 4114.87179460, 4100.12820478, 4129.35897408, 4368.58974387, 4145.76923056, 4138.07692287, 4196.92307679,8.57
4136.92307672, 4122.05128178, 4121.28205101, 4131.15384588, 4124.35897408, 4126.53846126, 4107.69230742, 4096.53846119, 4090.25640991, 4123.33333306, 4359.48717970, 4130.89743562, 4132.43589716, 4192.94871781,8.57
4147.30769210, 4127.30769203, 4124.48717921, 4132.30769203, 4126.53846126, 4127.17948691, 4109.23076896, 4092.17948684, 4093.46153812, 4125.64102537, 4360.12820534, 4135.51282031, 4136.15384595, 4193.97435884,8.57
4144.23076903, 4128.58974332, 4124.99999973, 4126.92307665, 4124.61538434, 4126.79487152, 4111.41025614, 4093.46153812, 4084.48717914, 4127.30769203, 4356.53846175, 4137.94871774, 4137.94871774, 4193.46153833,8.57
4133.20512793, 4124.61538434, 4119.10256383, 4123.97435870, 4122.82051255, 4119.48717921, 4108.46153819, 4097.17948684, 4083.71794837, 4126.53846126, 4350.38461560, 4127.56410229, 4130.89743562, 4195.64102551,8.57
4148.71794851, 4130.76923050, 4130.64102537, 4138.07692287, 4128.33333306, 4122.82051255, 4114.99999973, 4107.17948691, 4113.07692280, 4130.12820485, 4361.92307714, 4140.38461518, 4135.38461518, 4194.99999986,8.57
4132.94871767, 4116.28205101, 4111.53846126, 4130.76923050, 4122.17948691, 4141.15384595, 4137.05128185, 4129.10256383, 4139.48717928, 4128.71794844, 4373.58974387, 4131.02564075, 4133.33333306, 4187.82051269,8.57
4144.23076903, 4123.97435870, 4122.94871767, 4132.43589716, 4125.76923050, 4146.41025621, 4148.33333313, 4139.87179467, 4128.07692280, 4129.23076896, 4370.00000028, 4135.51282031, 4134.10256383, 4194.74358961,8.57
4149.23076903, 4133.07692280, 4129.35897408, 4138.07692287, 4129.35897408, 4138.71794851, 4138.46153826, 4120.89743562, 4107.05128178, 4133.20512793, 4362.17948739, 4139.99999980, 4133.84615357, 4198.20512807,8.57
4132.69230742, 4124.87179460, 4111.92307665, 4131.15384588, 4120.89743562, 4132.43589716, 4121.53846126, 4095.38461504, 4097.56410222, 4129.23076896, 4360.89743611, 4126.02564075, 4128.46153819, 4193.07692294,8.57
4149.61538441, 4132.82051255, 4128.84615357, 4135.89743569, 4127.69230742, 4122.69230742, 4107.30769203, 4081.92307658, 4081.53846119, 4128.71794844, 4358.97435919, 4138.33333313, 4135.25640998, 4192.94871781,8.57
4133.33333306, 4122.69230742, 4116.28205101, 4131.28205101, 4127.56410229, 4125.89743562, 4117.17948691, 4091.92307658, 4082.43589709, 4133.33333306, 4350.76923098, 4126.79487152, 4132.30769203, 4189.74358961,8.57
4137.30769210, 4126.41025614, 4119.74358947, 4133.07692280, 4123.71794844, 4121.92307665, 4110.25640998, 4085.38461504, 4079.74358940, 4130.76923050, 4343.58974380, 4123.58974332, 4129.87179460, 4192.05128192,8.57
4158.33333313, 4138.58974339, 4136.66666646, 4136.15384595, 4127.94871767, 4085.51282017, 4061.28205087, 4035.12820465, 4034.87179439, 4129.48717921, 4330.25641040, 4135.12820485, 4133.71794844, 4191.28205115,8.57
4135.64102544, 4122.69230742, 4111.53846126, 4125.25640998, 4122.30769203, 4087.05128171, 4072.82051248, 4046.02564061, 4044.74358933, 4131.41025614, 4332.69230790, 4123.71794844, 4130.12820485, 4189.48717935,8.57
4147.05128185, 4130.25640998, 4126.92307665, 4142.43589723, 4126.66666639, 4141.53846133, 4152.30769210, 4131.15384588, 4128.84615357, 4129.74358947, 4363.07692329, 4137.82051262, 4135.12820485, 4197.05128192,8.57
4144.87179467, 4130.12820485, 4132.69230742, 4144.99999980, 4127.82051255, 4166.02564082, 4184.23076910, 4162.17948697, 4159.99999980, 4127.56410229, 4373.97435926, 4135.12820485, 4133.07692280, 4195.38461525,8.57
4135.38461518, 4121.28205101, 4120.25640998, 4132.82051255, 4121.66666639, 4146.53846133, 4155.89743569, 4130.25640998, 4127.05128178, 4127.43589716, 4358.58974380, 4130.25640998, 4131.66666639, 4194.48717935,8.57
4149.61538441, 4131.41025614, 4128.07692280, 4142.05128185, 4124.23076896, 4138.20512800, 4148.46153826, 4122.17948691, 4118.84615357, 4127.82051255, 4351.41025662, 4141.15384595, 4136.41025621, 4195.64102551,8.57
4133.58974332, 4123.97435870, 4114.35897408, 4138.71794851, 4120.12820485, 4140.76923056, 4158.84615364, 4123.20512793, 4124.61538434, 4128.46153819, 4355.89743611, 4125.51282024, 4129.74358947, 4195.25641012,8.57
4145.38461518, 4127.43589716, 4131.28205101, 4140.12820492, 4124.48717921, 4128.46153819, 4143.33333313, 4098.46153812, 4101.66666632, 4129.74358947, 4359.35897457, 4136.92307672, 4134.48717921, 4197.43589730,8.57
4145.64102544, 4127.05128178, 4131.92307665, 4139.61538441, 4127.56410229, 4126.41025614, 4138.97435877, 4097.82051248, 4094.48717914, 4127.56410229, 4352.43589765, 4136.02564082, 4136.02564082, 4189.10256397,8.57
4133.33333306, 4119.23076896, 4111.41025614, 4133.97435870, 4122.43589716, 4135.38461518, 4152.17948697, 4115.76923050, 4109.74358947, 4125.38461511, 4346.79487201, 4122.94871767, 4132.56410229, 4191.28205115,8.57
4133.33333306, 4119.23076896, 4111.41025614, 4133.97435870, 4122.43589716, 4135.38461518, 4152.17948697, 4115.76923050, 4109.74358947, 4125.38461511, 4346.79487201, 4122.94871767, 4132.56410229, 4191.28205115,8.57
4149.35897415, 4126.92307665, 4123.97435870, 4139.10256390, 4126.53846126, 4133.58974332, 4152.30769210, 4114.10256383, 4113.84615357, 4126.15384588, 4349.87179508, 4133.46153819, 4138.71794851, 4196.66666653,8.57
4136.53846133, 4119.87179460, 4116.02564075, 4134.35897408, 4124.61538434, 4135.38461518, 4149.74358954, 4116.02564075, 4119.48717921, 4125.76923050, 4350.12820534, 4123.20512793, 4133.58974332, 4189.74358961,8.57
4143.84615364, 4128.97435870, 4126.66666639, 4139.48717928, 4126.79487152, 4140.25641005, 4148.58974339, 4116.02564075, 4114.74358947, 4127.17948691, 4344.35897457, 4131.79487152, 4131.41025614, 4191.66666653,8.57
4145.89743569, 4132.56410229, 4130.64102537, 4139.23076903, 4125.76923050, 4137.05128185, 4146.02564082, 4116.02564075, 4108.71794844, 4126.53846126, 4337.43589765, 4133.33333306, 4129.23076896, 4192.94871781,8.57
4140.12820492, 4124.61538434, 4123.84615357, 4137.69230749, 4121.02564075, 4132.17948691, 4142.56410236, 4118.58974332, 4115.51282024, 4126.15384588, 4340.12820534, 4124.10256383, 4128.07692280, 4193.58974345,8.57
4149.99999980, 4128.97435870, 4132.94871767, 4144.10256390, 4125.64102537, 4129.48717921, 4137.30769210, 4104.10256383, 4104.87179460, 4128.84615357, 4345.25641047, 4135.25640998, 4134.23076896, 4193.07692294,8.57
4127.05128178, 4117.17948691, 4111.41025614, 4130.89743562, 4118.97435870, 4131.53846126, 4139.61538441, 4098.07692273, 4092.82051248, 4128.20512793, 4342.30769252, 4123.46153819, 4128.71794844, 4191.28205115,8.57
4143.84615364, 4127.82051255, 4126.15384588, 4139.10256390, 4121.15384588, 4132.30769203, 4142.43589723, 4114.23076896, 4108.97435870, 4126.02564075, 4345.64102585, 4131.92307665, 4133.58974332, 4197.43589730,8.57
4150.51282031, 4130.89743562, 4129.99999973, 4146.15384595, 4126.41025614, 4131.66666639, 4142.05128185, 4127.56410229, 4126.79487152, 4126.15384588, 4349.35897457, 4136.66666646, 4136.15384595, 4194.35897422,8.57
4129.87179460, 4116.53846126, 4107.30769203, 4133.33333306, 4120.25640998, 4135.12820485, 4148.71794851, 4128.07692280, 4123.33333306, 4128.07692280, 4347.05128226, 4125.64102537, 4129.10256383, 4193.84615371,8.57
4153.20512800, 4132.05128178, 4131.79487152, 4141.66666646, 4126.79487152, 4132.82051255, 4148.33333313, 4123.97435870, 4116.28205101, 4130.51282024, 4348.07692329, 4139.61538441, 4136.66666646, 4199.74358961,8.57
4138.58974339, 4124.48717921, 4121.53846126, 4140.25641005, 4124.61538434, 4127.82051255, 4138.71794851, 4122.17948691, 4122.94871767, 4129.87179460, 4350.00000021, 4128.20512793, 4135.38461518, 4194.10256397,8.57
4137.30769210, 4121.41025614, 4116.28205101, 4139.99999980, 4122.05128178, 4128.71794844, 4134.23076896, 4113.97435870, 4123.71794844, 4126.66666639, 4352.05128226, 4131.15384588, 4133.07692280, 4193.97435884,8.57
4154.48717928, 4129.74358947, 4129.87179460, 4142.30769210, 4125.51282024, 4127.94871767, 4132.82051255, 4098.07692273, 4110.76923050, 4125.12820485, 4351.53846175, 4139.48717928, 4133.97435870, 4193.84615371,8.57
4138.07692287, 4120.76923050, 4118.33333306, 4133.20512793, 4120.25640998, 4128.58974332, 4135.51282031, 4092.17948684, 4105.25640998, 4127.43589716, 4345.76923098, 4124.48717921, 4128.71794844, 4192.56410243,8.57
4143.84615364, 4124.99999973, 4125.12820485, 4140.89743569, 4124.23076896, 4135.64102544, 4140.64102544, 4096.15384581, 4103.33333306, 4130.51282024, 4340.89743611, 4136.15384595, 4133.20512793, 4196.79487166,8.57
4135.89743569, 4119.23076896, 4114.99999973, 4139.35897415, 4123.71794844, 4141.66666646, 4142.05128185, 4097.69230735, 4097.17948684, 4127.69230742, 4335.89743611, 4130.51282024, 4132.43589716, 4195.12820499,8.57
4144.10256390, 4124.23076896, 4123.46153819, 4141.79487159, 4122.56410229, 4147.43589723, 4151.28205108, 4111.66666639, 4104.87179460, 4126.53846126, 4336.92307714, 4127.82051255, 4132.05128178, 4193.58974345,8.57
4142.17948697, 4126.28205101, 4128.84615357, 4144.35897415, 4123.71794844, 4153.46153826, 4161.79487159, 4132.05128178, 4124.87179460, 4130.89743562, 4341.41025662, 4131.41025614, 4131.79487152, 4189.23076910,8.57
4128.33333306, 4118.33333306, 4114.61538434, 4136.02564082, 4122.56410229, 4145.76923056, 4147.69230749, 4123.33333306, 4127.05128178, 4131.41025614, 4341.28205149, 4123.33333306, 4127.43589716, 4190.89743576,8.57
4156.28205108, 4135.51282031, 4139.23076903, 4148.46153826, 4130.64102537, 4129.35897408, 4124.48717921, 4099.99999966, 4111.28205101, 4129.61538434, 4340.00000021, 4140.76923056, 4136.28205108, 4196.28205115,8.57
4126.41025614, 4119.23076896, 4115.38461511, 4141.02564082, 4118.33333306, 4129.61538434, 4127.82051255, 4108.33333306, 4114.10256383, 4126.41025614, 4340.38461560, 4129.35897408, 4130.89743562, 4188.71794858,8.57
4134.99999973, 4119.99999973, 4117.43589716, 4140.64102544, 4118.46153819, 4136.92307672, 4135.38461518, 4120.38461511, 4120.89743562, 4123.97435870, 4343.20512842, 4130.12820485, 4129.23076896, 4191.79487166,8.57
4162.05128185, 4135.89743569, 4141.66666646, 4149.74358954, 4133.20512793, 4133.46153819, 4130.89743562, 4109.10256383, 4112.43589716, 4126.53846126, 4339.23076944, 4144.87179467, 4137.94871774, 4194.48717935,8.57
4121.15384588, 4113.46153819, 4107.69230742, 4133.84615357, 4120.89743562, 4133.46153819, 4132.69230742, 4114.23076896, 4117.56410229, 4128.58974332, 4333.84615406, 4122.05128178, 4129.48717921, 4192.05128192,8.57
4150.51282031, 4128.97435870, 4131.28205101, 4148.07692287, 4123.07692280, 4130.12820485, 4123.58974332, 4116.15384588, 4124.23076896, 4128.97435870, 4339.10256431, 4138.84615364, 4132.82051255, 4198.71794858,8.57
4154.61538441, 4133.58974332, 4130.89743562, 4152.05128185, 4127.94871767, 4125.25640998, 4116.28205101, 4097.69230735, 4111.15384588, 4128.97435870, 4336.79487201, 4139.23076903, 4133.33333306, 4194.74358961,8.57
4123.46153819, 4113.84615357, 4101.02564068, 4137.05128185, 4119.48717921, 4132.94871767, 4127.82051255, 4095.12820478, 4105.25640998, 4126.53846126, 4331.79487194, 4119.35897408, 4127.69230742, 4194.35897422,8.57
4153.58974339, 4129.23076896, 4132.05128178, 4149.48717928, 4124.48717921, 4134.48717921, 4128.46153819, 4105.25640998, 4114.35897408, 4127.05128178, 4334.23076944, 4140.25641005, 4138.07692287, 4198.84615371,8.57
4141.92307672, 4124.35897408, 4119.61538434, 4143.71794851, 4123.33333306, 4134.74358947, 4128.20512793, 4114.35897408, 4122.17948691, 4131.66666639, 4328.84615399, 4129.99999973, 4133.07692280, 4191.28205115,8.57
4137.82051262, 4123.33333306, 4112.69230742, 4140.38461518, 4122.69230742, 4139.35897415, 4131.66666639, 4112.17948691, 4117.43589716, 4131.79487152, 4324.35897450, 4127.56410229, 4128.33333306, 4192.82051269,8.57
4156.28205108, 4134.87179460, 4134.23076896, 4150.76923056, 4127.94871767, 4131.79487152, 4120.64102537, 4100.76923043, 4107.43589716, 4126.66666639, 4327.17948732, 4138.97435877, 4132.43589716, 4193.58974345,8.57
4124.48717921, 4116.02564075, 4110.25640998, 4139.87179467, 4120.38461511, 4129.35897408, 4117.56410229, 4105.25640998, 4113.20512793, 4125.12820485, 4326.28205142, 4121.92307665, 4127.56410229, 4190.76923063,8.57
4139.87179467, 4126.53846126, 4122.82051255, 4146.15384595, 4125.12820485, 4142.17948697, 4130.12820485, 4119.61538434, 4122.94871767, 4128.46153819, 4324.87179501, 4133.20512793, 4132.56410229, 4194.99999986,8.57
4147.05128185, 4130.25640998, 4126.41025614, 4145.38461518, 4128.07692280, 4147.05128185, 4134.87179460, 4119.74358947, 4123.97435870, 4127.82051255, 4328.07692322, 4130.38461511, 4132.82051255, 4189.74358961,8.57
4128.97435870, 4115.76923050, 4110.76923050, 4134.61538434, 4119.48717921, 4139.74358954, 4128.46153819, 4118.07692280, 4126.02564075, 4125.38461511, 4334.48717970, 4125.51282024, 4132.56410229, 4192.17948704,8.57
4154.10256390, 4131.41025614, 4136.41025621, 4149.87179467, 4127.69230742, 4137.17948697, 4121.28205101, 4120.64102537, 4124.10256383, 4124.99999973, 4331.15384630, 4140.12820492, 4136.79487159, 4197.30769217,8.57
4134.61538434, 4121.28205101, 4117.17948691, 4143.97435877, 4124.74358947, 4139.99999980, 4117.17948691, 4117.43589716, 4118.71794844, 4124.99999973, 4321.66666681, 4122.17948691, 4130.76923050, 4192.56410243,8.57
4140.89743569, 4121.92307665, 4120.76923050, 4143.46153826, 4123.46153819, 4136.53846133, 4113.33333306, 4117.30769203, 4117.94871767, 4129.23076896, 4321.66666681, 4130.89743562, 4135.76923056, 4194.87179474,8.57
4154.61538441, 4128.84615357, 4134.35897408, 4147.43589723, 4128.71794844, 4128.46153819, 4104.87179460, 4112.69230742, 4113.71794844, 4130.64102537, 4318.46153860, 4137.05128185, 4135.76923056, 4194.87179474,8.57
4133.20512793, 4117.30769203, 4114.23076896, 4135.89743569, 4123.71794844, 4122.82051255, 4093.97435863, 4095.12820478, 4101.53846119, 4127.30769203, 4314.10256425, 4127.69230742, 4130.89743562, 4197.17948704,8.57
4152.94871774, 4129.74358947, 4130.51282024, 4143.71794851, 4127.94871767, 4115.38461511, 4083.20512786, 4082.17948684, 4090.51282017, 4127.43589716, 4311.53846168, 4138.84615364, 4135.64102544, 4197.82051269,8.57
4137.69230749, 4121.53846126, 4118.20512793, 4139.87179467, 4122.56410229, 4113.46153819, 4082.82051248, 4088.33333299, 4092.69230735, 4127.17948691, 4305.12820527, 4123.84615357, 4130.25640998, 4191.28205115,8.57
4136.15384595, 4122.30769203, 4117.17948691, 4139.23076903, 4120.38461511, 4115.76923050, 4084.23076889, 4089.87179453, 4092.94871761, 4125.25640998, 4306.53846168, 4127.82051255, 4131.79487152, 4194.87179474,8.57
4147.17948697, 4129.35897408, 4126.41025614, 4140.51282031, 4124.48717921, 4109.87179460, 4076.79487145, 4079.48717914, 4084.10256376, 4126.02564075, 4307.05128219, 4129.61538434, 4134.99999973, 4193.07692294,8.57
4132.30769203, 4116.92307665, 4113.20512793, 4133.20512793, 4121.15384588, 4113.46153819, 4083.58974325, 4089.61538427, 4088.20512786, 4127.56410229, 4303.07692322, 4119.35897408, 4130.89743562, 4190.12820499,8.57
4143.20512800, 4123.97435870, 4123.97435870, 4143.07692287, 4125.64102537, 4128.46153819, 4103.20512793, 4109.61538434, 4097.94871761, 4128.20512793, 4302.69230784, 4131.66666639, 4132.17948691, 4190.89743576,8.57
4130.89743562, 4119.99999973, 4109.48717921, 4137.69230749, 4123.58974332, 4134.87179460, 4113.84615357, 4123.84615357, 4107.05128178, 4128.07692280, 4302.05128219, 4118.58974332, 4129.48717921, 4189.87179474,8.57
4143.84615364, 4126.41025614, 4122.69230742, 4141.02564082, 4124.48717921, 4130.64102537, 4111.15384588, 4126.79487152, 4113.20512793, 4128.97435870, 4304.48717963, 4126.15384588, 4135.76923056, 4196.53846140,8.57
4147.30769210, 4129.10256383, 4134.10256383, 4144.99999980, 4123.84615357, 4125.89743562, 4104.10256383, 4119.74358947, 4112.69230742, 4127.94871767, 4302.82051296, 4133.33333306, 4135.76923056, 4193.97435884,8.57
4123.84615357, 4116.92307665, 4113.46153819, 4134.10256383, 4117.94871767, 4130.51282024, 4104.48717921, 4122.17948691, 4115.64102537, 4125.38461511, 4298.71794879, 4121.02564075, 4128.84615357, 4192.94871781,8.57
4146.66666646, 4130.25640998, 4129.61538434, 4143.84615364, 4127.30769203, 4133.97435870, 4103.46153819, 4121.28205101, 4112.94871767, 4129.10256383, 4298.97435905, 4133.58974332, 4136.02564082, 4195.76923063,8.57
4131.79487152, 4123.07692280, 4117.05128178, 4138.71794851, 4126.53846126, 4131.79487152, 4099.23076889, 4111.02564075, 4105.25640998, 4132.43589716, 4295.25641033, 4122.56410229, 4131.66666639, 4189.10256397,8.57
4135.89743569, 4125.25640998, 4122.30769203, 4138.58974339, 4126.92307665, 4123.33333306, 4089.35897402, 4097.56410222, 4096.15384581, 4130.64102537, 4292.56410264, 4127.82051255, 4131.41025614, 4193.71794858,8.57
4151.79487159, 4132.17948691, 4134.10256383, 4145.25641005, 4130.51282024, 4116.15384588, 4077.17948684, 4086.02564068, 4089.10256376, 4127.56410229, 4296.15384623, 4132.17948691, 4135.12820485, 4194.87179474,8.57
4125.12820485, 4111.79487152, 4106.92307665, 4131.15384588, 4122.05128178, 4118.07692280, 4077.05128171, 4083.84615350, 4088.71794837, 4127.17948691, 4299.87179501, 4113.07692280, 4130.64102537, 4191.66666653,8.57
4145.89743569, 4124.35897408, 4127.94871767, 4138.33333313, 4127.56410229, 4116.15384588, 4076.79487145, 4082.69230735, 4085.89743555, 4129.74358947, 4297.30769238, 4131.66666639, 4136.02564082, 4195.12820499,8.57
4139.23076903, 4125.51282024, 4123.20512793, 4138.46153826, 4126.53846126, 4115.25640998, 4074.48717914, 4084.74358940, 4086.41025607, 4129.74358947, 4292.43589751, 4123.46153819, 4131.28205101, 4193.46153833,8.57
4130.38461511, 4119.61538434, 4112.43589716, 4134.87179460, 4121.15384588, 4121.66666639, 4077.56410222, 4090.51282017, 4092.82051248, 4126.92307665, 4296.66666674, 4118.20512793, 4128.97435870, 4196.66666653,8.57
4153.71794851, 4130.38461511, 4134.74358947, 4143.71794851, 4129.48717921, 4125.25640998, 4082.69230735, 4090.64102530, 4093.84615350, 4124.74358947, 4298.71794879, 4133.20512793, 4134.87179460, 4194.23076910,8.57
4124.23076896, 4114.48717921, 4109.99999973, 4133.84615357, 4123.84615357, 4128.07692280, 4091.53846119, 4091.79487145, 4094.35897402, 4125.89743562, 4295.00000007, 4114.35897408, 4129.48717921, 4190.25641012,8.57
4139.99999980, 4126.28205101, 4120.25640998, 4143.97435877, 4126.28205101, 4127.17948691, 4091.79487145, 4096.92307658, 4099.87179453, 4130.64102537, 4296.66666674, 4123.97435870, 4135.89743569, 4197.30769217,8.57
4150.38461518, 4131.41025614, 4129.61538434, 4145.76923056, 4129.23076896, 4123.97435870, 4088.97435863, 4105.25640998, 4113.46153819, 4130.12820485, 4296.66666674, 4125.51282024, 4137.30769210, 4193.58974345,8.57
4123.71794844, 4113.71794844, 4112.05128178, 4132.30769203, 4119.48717921, 4129.61538434, 4094.10256376, 4115.25640998, 4128.07692280, 4125.51282024, 4301.66666681, 4115.76923050, 4130.51282024, 4192.17948704,8.57
4149.74358954, 4132.82051255, 4138.20512800, 4148.07692287, 4128.46153819, 4129.99999973, 4090.25640991, 4109.48717921, 4120.51282024, 4126.92307665, 4306.41025655, 4131.02564075, 4134.61538434, 4194.61538448,8.57
4134.48717921, 4123.71794844, 4120.25640998, 4140.89743569, 4126.28205101, 4122.05128178, 4086.02564068, 4105.64102537, 4114.99999973, 4128.71794844, 4300.38461553, 4118.33333306, 4132.17948691, 4189.10256397,8.57
4136.02564082, 4121.28205101, 4120.76923050, 4138.58974339, 4121.92307665, 4132.69230742, 4102.94871767, 4119.61538434, 4123.46153819, 4125.76923050, 4298.58974366, 4122.69230742, 4134.87179460, 4196.92307679,8.57
4152.56410236, 4131.66666639, 4136.53846133, 4148.20512800, 4129.10256383, 4143.20512800, 4110.12820485, 4113.46153819, 4111.79487152, 4124.10256383, 4299.48717963, 4124.74358947, 4131.41025614, 4198.84615371,8.57
4128.84615357, 4116.28205101, 4111.79487152, 4138.71794851, 4123.33333306, 4129.48717921, 4086.41025607, 4089.48717914, 4096.41025607, 4125.89743562, 4296.41025648, 4117.30769203, 4127.43589716, 4192.05128192,8.57
4150.76923056, 4126.15384588, 4131.66666639, 4147.05128185, 4127.43589716, 4120.64102537, 4074.61538427, 4090.89743555, 4102.94871767, 4127.82051255, 4294.35897443, 4136.15384595, 4139.87179467, 4194.61538448,8.57
4131.92307665, 4118.46153819, 4118.71794844, 4138.20512800, 4123.07692280, 4137.05128185, 4089.87179453, 4107.56410229, 4116.02564075, 4125.64102537, 4291.15384623, 4119.48717921, 4133.97435870, 4195.51282038,8.57
4129.61538434, 4121.02564075, 4114.48717921, 4134.87179460, 4119.99999973, 4151.15384595, 4089.74358940, 4101.02564068, 4111.66666639, 4125.25640998, 4291.41025648, 4122.43589716, 4133.20512793, 4197.30769217,8.57
4156.41025621, 4136.15384595, 4134.48717921, 4149.35897415, 4130.76923050, 4155.38461518, 4084.87179453, 4096.28205094, 4108.33333306, 4127.05128178, 4295.64102571, 4134.23076896, 4138.46153826, 4192.43589730,8.57
4126.53846126, 4117.43589716, 4109.74358947, 4142.43589723, 4125.51282024, 4173.46153833, 4109.35897408, 4116.79487152, 4124.23076896, 4126.02564075, 4304.48717963, 4118.97435870, 4132.69230742, 4193.33333320,8.57
4138.58974339, 4125.89743562, 4122.56410229, 4146.28205108, 4126.28205101, 4186.53846140, 4126.02564075, 4127.56410229, 4130.38461511, 4124.87179460, 4308.46153860, 4131.66666639, 4135.25640998, 4199.87179474,8.57
4132.82051255, 4122.30769203, 4117.05128178, 4139.99999980, 4123.33333306, 4179.10256397, 4116.28205101, 4127.43589716, 4131.28205101, 4125.89743562, 4303.20512835, 4120.89743562, 4131.79487152, 4192.94871781,8.57
4132.30769203, 4118.58974332, 4118.20512793, 4142.30769210, 4122.82051255, 4177.56410243, 4119.99999973, 4138.71794851, 4141.41025621, 4130.51282024, 4307.43589758, 4120.51282024, 4133.58974332, 4193.58974345,8.57
4149.48717928, 4129.61538434, 4135.38461518, 4149.74358954, 4132.43589716, 4186.66666653, 4134.10256383, 4153.71794851, 4149.99999980, 4130.38461511, 4310.38461553, 4132.69230742, 4135.89743569, 4193.97435884,8.57
4136.41025621, 4117.17948691, 4119.35897408, 4136.53846133, 4128.97435870, 4188.46153833, 4128.84615357, 4152.94871774, 4150.89743569, 4127.05128178, 4309.74358989, 4125.25640998, 4133.07692280, 4192.69230756,8.57
4138.58974339, 4123.33333306, 4123.46153819, 4147.69230749, 4119.48717921, 4178.33333320, 4110.51282024, 4132.43589716, 4138.58974339, 4127.94871767, 4314.10256425, 4125.76923050, 4130.76923050, 4190.12820499,8.57
4109.48717921, 4109.10256383, 4098.84615350, 4135.89743569, 4123.46153819, 4181.79487166, 4117.94871767, 4132.17948691, 4136.53846133, 4128.71794844, 4315.00000014, 4114.35897408, 4134.74358947, 4193.33333320,8.57
4207.69230763, 4148.84615364, 4176.15384602, 4156.79487159, 4153.07692287, 4189.35897422, 4129.74358947, 4142.17948697, 4139.48717928, 4130.38461511, 4314.48717963, 4161.41025621, 4155.89743569, 4203.46153840,8.57
4144.61538441, 4140.38461518, 4132.43589716, 4162.82051262, 4106.02564075, 4186.66666653, 4123.71794844, 4137.94871774, 4138.58974339, 4126.28205101, 4303.84615399, 4119.35897408, 4117.69230742, 4178.07692294,8.57
3985.89743535, 4054.48717907, 3993.84615329, 4102.94871767, 4073.20512786, 4194.99999986, 4128.07692280, 4145.12820492, 4148.46153826, 4122.56410229, 4307.17948732, 4060.89743548, 4103.20512793, 4187.56410243,8.57
4168.84615371, 4125.89743562, 4139.48717928, 4141.66666646, 4141.02564082, 4194.23076910, 4119.74358947, 4135.64102544, 4134.61538434, 4127.69230742, 4315.89743604, 4156.15384595, 4155.25641005, 4209.61538455,8.57
4175.38461525, 4144.23076903, 4151.53846133, 4156.28205108, 4129.10256383, 4185.89743576, 4107.56410229, 4122.43589716, 4120.76923050, 4126.53846126, 4302.56410271, 4134.48717921, 4137.56410236, 4183.84615371,8.57
4091.15384581, 4100.64102530, 4076.92307658, 4126.66666639, 4110.51282024, 4186.15384602, 4109.74358947, 4131.66666639, 4127.69230742, 4125.89743562, 4302.17948732, 4101.28205094, 4125.12820485, 4194.10256397,8.57
4157.43589723, 4131.92307665, 4131.53846126, 4148.20512800, 4131.92307665, 4179.74358961, 4101.41025607, 4120.89743562, 4115.76923050, 4131.53846126, 4304.61538476, 4138.20512800, 4139.87179467, 4201.66666660,8.57
4136.41025621, 4124.48717921, 4116.41025614, 4140.76923056, 4121.79487152, 4179.10256397, 4098.84615350, 4107.82051255, 4104.35897408, 4129.61538434, 4296.53846161, 4115.89743562, 4129.48717921, 4191.41025628,8.57
4144.23076903, 4123.84615357, 4123.46153819, 4138.58974339, 4127.17948691, 4180.89743576, 4100.51282017, 4109.74358947, 4104.35897408, 4126.28205101, 4297.82051289, 4123.71794844, 4134.87179460, 4197.94871781,8.57
4123.71794844, 4115.12820485, 4106.41025614, 4135.12820485, 4123.58974332, 4177.05128192, 4096.92307658, 4110.38461511, 4106.15384588, 4127.30769203, 4300.38461553, 4114.99999973, 4131.66666639, 4193.84615371,8.57
4144.10256390, 4129.61538434, 4126.66666639, 4146.66666646, 4128.07692280, 4174.61538448, 4088.97435863, 4103.84615357, 4103.58974332, 4130.64102537, 4302.17948732, 4121.66666639, 4135.38461518, 4195.64102551,8.57
4144.35897415, 4127.82051255, 4130.38461511, 4149.35897415, 4129.74358947, 4177.82051269, 4091.41025607, 4106.02564075, 4106.28205101, 4130.76923050, 4302.17948732, 4125.76923050, 4138.20512800, 4191.53846140,8.57
4110.76923050, 4104.35897408, 4093.46153812, 4131.02564075, 4122.05128178, 4183.46153833, 4105.89743562, 4122.56410229, 4121.02564075, 4125.89743562, 4305.51282066, 4107.69230742, 4129.10256383, 4191.28205115,8.57
4171.02564089, 4143.20512800, 4150.38461518, 4155.25641005, 4136.41025621, 4178.46153833, 4099.99999966, 4125.89743562, 4124.10256383, 4126.53846126, 4311.79487194, 4137.43589723, 4138.97435877, 4196.28205115,8.57
4129.99999973, 4124.23076896, 4124.23076896, 4142.17948697, 4123.46153819, 4183.20512807, 4099.48717914, 4129.74358947, 4126.79487152, 4129.23076896, 4308.20512835, 4121.28205101, 4134.48717921, 4187.94871781,8.57
4123.84615357, 4114.61538434, 4108.58974332, 4134.48717921, 4121.15384588, 4193.71794858, 4110.25640998, 4131.02564075, 4126.41025614, 4126.53846126, 4302.82051296, 4113.20512793, 4129.10256383, 4193.71794858,8.57
4168.71794858, 4141.28205108, 4146.28205108, 4154.48717928, 4138.07692287, 4184.48717935, 4098.33333299, 4113.46153819, 4115.51282024, 4125.64102537, 4299.61538476, 4136.02564082, 4136.79487159, 4195.89743576,8.57
4119.10256383, 4112.94871767, 4106.79487152, 4133.20512793, 4122.69230742, 4182.17948704, 4092.30769196, 4112.82051255, 4117.82051255, 4129.87179460, 4297.82051289, 4113.07692280, 4132.17948691, 4190.89743576,8.57
4139.99999980, 4125.76923050, 4126.79487152, 4141.92307672, 4124.74358947, 4190.64102551, 4104.61538434, 4122.69230742, 4122.17948691, 4130.12820485, 4302.43589758, 4126.41025614, 4136.92307672, 4195.38461525,8.57
4149.61538441, 4135.12820485, 4134.87179460, 4151.53846133, 4131.79487152, 4191.28205115, 4109.10256383, 4124.23076896, 4120.76923050, 4126.02564075, 4302.69230784, 4130.64102537, 4135.89743569, 4191.66666653,8.57
4125.64102537, 4115.76923050, 4107.17948691, 4137.43589723, 4122.30769203, 4187.43589730, 4103.46153819, 4127.05128178, 4127.69230742, 4127.69230742, 4302.69230784, 4113.58974332, 4131.28205101, 4192.56410243,8.57
4148.84615364, 4130.64102537, 4131.15384588, 4146.28205108, 4126.53846126, 4179.74358961, 4097.17948684, 4124.87179460, 4133.07692280, 4131.28205101, 4307.30769245, 4131.53846126, 4139.61538441, 4196.41025628,8.57
4131.15384588, 4124.10256383, 4118.07692280, 4140.76923056, 4126.15384588, 4178.71794858, 4101.28205094, 4125.12820485, 4137.56410236, 4129.35897408, 4308.33333348, 4121.53846126, 4133.84615357, 4191.79487166,8.57
4134.48717921, 4120.89743562, 4113.97435870, 4141.53846133, 4124.99999973, 4189.87179474, 4111.02564075, 4129.74358947, 4142.17948697, 4128.07692280, 4309.61538476, 4123.20512793, 4132.56410229, 4194.61538448,8.57
4150.38461518, 4130.89743562, 4127.43589716, 4151.53846133, 4127.30769203, 4195.64102551, 4116.15384588, 4128.97435870, 4139.74358954, 4129.10256383, 4310.38461553, 4132.17948691, 4136.79487159, 4194.87179474,8.57
4122.82051255, 4117.56410229, 4108.33333306, 4140.89743569, 4118.58974332, 4190.76923063, 4118.97435870, 4134.74358947, 4141.28205108, 4127.82051255, 4310.25641040, 4115.89743562, 4131.92307665, 4190.51282038,8.57
4139.87179467, 4126.02564075, 4124.35897408, 4148.97435877, 4122.43589716, 4192.05128192, 4126.28205101, 4152.56410236, 4151.66666646, 4127.69230742, 4309.61538476, 4128.46153819, 4134.61538434, 4192.82051269,8.57
4147.56410236, 4126.53846126, 4127.56410229, 4149.74358954, 4131.02564075, 4200.12820499, 4138.84615364, 4172.30769217, 4166.92307672, 4127.56410229, 4303.58974373, 4127.82051255, 4133.58974332, 4191.53846140,8.57
4126.53846126, 4116.28205101, 4112.17948691, 4138.84615364, 4123.58974332, 4193.46153833, 4135.12820485, 4163.33333313, 4159.74358954, 4126.79487152, 4299.87179501, 4123.07692280, 4131.92307665, 4192.30769217,8.57
4147.56410236, 4133.58974332, 4134.74358947, 4150.64102544, 4125.38461511, 4174.48717935, 4111.53846126, 4126.02564075, 4126.02564075, 4127.94871767, 4301.92307707, 4136.66666646, 4137.17948697, 4194.61538448,8.57
4138.84615364, 4124.87179460, 4123.84615357, 4147.56410236, 4124.48717921, 4178.20512807, 4110.51282024, 4122.05128178, 4128.33333306, 4127.69230742, 4304.35897450, 4127.43589716, 4133.20512793, 4192.94871781,8.57
4134.61538434, 4121.53846126, 4120.38461511, 4148.71794851, 4122.69230742, 4197.69230756, 4133.84615357, 4148.71794851, 4162.30769210, 4127.56410229, 4306.53846168, 4135.76923056, 4134.48717921, 4196.15384602,8.57
4149.74358954, 4130.89743562, 4134.61538434, 4152.69230749, 4130.76923050, 4200.64102551, 4140.64102544, 4150.25641005, 4164.74358954, 4127.56410229, 4306.28205142, 4135.89743569, 4135.64102544, 4194.87179474,8.57
4128.20512793, 4120.38461511, 4114.10256383, 4144.87179467, 4121.66666639, 4202.05128199, 4142.30769210, 4158.33333313, 4168.58974345, 4128.97435870, 4309.61538476, 4125.25640998, 4131.15384588, 4195.64102551,8.57
4141.92307672, 4129.87179460, 4125.64102537, 4152.94871774, 4129.74358947, 4201.02564096, 4140.38461518, 4179.23076910, 4190.89743576, 4131.28205101, 4316.41025655, 4145.51282031, 4140.25641005, 4199.61538448,8.57
4145.25641005, 4129.61538434, 4128.46153819, 4149.99999980, 4133.46153819, 4195.12820499, 4136.28205108, 4172.17948704, 4183.33333320, 4129.23076896, 4311.79487194, 4134.35897408, 4134.74358947, 4190.64102551,8.57
4126.15384588, 4119.87179460, 4112.43589716, 4144.23076903, 4121.15384588, 4204.10256404, 4149.99999980, 4163.97435877, 4161.66666646, 4126.02564075, 4308.84615399, 4128.58974332, 4130.12820485, 4196.02564089,8.57
4185.64102551, 4142.82051262, 4160.12820492, 4157.05128185, 4144.99999980, 4198.84615371, 4143.46153826, 4159.61538441, 4152.82051262, 4128.71794844, 4310.00000014, 4158.97435877, 4146.92307672, 4202.94871788,8.57
4143.84615364, 4124.87179460, 4127.30769203, 4146.66666646, 4124.35897408, 4179.48717935, 4121.66666639, 4143.84615364, 4151.53846133, 4129.61538434, 4303.84615399, 4124.87179460, 4126.92307665, 4185.89743576,8.57
4105.76923050, 4108.97435870, 4093.97435863, 4140.89743569, 4116.41025614, 4184.10256397, 4127.56410229, 4136.41025621, 4149.35897415, 4130.51282024, 4310.12820527, 4119.23076896, 4126.02564075, 4194.23076910,8.57
4180.12820499, 4138.97435877, 4152.17948697, 4160.51282031, 4142.82051262, 4190.12820499, 4134.74358947, 4140.38461518, 4148.33333313, 4131.41025614, 4313.71794886, 4155.89743569, 4145.38461518, 4197.94871781,8.57
4129.23076896, 4123.07692280, 4117.69230742, 4150.64102544, 4118.20512793, 4183.20512807, 4125.51282024, 4144.99999980, 4154.99999980, 4125.89743562, 4304.74358989, 4128.20512793, 4129.99999973, 4186.53846140,8.57
4121.79487152, 4120.64102537, 4113.58974332, 4145.64102544, 4126.41025614, 4181.02564089, 4118.71794844, 4139.87179467, 4151.15384595, 4126.53846126, 4302.69230784, 4127.69230742, 4133.97435870, 4196.02564089,8.57
4157.94871774, 4138.58974339, 4143.33333313, 4157.69230749, 4134.87179460, 4188.97435884, 4130.25640998, 4132.43589716, 4139.10256390, 4126.41025614, 4301.53846168, 4140.51282031, 4134.23076896, 4192.05128192,8.57
4126.02564075, 4127.05128178, 4118.84615357, 4149.61538441, 4123.97435870, 4196.02564089, 4141.15384595, 4131.15384588, 4132.94871767, 4124.35897408, 4302.69230784, 4132.05128178, 4128.07692280, 4187.43589730,8.57
4134.23076896, 4123.07692280, 4118.97435870, 4141.28205108, 4129.61538434, 4188.07692294, 4131.02564075, 4134.74358947, 4134.35897408, 4129.61538434, 4300.64102578, 4131.02564075, 4133.84615357, 4191.41025628,8.57
4140.76923056, 4126.79487152, 4127.69230742, 4147.05128185, 4124.74358947, 4181.02564089, 4125.76923050, 4148.84615364, 4146.15384595, 4131.66666639, 4298.07692315, 4132.94871767, 4132.94871767, 4191.15384602,8.57
4143.46153826, 4129.48717921, 4134.87179460, 4151.02564082, 4130.25640998, 4189.74358961, 4138.84615364, 4157.94871774, 4155.12820492, 4128.20512793, 4303.58974373, 4141.53846133, 4134.74358947, 4189.48717935,8.57
4134.48717921, 4120.25640998, 4118.84615357, 4143.71794851, 4126.41025614, 4203.46153840, 4152.43589723, 4158.07692287, 4166.02564082, 4125.38461511, 4309.48717963, 4134.74358947, 4132.69230742, 4191.15384602,8.57
4144.48717928, 4127.30769203, 4123.46153819, 4148.97435877, 4124.10256383, 4202.56410250, 4147.94871774, 4160.38461518, 4171.92307679, 4127.56410229, 4312.05128219, 4139.87179467, 4138.84615364, 4201.53846147,8.57
4135.38461518, 4125.64102537, 4118.71794844, 4141.92307672, 4125.64102537, 4191.53846140, 4135.12820485, 4152.17948697, 4149.35897415, 4127.17948691, 4301.53846168, 4124.35897408, 4135.12820485, 4197.30769217,8.57
4132.05128178, 4124.61538434, 4117.69230742, 4138.84615364, 4126.92307665, 4190.76923063, 4133.33333306, 4139.61538441, 4131.66666639, 4124.35897408, 4292.30769238, 4123.97435870, 4134.74358947, 4193.71794858,8.57
4142.56410236, 4129.35897408, 4125.64102537, 4148.84615364, 4128.46153819, 4199.61538448, 4139.48717928, 4138.07692287, 4140.76923056, 4127.17948691, 4294.35897443, 4137.43589723, 4139.87179467, 4195.25641012,8.57
4132.43589716, 4121.79487152, 4113.71794844, 4144.10256390, 4124.23076896, 4200.76923063, 4136.15384595, 4136.79487159, 4141.66666646, 4129.23076896, 4296.66666674, 4120.51282024, 4130.25640998, 4195.51282038,8.57
4149.23076903, 4132.43589716, 4132.43589716, 4150.89743569, 4132.17948691, 4191.15384602, 4125.89743562, 4129.61538434, 4132.43589716, 4126.41025614, 4295.89743597, 4129.35897408, 4134.48717921, 4195.64102551,8.57
4123.58974332, 4116.02564075, 4110.38461511, 4142.56410236, 4124.87179460, 4193.46153833, 4131.02564075, 4133.07692280, 4142.30769210, 4124.48717921, 4294.48717956, 4119.61538434, 4133.84615357, 4191.66666653,8.57
4132.30769203, 4117.82051255, 4116.02564075, 4141.15384595, 4122.43589716, 4189.99999986, 4123.33333306, 4130.89743562, 4139.74358954, 4126.66666639, 4292.94871802, 4119.23076896, 4131.92307665, 4195.76923063,8.57
4153.84615364, 4136.28205108, 4141.66666646, 4148.84615364, 4131.79487152, 4175.12820499, 4107.56410229, 4123.71794844, 4126.92307665, 4127.30769203, 4287.56410264, 4130.38461511, 4135.38461518, 4192.56410243,8.57
4117.43589716, 4117.43589716, 4110.51282024, 4132.82051255, 4122.43589716, 4193.07692294, 4139.23076903, 4160.25641005, 4158.58974339, 4126.02564075, 4293.71794879, 4114.61538434, 4129.48717921, 4187.94871781,8.57
4143.20512800, 4130.25640998, 4132.05128178, 4146.92307672, 4126.66666639, 4217.69230763, 4172.17948704, 4196.92307679, 4190.64102551, 4129.99999973, 4308.33333348, 4134.10256383, 4136.92307672, 4194.61538448,8.57
4142.56410236, 4128.46153819, 4129.74358947, 4148.58974339, 4129.10256383, 4210.76923070, 4161.79487159, 4179.99999986, 4176.41025628, 4131.66666639, 4306.02564117, 4127.43589716, 4134.61538434, 4193.07692294,8.57
4127.05128178, 4118.84615357, 4112.17948691, 4137.94871774, 4122.17948691, 4201.15384609, 4148.97435877, 4158.58974339, 4157.56410236, 4126.79487152, 4301.28205142, 4119.35897408, 4129.23076896, 4195.12820499,8.57
4154.61538441, 4139.10256390, 4139.61538441, 4151.79487159, 4128.58974332, 4205.89743583, 4152.94871774, 4163.07692287, 4158.97435877, 4126.66666639, 4302.43589758, 4142.56410236, 4137.56410236, 4196.28205115,8.57
4120.76923050, 4118.20512793, 4108.84615357, 4139.61538441, 4122.94871767, 4210.12820506, 4156.92307672, 4168.46153833, 4166.28205108, 4126.92307665, 4298.20512828, 4120.76923050, 4134.74358947, 4191.53846140,8.57
4131.02564075, 4122.05128178, 4115.89743562, 4142.82051262, 4123.71794844, 4204.10256404, 4145.25641005, 4150.64102544, 4154.48717928, 4126.53846126, 4295.00000007, 4126.79487152, 4139.35897415, 4201.02564096,8.57
4158.84615364, 4141.15384595, 4144.10256390, 4152.43589723, 4129.87179460, 4196.92307679, 4133.33333306, 4133.71794844, 4134.10256383, 4129.99999973, 4286.02564110, 4136.53846133, 4138.46153826, 4200.89743576,8.57
4119.23076896, 4114.48717921, 4106.15384588, 4132.30769203, 4118.33333306, 4199.48717935, 4138.97435877, 4142.82051262, 4138.97435877, 4128.46153819, 4280.64102571, 4114.35897408, 4129.74358947, 4193.58974345,8.57
4139.87179467, 4124.87179460, 4124.61538434, 4144.87179467, 4126.15384588, 4196.92307679, 4134.99999973, 4149.99999980, 4152.94871774, 4124.48717921, 4290.51282059, 4132.30769203, 4140.12820492, 4195.12820499,8.57
4141.15384595, 4127.05128178, 4129.48717921, 4145.89743569, 4127.17948691, 4185.76923063, 4119.35897408, 4142.17948697, 4149.23076903, 4124.48717921, 4288.71794879, 4125.38461511, 4135.89743569, 4189.48717935,8.57
4124.87179460, 4118.46153819, 4111.79487152, 4135.89743569, 4118.97435870, 4184.99999986, 4121.15384588, 4140.76923056, 4142.69230749, 4125.25640998, 4283.84615392, 4118.71794844, 4130.51282024, 4192.69230756,8.57
4144.48717928, 4131.15384588, 4129.23076896, 4148.71794851, 4128.97435870, 4192.43589730, 4131.02564075, 4147.43589723, 4145.76923056, 4127.69230742, 4289.74358982, 4130.38461511, 4136.41025621, 4194.35897422,8.57
4126.53846126, 4116.15384588, 4117.82051255, 4143.46153826, 4126.02564075, 4203.20512814, 4136.79487159, 4152.43589723, 4151.02564082, 4132.30769203, 4292.30769238, 4116.79487152, 4132.56410229, 4189.74358961,8.57
4130.76923050, 4120.12820485, 4123.58974332, 4145.38461518, 4125.89743562, 4204.74358968, 4135.51282031, 4150.51282031, 4149.10256390, 4133.07692280, 4289.48717956, 4126.92307665, 4134.48717921, 4193.58974345,8.57
4130.38461511, 4123.97435870, 4119.61538434, 4140.76923056, 4125.89743562, 4193.58974345, 4127.82051255, 4149.87179467, 4150.25641005, 4127.43589716, 4283.71794879, 4122.05128178, 4131.41025614, 4192.30769217,8.57
4135.76923056, 4124.10256383, 4124.87179460, 4140.51282031, 4123.20512793, 4193.71794858, 4129.74358947, 4150.38461518, 4149.87179467, 4125.38461511, 4283.33333341, 4120.38461511, 4130.38461511, 4191.28205115,8.57
4135.38461518, 4124.35897408, 4127.05128178, 4145.12820492, 4123.71794844, 4201.02564096, 4135.89743569, 4144.61538441, 4134.87179460, 4127.05128178, 4283.84615392, 4126.79487152, 4134.74358947, 4189.87179474,8.57
4125.64102537, 4116.15384588, 4112.94871767, 4138.84615364, 4121.92307665, 4197.30769217, 4132.17948691, 4145.76923056, 4128.58974332, 4127.30769203, 4277.94871802, 4121.53846126, 4132.30769203, 4193.84615371,8.57
4148.20512800, 4129.35897408, 4134.74358947, 4149.23076903, 4127.30769203, 4193.84615371, 4133.58974332, 4156.66666646, 4144.23076903, 4129.23076896, 4280.25641033, 4137.05128185, 4136.41025621, 4195.12820499,8.57
4117.30769203, 4115.76923050, 4108.97435870, 4137.43589723, 4120.76923050, 4206.79487173, 4152.94871774, 4168.46153833, 4162.43589723, 4128.46153819, 4285.12820520, 4121.41025614, 4131.79487152, 4187.82051269,8.57
4144.10256390, 4129.74358947, 4129.61538434, 4145.89743569, 4128.58974332, 4208.97435891, 4153.84615364, 4166.15384595, 4156.28205108, 4124.48717921, 4284.48717956, 4131.15384588, 4135.12820485, 4198.58974345,8.57
4157.05128185, 4137.30769210, 4144.48717928, 4154.87179467, 4133.46153819, 4194.61538448, 4136.79487159, 4157.69230749, 4139.10256390, 4124.48717921, 4282.30769238, 4138.97435877, 4137.30769210, 4198.84615371,8.57
4108.46153819, 4108.84615357, 4097.30769196, 4133.71794844, 4120.76923050, 4198.46153833, 4143.97435877, 4162.82051262, 4146.41025621, 4128.33333306, 4281.02564110, 4111.66666639, 4129.61538434, 4190.12820499,8.57
4149.74358954, 4132.94871767, 4131.41025614, 4148.58974339, 4129.48717921, 4202.17948711, 4147.82051262, 4156.28205108, 4151.41025621, 4128.71794844, 4282.82051289, 4135.76923056, 4139.99999980, 4195.25641012,8.57
4136.02564082, 4123.46153819, 4124.99999973, 4141.66666646, 4123.58974332, 4196.79487166, 4143.84615364, 4151.28205108, 4148.58974339, 4124.61538434, 4283.46153853, 4126.02564075, 4135.64102544, 4192.82051269,8.57
4126.15384588, 4114.48717921, 4116.02564075, 4135.76923056, 4118.58974332, 4198.58974345, 4151.15384595, 4166.02564082, 4155.89743569, 4126.15384588, 4285.89743597, 4117.17948691, 4131.92307665, 4193.97435884,8.57
4148.58974339, 4131.41025614, 4136.15384595, 4147.56410236, 4127.30769203, 4192.17948704, 4145.51282031, 4169.10256397, 4155.89743569, 4130.89743562, 4283.58974366, 4132.69230742, 4139.23076903, 4193.71794858,8.57
4115.64102537, 4110.25640998, 4104.23076896, 4130.89743562, 4120.64102537, 4187.05128192, 4137.69230749, 4163.07692287, 4153.33333313, 4127.43589716, 4280.25641033, 4108.97435870, 4130.12820485, 4191.02564089,8.57
4143.07692287, 4126.02564075, 4129.87179460, 4147.05128185, 4122.56410229, 4190.51282038, 4142.82051262, 4160.25641005, 4150.51282031, 4125.25640998, 4282.30769238, 4128.20512793, 4133.84615357, 4195.64102551,8.57
4124.48717921, 4119.99999973, 4119.61538434, 4146.28205108, 4122.94871767, 4189.23076910, 4145.76923056, 4157.82051262, 4146.41025621, 4129.35897408, 4278.71794879, 4122.69230742, 4132.30769203, 4188.84615371,8.57
4117.69230742, 4110.51282024, 4108.20512793, 4132.17948691, 4124.23076896, 4186.41025628, 4139.48717928, 4152.56410236, 4143.33333313, 4132.94871767, 4279.48717956, 4111.28205101, 4127.17948691, 4192.69230756,8.57
4156.66666646, 4139.74358954, 4142.82051262, 4152.69230749, 4124.61538434, 4185.38461525, 4131.66666639, 4146.66666646, 4138.97435877, 4129.74358947, 4281.66666674, 4140.51282031, 4134.99999973, 4194.10256397,8.57
4094.99999966, 4108.07692280, 4089.48717914, 4134.74358947, 4111.41025614, 4186.92307679, 4136.02564082, 4154.10256390, 4146.53846133, 4126.02564075, 4278.84615392, 4109.61538434, 4131.28205101, 4187.30769217,8.57
4129.99999973, 4115.64102537, 4116.41025614, 4140.51282031, 4123.20512793, 4187.94871781, 4145.51282031, 4164.61538441, 4158.33333313, 4131.02564075, 4287.30769238, 4124.74358947, 4136.02564082, 4199.99999986,8.57
4169.99999986, 4140.51282031, 4152.43589723, 4157.82051262, 4132.82051255, 4189.48717935, 4152.82051262, 4172.69230756, 4166.66666646, 4132.82051255, 4292.05128212, 4145.64102544, 4136.53846133, 4195.51282038,8.57
4117.56410229, 4112.82051255, 4102.05128171, 4136.79487159, 4121.28205101, 4192.82051269, 4158.46153826, 4181.15384602, 4172.69230756, 4128.20512793, 4286.02564110, 4117.94871767, 4133.20512793, 4188.58974345,8.57
4149.74358954, 4129.99999973, 4127.82051255, 4148.33333313, 4127.43589716, 4186.53846140, 4152.82051262, 4169.87179474, 4161.28205108, 4130.51282024, 4280.12820520, 4139.87179467, 4143.84615364, 4198.97435884,8.57
4146.92307672, 4132.43589716, 4128.84615357, 4148.46153826, 4127.94871767, 4175.12820499, 4141.15384595, 4144.74358954, 4142.43589723, 4133.58974332, 4272.56410264, 4129.35897408, 4134.10256383, 4196.28205115,8.57
4132.17948691, 4122.94871767, 4117.17948691, 4141.79487159, 4123.20512793, 4174.99999986, 4142.05128185, 4133.97435870, 4132.05128178, 4130.51282024, 4273.58974366, 4123.84615357, 4131.02564075, 4195.38461525,8.57
4149.10256390, 4130.89743562, 4129.87179460, 4147.05128185, 4128.71794844, 4183.71794858, 4154.23076903, 4142.05128185, 4133.46153819, 4127.17948691, 4278.20512828, 4137.56410236, 4137.82051262, 4193.97435884,8.57
4127.30769203, 4119.10256383, 4112.94871767, 4138.97435877, 4124.48717921, 4183.07692294, 4153.84615364, 4154.35897415, 4147.17948697, 4127.82051255, 4277.30769238, 4120.12820485, 4129.74358947, 4193.07692294,8.57
4138.07692287, 4126.15384588, 4128.97435870, 4149.23076903, 4123.97435870, 4171.79487166, 4139.48717928, 4153.58974339, 4153.07692287, 4129.74358947, 4277.05128212, 4130.25640998, 4133.46153819, 4196.66666653,8.57
4132.94871767, 4122.56410229, 4123.84615357, 4145.64102544, 4124.35897408, 4174.87179474, 4149.74358954, 4161.92307672, 4154.87179467, 4126.28205101, 4276.02564110, 4123.20512793, 4133.58974332, 4189.48717935,8.57
4128.46153819, 4121.92307665, 4120.38461511, 4143.46153826, 4121.15384588, 4184.61538448, 4169.23076910, 4180.38461525, 4163.84615364, 4123.84615357, 4276.92307700, 4122.30769203, 4134.23076896, 4190.51282038,8.57
4148.46153826, 4134.87179460, 4139.35897415, 4154.99999980, 4127.82051255, 4178.07692294, 4161.53846133, 4168.46153833, 4159.10256390, 4127.94871767, 4276.28205136, 4134.48717921, 4138.58974339, 4192.05128192,8.57
4130.76923050, 4119.99999973, 4119.48717921, 4142.69230749, 4123.58974332, 4175.38461525, 4158.20512800, 4146.53846133, 4144.48717928, 4127.82051255, 4274.23076930, 4118.71794844, 4132.30769203, 4190.76923063,8.57
4139.23076903, 4124.87179460, 4129.23076896, 4145.38461518, 4122.17948691, 4175.38461525, 4163.20512800, 4138.84615364, 4134.10256383, 4126.53846126, 4274.10256418, 4132.30769203, 4136.79487159, 4195.51282038,8.57
4139.10256390, 4126.53846126, 4127.94871767, 4145.51282031, 4127.30769203, 4170.25641012, 4161.28205108, 4151.66666646, 4147.43589723, 4127.43589716, 4273.33333341, 4131.79487152, 4135.76923056, 4190.51282038,8.57
4130.12820485, 4120.64102537, 4114.10256383, 4141.28205108, 4123.84615357, 4174.61538448, 4166.28205108, 4170.89743576, 4169.99999986, 4126.41025614, 4278.33333341, 4124.61538434, 4134.61538434, 4194.61538448,8.57
4147.69230749, 4131.53846126, 4133.84615357, 4151.66666646, 4126.66666639, 4179.61538448, 4171.41025628, 4164.61538441, 4157.56410236, 4126.66666639, 4277.56410264, 4136.41025621, 4141.02564082, 4199.48717935,8.57
4133.07692280, 4121.02564075, 4124.10256383, 4144.35897415, 4124.10256383, 4173.20512807, 4166.41025621, 4155.89743569, 4148.84615364, 4127.69230742, 4268.84615392, 4126.02564075, 4133.97435870, 4191.79487166,8.57
4134.48717921, 4123.84615357, 4122.56410229, 4143.71794851, 4123.97435870, 4167.17948697, 4159.99999980, 4160.51282031, 4168.84615371, 4126.41025614, 4274.48717956, 4134.74358947, 4136.02564082, 4194.23076910,8.57
4137.82051262, 4127.69230742, 4122.82051255, 4143.20512800, 4124.61538434, 4167.56410236, 4161.41025621, 4157.17948697, 4167.17948697, 4125.51282024, 4278.58974366, 4132.43589716, 4138.07692287, 4196.02564089,8.57
4137.05128185, 4124.35897408, 4125.51282024, 4142.94871774, 4117.94871767, 4169.87179474, 4168.46153833, 4151.66666646, 4148.07692287, 4127.43589716, 4275.51282059, 4126.41025614, 4132.56410229, 4190.38461525,8.57
4153.20512800, 4134.99999973, 4143.20512800, 4153.58974339, 4124.10256383, 4170.38461525, 4171.15384602, 4160.89743569, 4154.10256390, 4130.51282024, 4275.25641033, 4140.12820492, 4134.99999973, 4188.20512807,8.57
4130.38461511, 4122.69230742, 4117.56410229, 4142.17948697, 4125.89743562, 4169.99999986, 4170.51282038, 4170.51282038, 4169.48717935, 4128.84615357, 4270.00000007, 4121.92307665, 4131.79487152, 4191.02564089,8.57
4132.56410229, 4126.79487152, 4122.05128178, 4145.64102544, 4128.33333306, 4171.15384602, 4174.87179474, 4170.38461525, 4167.17948697, 4124.35897408, 4271.92307700, 4128.20512793, 4135.89743569, 4194.61538448,8.57
4133.07692280, 4128.46153819, 4127.56410229, 4150.12820492, 4128.33333306, 4168.97435884, 4177.17948704, 4166.92307672, 4162.43589723, 4125.76923050, 4276.79487187, 4130.64102537, 4136.66666646, 4189.61538448,8.57
4121.79487152, 4115.64102537, 4115.76923050, 4143.46153826, 4122.43589716, 4163.84615364, 4170.64102551, 4159.35897415, 4158.46153826, 4131.02564075, 4270.64102571, 4116.53846126, 4131.15384588, 4191.92307679,8.57
4148.71794851, 4131.15384588, 4140.12820492, 4155.38461518, 4131.15384588, 4159.74358954, 4162.56410236, 4157.43589723, 4156.53846133, 4131.66666639, 4263.84615385, 4133.97435870, 4137.69230749, 4195.64102551,8.57
4123.20512793, 4118.84615357, 4116.41025614, 4141.28205108, 4127.17948691, 4161.66666646, 4164.99999980, 4161.53846133, 4161.28205108, 4127.17948691, 4265.51282052, 4122.43589716, 4132.94871767, 4188.58974345,8.57
4128.20512793, 4122.43589716, 4122.43589716, 4140.76923056, 4123.33333306, 4162.30769210, 4163.33333313, 4154.74358954, 4156.02564082, 4126.79487152, 4273.84615392, 4128.20512793, 4133.58974332, 4194.48717935,8.57
4151.02564082, 4136.79487159, 4144.35897415, 4152.69230749, 4128.46153819, 4152.56410236, 4149.99999980, 4142.69230749, 4143.46153826, 4128.33333306, 4268.33333341, 4137.94871774, 4137.30769210, 4195.12820499,8.57
4120.51282024, 4115.89743562, 4113.46153819, 4136.28205108, 4121.53846126, 4152.17948697, 4154.74358954, 4146.28205108, 4145.76923056, 4126.53846126, 4257.05128206, 4122.05128178, 4132.30769203, 4192.56410243,8.57
4142.43589723, 4126.41025614, 4132.17948691, 4145.76923056, 4124.87179460, 4163.20512800, 4164.99999980, 4155.25641005, 4151.15384595, 4129.35897408, 4258.46153847, 4140.12820492, 4139.23076903, 4197.94871781,8.57
4139.74358954, 4126.41025614, 4127.82051255, 4145.38461518, 4124.35897408, 4165.76923056, 4161.28205108, 4158.07692287, 4154.87179467, 4131.02564075, 4260.64102564, 4126.41025614, 4136.53846133, 4192.94871781,8.57
4132.17948691, 4123.58974332, 4116.15384588, 4137.69230749, 4122.56410229, 4160.12820492, 4157.69230749, 4158.97435877, 4162.56410236, 4126.66666639, 4264.48717949, 4123.84615357, 4135.89743569, 4196.28205115,8.57
4147.05128185, 4134.23076896, 4130.64102537, 4145.51282031, 4127.94871767, 4162.43589723, 4163.84615364, 4158.71794851, 4164.99999980, 4126.66666639, 4269.23076930, 4141.15384595, 4140.51282031, 4194.87179474,8.57
4122.56410229, 4118.46153819, 4111.79487152, 4138.71794851, 4120.64102537, 4171.02564089, 4173.46153833, 4162.94871774, 4166.02564082, 4127.94871767, 4265.38461539, 4122.30769203, 4134.48717921, 4188.71794858,8.57
4135.12820485, 4123.97435870, 4124.10256383, 4145.25641005, 4124.23076896, 4165.38461518, 4165.38461518, 4156.15384595, 4157.05128185, 4126.02564075, 4262.94871795, 4133.33333306, 4139.48717928, 4197.05128192,8.57
4130.12820485, 4119.99999973, 4115.25640998, 4139.23076903, 4126.02564075, 4158.84615364, 4151.02564082, 4143.33333313, 4142.82051262, 4125.38461511, 4262.82051282, 4127.17948691, 4136.02564082, 4195.76923063,8.57
4128.97435870, 4119.48717921, 4113.58974332, 4140.12820492, 4121.66666639, 4164.87179467, 4149.48717928, 4146.28205108, 4147.56410236, 4127.69230742, 4261.02564103, 4121.79487152, 4132.82051255, 4193.58974345,8.57
4139.61538441, 4128.84615357, 4131.79487152, 4151.92307672, 4125.89743562, 4162.82051262, 4147.43589723, 4149.61538441, 4156.92307672, 4127.82051255, 4255.89743590, 4131.92307665, 4135.25640998, 4192.69230756,8.57
4116.79487152, 4112.30769203, 4114.10256383, 4133.46153819, 4124.48717921, 4150.76923056, 4136.41025621, 4139.87179467, 4148.07692287, 4126.02564075, 4250.38461539, 4115.64102537, 4127.56410229, 4192.94871781,8.57
4144.23076903, 4128.46153819, 4139.48717928, 4141.79487159, 4130.38461511, 4146.53846133, 4131.79487152, 4137.05128185, 4137.30769210, 4125.76923050, 4250.38461539, 4131.66666639, 4135.25640998, 4194.74358961,8.57
4128.97435870, 4124.23076896, 4122.43589716, 4140.89743569, 4124.23076896, 4162.05128185, 4150.25641005, 4155.51282031, 4151.15384595, 4124.74358947, 4251.15384616, 4123.33333306, 4133.84615357, 4184.10256397,8.57
4130.89743562, 4120.51282024, 4115.25640998, 4137.43589723, 4123.20512793, 4166.53846133, 4152.94871774, 4154.61538441, 4153.97435877, 4127.56410229, 4253.58974359, 4121.15384588, 4132.30769203, 4190.12820499,8.57
4147.56410236, 4132.17948691, 4136.53846133, 4148.07692287, 4130.89743562, 4142.94871774, 4127.82051255, 4126.02564075, 4130.38461511, 4129.99999973, 4250.25641026, 4135.38461518, 4137.43589723, 4196.66666653,8.57
4113.71794844, 4113.07692280, 4108.20512793, 4133.97435870, 4121.28205101, 4146.28205108, 4134.10256383, 4131.92307665, 4132.43589716, 4128.20512793, 4246.66666667, 4117.43589716, 4130.25640998, 4192.69230756,8.57
4164.48717928, 4141.41025621, 4148.20512800, 4151.02564082, 4130.89743562, 4165.89743569, 4153.58974339, 4151.15384595, 4145.12820492, 4129.35897408, 4252.30769231, 4142.05128185, 4139.35897415, 4196.02564089,8.57
4132.30769203, 4126.53846126, 4123.46153819, 4143.46153826, 4120.76923050, 4153.97435877, 4141.66666646, 4141.66666646, 4139.87179467, 4127.43589716, 4246.53846154, 4126.28205101, 4134.10256383, 4194.23076910,8.57
4112.30769203, 4111.02564075, 4100.76923043, 4132.30769203, 4114.35897408, 4139.35897415, 4127.56410229, 4136.66666646, 4137.30769210, 4126.02564075, 4240.12820513, 4116.15384588, 4129.35897408, 4201.66666660,8.57
4167.94871774, 4142.94871774, 4146.79487159, 4151.28205108, 4136.53846133, 4148.33333313, 4134.10256383, 4146.79487159, 4139.23076903, 4129.87179460, 4243.46153847, 4148.33333313, 4143.20512800, 4199.23076910,8.57
4114.87179460, 4112.30769203, 4101.28205094, 4129.48717921, 4118.46153819, 4158.46153826, 4143.84615364, 4149.61538441, 4142.43589723, 4129.23076896, 4243.58974359, 4115.51282024, 4132.43589716, 4189.23076910,8.57
4128.84615357, 4119.61538434, 4113.46153819, 4138.58974339, 4118.33333306, 4144.99999980, 4129.61538434, 4127.43589716, 4133.71794844, 4128.07692280, 4242.30769231, 4122.17948691, 4133.84615357, 4200.25641012,8.57
4144.87179467, 4131.79487152, 4130.51282024, 4146.28205108, 4133.71794844, 4137.82051262, 4118.97435870, 4115.51282024, 4124.61538434, 4129.87179460, 4238.07692308, 4134.99999973, 4139.23076903, 4196.53846140,8.57
4108.58974332, 4110.64102537, 4099.10256376, 4130.25640998, 4119.10256383, 4153.33333313, 4133.33333306, 4129.23076896, 4132.56410229, 4123.71794844, 4238.07692308, 4111.66666639, 4130.38461511, 4189.61538448,8.57
4138.46153826, 4127.56410229, 4126.92307665, 4145.76923056, 4125.51282024, 4152.69230749, 4131.15384588, 4125.64102537, 4128.58974332, 4124.35897408, 4241.41025641, 4123.07692280, 4134.74358947, 4194.23076910,8.57
4140.38461518, 4127.30769203, 4129.23076896, 4142.56410236, 4132.82051255, 4138.71794851, 4119.99999973, 4122.43589716, 4119.87179460, 4130.25640998, 4237.56410257, 4120.64102537, 4135.38461518, 4191.53846140,8.57
4117.05128178, 4118.07692280, 4112.30769203, 4135.76923056, 4121.66666639, 4146.41025621, 4134.74358947, 4141.53846133, 4127.94871767, 4125.89743562, 4239.61538462, 4116.02564075, 4134.10256383, 4193.20512807,8.57
4136.53846133, 4129.23076896, 4129.35897408, 4144.99999980, 4125.38461511, 4156.28205108, 4143.46153826, 4143.58974339, 4130.25640998, 4124.99999973, 4242.94871795, 4126.41025614, 4136.28205108, 4195.25641012,8.57
4143.33333313, 4130.12820485, 4130.64102537, 4144.10256390, 4126.79487152, 4147.56410236, 4129.61538434, 4127.05128178, 4126.02564075, 4131.15384588, 4239.35897436, 4127.05128178, 4131.41025614, 4190.89743576,8.57
4128.07692280, 4121.92307665, 4117.56410229, 4139.35897415, 4124.35897408, 4139.61538441, 4121.15384588, 4123.58974332, 4128.46153819, 4130.38461511, 4244.35897436, 4128.58974332, 4132.30769203, 4192.69230756,8.57
4140.38461518, 4124.48717921, 4124.10256383, 4138.33333313, 4126.79487152, 4135.38461518, 4117.82051255, 4126.28205101, 4128.97435870, 4125.89743562, 4249.87179488, 4127.43589716, 4135.38461518, 4193.97435884,8.57
4139.61538441, 4125.38461511, 4125.38461511, 4138.58974339, 4122.82051255, 4127.94871767, 4109.61538434, 4118.20512793, 4126.02564075, 4127.05128178, 4247.43589744, 4129.99999973, 4138.33333313, 4193.33333320,8.57
4138.20512800, 4125.89743562, 4127.05128178, 4139.74358954, 4127.56410229, 4130.76923050, 4114.74358947, 4112.17948691, 4118.46153819, 4129.35897408, 4243.07692308, 4134.87179460, 4141.41025621, 4195.64102551,8.57
4135.89743569, 4125.38461511, 4122.82051255, 4136.92307672, 4123.46153819, 4138.84615364, 4123.84615357, 4116.66666639, 4113.33333306, 4128.84615357, 4241.02564103, 4125.12820485, 4133.58974332, 4194.23076910,8.57
4126.53846126, 4123.07692280, 4116.66666639, 4135.89743569, 4118.97435870, 4131.92307665, 4111.15384588, 4119.87179460, 4119.61538434, 4129.87179460, 4247.43589744, 4124.35897408, 4132.94871767, 4194.74358961,8.57
4140.89743569, 4126.15384588, 4124.10256383, 4141.15384595, 4127.69230742, 4130.76923050, 4112.56410229, 4121.66666639, 4126.15384588, 4127.94871767, 4252.69230770, 4125.38461511, 4133.97435870, 4193.20512807,8.57
4133.97435870, 4127.43589716, 4127.56410229, 4143.97435877, 4125.25640998, 4136.41025621, 4110.51282024, 4120.38461511, 4128.71794844, 4129.35897408, 4259.48717949, 4130.76923050, 4136.53846133, 4190.64102551,8.57
4131.79487152, 4122.17948691, 4122.94871767, 4140.64102544, 4127.82051255, 4142.30769210, 4120.76923050, 4114.61538434, 4128.97435870, 4127.17948691, 4257.05128206, 4121.28205101, 4133.71794844, 4189.61538448,8.57
4126.28205101, 4119.99999973, 4117.69230742, 4137.94871774, 4122.30769203, 4143.07692287, 4126.41025614, 4111.41025614, 4120.89743562, 4123.71794844, 4251.53846154, 4126.79487152, 4132.43589716, 4197.30769217,8.57
4140.89743569, 4132.43589716, 4127.94871767, 4144.61538441, 4128.20512793, 4136.66666646, 4120.38461511, 4124.61538434, 4127.43589716, 4128.97435870, 4251.92307693, 4135.64102544, 4133.71794844, 4195.89743576,8.57
4122.56410229, 4119.10256383, 4109.23076896, 4135.12820485, 4122.05128178, 4141.28205108, 4127.30769203, 4144.10256390, 4148.07692287, 4129.74358947, 4257.05128206, 4122.56410229, 4132.30769203, 4193.33333320,8.57
4139.61538441, 4124.74358947, 4123.71794844, 4140.89743569, 4124.74358947, 4142.82051262, 4127.56410229, 4134.48717921, 4141.41025621, 4126.92307665, 4258.33333334, 4134.48717921, 4137.82051262, 4197.82051269,8.57
4138.71794851, 4124.61538434, 4121.79487152, 4139.48717928, 4130.38461511, 4131.28205101, 4115.25640998, 4122.30769203, 4126.28205101, 4128.07692280, 4250.64102564, 4125.12820485, 4131.28205101, 4194.61538448,8.57
4133.84615357, 4125.25640998, 4119.74358947, 4139.61538441, 4126.79487152, 4134.48717921, 4123.33333306, 4136.02564082, 4135.89743569, 4128.58974332, 4252.30769231, 4129.10256383, 4133.46153819, 4197.82051269,8.57
4149.48717928, 4134.48717921, 4136.02564082, 4147.94871774, 4129.23076896, 4142.05128185, 4131.41025614, 4137.56410236, 4143.20512800, 4129.23076896, 4258.84615385, 4138.84615364, 4142.05128185, 4196.53846140,8.57
4123.58974332, 4117.82051255, 4110.64102537, 4139.48717928, 4123.07692280, 4139.23076903, 4124.61538434, 4122.69230742, 4138.97435877, 4131.92307665, 4260.51282052, 4122.05128178, 4134.74358947, 4192.56410243,8.57
4133.46153819, 4125.76923050, 4118.20512793, 4146.15384595, 4125.89743562, 4139.10256390, 4120.76923050, 4113.58974332, 4130.38461511, 4131.02564075, 4257.94871795, 4134.61538434, 4137.82051262, 4196.66666653,8.57
4134.99999973, 4125.89743562, 4122.69230742, 4141.79487159, 4129.10256383, 4141.79487159, 4117.05128178, 4112.69230742, 4118.58974332, 4129.23076896, 4247.82051282, 4124.87179460, 4134.99999973, 4190.12820499,8.57
4131.41025614, 4120.76923050, 4123.33333306, 4139.23076903, 4125.38461511, 4134.74358947, 4106.53846126, 4112.56410229, 4112.30769203, 4131.66666639, 4245.76923077, 4121.66666639, 4130.76923050, 4188.84615371,8.57
4143.84615364, 4130.64102537, 4131.79487152, 4146.28205108, 4125.76923050, 4127.69230742, 4106.53846126, 4116.28205101, 4117.69230742, 4129.99999973, 4247.43589744, 4131.79487152, 4134.10256383, 4191.66666653,8.57
4124.23076896, 4123.84615357, 4112.30769203, 4136.41025621, 4121.79487152, 4134.10256383, 4117.05128178, 4128.07692280, 4130.38461511, 4125.38461511, 4242.05128206, 4115.89743562, 4129.74358947, 4191.53846140,8.57
4140.25641005, 4133.84615357, 4132.17948691, 4144.87179467, 4132.17948691, 4134.61538434, 4109.87179460, 4129.10256383, 4131.53846126, 4126.53846126, 4244.35897436, 4132.05128178, 4135.89743569, 4194.10256397,8.57
4134.48717921, 4125.38461511, 4124.74358947, 4141.02564082, 4130.51282024, 4133.07692280, 4106.53846126, 4126.15384588, 4129.99999973, 4128.58974332, 4250.89743590, 4128.84615357, 4134.48717921, 4188.07692294,8.57
4131.79487152, 4122.94871767, 4118.71794844, 4140.38461518, 4120.89743562, 4142.56410236, 4123.20512793, 4140.76923056, 4143.71794851, 4127.82051255, 4254.87179488, 4126.53846126, 4132.56410229, 4190.51282038,8.57
4146.41025621, 4134.61538434, 4135.89743569, 4151.02564082, 4127.69230742, 4140.89743569, 4125.51282024, 4145.38461518, 4146.92307672, 4128.20512793, 4252.82051282, 4138.33333313, 4136.28205108, 4195.51282038,8.57
4124.23076896, 4118.58974332, 4115.25640998, 4136.28205108, 4125.64102537, 4124.61538434, 4108.07692280, 4123.71794844, 4134.35897408, 4128.46153819, 4247.82051282, 4121.28205101, 4130.38461511, 4193.71794858,8.57
4146.79487159, 4129.99999973, 4133.20512793, 4144.35897415, 4128.46153819, 4127.17948691, 4111.28205101, 4119.87179460, 4134.10256383, 4129.23076896, 4253.97435898, 4138.71794851, 4138.20512800, 4197.05128192,8.57
4134.99999973, 4122.43589716, 4121.02564075, 4143.97435877, 4123.84615357, 4151.28205108, 4138.58974339, 4151.02564082, 4156.66666646, 4126.79487152, 4257.94871795, 4134.10256383, 4137.56410236, 4193.97435884,8.57
4124.74358947, 4116.28205101, 4109.61538434, 4137.56410236, 4119.23076896, 4148.84615364, 4135.76923056, 4155.38461518, 4161.53846133, 4125.76923050, 4251.92307693, 4122.43589716, 4132.43589716, 4196.53846140,8.57
4142.30769210, 4132.69230742, 4130.76923050, 4145.51282031, 4126.79487152, 4123.07692280, 4107.43589716, 4119.74358947, 4132.17948691, 4129.10256383, 4242.94871795, 4136.66666646, 4139.61538441, 4195.25641012,8.57
4116.02564075, 4116.41025614, 4108.71794844, 4136.92307672, 4119.23076896, 4123.33333306, 4104.10256383, 4106.28205101, 4117.17948691, 4127.94871767, 4235.38461539, 4119.35897408, 4134.87179460, 4190.38461525,8.57
4144.87179467, 4129.99999973, 4132.43589716, 4151.02564082, 4126.15384588, 4131.15384588, 4106.28205101, 4114.48717921, 4121.66666639, 4128.84615357, 4236.41025641, 4130.64102537, 4137.30769210, 4199.35897422,8.57
4133.46153819, 4124.48717921, 4122.69230742, 4146.53846133, 4127.30769203, 4124.99999973, 4101.79487145, 4116.28205101, 4123.71794844, 4129.99999973, 4236.92307693, 4122.56410229, 4133.46153819, 4194.74358961,8.57
4111.79487152, 4112.82051255, 4102.56410229, 4135.12820485, 4116.02564075, 4121.92307665, 4100.51282017, 4108.71794844, 4116.28205101, 4127.43589716, 4236.79487180, 4107.82051255, 4129.87179460, 4191.02564089,8.57
4152.30769210, 4137.94871774, 4141.92307672, 4152.56410236, 4127.94871767, 4118.97435870, 4094.87179453, 4098.33333299, 4103.84615357, 4128.33333306, 4237.17948718, 4133.07692280, 4140.12820492, 4192.43589730,8.57
4123.07692280, 4117.05128178, 4113.84615357, 4134.87179460, 4127.17948691, 4120.64102537, 4102.30769196, 4106.53846126, 4107.17948691, 4127.94871767, 4232.43589737, 4116.41025614, 4129.87179460, 4187.30769217,8.57
4130.25640998, 4120.76923050, 4116.92307665, 4137.05128185, 4123.71794844, 4122.94871767, 4110.38461511, 4106.92307665, 4105.76923050, 4127.05128178, 4230.64102558, 4121.92307665, 4131.53846126, 4193.07692294,8.57
4148.97435877, 4136.66666646, 4137.05128185, 4149.74358954, 4127.05128178, 4111.66666639, 4101.28205094, 4097.56410222, 4104.48717921, 4128.97435870, 4232.43589737, 4131.41025614, 4137.30769210, 4190.51282038,8.57
4117.17948691, 4113.46153819, 4109.10256383, 4135.64102544, 4122.69230742, 4111.41025614, 4107.17948691, 4119.74358947, 4130.89743562, 4129.74358947, 4240.00000000, 4117.94871767, 4128.33333306, 4190.38461525,8.57
4147.17948697, 4129.35897408, 4136.02564082, 4149.23076903, 4132.30769203, 4123.33333306, 4121.15384588, 4136.15384595, 4143.20512800, 4131.66666639, 4245.64102564, 4142.69230749, 4133.97435870, 4199.74358961,8.57
4133.97435870, 4128.07692280, 4126.79487152, 4142.17948697, 4127.17948691, 4125.51282024, 4120.89743562, 4122.69230742, 4129.87179460, 4131.15384588, 4240.38461539, 4129.35897408, 4132.30769203, 4195.89743576,8.57
4109.74358947, 4112.69230742, 4106.28205101, 4132.82051255, 4114.74358947, 4120.64102537, 4115.89743562, 4119.61538434, 4132.05128178, 4126.53846126, 4241.02564103, 4123.20512793, 4131.02564075, 4196.79487166,8.57
4148.07692287, 4132.43589716, 4136.92307672, 4151.66666646, 4129.61538434, 4119.61538434, 4114.48717921, 4125.12820485, 4138.46153826, 4125.51282024, 4241.79487180, 4143.46153826, 4138.07692287, 4197.56410243,8.57
4142.94871774, 4130.89743562, 4130.64102537, 4144.87179467, 4132.05128178, 4131.79487152, 4125.51282024, 4127.30769203, 4134.61538434, 4125.64102537, 4237.17948718, 4127.43589716, 4134.23076896, 4195.89743576,8.57
4136.28205108, 4129.35897408, 4126.79487152, 4142.30769210, 4121.28205101, 4134.99999973, 4129.61538434, 4128.58974332, 4134.10256383, 4125.76923050, 4239.74358975, 4131.79487152, 4136.66666646, 4199.61538448,8.57
4124.48717921, 4122.82051255, 4112.82051255, 4138.07692287, 4120.89743562, 4120.38461511, 4114.10256383, 4122.82051255, 4132.30769203, 4126.66666639, 4236.41025641, 4121.79487152, 4135.38461518, 4192.05128192,8.57
4129.10256383, 4123.33333306, 4115.38461511, 4137.94871774, 4127.94871767, 4117.69230742, 4109.99999973, 4112.17948691, 4119.74358947, 4126.41025614, 4228.84615378, 4121.02564075, 4137.05128185, 4191.28205115,8.57
4150.38461518, 4136.28205108, 4137.30769210, 4150.64102544, 4130.25640998, 4123.33333306, 4117.05128178, 4108.33333306, 4109.74358947, 4126.53846126, 4227.30769224, 4134.61538434, 4139.99999980, 4195.51282038,8.57
4115.64102537, 4113.20512793, 4107.30769203, 4136.41025621, 4118.07692280, 4120.51282024, 4117.30769203, 4121.28205101, 4122.43589716, 4128.71794844, 4229.35897429, 4110.51282024, 4130.51282024, 4193.07692294,8.57
4131.02564075, 4122.94871767, 4123.71794844, 4144.23076903, 4122.30769203, 4114.99999973, 4112.43589716, 4131.02564075, 4135.38461518, 4131.02564075, 4234.35897436, 4124.48717921, 4136.28205108, 4194.87179474,8.57
4140.12820492, 4131.92307665, 4132.94871767, 4149.61538441, 4128.07692280, 4114.74358947, 4112.43589716, 4121.02564075, 4128.07692280, 4129.99999973, 4232.69230763, 4126.92307665, 4136.28205108, 4189.74358961,8.57
4116.15384588, 4114.48717921, 4109.99999973, 4136.15384595, 4118.71794844, 4111.15384588, 4109.48717921, 4106.53846126, 4120.12820485, 4131.02564075, 4229.61538455, 4113.97435870, 4130.12820485, 4191.41025628,8.57
4145.51282031, 4130.12820485, 4135.38461518, 4147.43589723, 4127.30769203, 4100.38461504, 4096.28205094, 4100.51282017, 4121.79487152, 4130.76923050, 4230.76923070, 4132.43589716, 4137.94871774, 4196.02564089,8.57
4131.28205101, 4123.20512793, 4121.66666639, 4142.43589723, 4127.94871767, 4104.87179460, 4104.61538434, 4118.84615357, 4137.69230749, 4126.53846126, 4231.66666660, 4122.43589716, 4134.61538434, 4193.07692294,8.57
4130.25640998, 4123.20512793, 4121.66666639, 4144.61538441, 4123.84615357, 4120.76923050, 4124.87179460, 4138.97435877, 4144.10256390, 4127.82051255, 4233.97435898, 4130.89743562, 4134.61538434, 4196.28205115,8.57
4148.58974339, 4132.05128178, 4139.10256390, 4149.23076903, 4129.87179460, 4120.38461511, 4121.15384588, 4130.25640998, 4130.25640998, 4132.94871767, 4227.94871788, 4134.74358947, 4135.38461518, 4192.69230756,8.57
4122.17948691, 4116.66666639, 4115.64102537, 4135.12820485, 4122.94871767, 4110.51282024, 4105.12820485, 4114.99999973, 4120.38461511, 4131.15384588, 4217.30769224, 4117.05128178, 4132.17948691, 4194.10256397,8.57
4135.12820485, 4128.33333306, 4125.38461511, 4143.07692287, 4125.89743562, 4113.33333306, 4104.35897408, 4111.79487152, 4115.38461511, 4127.82051255, 4215.64102558, 4130.76923050, 4137.94871774, 4199.61538448,8.57
4130.25640998, 4123.58974332, 4120.89743562, 4142.56410236, 4125.12820485, 4124.35897408, 4117.69230742, 4117.43589716, 4119.61538434, 4128.20512793, 4223.07692301, 4123.97435870, 4134.99999973, 4193.20512807,8.57
4127.82051255, 4118.58974332, 4121.02564075, 4143.71794851, 4122.05128178, 4119.35897408, 4116.02564075, 4119.10256383, 4130.38461511, 4128.46153819, 4230.25641019, 4125.38461511, 4137.69230749, 4196.79487166,8.57
4150.38461518, 4134.99999973, 4135.64102544, 4149.87179467, 4128.71794844, 4108.58974332, 4102.69230742, 4109.99999973, 4124.99999973, 4128.46153819, 4225.64102558, 4133.20512793, 4138.46153826, 4196.79487166,8.57
4119.74358947, 4122.30769203, 4105.38461511, 4135.25640998, 4118.58974332, 4117.69230742, 4112.43589716, 4116.92307665, 4124.48717921, 4129.48717921, 4227.43589737, 4117.82051255, 4128.07692280, 4189.48717935,8.57
4127.94871767, 4124.48717921, 4119.74358947, 4142.69230749, 4122.17948691, 4125.25640998, 4123.07692280, 4137.94871774, 4142.69230749, 4130.89743562, 4235.25641026, 4128.33333306, 4135.76923056, 4194.23076910,8.57
4138.46153826, 4125.25640998, 4129.74358947, 4145.25641005, 4126.79487152, 4113.84615357, 4111.02564075, 4132.94871767, 4145.89743569, 4127.05128178, 4226.15384609, 4121.53846126, 4137.05128185, 4192.30769217,8.57
4127.17948691, 4122.17948691, 4118.07692280, 4139.10256390, 4123.33333306, 4112.69230742, 4114.99999973, 4117.69230742, 4135.51282031, 4124.99999973, 4222.69230763, 4120.25640998, 4134.35897408, 4191.53846140,8.57
4139.87179467, 4132.69230742, 4131.79487152, 4147.69230749, 4130.64102537, 4126.92307665, 4137.17948697, 4131.92307665, 4139.35897415, 4128.33333306, 4230.51282045, 4131.28205101, 4138.84615364, 4193.33333320,8.57
4123.71794844, 4120.64102537, 4117.82051255, 4141.41025621, 4123.58974332, 4129.23076896, 4136.41025621, 4149.23076903, 4148.33333313, 4125.38461511, 4226.28205122, 4115.89743562, 4135.25640998, 4190.25641012,8.57
4139.74358954, 4126.53846126, 4128.07692280, 4145.25641005, 4125.51282024, 4118.97435870, 4122.05128178, 4138.46153826, 4142.17948697, 4125.76923050, 4223.20512814, 4129.23076896, 4137.69230749, 4193.33333320,8.57
4138.33333313, 4124.48717921, 4125.12820485, 4144.35897415, 4126.15384588, 4120.51282024, 4127.05128178, 4136.02564082, 4141.28205108, 4131.15384588, 4228.71794865, 4127.94871767, 4132.17948691, 4191.28205115,8.57
4120.12820485, 4118.33333306, 4114.87179460, 4142.17948697, 4119.23076896, 4129.99999973, 4135.25640998, 4147.43589723, 4149.87179467, 4130.51282024, 4231.79487173, 4122.94871767, 4132.30769203, 4194.23076910,8.57
4145.89743569, 4134.23076896, 4137.56410236, 4151.28205108, 4129.74358947, 4123.33333306, 4125.89743562, 4137.43589723, 4141.41025621, 4127.05128178, 4223.84615378, 4136.28205108, 4141.66666646, 4196.79487166,8.57
4126.79487152, 4118.84615357, 4114.35897408, 4137.94871774, 4127.56410229, 4115.64102537, 4119.10256383, 4124.61538434, 4131.92307665, 4125.89743562, 4214.35897429, 4120.38461511, 4133.58974332, 4191.53846140,8.57
4135.51282031, 4125.12820485, 4122.94871767, 4147.17948697, 4126.92307665, 4123.71794844, 4121.02564075, 4120.76923050, 4125.12820485, 4126.41025614, 4220.89743583, 4130.25640998, 4138.07692287, 4194.99999986,8.57
4138.71794851, 4131.02564075, 4131.15384588, 4151.41025621, 4126.92307665, 4129.87179460, 4126.02564075, 4122.30769203, 4120.25640998, 4126.66666639, 4221.79487173, 4127.30769203, 4140.64102544, 4194.87179474,8.57
4116.53846126, 4117.69230742, 4112.56410229, 4136.02564082, 4119.10256383, 4120.89743562, 4125.64102537, 4130.89743562, 4128.33333306, 4128.46153819, 4217.17948711, 4116.92307665, 4133.97435870, 4198.07692294,8.57
4144.61538441, 4132.43589716, 4132.94871767, 4144.74358954, 4128.84615357, 4107.56410229, 4111.79487152, 4131.92307665, 4134.74358947, 4129.61538434, 4220.12820506, 4134.23076896, 4139.48717928, 4198.33333320,8.57
4126.92307665, 4121.02564075, 4113.46153819, 4139.87179467, 4123.97435870, 4110.38461511, 4115.51282024, 4141.15384595, 4145.51282031, 4126.28205101, 4218.46153840, 4119.10256383, 4134.74358947, 4191.92307679,8.57
4126.79487152, 4123.97435870, 4117.56410229, 4146.41025621, 4119.23076896, 4123.58974332, 4136.66666646, 4153.97435877, 4152.05128185, 4125.51282024, 4217.82051275, 4126.79487152, 4134.23076896, 4198.58974345,8.57
4138.20512800, 4129.10256383, 4129.23076896, 4152.17948697, 4127.17948691, 4122.94871767, 4134.10256383, 4145.51282031, 4143.84615364, 4126.79487152, 4220.76923070, 4128.84615357, 4134.48717921, 4195.51282038,8.57
4119.10256383, 4110.76923050, 4108.58974332, 4140.25641005, 4122.30769203, 4112.17948691, 4116.79487152, 4136.79487159, 4142.30769210, 4123.97435870, 4223.71794865, 4113.71794844, 4132.30769203, 4190.12820499,8.57
4141.15384595, 4127.94871767, 4132.82051255, 4149.74358954, 4126.79487152, 4107.30769203, 4109.61538434, 4127.94871767, 4135.89743569, 4123.20512793, 4223.97435891, 4132.43589716, 4138.46153826, 4191.28205115,8.57
4124.87179460, 4122.30769203, 4119.35897408, 4142.69230749, 4125.25640998, 4112.56410229, 4114.35897408, 4112.56410229, 4119.61538434, 4124.74358947, 4220.76923070, 4121.15384588, 4132.30769203, 4187.82051269,8.57
4129.23076896, 4119.61538434, 4118.46153819, 4144.61538441, 4124.61538434, 4110.76923050, 4110.89743562, 4107.94871767, 4112.94871767, 4126.41025614, 4218.33333327, 4126.66666639, 4136.15384595, 4195.12820499,8.57
4142.69230749, 4127.94871767, 4132.17948691, 4151.15384595, 4126.79487152, 4101.53846119, 4098.97435863, 4108.97435870, 4109.48717921, 4129.99999973, 4212.43589737, 4134.61538434, 4140.51282031, 4195.51282038,8.57
4115.12820485, 4118.46153819, 4110.76923050, 4137.82051262, 4118.84615357, 4106.41025614, 4101.66666632, 4110.38461511, 4104.48717921, 4130.51282024, 4210.64102558, 4117.43589716, 4134.23076896, 4193.07692294,8.57
4141.53846133, 4134.10256383, 4133.46153819, 4147.05128185, 4129.99999973, 4107.56410229, 4105.12820485, 4114.99999973, 4102.43589709, 4129.48717921, 4214.87179481, 4136.15384595, 4141.41025621, 4198.20512807,8.57
4132.05128178, 4121.15384588, 4122.56410229, 4141.53846133, 4128.46153819, 4106.66666639, 4107.05128178, 4120.76923050, 4109.10256383, 4128.33333306, 4212.56410250, 4126.79487152, 4135.89743569, 4193.33333320,8.57
4128.84615357, 4117.30769203, 4116.15384588, 4138.58974339, 4119.10256383, 4116.02564075, 4111.41025614, 4117.17948691, 4114.74358947, 4129.10256383, 4215.51282045, 4125.51282024, 4133.33333306, 4194.35897422,8.57
4146.53846133, 4132.43589716, 4132.56410229, 4147.05128185, 4125.25640998, 4111.28205101, 4104.74358947, 4105.76923050, 4110.64102537, 4128.20512793, 4221.15384609, 4135.12820485, 4138.97435877, 4192.43589730,8.57
4117.17948691, 4115.64102537, 4111.92307665, 4137.17948697, 4120.25640998, 4102.82051255, 4099.74358940, 4109.61538434, 4115.76923050, 4122.94871767, 4223.33333327, 4116.79487152, 4135.25640998, 4192.43589730,8.57
4137.05128185, 4124.48717921, 4127.30769203, 4145.38461518, 4122.56410229, 4107.30769203, 4106.15384588, 4121.66666639, 4128.84615357, 4124.99999973, 4230.12820506, 4135.12820485, 4140.89743569, 4201.92307686,8.57
4135.25640998, 4123.71794844, 4116.53846126, 4138.97435877, 4122.82051255, 4116.41025614, 4120.51282024, 4126.79487152, 4136.15384595, 4130.51282024, 4231.66666660, 4127.56410229, 4136.28205108, 4195.12820499,8.57
4128.33333306, 4120.64102537, 4113.20512793, 4136.66666646, 4120.38461511, 4118.58974332, 4127.56410229, 4125.25640998, 4133.20512793, 4131.66666639, 4229.23076917, 4117.69230742, 4134.10256383, 4191.66666653,8.57
4143.33333313, 4130.25640998, 4134.61538434, 4148.20512800, 4125.76923050, 4114.23076896, 4121.28205101, 4122.30769203, 4126.15384588, 4128.97435870, 4225.89743583, 4127.43589716, 4139.74358954, 4192.56410243,8.57
4120.38461511, 4116.41025614, 4112.69230742, 4137.94871774, 4120.89743562, 4114.61538434, 4118.07692280, 4126.28205101, 4127.17948691, 4127.82051255, 4224.99999993, 4113.84615357, 4132.69230742, 4191.53846140,8.57
4136.53846133, 4127.56410229, 4129.10256383, 4146.02564082, 4125.64102537, 4113.07692280, 4114.61538434, 4120.38461511, 4126.41025614, 4128.07692280, 4228.46153840, 4128.46153819, 4134.61538434, 4193.58974345,8.57
4125.89743562, 4121.41025614, 4123.20512793, 4140.89743569, 4124.61538434, 4109.61538434, 4110.76923050, 4113.07692280, 4125.76923050, 4126.15384588, 4225.38461532, 4121.66666639, 4132.30769203, 4189.35897422,8.57
4122.69230742, 4115.64102537, 4117.05128178, 4138.71794851, 4119.23076896, 4114.23076896, 4116.66666639, 4122.69230742, 4129.48717921, 4127.56410229, 4226.15384609, 4121.41025614, 4132.17948691, 4196.02564089,8.57
4151.53846133, 4134.61538434, 4141.66666646, 4152.69230749, 4127.17948691, 4116.79487152, 4123.07692280, 4134.48717921, 4130.51282024, 4128.58974332, 4228.46153840, 4139.87179467, 4139.48717928, 4197.94871781,8.57
4119.61538434, 4119.35897408, 4112.17948691, 4133.97435870, 4121.41025614, 4110.25640998, 4121.79487152, 4133.97435870, 4128.84615357, 4124.23076896, 4221.92307686, 4118.46153819, 4132.43589716, 4188.71794858,8.57
4133.20512793, 4127.56410229, 4127.05128178, 4141.28205108, 4123.97435870, 4105.38461511, 4116.66666639, 4120.76923050, 4117.56410229, 4125.51282024, 4221.02564096, 4131.79487152, 4139.35897415, 4194.35897422,8.57
4138.07692287, 4129.87179460, 4132.94871767, 4149.48717928, 4125.76923050, 4108.46153819, 4114.61538434, 4112.17948691, 4112.43589716, 4130.25640998, 4222.69230763, 4133.46153819, 4141.41025621, 4196.41025628,8.57
4121.15384588, 4118.33333306, 4112.05128178, 4137.43589723, 4117.82051255, 4110.64102537, 4116.15384588, 4116.28205101, 4123.84615357, 4127.43589716, 4225.12820506, 4121.79487152, 4134.99999973, 4195.38461525,8.57
4145.51282031, 4133.71794844, 4133.46153819, 4145.64102544, 4127.69230742, 4108.97435870, 4115.38461511, 4117.17948691, 4126.92307665, 4127.56410229, 4226.41025634, 4135.76923056, 4139.23076903, 4194.10256397,8.57
4122.69230742, 4120.76923050, 4117.05128178, 4140.51282031, 4126.53846126, 4115.51282024, 4119.10256383, 4116.79487152, 4121.53846126, 4130.12820485, 4217.94871788, 4119.10256383, 4132.56410229, 4194.74358961,8.57
4130.51282024, 4123.07692280, 4123.20512793, 4145.38461518, 4124.35897408, 4118.07692280, 4116.66666639, 4113.07692280, 4115.76923050, 4128.71794844, 4215.64102558, 4130.38461511, 4136.15384595, 4204.23076917,8.57
4139.23076903, 4128.07692280, 4127.30769203, 4144.74358954, 4126.53846126, 4111.02564075, 4113.33333306, 4109.99999973, 4113.58974332, 4128.71794844, 4217.94871788, 4132.30769203, 4137.69230749, 4193.97435884,8.57
4118.58974332, 4117.17948691, 4109.35897408, 4132.69230742, 4121.02564075, 4113.97435870, 4122.69230742, 4123.07692280, 4123.84615357, 4127.05128178, 4220.12820506, 4112.17948691, 4130.38461511, 4188.71794858,8.57
4140.12820492, 4132.56410229, 4133.07692280, 4146.53846133, 4127.82051255, 4111.53846126, 4114.99999973, 4124.48717921, 4125.89743562, 4128.33333306, 4224.48717942, 4126.53846126, 4136.66666646, 4197.43589730,8.57
4120.51282024, 4118.84615357, 4111.15384588, 4137.82051262, 4122.94871767, 4101.53846119, 4106.41025614, 4117.17948691, 4123.58974332, 4131.79487152, 4223.97435891, 4116.02564075, 4134.23076896, 4191.66666653,8.57
4125.64102537, 4120.51282024, 4112.43589716, 4137.43589723, 4121.02564075, 4102.94871767, 4115.64102537, 4123.46153819, 4127.43589716, 4129.74358947, 4223.07692301, 4124.10256383, 4137.69230749, 4191.92307679,8.57
4141.41025621, 4132.17948691, 4132.94871767, 4147.17948697, 4129.48717921, 4099.99999966, 4111.15384588, 4119.10256383, 4118.20512793, 4127.56410229, 4219.99999993, 4131.66666639, 4137.30769210, 4193.20512807,8.57
4116.53846126, 4116.41025614, 4116.15384588, 4135.12820485, 4124.35897408, 4091.79487145, 4098.46153812, 4107.69230742, 4110.51282024, 4128.07692280, 4218.07692301, 4115.76923050, 4129.74358947, 4192.94871781,8.57
4141.92307672, 4131.53846126, 4137.69230749, 4142.94871774, 4130.64102537, 4092.69230735, 4097.43589709, 4105.38461511, 4111.02564075, 4129.35897408, 4221.28205122, 4135.64102544, 4139.74358954, 4196.15384602,8.57
4128.20512793, 4124.23076896, 4121.53846126, 4137.82051262, 4128.07692280, 4099.87179453, 4103.84615357, 4112.30769203, 4112.43589716, 4129.99999973, 4218.07692301, 4124.48717921, 4134.35897408, 4193.97435884,8.57
4121.02564075, 4118.46153819, 4116.28205101, 4138.20512800, 4121.79487152, 4106.41025614, 4111.28205101, 4118.58974332, 4115.38461511, 4131.15384588, 4215.76923070, 4123.58974332, 4131.15384588, 4199.48717935,8.57
4145.12820492, 4132.69230742, 4139.87179467, 4148.46153826, 4129.35897408, 4108.07692280, 4116.15384588, 4118.33333306, 4118.07692280, 4129.61538434, 4215.76923070, 4139.23076903, 4138.97435877, 4197.82051269,8.57
4123.33333306, 4118.71794844, 4117.69230742, 4136.02564082, 4124.87179460, 4100.25640991, 4107.30769203, 4111.92307665, 4116.02564075, 4128.46153819, 4216.28205122, 4122.30769203, 4133.84615357, 4191.53846140,8.57
4133.58974332, 4128.20512793, 4127.17948691, 4143.71794851, 4124.61538434, 4091.92307658, 4096.66666632, 4099.61538427, 4102.43589709, 4132.05128178, 4216.53846147, 4135.38461518, 4137.82051262, 4194.74358961,8.57
4126.28205101, 4124.99999973, 4118.20512793, 4139.10256390, 4121.28205101, 4098.58974325, 4109.23076896, 4111.15384588, 4108.84615357, 4129.10256383, 4212.56410250, 4129.74358947, 4136.66666646, 4192.05128192,8.57
4127.05128178, 4120.64102537, 4115.12820485, 4137.05128185, 4121.92307665, 4105.89743562, 4122.05128178, 4134.10256383, 4129.87179460, 4126.15384588, 4215.38461532, 4124.10256383, 4137.56410236, 4196.28205115,8.57
4142.05128185, 4130.76923050, 4133.71794844, 4148.71794851, 4130.38461511, 4101.53846119, 4118.71794844, 4128.71794844, 4127.30769203, 4131.15384588, 4217.05128199, 4131.66666639, 4142.17948697, 4195.12820499,8.57
4109.99999973, 4111.02564075, 4106.28205101, 4131.79487152, 4122.17948691, 4101.15384581, 4115.64102537, 4117.43589716, 4119.99999973, 4130.12820485, 4214.10256404, 4111.79487152, 4132.94871767, 4189.10256397,8.57
4138.07692287, 4123.58974332, 4129.87179460, 4141.92307672, 4128.20512793, 4101.92307658, 4112.17948691, 4115.76923050, 4117.43589716, 4126.15384588, 4220.12820506, 4130.38461511, 4137.30769210, 4196.79487166,8.57
4138.84615364, 4128.97435870, 4133.20512793, 4144.99999980, 4130.51282024, 4100.25640991, 4110.64102537, 4112.30769203, 4113.33333306, 4127.94871767, 4217.05128199, 4126.53846126, 4137.56410236, 4191.92307679,8.57
4112.17948691, 4117.56410229, 4107.94871767, 4130.64102537, 4119.48717921, 4103.33333306, 4111.79487152, 4112.56410229, 4117.82051255, 4130.12820485, 4210.38461532, 4114.10256383, 4132.43589716, 4189.99999986,8.57
4140.76923056, 4129.74358947, 4134.23076896, 4141.92307672, 4125.76923050, 4099.87179453, 4104.10256383, 4115.51282024, 4122.69230742, 4128.97435870, 4212.56410250, 4133.20512793, 4137.56410236, 4194.10256397,8.57
4123.58974332, 4117.69230742, 4118.84615357, 4135.64102544, 4123.71794844, 4098.71794837, 4106.41025614, 4116.53846126, 4119.74358947, 4126.66666639, 4212.05128199, 4117.56410229, 4132.17948691, 4189.99999986,8.57
4131.15384588, 4128.58974332, 4123.20512793, 4141.53846133, 4124.10256383, 4106.28205101, 4118.46153819, 4116.79487152, 4116.92307665, 4128.97435870, 4210.25641019, 4128.71794844, 4134.74358947, 4194.48717935,8.57
4138.58974339, 4130.25640998, 4126.66666639, 4142.56410236, 4126.28205101, 4105.89743562, 4118.71794844, 4116.28205101, 4113.71794844, 4130.25640998, 4207.05128199, 4132.56410229, 4137.94871774, 4194.74358961,8.57
4118.07692280, 4112.17948691, 4109.48717921, 4128.84615357, 4121.28205101, 4096.41025607, 4106.53846126, 4103.71794844, 4103.97435870, 4126.53846126, 4202.43589737, 4118.84615357, 4136.15384595, 4194.48717935,8.57
4141.92307672, 4132.17948691, 4136.53846133, 4141.79487159, 4128.07692280, 4086.92307658, 4091.79487145, 4085.64102530, 4092.69230735, 4127.82051255, 4200.76923063, 4137.43589723, 4142.05128185, 4195.25641012,8.57
4125.64102537, 4124.10256383, 4118.58974332, 4137.69230749, 4121.41025614, 4090.38461504, 4096.15384581, 4094.10256376, 4097.94871761, 4130.64102537, 4203.97435891, 4122.94871767, 4133.97435870, 4191.28205115,8.57
4130.25640998, 4121.92307665, 4117.30769203, 4138.97435877, 4120.89743562, 4099.48717914, 4109.87179460, 4115.51282024, 4115.76923050, 4129.61538434, 4214.87179481, 4127.94871767, 4134.87179460, 4197.82051269,8.57
4143.33333313, 4130.76923050, 4129.48717921, 4142.82051262, 4129.61538434, 4096.28205094, 4106.02564075, 4113.33333306, 4121.66666639, 4128.97435870, 4215.89743583, 4138.07692287, 4138.20512800, 4197.94871781,8.57
4123.07692280, 4118.71794844, 4112.17948691, 4131.92307665, 4120.64102537, 4086.53846119, 4096.53846119, 4094.23076889, 4106.41025614, 4127.94871767, 4203.84615378, 4120.38461511, 4129.48717921, 4198.46153833,8.57
4141.41025621, 4129.10256383, 4130.38461511, 4142.30769210, 4123.33333306, 4079.48717914, 4094.87179453, 4085.12820478, 4087.94871761, 4127.17948691, 4197.43589730, 4132.05128178, 4134.61538434, 4199.61538448,8.57
4120.76923050, 4118.07692280, 4113.07692280, 4135.12820485, 4125.89743562, 4084.10256376, 4104.23076896, 4103.20512793, 4105.76923050, 4127.30769203, 4201.66666660, 4121.41025614, 4133.46153819, 4190.76923063,8.57
4122.82051255, 4118.20512793, 4115.89743562, 4135.12820485, 4125.64102537, 4094.99999966, 4116.15384588, 4126.79487152, 4139.23076903, 4129.35897408, 4212.56410250, 4124.35897408, 4134.87179460, 4195.89743576,8.57
4140.76923056, 4130.38461511, 4133.07692280, 4146.92307672, 4127.94871767, 4097.43589709, 4118.71794844, 4126.02564075, 4138.07692287, 4127.94871767, 4212.17948711, 4133.71794844, 4136.92307672, 4196.92307679,8.57
4117.05128178, 4116.02564075, 4110.76923050, 4136.92307672, 4120.76923050, 4095.12820478, 4111.66666639, 4110.76923050, 4119.23076896, 4125.12820485, 4202.30769224, 4118.58974332, 4129.48717921, 4191.41025628,8.57
4135.64102544, 4127.17948691, 4131.02564075, 4142.05128185, 4124.61538434, 4091.79487145, 4102.56410229, 4103.46153819, 4108.46153819, 4127.56410229, 4199.35897422, 4133.71794844, 4134.99999973, 4193.07692294,8.57
4122.82051255, 4119.61538434, 4120.25640998, 4136.66666646, 4123.07692280, 4097.30769196, 4109.61538434, 4111.41025614, 4108.20512793, 4128.07692280, 4198.58974345, 4123.07692280, 4131.66666639, 4190.89743576,8.57
4127.05128178, 4118.84615357, 4118.46153819, 4139.48717928, 4124.87179460, 4103.97435870, 4116.41025614, 4116.92307665, 4113.46153819, 4129.10256383, 4203.84615378, 4124.87179460, 4131.92307665, 4196.15384602,8.57
4148.58974339, 4133.84615357, 4138.20512800, 4148.46153826, 4131.66666639, 4098.71794837, 4102.69230742, 4106.53846126, 4113.46153819, 4129.74358947, 4210.12820506, 4140.89743569, 4138.07692287, 4195.51282038,8.57
4117.69230742, 4118.46153819, 4111.92307665, 4131.41025614, 4120.89743562, 4100.51282017, 4101.02564068, 4104.10256383, 4115.89743562, 4125.12820485, 4210.12820506, 4125.12820485, 4132.30769203, 4192.17948704,8.57
4140.38461518, 4131.28205101, 4132.30769203, 4143.71794851, 4127.56410229, 4105.25640998, 4108.84615357, 4107.17948691, 4114.99999973, 4126.66666639, 4206.79487173, 4143.07692287, 4138.58974339, 4198.84615371,8.57
4134.35897408, 4127.94871767, 4129.35897408, 4144.87179467, 4130.51282024, 4105.76923050, 4111.15384588, 4113.46153819, 4117.94871767, 4131.15384588, 4201.53846147, 4133.58974332, 4135.51282031, 4194.61538448,8.57
4117.69230742, 4117.94871767, 4115.25640998, 4136.53846133, 4119.35897408, 4109.74358947, 4120.51282024, 4131.41025614, 4131.79487152, 4128.58974332, 4206.79487173, 4120.38461511, 4132.56410229, 4194.48717935,8.57
4143.33333313, 4134.23076896, 4136.92307672, 4146.53846133, 4124.99999973, 4115.51282024, 4128.97435870, 4137.05128185, 4134.87179460, 4126.28205101, 4213.20512814, 4138.33333313, 4139.74358954, 4195.25641012,8.57
4121.02564075, 4119.99999973, 4112.94871767, 4133.33333306, 4124.35897408, 4120.25640998, 4133.33333306, 4134.87179460, 4135.38461518, 4128.07692280, 4209.99999993, 4120.76923050, 4133.46153819, 4190.51282038,8.57
4131.92307665, 4124.61538434, 4123.33333306, 4138.33333313, 4127.30769203, 4113.58974332, 4127.17948691, 4130.64102537, 4133.84615357, 4127.43589716, 4209.48717942, 4127.82051255, 4137.30769210, 4198.33333320,8.57
4136.15384595, 4126.66666639, 4124.48717921, 4142.56410236, 4128.46153819, 4104.23076896, 4116.28205101, 4117.30769203, 4123.33333306, 4125.38461511, 4204.48717942, 4130.64102537, 4137.43589723, 4196.92307679,8.57
4116.92307665, 4115.64102537, 4104.23076896, 4132.69230742, 4120.89743562, 4105.76923050, 4114.35897408, 4106.15384588, 4115.89743562, 4126.02564075, 4200.38461525, 4120.76923050, 4131.66666639, 4192.82051269,8.57
4139.10256390, 4131.53846126, 4131.79487152, 4142.43589723, 4126.66666639, 4100.76923043, 4105.64102537, 4096.53846119, 4110.25640998, 4130.12820485, 4205.38461532, 4134.10256383, 4138.07692287, 4193.58974345,8.57
4121.15384588, 4120.12820485, 4117.82051255, 4133.71794844, 4122.43589716, 4093.20512786, 4098.58974325, 4097.30769196, 4112.43589716, 4130.51282024, 4204.48717942, 4119.61538434, 4132.30769203, 4190.64102551,8.57
4129.10256383, 4123.71794844, 4122.17948691, 4139.23076903, 4124.10256383, 4100.51282017, 4108.71794844, 4107.43589716, 4117.05128178, 4126.02564075, 4200.89743576, 4127.82051255, 4134.87179460, 4195.12820499,8.57
4137.69230749, 4132.82051255, 4133.07692280, 4145.12820492, 4128.97435870, 4107.82051255, 4119.23076896, 4116.53846126, 4119.99999973, 4124.48717921, 4199.61538448, 4133.07692280, 4138.46153826, 4193.20512807,8.57
4113.20512793, 4118.46153819, 4113.07692280, 4130.76923050, 4118.84615357, 4103.46153819, 4114.35897408, 4123.20512793, 4125.64102537, 4127.05128178, 4201.28205122, 4120.38461511, 4133.46153819, 4193.33333320,8.57
4141.53846133, 4133.07692280, 4134.61538434, 4140.64102544, 4126.66666639, 4098.20512786, 4106.15384588, 4117.30769203, 4121.28205101, 4128.97435870, 4202.17948711, 4138.07692287, 4142.05128185, 4198.97435884,8.57
4125.51282024, 4121.79487152, 4118.97435870, 4135.76923056, 4125.12820485, 4106.15384588, 4116.15384588, 4112.43589716, 4115.12820485, 4128.20512793, 4197.82051269, 4123.20512793, 4136.15384595, 4192.69230756,8.57
4122.05128178, 4117.43589716, 4118.71794844, 4136.92307672, 4119.61538434, 4115.64102537, 4125.38461511, 4112.30769203, 4116.15384588, 4127.56410229, 4199.74358961, 4128.33333306, 4131.92307665, 4193.71794858,8.57
4148.20512800, 4133.20512793, 4140.12820492, 4146.53846133, 4129.61538434, 4105.38461511, 4113.33333306, 4108.07692280, 4118.33333306, 4126.92307665, 4202.43589737, 4140.89743569, 4136.66666646, 4195.51282038,8.57
4120.64102537, 4118.07692280, 4112.69230742, 4132.56410229, 4124.48717921, 4100.89743555, 4109.61538434, 4112.82051255, 4128.20512793, 4125.38461511, 4202.69230763, 4118.20512793, 4133.20512793, 4194.61538448,8.57
4136.41025621, 4127.82051255, 4130.38461511, 4143.07692287, 4123.97435870, 4113.20512793, 4121.15384588, 4118.58974332, 4128.33333306, 4128.20512793, 4203.97435891, 4135.89743569, 4138.07692287, 4198.07692294,8.57
4131.79487152, 4124.61538434, 4127.82051255, 4140.89743569, 4124.99999973, 4110.89743562, 4117.43589716, 4116.41025614, 4115.51282024, 4129.99999973, 4197.94871781, 4129.61538434, 4134.35897408, 4191.79487166,8.57
4120.64102537, 4116.66666639, 4112.43589716, 4131.66666639, 4122.30769203, 4098.07692273, 4103.84615357, 4116.66666639, 4111.79487152, 4129.99999973, 4194.10256397, 4118.33333306, 4133.97435870, 4191.53846140,8.57
4141.15384595, 4128.33333306, 4129.87179460, 4142.30769210, 4126.79487152, 4099.48717914, 4107.43589716, 4120.25640998, 4116.53846126, 4129.61538434, 4192.05128192, 4132.43589716, 4137.82051262, 4191.41025628,8.57
4116.53846126, 4114.48717921, 4109.74358947, 4134.10256383, 4120.12820485, 4109.10256383, 4121.15384588, 4122.69230742, 4119.61538434, 4125.12820485, 4185.64102551, 4119.23076896, 4130.25640998, 4187.69230756,8.57
4127.94871767, 4124.10256383, 4119.48717921, 4137.82051262, 4124.35897408, 4104.10256383, 4117.17948691, 4117.43589716, 4115.89743562, 4125.38461511, 4188.07692294, 4129.10256383, 4136.15384595, 4192.05128192,8.57
4127.43589716, 4124.61538434, 4121.15384588, 4134.74358947, 4125.89743562, 4098.58974325, 4109.99999973, 4110.25640998, 4116.15384588, 4129.48717921, 4192.69230756, 4125.12820485, 4134.61538434, 4188.71794858,8.57
4119.48717921, 4118.33333306, 4117.30769203, 4132.56410229, 4120.25640998, 4107.56410229, 4119.10256383, 4109.74358947, 4120.25640998, 4128.20512793, 4192.69230756, 4124.10256383, 4132.17948691, 4193.20512807,8.57
4142.69230749, 4133.07692280, 4136.41025621, 4147.30769210, 4129.99999973, 4108.71794844, 4123.97435870, 4109.99999973, 4113.46153819, 4127.56410229, 4193.46153833, 4139.35897415, 4138.71794851, 4197.43589730,8.57
4116.02564075, 4116.02564075, 4109.61538434, 4133.58974332, 4124.23076896, 4104.61538434, 4120.64102537, 4119.61538434, 4116.41025614, 4127.30769203, 4196.02564089, 4117.56410229, 4130.89743562, 4192.94871781,8.57
4130.64102537, 4125.12820485, 4126.79487152, 4141.02564082, 4123.46153819, 4101.28205094, 4111.92307665, 4129.99999973, 4127.17948691, 4128.20512793, 4198.84615371, 4132.05128178, 4135.25640998, 4197.43589730,8.57
4135.12820485, 4129.48717921, 4130.76923050, 4143.20512800, 4128.46153819, 4095.51282017, 4101.02564068, 4120.64102537, 4122.94871767, 4130.51282024, 4193.71794858, 4134.10256383, 4137.17948697, 4197.30769217,8.57
4116.66666639, 4115.38461511, 4109.99999973, 4128.58974332, 4124.35897408, 4092.94871761, 4100.89743555, 4111.53846126, 4114.10256383, 4129.23076896, 4197.05128192, 4121.28205101, 4133.71794844, 4198.33333320,8.57
4142.82051262, 4132.05128178, 4134.61538434, 4140.51282031, 4128.46153819, 4092.94871761, 4100.89743555, 4109.87179460, 4106.92307665, 4128.33333306, 4206.02564096, 4138.97435877, 4140.64102544, 4196.53846140,8.57
4118.58974332, 4118.07692280, 4113.20512793, 4132.82051255, 4121.28205101, 4098.20512786, 4105.25640998, 4118.46153819, 4116.02564075, 4130.12820485, 4201.41025634, 4121.92307665, 4134.61538434, 4191.02564089,8.57
4126.41025614, 4120.64102537, 4118.20512793, 4135.89743569, 4122.94871767, 4100.64102530, 4109.99999973, 4124.61538434, 4129.87179460, 4131.53846126, 4202.82051275, 4131.92307665, 4136.28205108, 4198.33333320,8.57
4139.87179467, 4131.41025614, 4129.48717921, 4141.28205108, 4128.84615357, 4097.17948684, 4106.53846126, 4111.66666639, 4122.43589716, 4130.64102537, 4208.58974352, 4138.84615364, 4136.66666646, 4193.46153833,8.57
4116.79487152, 4117.05128178, 4105.51282024, 4129.74358947, 4118.97435870, 4098.58974325, 4106.53846126, 4104.23076896, 4113.97435870, 4129.48717921, 4208.58974352, 4120.76923050, 4129.23076896, 4189.99999986,8.57
4135.64102544, 4126.92307665, 4123.97435870, 4138.84615364, 4123.46153819, 4105.76923050, 4113.33333306, 4118.46153819, 4123.97435870, 4128.97435870, 4210.12820506, 4134.74358947, 4137.05128185, 4198.20512807,8.57
4119.87179460, 4117.94871767, 4112.30769203, 4131.92307665, 4124.87179460, 4111.28205101, 4121.66666639, 4132.56410229, 4135.51282031, 4128.58974332, 4209.48717942, 4121.53846126, 4134.35897408, 4195.25641012,8.57
4126.79487152, 4122.30769203, 4121.15384588, 4136.79487159, 4124.74358947, 4103.46153819, 4115.51282024, 4121.53846126, 4125.25640998, 4130.89743562, 4208.33333327, 4124.87179460, 4133.97435870, 4196.15384602,8.57
4135.89743569, 4128.97435870, 4135.51282031, 4142.69230749, 4126.41025614, 4095.76923043, 4106.15384588, 4107.05128178, 4111.28205101, 4128.58974332, 4206.28205122, 4130.64102537, 4136.15384595, 4194.23076910,8.57
4111.66666639, 4114.10256383, 4112.17948691, 4127.69230742, 4119.48717921, 4099.74358940, 4108.46153819, 4108.84615357, 4112.56410229, 4123.71794844, 4203.71794865, 4115.89743562, 4130.89743562, 4192.43589730,8.57
4141.53846133, 4131.53846126, 4135.38461518, 4138.84615364, 4128.58974332, 4097.05128171, 4107.17948691, 4113.58974332, 4115.51282024, 4127.17948691, 4203.71794865, 4134.10256383, 4138.07692287, 4194.74358961,8.57
4128.20512793, 4122.30769203, 4121.28205101, 4135.25640998, 4127.30769203, 4096.53846119, 4111.53846126, 4120.76923050, 4120.64102537, 4132.05128178, 4201.02564096, 4122.30769203, 4133.58974332, 4188.46153833,8.57
4124.10256383, 4119.87179460, 4118.20512793, 4133.46153819, 4123.58974332, 4099.99999966, 4110.89743562, 4113.71794844, 4116.66666639, 4131.15384588, 4199.48717935, 4125.12820485, 4131.02564075, 4192.56410243,8.57
4144.35897415, 4134.87179460, 4139.10256390, 4139.61538441, 4131.15384588, 4085.12820478, 4091.53846119, 4093.46153812, 4099.74358940, 4129.48717921, 4195.76923063, 4138.97435877, 4136.15384595, 4194.87179474,8.57
4120.25640998, 4116.02564075, 4113.58974332, 4126.41025614, 4124.35897408, 4084.74358940, 4095.38461504, 4103.33333306, 4107.17948691, 4129.35897408, 4193.33333320, 4121.15384588, 4133.07692280, 4194.61538448,8.57
4136.66666646, 4125.64102537, 4126.79487152, 4136.15384595, 4126.28205101, 4104.74358947, 4116.79487152, 4122.30769203, 4126.53846126, 4128.97435870, 4196.66666653, 4136.15384595, 4138.84615364, 4198.84615371,8.57
4127.56410229, 4127.56410229, 4119.48717921, 4134.48717921, 4124.61538434, 4097.17948684, 4113.58974332, 4118.71794844, 4125.76923050, 4126.02564075, 4193.07692294, 4128.46153819, 4131.66666639, 4192.17948704,8.57
4125.76923050, 4123.20512793, 4118.20512793, 4132.82051255, 4120.89743562, 4089.61538427, 4102.17948684, 4112.82051255, 4119.61538434, 4125.64102537, 4194.87179474, 4123.71794844, 4130.25640998, 4194.10256397,8.57
4144.48717928, 4130.25640998, 4137.05128185, 4139.35897415, 4126.53846126, 4124.74358947, 4102.30769196, 4107.94871767, 4118.46153819, 4127.43589716, 4199.61538448, 4136.15384595, 4140.38461518, 4194.48717935,8.57
4112.17948691, 4116.02564075, 4108.84615357, 4123.84615357, 4120.51282024, 4162.56410236, 4109.87179460, 4107.69230742, 4119.74358947, 4126.92307665, 4194.23076910, 4116.02564075, 4131.15384588, 4189.23076910,8.57
4131.28205101, 4129.87179460, 4126.41025614, 4137.17948697, 4126.66666639, 4161.28205108, 4115.25640998, 4109.48717921, 4116.28205101, 4128.58974332, 4189.99999986, 4130.38461511, 4131.41025614, 4193.84615371,8.57
4131.02564075, 4124.48717921, 4126.41025614, 4139.74358954, 4130.25640998, 4150.38461518, 4115.89743562, 4112.43589716, 4120.89743562, 4127.17948691, 4190.38461525, 4127.82051255, 4134.23076896, 4191.41025628,8.57
4114.87179460, 4112.43589716, 4110.25640998, 4127.69230742, 4123.58974332, 4154.99999980, 4112.69230742, 4112.94871767, 4125.51282024, 4124.48717921, 4195.76923063, 4116.79487152, 4134.61538434, 4193.20512807,8.57
4138.71794851, 4132.56410229, 4131.02564075, 4140.25641005, 4129.35897408, 4157.05128185, 4108.33333306, 4105.12820485, 4113.20512793, 4130.64102537, 4195.64102551, 4133.33333306, 4139.74358954, 4194.48717935,8.57
4116.15384588, 4120.89743562, 4109.35897408, 4132.43589716, 4124.74358947, 4149.87179467, 4107.17948691, 4106.15384588, 4113.58974332, 4134.23076896, 4190.12820499, 4118.46153819, 4131.66666639, 4189.10256397,8.57
4132.17948691, 4126.41025614, 4125.76923050, 4137.05128185, 4126.41025614, 4139.48717928, 4102.30769196, 4111.41025614, 4125.76923050, 4131.79487152, 4195.76923063, 4129.48717921, 4133.84615357, 4195.25641012,8.57
4138.97435877, 4126.92307665, 4134.61538434, 4139.10256390, 4127.82051255, 4143.07692287, 4107.69230742, 4110.12820485, 4122.30769203, 4131.53846126, 4196.15384602, 4130.76923050, 4135.25640998, 4192.43589730,8.57
4112.05128178, 4112.17948691, 4107.69230742, 4127.43589716, 4119.35897408, 4154.99999980, 4120.89743562, 4113.20512793, 4115.51282024, 4129.48717921, 4188.07692294, 4117.94871767, 4131.02564075, 4190.38461525,8.57
4137.82051262, 4133.58974332, 4132.30769203, 4140.12820492, 4129.23076896, 4155.76923056, 4121.41025614, 4124.23076896, 4121.41025614, 4128.71794844, 4186.02564089, 4137.94871774, 4137.43589723, 4195.76923063,8.57
4124.23076896, 4121.15384588, 4118.07692280, 4130.64102537, 4126.41025614, 4157.56410236, 4123.97435870, 4137.94871774, 4132.43589716, 4130.38461511, 4182.82051269, 4121.28205101, 4131.66666639, 4193.71794858,8.57
4128.84615357, 4118.46153819, 4117.69230742, 4130.51282024, 4121.53846126, 4159.87179467, 4127.69230742, 4138.84615364, 4132.69230742, 4129.10256383, 4184.35897422, 4126.92307665, 4134.10256383, 4195.89743576,8.57
4142.69230749, 4134.87179460, 4133.20512793, 4139.23076903, 4126.92307665, 4157.43589723, 4123.58974332, 4130.51282024, 4129.99999973, 4127.69230742, 4188.84615371, 4137.94871774, 4137.69230749, 4191.02564089,8.57
4117.17948691, 4122.56410229, 4114.23076896, 4129.10256383, 4122.17948691, 4157.17948697, 4121.15384588, 4125.64102537, 4133.07692280, 4130.64102537, 4188.71794858, 4119.23076896, 4130.51282024, 4193.07692294,8.57
4136.79487159, 4128.33333306, 4131.92307665, 4138.71794851, 4127.82051255, 4144.35897415, 4106.15384588, 4109.23076896, 4121.79487152, 4131.79487152, 4185.25641012, 4132.82051255, 4137.69230749, 4203.97435891,8.57
4123.71794844, 4119.87179460, 4118.46153819, 4131.66666639, 4124.61538434, 4128.33333306, 4090.64102530, 4091.66666632, 4106.66666639, 4124.61538434, 4179.35897422, 4123.33333306, 4133.71794844, 4193.97435884,8.57
4123.97435870, 4123.58974332, 4119.10256383, 4129.61538434, 4121.02564075, 4133.33333306, 4100.12820478, 4103.46153819, 4114.35897408, 4123.58974332, 4180.25641012, 4125.64102537, 4130.89743562, 4192.30769217,8.57
4142.69230749, 4134.99999973, 4135.25640998, 4139.61538441, 4126.66666639, 4140.89743569, 4114.23076896, 4119.10256383, 4125.12820485, 4131.28205101, 4181.79487166, 4134.87179460, 4135.25640998, 4196.66666653,8.57
4113.58974332, 4115.51282024, 4108.71794844, 4126.53846126, 4117.82051255, 4136.92307672, 4114.10256383, 4114.35897408, 4124.99999973, 4129.48717921, 4179.87179474, 4115.64102537, 4128.97435870, 4192.82051269,8.57
4131.41025614, 4128.07692280, 4131.28205101, 4136.53846133, 4125.38461511, 4133.33333306, 4106.66666639, 4105.25640998, 4118.20512793, 4124.87179460, 4181.02564089, 4131.92307665, 4132.82051255, 4192.17948704,8.57
4124.48717921, 4124.23076896, 4121.92307665, 4134.23076896, 4130.51282024, 4138.20512800, 4111.15384588, 4112.82051255, 4118.46153819, 4127.94871767, 4179.23076910, 4122.43589716, 4130.12820485, 4189.99999986,8.57
4121.79487152, 4117.94871767, 4109.74358947, 4128.84615357, 4122.30769203, 4142.30769210, 4119.74358947, 4124.35897408, 4127.82051255, 4130.89743562, 4178.33333320, 4118.97435870, 4131.53846126, 4197.17948704,8.57
4147.82051262, 4134.35897408, 4137.56410236, 4140.76923056, 4126.66666639, 4134.23076896, 4109.35897408, 4115.89743562, 4125.89743562, 4129.23076896, 4178.58974345, 4136.28205108, 4136.79487159, 4197.94871781,8.57
4116.66666639, 4118.20512793, 4116.66666639, 4129.23076896, 4124.10256383, 4130.38461511, 4098.46153812, 4107.05128178, 4117.82051255, 4127.05128178, 4175.12820499, 4116.79487152, 4127.05128178, 4191.53846140,8.57
4131.66666639, 4127.69230742, 4128.58974332, 4137.43589723, 4126.41025614, 4130.89743562, 4103.07692280, 4107.43589716, 4114.61538434, 4129.48717921, 4177.05128192, 4129.48717921, 4134.61538434, 4195.64102551,8.57
4135.12820485, 4129.48717921, 4129.87179460, 4138.97435877, 4126.28205101, 4133.33333306, 4112.30769203, 4110.64102537, 4120.76923050, 4130.51282024, 4180.25641012, 4128.97435870, 4137.69230749, 4193.58974345,8.57
4119.87179460, 4118.58974332, 4115.64102537, 4130.76923050, 4122.69230742, 4148.33333313, 4124.10256383, 4121.02564075, 4133.46153819, 4127.69230742, 4183.46153833, 4121.28205101, 4132.43589716, 4197.82051269,8.57
4139.87179467, 4131.28205101, 4132.69230742, 4140.38461518, 4129.61538434, 4152.43589723, 4127.43589716, 4119.99999973, 4129.10256383, 4128.46153819, 4183.33333320, 4136.02564082, 4136.66666646, 4198.97435884,8.57
4118.33333306, 4117.94871767, 4111.92307665, 4130.12820485, 4122.56410229, 4142.30769210, 4123.46153819, 4116.15384588, 4119.87179460, 4128.71794844, 4178.33333320, 4117.05128178, 4131.53846126, 4192.17948704,8.57
4131.41025614, 4123.84615357, 4122.94871767, 4135.76923056, 4124.23076896, 4142.30769210, 4121.79487152, 4120.89743562, 4120.89743562, 4129.74358947, 4181.28205115, 4128.71794844, 4136.66666646, 4198.33333320,8.57
4132.56410229, 4124.35897408, 4123.71794844, 4136.28205108, 4125.64102537, 4143.71794851, 4119.74358947, 4121.53846126, 4123.71794844, 4131.41025614, 4181.41025628, 4132.05128178, 4138.46153826, 4196.15384602,8.57
4112.82051255, 4115.25640998, 4106.53846126, 4126.41025614, 4116.66666639, 4134.87179460, 4112.82051255, 4113.46153819, 4124.61538434, 4131.79487152, 4179.99999986, 4119.87179460, 4133.20512793, 4191.92307679,8.57
4135.76923056, 4133.84615357, 4130.12820485, 4138.07692287, 4124.35897408, 4132.43589716, 4109.87179460, 4112.94871767, 4127.05128178, 4131.41025614, 4181.28205115, 4134.48717921, 4138.20512800, 4191.66666653,8.57
4114.23076896, 4118.58974332, 4111.53846126, 4128.58974332, 4121.66666639, 4145.38461518, 4123.07692280, 4134.10256383, 4141.53846133, 4127.94871767, 4181.02564089, 4115.12820485, 4131.53846126, 4189.87179474,8.57
4124.35897408, 4121.41025614, 4121.02564075, 4133.07692280, 4122.30769203, 4149.61538441, 4129.74358947, 4134.99999973, 4142.30769210, 4128.33333306, 4183.20512807, 4122.05128178, 4133.07692280, 4197.43589730,8.57
4136.92307672, 4132.17948691, 4131.53846126, 4138.97435877, 4129.10256383, 4141.79487159, 4123.46153819, 4114.74358947, 4125.25640998, 4129.48717921, 4180.12820499, 4127.94871767, 4134.48717921, 4194.61538448,8.57
4116.28205101, 4119.99999973, 4112.82051255, 4129.74358947, 4121.79487152, 4134.87179460, 4116.53846126, 4114.87179460, 4122.56410229, 4129.87179460, 4178.46153833, 4111.02564075, 4129.48717921, 4190.89743576,8.57
4137.69230749, 4131.53846126, 4137.17948697, 4141.53846133, 4124.87179460, 4131.28205101, 4112.05128178, 4127.43589716, 4126.02564075, 4131.66666639, 4179.74358961, 4128.97435870, 4138.84615364, 4192.17948704,8.57
4117.56410229, 4118.84615357, 4116.02564075, 4130.76923050, 4122.30769203, 4138.84615364, 4120.51282024, 4131.53846126, 4125.89743562, 4129.10256383, 4174.74358961, 4119.35897408, 4134.35897408, 4189.61538448,8.57
4125.25640998, 4122.43589716, 4118.46153819, 4132.05128178, 4123.46153819, 4136.53846133, 4114.87179460, 4113.58974332, 4117.05128178, 4127.05128178, 4175.38461525, 4125.51282024, 4133.58974332, 4195.51282038,8.57
4141.66666646, 4133.71794844, 4138.33333313, 4142.17948697, 4129.23076896, 4119.61538434, 4092.17948684, 4089.48717914, 4105.25640998, 4127.69230742, 4174.99999986, 4134.48717921, 4137.69230749, 4195.76923063,8.57
4108.71794844, 4113.84615357, 4109.74358947, 4128.33333306, 4120.25640998, 4127.56410229, 4101.66666632, 4095.25640991, 4109.74358947, 4126.28205101, 4169.74358961, 4117.82051255, 4133.07692280, 4193.33333320,8.57
4135.51282031, 4128.71794844, 4129.74358947, 4139.23076903, 4126.02564075, 4144.99999980, 4124.74358947, 4104.74358947, 4111.41025614, 4127.82051255, 4168.20512807, 4136.41025621, 4138.20512800, 4196.92307679,8.57
4131.28205101, 4126.66666639, 4125.25640998, 4133.84615357, 4126.15384588, 4141.53846133, 4120.12820485, 4100.76923043, 4107.82051255, 4131.02564075, 4165.12820492, 4123.97435870, 4132.56410229, 4193.84615371,8.57
4121.15384588, 4120.38461511, 4118.33333306, 4129.48717921, 4122.05128178, 4136.92307672, 4112.56410229, 4109.99999973, 4119.74358947, 4128.97435870, 4168.20512807, 4119.10256383, 4133.07692280, 4197.43589730,8.57
4121.15384588, 4120.38461511, 4118.33333306, 4129.48717921, 4122.05128178, 4136.92307672, 4112.56410229, 4109.99999973, 4119.74358947, 4128.97435870, 4168.20512807, 4119.10256383, 4133.07692280, 4197.43589730,8.57
4139.23076903, 4130.25640998, 4133.97435870, 4143.20512800, 4128.20512793, 4139.61538441, 4118.84615357, 4128.84615357, 4136.15384595, 4127.94871767, 4176.66666653, 4133.71794844, 4138.97435877, 4196.53846140,8.57
4112.56410229, 4114.61538434, 4109.10256383, 4130.25640998, 4119.87179460, 4143.07692287, 4128.07692280, 4134.61538434, 4135.76923056, 4129.87179460, 4177.05128192, 4114.10256383, 4131.53846126, 4190.89743576,8.57
4126.53846126, 4125.12820485, 4125.64102537, 4133.58974332, 4123.71794844, 4141.28205108, 4124.48717921, 4118.33333306, 4114.87179460, 4128.84615357, 4172.56410243, 4124.48717921, 4135.76923056, 4193.71794858,8.57
4126.53846126, 4123.58974332, 4123.58974332, 4132.43589716, 4127.43589716, 4134.61538434, 4113.33333306, 4102.94871767, 4106.53846126, 4124.74358947, 4167.56410236, 4122.82051255, 4133.58974332, 4188.84615371,8.57
4121.15384588, 4116.92307665, 4112.17948691, 4129.48717921, 4122.05128178, 4131.15384588, 4109.74358947, 4103.46153819, 4114.35897408, 4124.87179460, 4171.66666653, 4117.94871767, 4129.35897408, 4191.28205115,8.57
4140.38461518, 4131.28205101, 4133.20512793, 4138.33333313, 4128.58974332, 4132.17948691, 4110.12820485, 4101.53846119, 4106.66666639, 4129.99999973, 4173.84615371, 4128.97435870, 4133.97435870, 4192.30769217,8.57
4113.71794844, 4115.76923050, 4111.92307665, 4123.46153819, 4123.71794844, 4136.79487159, 4118.33333306, 4110.12820485, 4110.25640998, 4130.76923050, 4166.28205108, 4113.20512793, 4129.10256383, 4186.79487166,8.57
4133.46153819, 4126.15384588, 4127.17948691, 4136.02564082, 4122.82051255, 4135.12820485, 4121.28205101, 4127.82051255, 4132.43589716, 4126.79487152, 4171.66666653, 4130.76923050, 4136.66666646, 4194.23076910,8.57
4132.43589716, 4129.99999973, 4125.89743562, 4142.56410236, 4124.35897408, 4134.23076896, 4116.02564075, 4129.10256383, 4135.12820485, 4125.64102537, 4180.38461525, 4129.10256383, 4137.56410236, 4192.69230756,8.57
4109.99999973, 4116.28205101, 4104.48717921, 4129.23076896, 4121.41025614, 4141.02564082, 4115.89743562, 4119.35897408, 4122.56410229, 4128.33333306, 4176.53846140, 4117.69230742, 4131.28205101, 4192.17948704,8.57
4140.89743569, 4130.51282024, 4134.10256383, 4139.35897415, 4130.12820485, 4140.76923056, 4114.61538434, 4115.25640998, 4118.71794844, 4129.48717921, 4172.56410243, 4137.43589723, 4136.92307672, 4197.43589730,8.57
4121.66666639, 4118.97435870, 4117.94871767, 4132.56410229, 4123.33333306, 4138.84615364, 4116.92307665, 4118.97435870, 4127.30769203, 4126.02564075, 4174.99999986, 4119.48717921, 4132.30769203, 4194.10256397,8.57
4127.69230742, 4125.51282024, 4123.07692280, 4137.05128185, 4120.89743562, 4140.89743569, 4119.61538434, 4118.97435870, 4128.33333306, 4126.02564075, 4176.79487166, 4127.43589716, 4136.15384595, 4196.28205115,8.57
4138.07692287, 4132.69230742, 4130.64102537, 4141.92307672, 4126.66666639, 4140.89743569, 4117.82051255, 4114.99999973, 4120.89743562, 4130.25640998, 4169.74358961, 4134.87179460, 4136.92307672, 4193.84615371,8.57
4116.66666639, 4116.02564075, 4108.84615357, 4131.79487152, 4123.33333306, 4141.92307672, 4121.66666639, 4116.15384588, 4120.12820485, 4131.28205101, 4167.17948697, 4116.92307665, 4129.74358947, 4195.64102551,8.57
4139.23076903, 4128.84615357, 4131.66666639, 4140.25641005, 4128.97435870, 4137.30769210, 4120.38461511, 4117.69230742, 4118.84615357, 4129.23076896, 4168.58974345, 4130.51282024, 4137.30769210, 4199.99999986,8.57
4122.05128178, 4119.10256383, 4116.66666639, 4131.02564075, 4124.61538434, 4133.71794844, 4116.28205101, 4118.97435870, 4118.33333306, 4126.92307665, 4165.51282031, 4118.46153819, 4132.82051255, 4192.05128192,8.57
4124.35897408, 4119.74358947, 4114.35897408, 4130.89743562, 4125.64102537, 4134.74358947, 4114.35897408, 4116.66666639, 4119.99999973, 4128.20512793, 4171.15384602, 4123.97435870, 4131.53846126, 4194.99999986,8.57
4136.79487159, 4130.25640998, 4128.33333306, 4138.20512800, 4131.41025614, 4131.15384588, 4111.15384588, 4111.79487152, 4121.15384588, 4127.82051255, 4173.84615371, 4132.69230742, 4133.97435870, 4194.99999986,8.57
4111.02564075, 4114.87179460, 4111.53846126, 4127.82051255, 4120.38461511, 4132.30769203, 4114.61538434, 4118.20512793, 4125.12820485, 4124.10256383, 4169.61538448, 4113.33333306, 4127.56410229, 4191.02564089,8.57
4132.43589716, 4126.28205101, 4131.28205101, 4139.61538441, 4126.02564075, 4137.05128185, 4118.58974332, 4123.58974332, 4124.10256383, 4127.05128178, 4175.51282038, 4127.30769203, 4133.97435870, 4193.97435884,8.57
4120.89743562, 4117.94871767, 4115.89743562, 4135.76923056, 4128.46153819, 4135.76923056, 4121.02564075, 4127.05128178, 4127.43589716, 4129.10256383, 4179.23076910, 4121.02564075, 4132.82051255, 4189.35897422,8.57
4122.94871767, 4117.82051255, 4116.28205101, 4134.99999973, 4122.94871767, 4136.92307672, 4126.02564075, 4133.46153819, 4139.74358954, 4125.89743562, 4176.53846140, 4125.51282024, 4134.23076896, 4191.66666653,8.57
4148.07692287, 4136.15384595, 4140.64102544, 4144.23076903, 4127.94871767, 4144.23076903, 4133.07692280, 4127.94871767, 4131.92307665, 4125.89743562, 4172.69230756, 4135.89743569, 4138.84615364, 4191.66666653,8.57
4117.43589716, 4118.07692280, 4114.35897408, 4130.51282024, 4122.82051255, 4143.71794851, 4130.76923050, 4115.89743562, 4112.17948691, 4126.15384588, 4168.33333320, 4114.99999973, 4130.12820485, 4191.15384602,8.57
4132.43589716, 4127.30769203, 4130.38461511, 4140.38461518, 4127.30769203, 4133.20512793, 4117.94871767, 4110.64102537, 4112.17948691, 4128.58974332, 4171.02564089, 4132.43589716, 4136.66666646, 4197.05128192,8.57
4128.84615357, 4125.25640998, 4124.48717921, 4138.33333313, 4127.82051255, 4136.92307672, 4125.89743562, 4119.87179460, 4130.64102537, 4130.89743562, 4173.97435884, 4127.43589716, 4137.56410236, 4192.43589730,8.57
4120.64102537, 4117.43589716, 4112.69230742, 4131.53846126, 4121.15384588, 4144.10256390, 4135.89743569, 4122.30769203, 4130.64102537, 4128.20512793, 4172.17948704, 4122.05128178, 4134.87179460, 4193.97435884,8.57
4142.05128185, 4133.07692280, 4135.51282031, 4141.41025621, 4126.66666639, 4122.17948691, 4107.69230742, 4097.17948684, 4099.35897402, 4128.33333306, 4164.99999980, 4138.84615364, 4138.97435877, 4195.12820499,8.57
4113.33333306, 4117.43589716, 4110.64102537, 4127.30769203, 4122.69230742, 4113.97435870, 4096.28205094, 4096.53846119, 4100.51282017, 4128.84615357, 4165.38461518, 4118.71794844, 4131.28205101, 4191.41025628,8.57
4131.66666639, 4124.35897408, 4122.82051255, 4132.56410229, 4127.30769203, 4127.69230742, 4108.71794844, 4114.35897408, 4117.17948691, 4127.69230742, 4173.71794858, 4128.84615357, 4135.89743569, 4194.74358961,8.57
4135.38461518, 4125.25640998, 4126.92307665, 4130.89743562, 4128.71794844, 4096.15384581, 4061.28205087, 4058.46153805, 4061.02564061, 4127.82051255, 4153.07692287, 4125.12820485, 4135.89743569, 4189.23076910,8.57
4113.33333306, 4115.51282024, 4110.38461511, 4122.30769203, 4121.92307665, 4059.61538420, 4014.48717900, 3992.69230714, 4005.25640977, 4127.30769203, 4136.41025621, 4112.17948691, 4131.15384588, 4192.30769217,8.57
4137.17948697, 4131.92307665, 4131.15384588, 4139.74358954, 4129.48717921, 4104.74358947, 4086.02564068, 4064.99999959, 4079.99999966, 4127.69230742, 4168.33333320, 4131.53846126, 4136.41025621, 4197.56410243,8.57
4120.38461511, 4119.10256383, 4113.58974332, 4132.05128178, 4123.46153819, 4174.87179474, 4186.53846140, 4192.94871781, 4195.25641012, 4128.84615357, 4201.02564096, 4119.35897408, 4131.15384588, 4189.87179474,8.57
4129.48717921, 4123.20512793, 4126.28205101, 4134.23076896, 4124.87179460, 4172.05128192, 4178.58974345, 4193.97435884, 4192.30769217, 4131.53846126, 4198.33333320, 4129.10256383, 4136.66666646, 4189.99999986,8.57
4131.79487152, 4127.17948691, 4130.38461511, 4138.20512800, 4131.28205101, 4139.48717928, 4133.07692280, 4135.64102544, 4149.48717928, 4129.61538434, 4183.46153833, 4130.51282024, 4136.66666646, 4188.33333320,8.57
4114.74358947, 4116.41025614, 4110.12820485, 4130.89743562, 4124.10256383, 4140.38461518, 4136.53846133, 4135.51282031, 4150.64102544, 4127.43589716, 4178.33333320, 4114.74358947, 4128.84615357, 4191.53846140,8.57
4137.56410236, 4129.61538434, 4133.07692280, 4141.15384595, 4129.74358947, 4145.12820492, 4136.92307672, 4137.56410236, 4135.51282031, 4131.28205101, 4173.71794858, 4131.28205101, 4137.56410236, 4197.94871781,8.57
4113.71794844, 4117.56410229, 4112.82051255, 4130.12820485, 4126.79487152, 4144.10256390, 4129.74358947, 4133.33333306, 4127.05128178, 4132.43589716, 4172.94871781, 4121.28205101, 4133.97435870, 4192.82051269,8.57
4123.84615357, 4124.35897408, 4119.23076896, 4131.79487152, 4125.12820485, 4144.35897415, 4134.23076896, 4137.69230749, 4136.41025621, 4130.25640998, 4179.48717935, 4129.99999973, 4134.23076896, 4193.46153833,8.57
4136.92307672, 4130.51282024, 4132.05128178, 4136.92307672, 4127.56410229, 4141.66666646, 4132.82051255, 4122.94871767, 4120.76923050, 4129.99999973, 4174.99999986, 4133.07692280, 4137.30769210, 4192.82051269,8.57
4112.82051255, 4115.38461511, 4109.87179460, 4128.58974332, 4118.84615357, 4143.46153826, 4131.92307665, 4120.76923050, 4116.28205101, 4130.12820485, 4170.12820499, 4115.64102537, 4132.56410229, 4195.25641012,8.57
4138.07692287, 4132.30769203, 4130.25640998, 4140.12820492, 4124.10256383, 4138.84615364, 4129.35897408, 4132.94871767, 4130.51282024, 4128.58974332, 4176.53846140, 4134.74358947, 4138.71794851, 4198.71794858,8.57
4123.58974332, 4122.17948691, 4117.30769203, 4128.20512793, 4122.82051255, 4127.43589716, 4123.71794844, 4127.69230742, 4127.17948691, 4126.66666639, 4179.10256397, 4121.15384588, 4134.74358947, 4191.15384602,8.57
4125.64102537, 4122.30769203, 4124.61538434, 4129.35897408, 4122.30769203, 4126.15384588, 4120.51282024, 4119.35897408, 4119.23076896, 4129.61538434, 4176.15384602, 4122.82051255, 4135.25640998, 4196.41025628,8.57
4140.12820492, 4132.05128178, 4137.56410236, 4141.15384595, 4129.74358947, 4128.71794844, 4119.23076896, 4125.25640998, 4123.07692280, 4132.82051255, 4170.76923063, 4134.74358947, 4138.84615364, 4195.76923063,8.57
4108.07692280, 4112.43589716, 4102.94871767, 4123.46153819, 4120.76923050, 4130.12820485, 4124.35897408, 4131.53846126, 4129.35897408, 4129.48717921, 4167.94871774, 4112.30769203, 4129.61538434, 4189.23076910,8.57
4129.23076896, 4127.30769203, 4125.51282024, 4132.30769203, 4124.48717921, 4128.07692280, 4124.99999973, 4126.66666639, 4126.28205101, 4127.56410229, 4170.25641012, 4127.43589716, 4132.43589716, 4194.87179474,8.57
4123.84615357, 4123.07692280, 4125.25640998, 4133.20512793, 4125.25640998, 4128.20512793, 4126.53846126, 4126.28205101, 4122.56410229, 4129.99999973, 4165.76923056, 4123.46153819, 4129.87179460, 4191.66666653,8.57
4118.20512793, 4116.02564075, 4113.71794844, 4129.61538434, 4120.38461511, 4132.94871767, 4133.46153819, 4132.17948691, 4131.92307665, 4129.87179460, 4169.35897422, 4117.94871767, 4131.15384588, 4194.35897422,8.57
4142.82051262, 4135.51282031, 4133.07692280, 4140.76923056, 4128.97435870, 4133.07692280, 4133.20512793, 4126.92307665, 4135.76923056, 4129.48717921, 4176.28205115, 4130.89743562, 4138.20512800, 4195.12820499,8.57
4115.64102537, 4121.15384588, 4110.25640998, 4128.33333306, 4124.10256383, 4134.87179460, 4134.61538434, 4121.15384588, 4126.79487152, 4129.61538434, 4168.97435884, 4115.76923050, 4130.51282024, 4188.97435884,8.57
