AF3,F7,F3,FC5,T7,P7,O1,O2,P8,T8,FC6,F4,F8,AF4,Label
4117.56410229, 4122.05128178, 4121.02564075, 4121.79487152, 4123.71794844, 4035.51282003, 4059.48717907, 4052.82051241, 4053.46153805, 4128.71794844, 4122.82051255, 4121.28205101, 4130.64102537, 4193.71794858,8.57
4126.41025614, 4121.41025614, 4123.46153819, 4122.17948691, 4124.23076896, 4037.05128164, 4061.41025600, 4067.94871754, 4073.58974325, 4129.10256383, 4123.07692280, 4120.51282024, 4128.71794844, 4193.33333320,8.57
4124.87179460, 4120.51282024, 4121.66666639, 4123.20512793, 4124.87179460, 4028.84615336, 4052.56410215, 4066.53846113, 4069.10256369, 4130.89743562, 4123.97435870, 4124.48717921, 4132.17948691, 4196.66666653,8.57
4121.15384588, 4120.89743562, 4120.38461511, 4123.97435870, 4124.23076896, 4023.84615336, 4051.79487138, 4071.79487145, 4068.46153805, 4130.25640998, 4123.84615357, 4121.92307665, 4130.38461511, 4198.33333320,8.57
4125.64102537, 4123.33333306, 4127.69230742, 4126.15384588, 4126.28205101, 4027.94871747, 4058.58974318, 4080.76923043, 4075.51282017, 4126.79487152, 4126.02564075, 4128.58974332, 4132.17948691, 4198.84615371,8.57
4124.10256383, 4121.28205101, 4125.76923050, 4123.46153819, 4126.79487152, 4022.94871747, 4048.84615343, 4065.12820472, 4067.05128164, 4129.61538434, 4126.15384588, 4125.38461511, 4133.46153819, 4195.64102551,8.57
4125.76923050, 4123.84615357, 4124.74358947, 4124.48717921, 4125.38461511, 4012.82051234, 4032.82051234, 4041.02564061, 4050.12820472, 4131.41025614, 4127.30769203, 4123.46153819, 4134.10256383, 4195.89743576,8.57
4124.23076896, 4123.97435870, 4124.35897408, 4126.28205101, 4124.74358947, 4012.94871747, 4032.05128157, 4033.71794824, 4039.99999959, 4126.53846126, 4127.56410229, 4130.89743562, 4134.87179460, 4196.66666653,8.57
4121.15384588, 4119.87179460, 4120.12820485, 4123.58974332, 4122.82051255, 4011.28205080, 4032.82051234, 4037.43589702, 4039.48717907, 4126.28205101, 4122.94871767, 4123.97435870, 4131.66666639, 4197.30769217,8.57
4123.07692280, 4120.64102537, 4124.74358947, 4123.58974332, 4122.30769203, 4010.25640977, 4030.89743541, 4037.43589702, 4040.12820472, 4130.89743562, 4127.56410229, 4127.56410229, 4135.25640998, 4199.35897422,8.57
4119.10256383, 4121.41025614, 4123.46153819, 4124.74358947, 4122.69230742, 4020.89743541, 4038.33333292, 4033.20512772, 4038.58974318, 4128.84615357, 4131.41025614, 4126.53846126, 4134.35897408, 4195.25641012,8.57
4120.89743562, 4122.43589716, 4121.41025614, 4124.74358947, 4124.99999973, 4029.61538413, 4047.30769189, 4036.28205080, 4043.07692266, 4126.53846126, 4126.28205101, 4120.25640998, 4130.64102537, 4196.15384602,8.57
4123.58974332, 4122.43589716, 4123.58974332, 4124.61538434, 4125.12820485, 4028.07692259, 4047.94871754, 4051.66666625, 4055.89743548, 4128.97435870, 4126.66666639, 4129.23076896, 4132.82051255, 4198.33333320,8.57
4122.82051255, 4123.97435870, 4121.41025614, 4124.35897408, 4123.46153819, 4029.35897388, 4051.28205087, 4061.66666625, 4065.51282010, 4129.10256383, 4128.33333306, 4123.97435870, 4130.64102537, 4193.07692294,8.57
4124.99999973, 4127.30769203, 4123.97435870, 4124.48717921, 4124.99999973, 4034.10256362, 4056.79487138, 4061.15384574, 4063.97435856, 4127.30769203, 4128.46153819, 4121.66666639, 4134.99999973, 4193.58974345,8.57
4122.17948691, 4122.82051255, 4123.84615357, 4122.69230742, 4123.97435870, 4032.17948670, 4053.20512779, 4063.84615343, 4062.56410215, 4127.05128178, 4128.46153819, 4124.99999973, 4136.79487159, 4195.89743576,8.57
4123.07692280, 4121.79487152, 4122.43589716, 4124.74358947, 4123.20512793, 4018.71794824, 4038.71794830, 4056.28205087, 4056.15384574, 4127.43589716, 4126.66666639, 4121.28205101, 4127.05128178, 4194.99999986,8.57
4125.12820485, 4124.48717921, 4121.28205101, 4127.82051255, 4124.61538434, 4002.56410201, 4024.23076875, 4037.69230728, 4043.84615343, 4128.07692280, 4127.69230742, 4125.76923050, 4129.99999973, 4194.23076910,8.57
4123.46153819, 4121.92307665, 4118.07692280, 4122.17948691, 4123.97435870, 4000.64102509, 4021.79487131, 4035.25640977, 4047.05128164, 4128.33333306, 4127.94871767, 4120.89743562, 4134.10256383, 4190.64102551,8.57
4126.15384588, 4123.20512793, 4123.58974332, 4122.17948691, 4123.33333306, 4005.51282003, 4022.94871747, 4038.84615343, 4051.79487138, 4128.20512793, 4126.53846126, 4122.05128178, 4131.41025614, 4193.20512807,8.57
4123.07692280, 4124.87179460, 4123.07692280, 4124.74358947, 4121.66666639, 4007.82051234, 4023.20512772, 4024.99999952, 4033.33333285, 4128.33333306, 4124.10256383, 4126.41025614, 4130.64102537, 4194.48717935,8.57
4121.53846126, 4123.97435870, 4119.23076896, 4122.82051255, 4122.82051255, 4012.30769183, 4027.30769183, 4013.33333285, 4013.46153798, 4128.20512793, 4125.89743562, 4121.41025614, 4129.10256383, 4190.76923063,8.57
4123.84615357, 4122.94871767, 4123.58974332, 4124.74358947, 4125.25640998, 4017.69230721, 4034.35897388, 4022.43589695, 4022.43589695, 4128.07692280, 4129.10256383, 4128.20512793, 4130.51282024, 4190.76923063,8.57
4120.64102537, 4122.43589716, 4123.46153819, 4122.56410229, 4122.82051255, 4022.30769183, 4036.41025593, 4031.02564054, 4037.43589702, 4128.07692280, 4124.61538434, 4124.61538434, 4129.23076896, 4194.10256397,8.57
4123.07692280, 4124.23076896, 4125.25640998, 4122.69230742, 4123.58974332, 4019.10256362, 4025.89743541, 4025.38461490, 4030.12820465, 4129.23076896, 4125.12820485, 4123.07692280, 4128.84615357, 4199.61538448,8.57
4124.99999973, 4122.30769203, 4127.05128178, 4125.25640998, 4126.53846126, 4010.25640977, 4022.05128157, 4029.99999952, 4030.38461490, 4129.48717921, 4128.71794844, 4127.82051255, 4132.05128178, 4196.41025628,8.57
4123.33333306, 4122.82051255, 4123.97435870, 4123.84615357, 4124.23076896, 4008.58974311, 4031.02564054, 4045.76923036, 4046.53846113, 4126.41025614, 4125.89743562, 4118.97435870, 4130.12820485, 4194.61538448,8.57
4123.46153819, 4128.46153819, 4126.02564075, 4124.35897408, 4123.07692280, 4009.99999952, 4031.02564054, 4045.64102523, 4049.61538420, 4126.66666639, 4126.92307665, 4124.87179460, 4130.89743562, 4200.76923063,8.57
4118.97435870, 4125.89743562, 4124.23076896, 4123.84615357, 4124.23076896, 3999.35897381, 4015.89743541, 4036.66666618, 4040.38461497, 4128.84615357, 4128.97435870, 4126.15384588, 4130.25640998, 4197.05128192,8.57
4121.41025614, 4121.28205101, 4123.97435870, 4123.71794844, 4124.48717921, 3990.25640970, 4005.64102516, 4030.51282003, 4031.28205080, 4127.94871767, 4126.92307665, 4120.51282024, 4130.38461511, 4193.97435884,8.57
4126.02564075, 4122.56410229, 4124.48717921, 4124.35897408, 4123.84615357, 3999.61538406, 4014.23076875, 4031.02564054, 4033.97435849, 4126.79487152, 4127.30769203, 4124.99999973, 4132.05128178, 4195.89743576,8.57
4122.43589716, 4123.33333306, 4120.51282024, 4123.58974332, 4123.46153819, 4009.35897388, 4027.94871747, 4039.87179446, 4045.38461497, 4127.05128178, 4126.53846126, 4122.43589716, 4127.94871767, 4195.25641012,8.57
4119.35897408, 4122.82051255, 4123.20512793, 4125.25640998, 4123.46153819, 4009.74358926, 4028.97435849, 4037.05128164, 4041.15384574, 4127.17948691, 4125.51282024, 4123.58974332, 4128.84615357, 4193.97435884,8.57
4118.84615357, 4122.94871767, 4123.84615357, 4123.07692280, 4123.46153819, 4013.33333285, 4023.20512772, 4026.28205080, 4026.92307644, 4129.23076896, 4124.23076896, 4121.41025614, 4129.48717921, 4188.71794858,8.57
4121.15384588, 4126.15384588, 4122.30769203, 4121.15384588, 4123.84615357, 4017.69230721, 4025.38461490, 4031.79487131, 4030.89743541, 4130.25640998, 4121.79487152, 4118.97435870, 4129.10256383, 4188.20512807,8.57
4121.41025614, 4125.64102537, 4122.43589716, 4124.48717921, 4123.84615357, 4015.25640977, 4023.20512772, 4041.02564061, 4044.99999959, 4128.33333306, 4125.51282024, 4124.74358947, 4133.33333306, 4193.71794858,8.57
4118.58974332, 4122.69230742, 4121.15384588, 4120.64102537, 4123.20512793, 4008.46153798, 4012.30769183, 4035.38461490, 4045.25640984, 4128.33333306, 4128.97435870, 4119.10256383, 4130.38461511, 4193.58974345,8.57
4119.35897408, 4125.51282024, 4124.99999973, 4118.33333306, 4123.07692280, 4003.46153791, 4005.38461490, 4028.84615336, 4040.25640984, 4129.74358947, 4128.07692280, 4121.53846126, 4129.74358947, 4193.58974345,8.57
4120.12820485, 4125.38461511, 4123.46153819, 4123.33333306, 4123.20512793, 4002.43589688, 4001.02564047, 4026.41025593, 4036.66666618, 4129.23076896, 4126.53846126, 4122.69230742, 4131.15384588, 4193.07692294,8.57
4123.58974332, 4122.94871767, 4122.94871767, 4124.87179460, 4123.97435870, 4006.28205080, 4000.38461483, 4028.20512772, 4043.46153805, 4128.84615357, 4128.33333306, 4121.02564075, 4129.61538434, 4194.48717935,8.57
4125.76923050, 4122.69230742, 4127.43589716, 4122.56410229, 4124.74358947, 4003.20512765, 4001.79487124, 4033.58974311, 4056.79487138, 4129.48717921, 4131.41025614, 4131.02564075, 4132.82051255, 4195.38461525,8.57
4122.17948691, 4122.82051255, 4124.23076896, 4121.92307665, 4123.20512793, 3993.20512765, 3994.87179432, 4027.17948670, 4048.97435856, 4127.17948691, 4128.07692280, 4123.84615357, 4129.74358947, 4194.61538448,8.57
4123.33333306, 4126.28205101, 4126.41025614, 4127.05128178, 4124.23076896, 3992.30769176, 3987.17948663, 4013.97435849, 4027.17948670, 4126.79487152, 4125.89743562, 4123.97435870, 4128.71794844, 4201.53846147,8.57
4123.20512793, 4125.51282024, 4126.53846126, 4125.89743562, 4124.35897408, 3992.94871740, 3986.92307637, 4006.02564054, 4018.71794824, 4129.87179460, 4127.30769203, 4130.89743562, 4131.53846126, 4199.48717935,8.57
4123.33333306, 4121.79487152, 4121.79487152, 4120.51282024, 4122.43589716, 3991.02564047, 3987.05128150, 4003.33333278, 4017.94871747, 4127.69230742, 4126.66666639, 4122.43589716, 4130.51282024, 4193.07692294,8.57
4125.38461511, 4122.56410229, 4125.64102537, 4122.69230742, 4123.46153819, 3995.76923022, 3987.43589688, 4009.48717900, 4016.28205080, 4125.76923050, 4127.82051255, 4124.87179460, 4132.17948691, 4197.56410243,8.57
4123.33333306, 4124.10256383, 4124.87179460, 4123.71794844, 4123.33333306, 3997.43589688, 3988.33333278, 4014.23076875, 4017.05128157, 4127.30769203, 4126.02564075, 4123.46153819, 4127.17948691, 4197.69230756,8.57
4123.33333306, 4122.94871767, 4123.07692280, 4123.71794844, 4123.71794844, 3993.97435842, 3984.35897381, 4012.94871747, 4025.25640977, 4127.05128178, 4126.92307665, 4122.56410229, 4127.43589716, 4195.64102551,8.57
4121.15384588, 4121.53846126, 4123.71794844, 4123.71794844, 4123.97435870, 3999.48717894, 3986.41025586, 4020.64102516, 4040.51282010, 4126.79487152, 4131.02564075, 4125.12820485, 4133.46153819, 4194.61538448,8.57
4120.76923050, 4126.15384588, 4123.71794844, 4122.94871767, 4124.23076896, 4007.17948670, 3997.69230714, 4036.53846106, 4056.92307651, 4127.30769203, 4131.79487152, 4116.79487152, 4130.25640998, 4190.89743576,8.57
4120.12820485, 4128.84615357, 4125.76923050, 4124.61538434, 4125.38461511, 4005.38461490, 4001.15384560, 4039.35897395, 4062.30769189, 4128.97435870, 4135.51282031, 4119.74358947, 4129.99999973, 4191.02564089,8.57
4116.66666639, 4123.97435870, 4122.69230742, 4122.94871767, 4123.71794844, 4004.35897388, 3994.48717894, 4027.17948670, 4051.66666625, 4129.10256383, 4136.92307672, 4119.74358947, 4129.48717921, 4193.84615371,8.57
4123.58974332, 4123.84615357, 4124.35897408, 4123.20512793, 4124.74358947, 4001.41025586, 3988.71794817, 4016.02564054, 4037.05128164, 4127.82051255, 4133.58974332, 4121.53846126, 4130.64102537, 4196.15384602,8.57
4122.82051255, 4124.99999973, 4124.48717921, 4122.82051255, 4123.97435870, 3993.97435842, 3987.82051227, 4016.92307644, 4031.02564054, 4127.82051255, 4131.02564075, 4127.17948691, 4134.10256383, 4193.97435884,8.57
4117.82051255, 4125.64102537, 4122.43589716, 4121.53846126, 4120.38461511, 3993.07692252, 3989.23076868, 4024.23076875, 4032.30769183, 4128.84615357, 4128.84615357, 4117.43589716, 4129.35897408, 4192.94871781,8.57
4123.20512793, 4127.43589716, 4127.94871767, 4126.79487152, 4122.30769203, 4000.12820458, 3990.25640970, 4026.79487131, 4033.07692259, 4128.97435870, 4131.41025614, 4123.07692280, 4129.61538434, 4196.02564089,8.57
4120.25640998, 4122.94871767, 4124.10256383, 4125.51282024, 4123.20512793, 4006.02564054, 3993.58974304, 4032.69230721, 4041.28205087, 4127.69230742, 4132.94871767, 4126.53846126, 4131.15384588, 4194.99999986,8.57
4118.58974332, 4123.33333306, 4122.05128178, 4123.07692280, 4121.66666639, 4003.97435842, 3997.43589688, 4043.97435856, 4057.30769189, 4129.10256383, 4134.23076896, 4122.17948691, 4130.76923050, 4197.56410243,8.57
4122.17948691, 4126.28205101, 4124.99999973, 4124.61538434, 4122.05128178, 4000.51281996, 3996.15384560, 4045.76923036, 4062.69230728, 4130.12820485, 4134.87179460, 4129.48717921, 4134.48717921, 4196.41025628,8.57
4123.46153819, 4124.10256383, 4122.05128178, 4121.66666639, 4122.30769203, 4001.92307637, 3995.51281996, 4041.15384574, 4057.82051241, 4127.30769203, 4132.17948691, 4123.97435870, 4130.64102537, 4193.33333320,8.57
4126.41025614, 4126.92307665, 4127.30769203, 4122.69230742, 4121.41025614, 4003.84615329, 3998.46153791, 4041.28205087, 4055.12820472, 4126.79487152, 4134.61538434, 4123.07692280, 4129.23076896, 4200.64102551,8.57
4121.92307665, 4126.66666639, 4124.74358947, 4123.07692280, 4120.64102537, 4004.35897388, 3998.71794817, 4043.84615343, 4059.61538420, 4128.97435870, 4133.97435870, 4123.33333306, 4131.41025614, 4199.74358961,8.57
4121.92307665, 4123.58974332, 4121.53846126, 4121.41025614, 4122.82051255, 4007.17948670, 3999.74358919, 4039.10256369, 4056.53846113, 4129.48717921, 4128.97435870, 4120.25640998, 4130.64102537, 4195.12820499,8.57
4124.48717921, 4125.38461511, 4127.17948691, 4123.84615357, 4124.61538434, 4009.10256362, 4004.48717900, 4031.02564054, 4043.33333292, 4128.07692280, 4131.53846126, 4126.53846126, 4132.17948691, 4193.97435884,8.57
4119.23076896, 4125.51282024, 4124.35897408, 4124.87179460, 4125.51282024, 4008.84615336, 4005.12820465, 4027.05128157, 4041.53846113, 4126.41025614, 4132.30769203, 4119.61538434, 4129.74358947, 4192.05128192,8.57
4122.17948691, 4124.10256383, 4123.58974332, 4125.89743562, 4127.56410229, 4008.71794824, 4002.17948663, 4029.48717900, 4051.53846113, 4127.30769203, 4133.07692280, 4120.64102537, 4132.69230742, 4197.69230756,8.57
4123.97435870, 4121.92307665, 4123.58974332, 4124.23076896, 4123.84615357, 4011.28205080, 4003.46153791, 4035.12820465, 4053.97435856, 4129.48717921, 4134.48717921, 4124.10256383, 4134.35897408, 4198.84615371,8.57
4124.10256383, 4122.43589716, 4123.33333306, 4120.76923050, 4121.28205101, 4012.43589695, 4003.20512765, 4037.17948677, 4048.71794830, 4127.94871767, 4127.43589716, 4116.41025614, 4129.61538434, 4194.74358961,8.57
4123.71794844, 4124.99999973, 4124.23076896, 4122.17948691, 4122.82051255, 4006.41025593, 3996.15384560, 4033.84615336, 4049.99999959, 4127.56410229, 4126.02564075, 4122.69230742, 4131.92307665, 4194.87179474,8.57
4118.07692280, 4124.35897408, 4119.61538434, 4123.20512793, 4121.66666639, 4008.71794824, 3999.10256355, 4035.12820465, 4057.56410215, 4129.23076896, 4129.61538434, 4121.15384588, 4130.12820485, 4191.92307679,8.57
4122.43589716, 4125.25640998, 4125.25640998, 4125.12820485, 4122.94871767, 4022.17948670, 4009.48717900, 4040.89743548, 4065.51282010, 4129.35897408, 4130.64102537, 4121.41025614, 4129.10256383, 4192.05128192,8.57
4124.61538434, 4124.87179460, 4127.43589716, 4125.76923050, 4124.61538434, 4020.64102516, 4001.02564047, 4032.82051234, 4059.35897395, 4128.71794844, 4129.74358947, 4128.07692280, 4133.71794844, 4194.87179474,8.57
4121.41025614, 4124.61538434, 4120.38461511, 4121.79487152, 4125.25640998, 4005.25640977, 3983.58974304, 4017.17948670, 4046.28205087, 4128.84615357, 4130.38461511, 4119.87179460, 4132.94871767, 4197.43589730,8.57
4124.48717921, 4126.41025614, 4125.38461511, 4124.10256383, 4125.76923050, 3999.74358919, 3982.56410201, 4014.48717900, 4053.07692266, 4129.35897408, 4132.94871767, 4123.46153819, 4133.97435870, 4199.10256397,8.57
4123.46153819, 4123.71794844, 4125.64102537, 4125.12820485, 4122.17948691, 4006.53846106, 3989.99999945, 4019.48717900, 4064.87179446, 4130.64102537, 4131.92307665, 4127.17948691, 4133.07692280, 4194.74358961,8.57
4122.69230742, 4123.20512793, 4121.66666639, 4122.05128178, 4123.33333306, 4012.69230721, 3994.74358919, 4025.25640977, 4062.17948677, 4130.25640998, 4132.82051255, 4124.74358947, 4133.33333306, 4197.05128192,8.57
4124.10256383, 4124.74358947, 4123.97435870, 4122.94871767, 4123.97435870, 4015.64102516, 3999.61538406, 4035.89743541, 4064.87179446, 4128.71794844, 4133.07692280, 4128.46153819, 4135.76923056, 4200.76923063,8.57
4122.56410229, 4123.71794844, 4121.66666639, 4122.17948691, 4121.66666639, 4014.74358926, 4004.23076875, 4046.15384574, 4081.66666632, 4128.97435870, 4126.53846126, 4119.99999973, 4131.15384588, 4196.28205115,8.57
4123.33333306, 4124.87179460, 4124.87179460, 4122.69230742, 4123.20512793, 4010.38461490, 4001.41025586, 4045.25640984, 4085.76923043, 4129.99999973, 4128.33333306, 4120.51282024, 4134.10256383, 4196.66666653,8.57
4123.71794844, 4123.33333306, 4124.48717921, 4124.48717921, 4123.46153819, 4011.66666618, 3998.07692252, 4044.23076882, 4078.33333299, 4128.71794844, 4132.30769203, 4124.35897408, 4135.51282031, 4198.07692294,8.57
4122.05128178, 4121.28205101, 4118.46153819, 4122.43589716, 4122.43589716, 4018.20512772, 4002.30769176, 4052.82051241, 4079.74358940, 4126.92307665, 4128.58974332, 4118.97435870, 4129.87179460, 4196.15384602,8.57
4121.41025614, 4124.74358947, 4121.92307665, 4120.64102537, 4121.79487152, 4014.35897388, 4001.53846099, 4046.53846113, 4073.58974325, 4127.05128178, 4128.07692280, 4122.17948691, 4131.79487152, 4194.35897422,8.57
4121.28205101, 4125.25640998, 4122.82051255, 4122.17948691, 4123.07692280, 4000.38461483, 3990.25640970, 4022.17948670, 4053.97435856, 4126.53846126, 4131.79487152, 4118.46153819, 4131.02564075, 4190.38461525,8.57
4128.84615357, 4123.33333306, 4123.58974332, 4125.38461511, 4126.66666639, 3998.58974304, 3989.61538406, 4021.92307644, 4050.38461497, 4127.82051255, 4132.17948691, 4124.35897408, 4129.23076896, 4190.64102551,8.57
4130.64102537, 4124.35897408, 4122.17948691, 4123.58974332, 4122.69230742, 4007.30769183, 4000.51281996, 4037.17948677, 4058.84615343, 4129.10256383, 4129.74358947, 4127.69230742, 4128.20512793, 4191.41025628,8.57
4122.30769203, 4126.92307665, 4118.58974332, 4118.33333306, 4121.15384588, 4006.02564054, 3999.87179432, 4030.51282003, 4052.43589702, 4127.69230742, 4129.48717921, 4116.92307665, 4127.94871767, 4192.69230756,8.57
4122.43589716, 4127.69230742, 4124.87179460, 4121.79487152, 4125.12820485, 4000.38461483, 3990.38461483, 4024.10256362, 4044.99999959, 4128.33333306, 4128.84615357, 4123.58974332, 4131.53846126, 4195.51282038,8.57
4121.53846126, 4122.56410229, 4121.15384588, 4123.20512793, 4123.97435870, 4001.53846099, 3991.02564047, 4029.23076875, 4049.48717907, 4127.17948691, 4123.97435870, 4120.76923050, 4127.43589716, 4193.20512807,8.57
4122.43589716, 4121.53846126, 4119.10256383, 4119.87179460, 4123.84615357, 4004.23076875, 3996.41025586, 4028.07692259, 4052.30769189, 4126.41025614, 4126.66666639, 4119.10256383, 4125.64102537, 4193.97435884,8.57
4125.76923050, 4125.51282024, 4125.89743562, 4122.82051255, 4124.87179460, 4008.84615336, 4000.38461483, 4029.35897388, 4053.33333292, 4127.94871767, 4129.74358947, 4128.71794844, 4131.02564075, 4194.48717935,8.57
4121.92307665, 4123.71794844, 4122.94871767, 4122.82051255, 4123.97435870, 4012.05128157, 4001.79487124, 4033.07692259, 4054.61538420, 4127.43589716, 4125.89743562, 4122.43589716, 4133.71794844, 4195.64102551,8.57
4126.66666639, 4125.25640998, 4124.87179460, 4123.71794844, 4124.99999973, 4006.15384567, 3994.99999945, 4029.10256362, 4057.69230728, 4126.92307665, 4127.94871767, 4123.97435870, 4136.28205108, 4198.46153833,8.57
4126.41025614, 4126.66666639, 4122.94871767, 4123.33333306, 4125.51282024, 4002.30769176, 3992.94871740, 4037.69230728, 4071.66666632, 4127.56410229, 4129.23076896, 4124.10256383, 4133.07692280, 4194.61538448,8.57
4120.51282024, 4123.33333306, 4120.51282024, 4119.74358947, 4124.10256383, 4007.94871747, 4000.12820458, 4044.23076882, 4071.41025607, 4126.92307665, 4124.74358947, 4123.33333306, 4132.94871767, 4196.15384602,8.57
4125.64102537, 4125.76923050, 4125.51282024, 4124.23076896, 4121.92307665, 4009.48717900, 4001.53846099, 4031.79487131, 4053.71794830, 4126.79487152, 4121.53846126, 4127.56410229, 4135.25640998, 4196.53846140,8.57
4122.69230742, 4124.61538434, 4120.25640998, 4122.05128178, 4123.46153819, 4004.35897388, 3992.82051227, 4022.94871747, 4048.84615343, 4128.58974332, 4119.74358947, 4114.23076896, 4129.48717921, 4192.94871781,8.57
4120.38461511, 4123.07692280, 4121.02564075, 4120.64102537, 4125.64102537, 3998.97435842, 3985.76923022, 4014.48717900, 4042.30769189, 4128.84615357, 4120.64102537, 4117.94871767, 4131.66666639, 4196.15384602,8.57
4120.25640998, 4122.94871767, 4123.71794844, 4123.33333306, 4123.33333306, 3993.07692252, 3985.64102509, 4003.97435842, 4026.15384567, 4127.82051255, 4119.23076896, 4120.51282024, 4132.43589716, 4194.23076910,8.57
4119.99999973, 4121.41025614, 4122.43589716, 4120.12820485, 4124.23076896, 3995.51281996, 3987.94871740, 4007.82051234, 4023.33333285, 4127.17948691, 4117.43589716, 4112.69230742, 4128.46153819, 4192.17948704,8.57
4127.05128178, 4126.53846126, 4129.23076896, 4123.07692280, 4123.33333306, 4006.02564054, 3994.10256355, 4019.87179439, 4032.30769183, 4128.46153819, 4117.82051255, 4119.99999973, 4131.92307665, 4193.71794858,8.57
4121.53846126, 4126.53846126, 4123.46153819, 4121.02564075, 4122.30769203, 4011.92307644, 4002.94871740, 4031.79487131, 4046.28205087, 4127.56410229, 4114.61538434, 4115.25640998, 4130.12820485, 4192.69230756,8.57
4121.92307665, 4127.05128178, 4123.71794844, 4122.69230742, 4127.82051255, 4014.23076875, 4006.79487131, 4041.79487138, 4058.97435856, 4124.87179460, 4116.79487152, 4119.61538434, 4130.38461511, 4195.89743576,8.57
4124.99999973, 4129.87179460, 4125.76923050, 4127.82051255, 4127.17948691, 4016.79487131, 4005.25640977, 4037.05128164, 4050.38461497, 4126.15384588, 4119.74358947, 4122.69230742, 4131.02564075, 4193.58974345,8.57
4119.23076896, 4123.33333306, 4117.56410229, 4119.35897408, 4122.94871767, 4022.30769183, 4009.61538413, 4030.76923029, 4042.30769189, 4130.25640998, 4116.02564075, 4112.94871767, 4128.46153819, 4190.89743576,8.57
4128.33333306, 4126.28205101, 4126.79487152, 4122.43589716, 4124.35897408, 4022.56410208, 4013.71794824, 4039.48717907, 4059.99999959, 4130.51282024, 4114.23076896, 4124.61538434, 4131.41025614, 4196.02564089,8.57
4126.66666639, 4127.69230742, 4124.61538434, 4125.25640998, 4124.99999973, 4010.38461490, 4006.28205080, 4032.43589695, 4062.17948677, 4128.84615357, 4112.69230742, 4122.05128178, 4130.64102537, 4193.58974345,8.57
4122.43589716, 4122.69230742, 4122.30769203, 4120.89743562, 4123.97435870, 4006.53846106, 4002.56410201, 4016.53846106, 4044.35897395, 4129.10256383, 4116.41025614, 4117.17948691, 4131.79487152, 4195.38461525,8.57
4128.20512793, 4126.28205101, 4130.25640998, 4122.94871767, 4123.58974332, 4019.48717900, 4009.74358926, 4023.97435849, 4047.69230728, 4127.30769203, 4118.33333306, 4121.92307665, 4132.69230742, 4198.46153833,8.57
4118.97435870, 4123.71794844, 4119.10256383, 4118.97435870, 4124.87179460, 4022.94871747, 4012.17948670, 4034.10256362, 4055.64102523, 4127.17948691, 4111.79487152, 4118.71794844, 4128.46153819, 4196.66666653,8.57
4123.46153819, 4123.33333306, 4123.33333306, 4121.02564075, 4126.15384588, 4017.56410208, 4009.61538413, 4026.92307644, 4045.51282010, 4130.25640998, 4111.15384588, 4128.33333306, 4130.76923050, 4199.74358961,8.57
4127.17948691, 4125.38461511, 4126.02564075, 4122.43589716, 4125.51282024, 4019.61538413, 4007.56410208, 4021.79487131, 4040.51282010, 4127.43589716, 4112.30769203, 4122.17948691, 4131.02564075, 4197.82051269,8.57
4118.97435870, 4120.89743562, 4117.17948691, 4119.74358947, 4124.35897408, 4020.25640977, 4004.10256362, 4026.92307644, 4049.23076882, 4124.87179460, 4110.64102537, 4117.94871767, 4130.38461511, 4196.53846140,8.57
4124.35897408, 4124.74358947, 4120.25640998, 4125.38461511, 4122.82051255, 4019.10256362, 4003.46153791, 4029.99999952, 4053.58974318, 4128.84615357, 4111.28205101, 4127.43589716, 4130.38461511, 4196.66666653,8.57
4120.89743562, 4123.07692280, 4117.43589716, 4120.51282024, 4123.84615357, 4021.02564054, 4009.10256362, 4033.33333285, 4054.74358933, 4127.69230742, 4113.71794844, 4115.12820485, 4128.46153819, 4195.38461525,8.57
4119.48717921, 4119.74358947, 4120.89743562, 4120.38461511, 4126.92307665, 4020.51282003, 4012.43589695, 4030.76923029, 4054.48717907, 4124.48717921, 4113.97435870, 4118.71794844, 4132.69230742, 4198.33333320,8.57
4120.12820485, 4122.82051255, 4122.69230742, 4126.92307665, 4124.10256383, 4017.43589695, 4008.71794824, 4020.25640977, 4041.53846113, 4127.17948691, 4110.12820485, 4120.76923050, 4130.76923050, 4192.43589730,8.57
4116.53846126, 4123.97435870, 4121.41025614, 4123.58974332, 4120.76923050, 4017.69230721, 4008.20512772, 4023.97435849, 4041.79487138, 4129.87179460, 4112.05128178, 4114.48717921, 4129.74358947, 4192.94871781,8.57
4125.12820485, 4126.66666639, 4129.23076896, 4124.61538434, 4126.92307665, 4019.48717900, 4015.25640977, 4037.05128164, 4057.69230728, 4129.48717921, 4113.58974332, 4121.28205101, 4131.28205101, 4197.43589730,8.57
4121.28205101, 4122.30769203, 4122.17948691, 4123.07692280, 4130.76923050, 4025.12820465, 4022.56410208, 4041.28205087, 4061.79487138, 4128.07692280, 4107.30769203, 4112.17948691, 4123.97435870, 4191.53846140,8.57
4121.41025614, 4123.84615357, 4124.48717921, 4123.33333306, 4123.84615357, 4032.30769183, 4026.79487131, 4044.23076882, 4058.33333292, 4128.07692280, 4108.33333306, 4115.25640998, 4127.30769203, 4193.33333320,8.57
4126.66666639, 4128.97435870, 4130.76923050, 4125.12820485, 4119.87179460, 4028.46153798, 4024.87179439, 4046.15384574, 4057.82051241, 4128.33333306, 4110.64102537, 4119.61538434, 4128.84615357, 4194.61538448,8.57
4120.89743562, 4123.20512793, 4124.23076896, 4120.25640998, 4124.35897408, 4023.33333285, 4023.20512772, 4045.89743548, 4059.35897395, 4129.10256383, 4110.51282024, 4113.71794844, 4125.25640998, 4192.94871781,8.57
4127.56410229, 4127.05128178, 4128.84615357, 4124.74358947, 4127.30769203, 4028.46153798, 4025.38461490, 4046.79487138, 4059.99999959, 4129.74358947, 4111.79487152, 4123.33333306, 4131.92307665, 4194.61538448,8.57
4124.48717921, 4127.82051255, 4124.10256383, 4122.56410229, 4122.56410229, 4032.30769183, 4028.97435849, 4043.58974318, 4054.10256369, 4128.71794844, 4108.58974332, 4119.10256383, 4129.48717921, 4191.92307679,8.57
4121.15384588, 4122.43589716, 4122.82051255, 4120.89743562, 4121.53846126, 4027.82051234, 4024.87179439, 4033.97435849, 4042.30769189, 4128.20512793, 4109.35897408, 4120.64102537, 4126.53846126, 4194.87179474,8.57
4127.94871767, 4124.61538434, 4128.33333306, 4125.89743562, 4125.64102537, 4020.38461490, 4015.38461490, 4025.76923029, 4036.92307651, 4127.43589716, 4112.30769203, 4124.23076896, 4130.25640998, 4198.33333320,8.57
4119.87179460, 4122.94871767, 4119.99999973, 4119.48717921, 4123.20512793, 4018.20512772, 4013.71794824, 4022.94871747, 4037.05128164, 4128.58974332, 4107.69230742, 4117.56410229, 4130.89743562, 4197.69230756,8.57
4121.79487152, 4125.25640998, 4123.97435870, 4122.17948691, 4121.79487152, 4021.41025593, 4019.61538413, 4027.69230721, 4038.46153805, 4129.99999973, 4105.51282024, 4126.66666639, 4132.05128178, 4198.20512807,8.57
4122.56410229, 4125.38461511, 4123.07692280, 4124.74358947, 4127.82051255, 4030.89743541, 4027.82051234, 4037.56410215, 4049.23076882, 4129.10256383, 4103.97435870, 4117.43589716, 4127.69230742, 4194.99999986,8.57
4119.48717921, 4122.56410229, 4119.99999973, 4121.41025614, 4129.61538434, 4038.46153805, 4031.28205080, 4044.35897395, 4053.84615343, 4128.71794844, 4103.58974332, 4114.87179460, 4128.58974332, 4196.79487166,8.57
4124.74358947, 4125.25640998, 4126.28205101, 4124.87179460, 4124.99999973, 4037.30769189, 4029.48717900, 4045.76923036, 4045.64102523, 4129.74358947, 4105.38461511, 4123.84615357, 4131.41025614, 4196.02564089,8.57
4118.84615357, 4119.74358947, 4119.61538434, 4121.15384588, 4121.02564075, 4034.99999952, 4033.20512772, 4044.99999959, 4041.53846113, 4126.66666639, 4103.97435870, 4112.17948691, 4126.92307665, 4192.69230756,8.57
4126.15384588, 4122.69230742, 4125.25640998, 4124.61538434, 4122.43589716, 4034.35897388, 4034.48717900, 4042.05128164, 4046.02564061, 4125.51282024, 4103.97435870, 4116.15384588, 4129.23076896, 4196.15384602,8.57
4126.92307665, 4127.05128178, 4124.48717921, 4124.99999973, 4123.97435870, 4030.89743541, 4028.07692259, 4041.28205087, 4052.43589702, 4127.69230742, 4102.30769196, 4114.99999973, 4126.92307665, 4191.53846140,8.57
4119.61538434, 4123.58974332, 4119.23076896, 4122.56410229, 4123.58974332, 4027.69230721, 4026.79487131, 4038.97435856, 4050.38461497, 4127.05128178, 4102.56410229, 4112.94871767, 4128.46153819, 4190.51282038,8.57
4128.33333306, 4128.33333306, 4128.20512793, 4131.92307665, 4123.20512793, 4035.38461490, 4038.46153805, 4038.33333292, 4047.17948677, 4126.28205101, 4106.02564075, 4119.61538434, 4134.48717921, 4193.97435884,8.57
4121.53846126, 4122.69230742, 4121.41025614, 4125.12820485, 4123.20512793, 4044.35897395, 4048.07692266, 4056.79487138, 4062.30769189, 4128.07692280, 4107.05128178, 4110.89743562, 4129.61538434, 4193.58974345,8.57
4126.79487152, 4123.20512793, 4128.20512793, 4123.58974332, 4126.02564075, 4042.17948677, 4050.12820472, 4073.58974325, 4071.92307658, 4128.58974332, 4106.53846126, 4123.20512793, 4131.79487152, 4198.33333320,8.57
4128.84615357, 4127.82051255, 4129.87179460, 4127.30769203, 4126.66666639, 4046.79487138, 4056.41025600, 4074.48717914, 4061.79487138, 4125.76923050, 4101.28205094, 4123.46153819, 4132.05128178, 4194.48717935,8.57
4117.43589716, 4122.82051255, 4118.71794844, 4119.99999973, 4123.58974332, 4059.48717907, 4064.10256369, 4076.92307658, 4057.30769189, 4126.53846126, 4101.79487145, 4114.74358947, 4130.38461511, 4192.82051269,8.57
4128.58974332, 4127.56410229, 4129.74358947, 4126.41025614, 4123.84615357, 4054.99999959, 4056.92307651, 4070.51282017, 4049.61538420, 4129.10256383, 4104.48717921, 4128.46153819, 4134.23076896, 4195.76923063,8.57
4119.35897408, 4122.17948691, 4123.71794844, 4124.10256383, 4124.10256383, 4037.94871754, 4037.94871754, 4046.92307651, 4025.51282003, 4128.58974332, 4101.02564068, 4118.46153819, 4129.23076896, 4192.82051269,8.57
4118.71794844, 4122.17948691, 4124.23076896, 4121.15384588, 4122.30769203, 4034.35897388, 4031.66666618, 4036.66666618, 4019.61538413, 4127.82051255, 4101.66666632, 4118.07692280, 4128.46153819, 4197.94871781,8.57
4132.05128178, 4128.97435870, 4129.10256383, 4127.43589716, 4122.05128178, 4040.25640984, 4041.66666625, 4049.61538420, 4034.48717900, 4128.20512793, 4103.07692280, 4123.84615357, 4129.35897408, 4198.20512807,8.57
4118.84615357, 4119.48717921, 4116.41025614, 4121.53846126, 4124.10256383, 4038.71794830, 4044.74358933, 4054.35897395, 4032.56410208, 4128.58974332, 4101.02564068, 4117.69230742, 4127.30769203, 4196.28205115,8.57
4124.48717921, 4125.64102537, 4128.46153819, 4125.12820485, 4127.56410229, 4040.25640984, 4042.30769189, 4050.12820472, 4023.71794824, 4127.56410229, 4100.64102530, 4124.74358947, 4130.38461511, 4197.94871781,8.57
4124.48717921, 4125.25640998, 4126.79487152, 4123.97435870, 4125.25640998, 4046.41025600, 4044.87179446, 4052.43589702, 4031.92307644, 4127.69230742, 4100.38461504, 4114.35897408, 4128.58974332, 4195.12820499,8.57
4118.71794844, 4117.17948691, 4119.48717921, 4121.41025614, 4124.10256383, 4043.97435856, 4045.25640984, 4048.97435856, 4030.12820465, 4128.20512793, 4101.66666632, 4118.58974332, 4129.10256383, 4200.76923063,8.57
4125.12820485, 4125.25640998, 4125.12820485, 4126.15384588, 4127.94871767, 4040.64102523, 4044.23076882, 4047.82051241, 4022.17948670, 4127.82051255, 4100.12820478, 4123.97435870, 4128.20512793, 4196.66666653,8.57
4116.41025614, 4123.20512793, 4117.82051255, 4117.69230742, 4126.41025614, 4050.38461497, 4052.43589702, 4064.10256369, 4038.46153805, 4126.92307665, 4101.92307658, 4108.46153819, 4125.64102537, 4190.12820499,8.57
4123.20512793, 4124.99999973, 4127.69230742, 4124.23076896, 4126.02564075, 4057.05128164, 4057.05128164, 4072.94871761, 4049.48717907, 4126.66666639, 4108.07692280, 4118.07692280, 4131.02564075, 4196.15384602,8.57
4119.35897408, 4124.23076896, 4122.30769203, 4124.99999973, 4127.94871767, 4053.97435856, 4053.97435856, 4065.64102523, 4035.38461490, 4126.66666639, 4101.79487145, 4115.25640998, 4126.79487152, 4192.30769217,8.57
4117.17948691, 4120.51282024, 4118.84615357, 4117.82051255, 4127.05128178, 4056.28205087, 4059.35897395, 4073.33333299, 4034.61538413, 4129.35897408, 4097.82051248, 4113.58974332, 4125.89743562, 4194.48717935,8.57
4130.25640998, 4128.58974332, 4132.05128178, 4126.02564075, 4126.28205101, 4057.30769189, 4061.02564061, 4077.56410222, 4040.51282010, 4129.74358947, 4100.64102530, 4120.64102537, 4130.76923050, 4198.20512807,8.57
4115.64102537, 4123.58974332, 4121.92307665, 4121.53846126, 4126.28205101, 4054.87179446, 4058.46153805, 4069.61538420, 4033.71794824, 4127.05128178, 4099.23076889, 4112.69230742, 4127.56410229, 4192.43589730,8.57
4122.17948691, 4125.89743562, 4129.23076896, 4121.66666639, 4127.05128178, 4055.76923036, 4062.17948677, 4070.64102530, 4034.10256362, 4129.10256383, 4100.89743555, 4123.84615357, 4129.99999973, 4196.41025628,8.57
4126.02564075, 4125.25640998, 4129.48717921, 4121.53846126, 4124.23076896, 4050.25640984, 4053.97435856, 4054.61538420, 4023.33333285, 4128.71794844, 4100.25640991, 4118.33333306, 4129.48717921, 4196.92307679,8.57
4116.92307665, 4118.97435870, 4121.15384588, 4121.15384588, 4120.76923050, 4041.92307651, 4039.10256369, 4029.10256362, 4000.76923022, 4125.89743562, 4098.71794837, 4115.12820485, 4129.99999973, 4196.15384602,8.57
4125.89743562, 4129.48717921, 4129.10256383, 4132.05128178, 4122.05128178, 4039.48717907, 4037.56410215, 4033.07692259, 4005.51282003, 4127.05128178, 4100.51282017, 4127.43589716, 4132.17948691, 4195.76923063,8.57
4119.23076896, 4126.79487152, 4118.71794844, 4123.20512793, 4120.38461511, 4037.69230728, 4038.07692266, 4042.94871754, 4015.12820465, 4128.84615357, 4099.87179453, 4116.41025614, 4128.97435870, 4194.61538448,8.57
4122.05128178, 4123.46153819, 4123.07692280, 4121.02564075, 4121.02564075, 4031.28205080, 4034.10256362, 4036.66666618, 4006.66666618, 4128.97435870, 4099.23076889, 4122.56410229, 4131.53846126, 4201.92307686,8.57
4123.84615357, 4124.23076896, 4126.53846126, 4125.51282024, 4125.12820485, 4028.20512772, 4036.53846106, 4035.64102516, 4005.76923029, 4127.43589716, 4097.56410222, 4120.89743562, 4127.69230742, 4199.10256397,8.57
4118.71794844, 4121.92307665, 4120.89743562, 4122.94871767, 4125.25640998, 4034.74358926, 4038.97435856, 4038.71794830, 4005.89743541, 4126.66666639, 4097.05128171, 4113.33333306, 4126.92307665, 4198.07692294,8.57
4127.43589716, 4126.02564075, 4127.05128178, 4125.89743562, 4122.94871767, 4041.02564061, 4040.38461497, 4038.07692266, 3998.33333278, 4128.71794844, 4095.64102530, 4121.92307665, 4132.56410229, 4198.84615371,8.57
4117.17948691, 4119.48717921, 4117.94871767, 4118.97435870, 4122.30769203, 4043.20512779, 4049.23076882, 4052.05128164, 4012.69230721, 4130.89743562, 4092.69230735, 4110.76923050, 4126.28205101, 4193.97435884,8.57
4116.79487152, 4120.12820485, 4121.79487152, 4121.53846126, 4124.35897408, 4043.84615343, 4055.76923036, 4067.82051241, 4035.89743541, 4129.10256383, 4097.82051248, 4115.64102537, 4126.02564075, 4198.58974345,8.57
4120.76923050, 4126.53846126, 4123.20512793, 4124.23076896, 4123.33333306, 4044.74358933, 4055.89743548, 4065.51282010, 4035.12820465, 4125.76923050, 4099.23076889, 4115.64102537, 4129.74358947, 4193.58974345,8.57
4115.89743562, 4123.71794844, 4117.69230742, 4119.23076896, 4122.56410229, 4041.41025600, 4049.87179446, 4054.35897395, 4020.12820465, 4126.41025614, 4093.58974325, 4108.20512793, 4130.12820485, 4189.61538448,8.57
4123.97435870, 4124.74358947, 4129.35897408, 4125.64102537, 4126.66666639, 4034.10256362, 4039.87179446, 4044.87179446, 4008.20512772, 4129.74358947, 4093.33333299, 4121.79487152, 4132.05128178, 4194.61538448,8.57
4118.58974332, 4120.64102537, 4123.71794844, 4123.07692280, 4125.51282024, 4031.02564054, 4037.17948677, 4039.87179446, 4007.05128157, 4127.56410229, 4090.64102530, 4114.99999973, 4127.17948691, 4190.25641012,8.57
4122.43589716, 4123.07692280, 4124.23076896, 4124.10256383, 4122.17948691, 4028.84615336, 4036.92307651, 4031.53846106, 4006.15384567, 4124.61538434, 4090.38461504, 4115.25640998, 4129.99999973, 4191.92307679,8.57
4123.97435870, 4128.46153819, 4127.56410229, 4127.43589716, 4121.66666639, 4031.41025593, 4035.12820465, 4023.33333285, 3994.23076868, 4126.92307665, 4093.97435863, 4115.25640998, 4133.46153819, 4194.99999986,8.57
4112.94871767, 4126.02564075, 4123.46153819, 4123.33333306, 4122.17948691, 4033.97435849, 4037.82051241, 4028.97435849, 3990.25640970, 4128.46153819, 4094.23076889, 4109.74358947, 4132.94871767, 4194.61538448,8.57
4122.82051255, 4128.33333306, 4128.97435870, 4126.15384588, 4124.99999973, 4021.79487131, 4034.61538413, 4031.53846106, 3989.87179432, 4128.84615357, 4093.71794837, 4121.66666639, 4135.76923056, 4194.61538448,8.57
4121.79487152, 4122.82051255, 4120.12820485, 4119.87179460, 4125.51282024, 4011.41025593, 4023.71794824, 4016.92307644, 3974.87179432, 4128.58974332, 4091.41025607, 4113.97435870, 4129.23076896, 4193.07692294,8.57
4123.20512793, 4124.99999973, 4124.10256383, 4118.33333306, 4124.23076896, 4018.33333285, 4027.94871747, 4014.61538413, 3973.07692252, 4126.53846126, 4091.53846119, 4118.97435870, 4129.74358947, 4197.17948704,8.57
4127.17948691, 4130.76923050, 4128.58974332, 4122.82051255, 4125.12820485, 4026.28205080, 4043.07692266, 4032.05128157, 3992.17948663, 4126.79487152, 4090.64102530, 4123.97435870, 4133.07692280, 4195.12820499,8.57
4119.61538434, 4122.94871767, 4120.51282024, 4120.89743562, 4125.51282024, 4023.07692259, 4042.82051241, 4036.15384567, 3996.92307637, 4127.56410229, 4090.89743555, 4113.71794844, 4128.84615357, 4195.51282038,8.57
4125.12820485, 4124.35897408, 4126.28205101, 4124.23076896, 4124.87179460, 4018.84615336, 4034.48717900, 4022.69230721, 3985.51281996, 4125.38461511, 4093.58974325, 4124.74358947, 4130.64102537, 4199.61538448,8.57
4121.02564075, 4125.76923050, 4119.48717921, 4121.15384588, 4123.07692280, 4023.58974311, 4039.48717907, 4021.41025593, 3989.74358919, 4125.76923050, 4089.61538427, 4115.76923050, 4128.20512793, 4194.10256397,8.57
4122.17948691, 4125.89743562, 4120.64102537, 4121.15384588, 4123.20512793, 4024.74358926, 4044.35897395, 4033.33333285, 4006.79487131, 4128.97435870, 4090.64102530, 4112.05128178, 4130.51282024, 4196.41025628,8.57
4125.12820485, 4124.74358947, 4124.87179460, 4122.82051255, 4123.71794844, 4014.99999952, 4036.02564054, 4037.82051241, 4010.12820465, 4127.82051255, 4092.82051248, 4117.94871767, 4134.74358947, 4196.66666653,8.57
4118.20512793, 4119.74358947, 4117.43589716, 4119.48717921, 4123.33333306, 4014.61538413, 4037.94871754, 4043.46153805, 4012.69230721, 4125.89743562, 4089.35897402, 4110.12820485, 4130.38461511, 4194.10256397,8.57
4124.61538434, 4125.12820485, 4124.99999973, 4126.92307665, 4125.38461511, 4030.25640977, 4053.20512779, 4055.51282010, 4020.38461490, 4128.97435870, 4090.76923043, 4117.56410229, 4132.17948691, 4197.43589730,8.57
4119.48717921, 4124.23076896, 4120.12820485, 4124.35897408, 4123.84615357, 4032.05128157, 4049.35897395, 4049.99999959, 4010.76923029, 4129.74358947, 4090.12820478, 4108.46153819, 4130.12820485, 4192.69230756,8.57
4119.48717921, 4124.23076896, 4120.64102537, 4123.20512793, 4122.05128178, 4018.97435849, 4033.84615336, 4029.23076875, 3990.64102509, 4128.07692280, 4090.38461504, 4108.20512793, 4128.71794844, 4194.35897422,8.57
4126.02564075, 4127.05128178, 4127.94871767, 4129.23076896, 4125.51282024, 4012.43589695, 4028.07692259, 4017.82051234, 3980.12820458, 4126.79487152, 4090.89743555, 4119.74358947, 4132.94871767, 4194.61538448,8.57
4121.66666639, 4125.12820485, 4121.41025614, 4123.46153819, 4127.69230742, 4012.05128157, 4023.97435849, 4007.69230721, 3969.74358912, 4125.64102537, 4084.48717914, 4108.71794844, 4131.28205101, 4191.66666653,8.57
4126.53846126, 4130.12820485, 4128.07692280, 4124.23076896, 4126.79487152, 4015.25640977, 4020.64102516, 3998.07692252, 3961.02564040, 4129.10256383, 4085.76923043, 4117.05128178, 4133.71794844, 4197.82051269,8.57
4119.87179460, 4125.89743562, 4124.35897408, 4121.28205101, 4125.12820485, 4023.84615336, 4028.71794824, 4013.46153798, 3973.97435842, 4130.76923050, 4089.87179453, 4117.82051255, 4130.51282024, 4194.48717935,8.57
4121.28205101, 4126.28205101, 4123.58974332, 4119.87179460, 4125.51282024, 4026.02564054, 4035.89743541, 4031.92307644, 3988.46153791, 4127.30769203, 4087.82051248, 4115.25640998, 4129.48717921, 4194.74358961,8.57
4128.84615357, 4131.28205101, 4131.28205101, 4126.53846126, 4124.61538434, 4024.10256362, 4036.79487131, 4031.79487131, 3990.89743535, 4127.05128178, 4085.89743555, 4123.97435870, 4133.58974332, 4198.58974345,8.57
4115.76923050, 4123.46153819, 4122.30769203, 4120.89743562, 4123.71794844, 4030.25640977, 4040.12820472, 4031.41025593, 3996.92307637, 4128.71794844, 4085.76923043, 4114.87179460, 4129.48717921, 4197.43589730,8.57
4120.64102537, 4128.71794844, 4128.46153819, 4122.05128178, 4125.38461511, 4035.51282003, 4042.30769189, 4034.99999952, 3999.48717894, 4127.30769203, 4089.61538427, 4120.64102537, 4133.84615357, 4199.87179474,8.57
4124.23076896, 4129.48717921, 4126.02564075, 4122.82051255, 4122.43589716, 4032.43589695, 4042.30769189, 4036.92307651, 3998.33333278, 4125.25640998, 4088.84615350, 4117.30769203, 4133.84615357, 4193.58974345,8.57
4119.87179460, 4122.05128178, 4119.74358947, 4119.87179460, 4121.15384588, 4028.97435849, 4040.51282010, 4037.56410215, 4000.76923022, 4127.30769203, 4087.69230735, 4112.94871767, 4129.23076896, 4195.64102551,8.57
4123.07692280, 4125.89743562, 4124.23076896, 4124.10256383, 4123.58974332, 4027.05128157, 4037.56410215, 4038.97435856, 4003.58974304, 4127.43589716, 4090.76923043, 4125.38461511, 4134.10256383, 4200.25641012,8.57
4118.33333306, 4125.51282024, 4116.79487152, 4120.38461511, 4122.17948691, 4030.64102516, 4044.48717907, 4046.92307651, 4002.82051227, 4127.69230742, 4088.33333299, 4115.38461511, 4132.43589716, 4195.64102551,8.57
4124.61538434, 4125.76923050, 4124.74358947, 4122.69230742, 4123.07692280, 4038.07692266, 4055.64102523, 4059.87179446, 4004.35897388, 4129.74358947, 4087.82051248, 4119.61538434, 4133.33333306, 4198.20512807,8.57
4119.74358947, 4124.61538434, 4123.58974332, 4123.33333306, 4124.48717921, 4038.07692266, 4058.07692266, 4064.23076882, 4011.02564054, 4127.05128178, 4088.20512786, 4116.92307665, 4132.69230742, 4196.02564089,8.57
4115.51282024, 4122.05128178, 4118.07692280, 4120.89743562, 4123.71794844, 4034.10256362, 4056.28205087, 4057.43589702, 4009.48717900, 4124.99999973, 4087.69230735, 4107.17948691, 4130.25640998, 4195.25641012,8.57
4126.28205101, 4126.92307665, 4128.07692280, 4127.82051255, 4125.89743562, 4038.07692266, 4052.82051241, 4045.64102523, 3996.15384560, 4128.58974332, 4089.23076889, 4121.02564075, 4133.58974332, 4193.84615371,8.57
4115.12820485, 4123.20512793, 4119.99999973, 4122.30769203, 4124.87179460, 4045.89743548, 4052.56410215, 4035.38461490, 3987.69230714, 4128.07692280, 4087.94871761, 4110.64102537, 4129.23076896, 4186.66666653,8.57
4119.48717921, 4123.20512793, 4126.41025614, 4123.97435870, 4122.30769203, 4046.15384574, 4056.53846113, 4037.30769189, 3990.89743535, 4125.38461511, 4090.89743555, 4112.56410229, 4131.02564075, 4193.33333320,8.57
4124.87179460, 4125.64102537, 4130.38461511, 4126.28205101, 4121.53846126, 4036.02564054, 4051.92307651, 4040.12820472, 3999.87179432, 4128.20512793, 4091.79487145, 4119.74358947, 4132.69230742, 4193.71794858,8.57
4115.51282024, 4125.38461511, 4120.38461511, 4119.61538434, 4122.56410229, 4029.48717900, 4045.76923036, 4034.35897388, 4006.66666618, 4129.61538434, 4091.02564068, 4111.66666639, 4128.71794844, 4190.89743576,8.57
4122.30769203, 4130.25640998, 4128.97435870, 4128.33333306, 4124.87179460, 4038.84615343, 4051.79487138, 4036.92307651, 4003.20512765, 4126.02564075, 4093.71794837, 4121.53846126, 4133.07692280, 4197.05128192,8.57
4118.46153819, 4121.15384588, 4123.20512793, 4125.25640998, 4122.94871767, 4044.23076882, 4055.12820472, 4044.10256369, 3994.74358919, 4125.12820485, 4088.46153812, 4113.97435870, 4133.33333306, 4194.23076910,8.57
4125.38461511, 4122.30769203, 4127.69230742, 4122.82051255, 4122.56410229, 4034.48717900, 4048.46153805, 4036.02564054, 3991.41025586, 4127.56410229, 4086.15384581, 4118.97435870, 4135.89743569, 4196.02564089,8.57
4127.43589716, 4131.53846126, 4131.79487152, 4126.92307665, 4122.43589716, 4033.20512772, 4048.84615343, 4034.99999952, 3997.82051227, 4128.20512793, 4090.51282017, 4127.17948691, 4135.25640998, 4197.17948704,8.57
4116.02564075, 4126.28205101, 4118.20512793, 4122.17948691, 4121.92307665, 4043.20512779, 4057.17948677, 4054.10256369, 4008.07692259, 4127.82051255, 4090.76923043, 4112.94871767, 4129.48717921, 4195.89743576,8.57
4129.10256383, 4128.20512793, 4125.51282024, 4124.61538434, 4124.87179460, 4042.30769189, 4057.56410215, 4058.58974318, 4010.25640977, 4129.35897408, 4091.79487145, 4123.71794844, 4137.94871774, 4198.71794858,8.57
4123.84615357, 4125.38461511, 4122.94871767, 4120.64102537, 4123.71794844, 4034.23076875, 4055.89743548, 4052.94871754, 4013.84615336, 4129.74358947, 4090.64102530, 4119.48717921, 4137.69230749, 4195.12820499,8.57
4118.33333306, 4126.02564075, 4121.28205101, 4122.56410229, 4122.30769203, 4032.30769183, 4060.25640984, 4062.05128164, 4012.56410208, 4129.74358947, 4090.25640991, 4115.25640998, 4132.69230742, 4197.05128192,8.57
4121.66666639, 4128.58974332, 4122.17948691, 4128.58974332, 4125.12820485, 4039.87179446, 4069.48717907, 4070.25640991, 3979.74358919, 4129.48717921, 4091.28205094, 4122.17948691, 4135.51282031, 4197.17948704,8.57
4114.74358947, 4121.41025614, 4115.12820485, 4121.66666639, 4127.30769203, 4052.43589702, 4078.46153812, 4066.79487138, 3927.94871726, 4126.66666639, 4088.07692273, 4110.25640998, 4133.46153819, 4193.97435884,8.57
4120.76923050, 4124.99999973, 4124.99999973, 4124.10256383, 4127.43589716, 4051.28205087, 4071.79487145, 4057.30769189, 3898.07692232, 4125.64102537, 4088.71794837, 4115.64102537, 4133.71794844, 4196.92307679,8.57
4117.30769203, 4126.41025614, 4118.07692280, 4123.07692280, 4121.92307665, 4040.38461497, 4059.10256369, 4047.94871754, 3893.07692232, 4127.43589716, 4090.12820478, 4111.53846126, 4130.89743562, 4193.33333320,8.57
4119.87179460, 4127.56410229, 4117.43589716, 4121.92307665, 4120.51282024, 4041.66666625, 4061.53846113, 4054.87179446, 3897.05128129, 4128.58974332, 4088.97435863, 4106.53846126, 4128.97435870, 4193.97435884,8.57
4123.58974332, 4128.84615357, 4126.79487152, 4126.02564075, 4125.25640998, 4046.66666625, 4069.61538420, 4069.48717907, 3905.89743521, 4127.94871767, 4089.23076889, 4113.84615357, 4132.17948691, 4192.82051269,8.57
4117.17948691, 4122.82051255, 4119.35897408, 4120.76923050, 4124.99999973, 4043.97435856, 4067.43589702, 4063.97435856, 3904.99999924, 4127.30769203, 4091.02564068, 4105.12820485, 4130.38461511, 4188.58974345,8.57
4128.07692280, 4126.41025614, 4128.33333306, 4123.46153819, 4124.35897408, 4041.41025600, 4059.10256369, 4044.74358933, 3890.25640950, 4129.35897408, 4095.51282017, 4115.12820485, 4133.71794844, 4193.58974345,8.57
4121.15384588, 4123.33333306, 4127.05128178, 4123.20512793, 4123.84615357, 4043.71794830, 4055.76923036, 4036.15384567, 3880.25640950, 4129.61538434, 4093.71794837, 4116.41025614, 4132.43589716, 4190.25641012,8.57
4119.99999973, 4123.97435870, 4124.61538434, 4124.23076896, 4125.64102537, 4043.58974318, 4055.38461497, 4039.35897395, 3882.43589668, 4127.17948691, 4090.76923043, 4112.56410229, 4131.79487152, 4191.66666653,8.57
4127.82051255, 4128.71794844, 4129.35897408, 4128.46153819, 4125.76923050, 4042.17948677, 4055.12820472, 4038.84615343, 3881.79487103, 4127.69230742, 4093.20512786, 4121.66666639, 4138.20512800, 4198.84615371,8.57
4118.20512793, 4121.02564075, 4118.20512793, 4120.38461511, 4123.97435870, 4046.92307651, 4060.76923036, 4036.92307651, 3878.46153770, 4128.97435870, 4090.38461504, 4111.28205101, 4132.05128178, 4199.87179474,8.57
4124.61538434, 4128.07692280, 4127.56410229, 4125.89743562, 4126.02564075, 4056.53846113, 4071.92307658, 4053.33333292, 3891.92307616, 4128.46153819, 4089.48717914, 4119.99999973, 4132.05128178, 4202.43589737,8.57
4119.23076896, 4127.69230742, 4125.76923050, 4126.02564075, 4121.79487152, 4062.43589702, 4078.20512786, 4076.41025607, 3910.76923008, 4129.74358947, 4093.20512786, 4120.38461511, 4134.10256383, 4195.51282038,8.57
4120.51282024, 4121.79487152, 4123.20512793, 4120.38461511, 4119.99999973, 4057.05128164, 4071.53846119, 4071.15384581, 3905.51281975, 4130.64102537, 4096.02564068, 4110.64102537, 4131.41025614, 4194.61538448,8.57
4131.15384588, 4129.74358947, 4129.61538434, 4125.64102537, 4122.17948691, 4049.35897395, 4061.41025600, 4047.56410215, 3877.82051206, 4127.94871767, 4095.12820478, 4120.64102537, 4135.89743569, 4198.07692294,8.57
4113.97435870, 4126.66666639, 4111.79487152, 4119.35897408, 4119.23076896, 4053.46153805, 4062.82051241, 4047.82051241, 3870.51281968, 4126.41025614, 4089.10256376, 4107.05128178, 4131.92307665, 4192.94871781,8.57
4119.48717921, 4126.92307665, 4119.74358947, 4122.56410229, 4122.94871767, 4057.69230728, 4068.58974318, 4056.79487138, 3885.51281975, 4127.17948691, 4091.02564068, 4111.15384588, 4131.02564075, 4197.05128192,8.57
4120.25640998, 4124.99999973, 4124.99999973, 4125.51282024, 4126.28205101, 4052.43589702, 4065.25640984, 4045.76923036, 3884.99999924, 4128.58974332, 4094.35897402, 4117.82051255, 4133.07692280, 4197.30769217,8.57
4111.66666639, 4122.69230742, 4115.76923050, 4119.48717921, 4124.23076896, 4052.17948677, 4062.17948677, 4038.20512779, 3871.28205045, 4129.99999973, 4093.20512786, 4106.28205101, 4130.38461511, 4195.25641012,8.57
4120.51282024, 4129.48717921, 4123.46153819, 4125.38461511, 4125.89743562, 4059.61538420, 4068.33333292, 4052.05128164, 3879.87179411, 4130.12820485, 4094.99999966, 4114.99999973, 4133.20512793, 4195.64102551,8.57
4114.10256383, 4124.74358947, 4119.74358947, 4122.05128178, 4125.12820485, 4061.92307651, 4073.46153812, 4063.58974318, 3901.41025565, 4127.56410229, 4091.28205094, 4107.17948691, 4132.05128178, 4189.99999986,8.57
4120.89743562, 4128.97435870, 4128.84615357, 4123.20512793, 4123.84615357, 4056.92307651, 4069.23076882, 4055.76923036, 3896.92307616, 4126.79487152, 4090.64102530, 4110.76923050, 4133.20512793, 4193.97435884,8.57
4122.82051255, 4130.25640998, 4127.82051255, 4124.23076896, 4122.56410229, 4054.87179446, 4066.66666625, 4050.25640984, 3888.20512744, 4128.97435870, 4092.94871761, 4117.69230742, 4133.71794844, 4194.48717935,8.57
4116.41025614, 4122.69230742, 4118.58974332, 4119.99999973, 4121.41025614, 4059.87179446, 4073.07692273, 4062.82051241, 3902.94871719, 4129.99999973, 4092.05128171, 4106.15384588, 4130.51282024, 4191.02564089,8.57
4128.58974332, 4129.74358947, 4132.82051255, 4127.69230742, 4125.38461511, 4062.94871754, 4075.76923043, 4070.76923043, 3916.79487110, 4130.38461511, 4095.64102530, 4119.87179460, 4135.25640998, 4194.61538448,8.57
4120.12820485, 4125.38461511, 4123.97435870, 4121.66666639, 4124.87179460, 4062.17948677, 4070.25640991, 4059.23076882, 3913.58974290, 4128.71794844, 4097.17948684, 4119.23076896, 4131.28205101, 4192.56410243,8.57
4121.02564075, 4124.10256383, 4123.46153819, 4120.64102537, 4123.46153819, 4059.87179446, 4066.02564061, 4050.38461497, 3911.02564033, 4125.25640998, 4097.43589709, 4116.53846126, 4131.28205101, 4196.92307679,8.57
4122.94871767, 4129.10256383, 4128.71794844, 4125.89743562, 4123.58974332, 4056.66666625, 4067.30769189, 4054.35897395, 3914.35897367, 4126.02564075, 4097.82051248, 4122.69230742, 4136.66666646, 4197.94871781,8.57
4115.64102537, 4123.58974332, 4117.17948691, 4119.48717921, 4122.56410229, 4057.05128164, 4069.10256369, 4057.05128164, 3911.02564033, 4127.30769203, 4094.35897402, 4114.23076896, 4131.15384588, 4196.92307679,8.57
4128.46153819, 4127.82051255, 4125.89743562, 4123.46153819, 4123.07692280, 4058.84615343, 4069.87179453, 4058.71794830, 3913.33333264, 4127.56410229, 4095.64102530, 4123.33333306, 4135.12820485, 4203.71794865,8.57
4121.15384588, 4125.64102537, 4121.41025614, 4122.94871767, 4121.53846126, 4057.30769189, 4072.94871761, 4068.07692266, 3929.48717880, 4129.23076896, 4096.66666632, 4118.20512793, 4136.66666646, 4198.07692294,8.57
4119.48717921, 4123.58974332, 4118.84615357, 4121.41025614, 4123.84615357, 4057.82051241, 4073.46153812, 4069.48717907, 3936.02564033, 4127.43589716, 4095.51282017, 4112.94871767, 4133.58974332, 4195.76923063,8.57
4124.10256383, 4125.89743562, 4123.07692280, 4121.79487152, 4126.79487152, 4061.41025600, 4068.97435856, 4057.30769189, 3924.35897367, 4125.76923050, 4098.20512786, 4119.87179460, 4137.56410236, 4197.94871781,8.57
4113.58974332, 4121.66666639, 4116.79487152, 4119.35897408, 4122.69230742, 4057.82051241, 4066.79487138, 4056.28205087, 3927.17948649, 4126.66666639, 4096.79487145, 4108.07692280, 4134.48717921, 4193.97435884,8.57
4122.69230742, 4124.23076896, 4126.28205101, 4128.46153819, 4122.82051255, 4054.99999959, 4070.89743555, 4064.10256369, 3938.84615322, 4127.17948691, 4094.35897402, 4116.02564075, 4136.15384595, 4195.25641012,8.57
4119.99999973, 4120.51282024, 4121.02564075, 4123.58974332, 4123.71794844, 4059.61538420, 4071.53846119, 4056.02564061, 3928.20512751, 4127.82051255, 4092.43589709, 4114.87179460, 4135.76923056, 4193.07692294,8.57
4117.43589716, 4122.69230742, 4119.87179460, 4118.97435870, 4124.35897408, 4054.87179446, 4061.15384574, 4037.30769189, 3913.84615316, 4127.82051255, 4093.20512786, 4107.17948691, 4131.41025614, 4193.97435884,8.57
4124.74358947, 4128.97435870, 4128.20512793, 4126.41025614, 4126.66666639, 4049.87179446, 4055.76923036, 4035.76923029, 3919.74358905, 4125.51282024, 4096.66666632, 4118.33333306, 4132.43589716, 4190.89743576,8.57
4119.23076896, 4123.20512793, 4117.82051255, 4119.23076896, 4123.84615357, 4054.99999959, 4064.87179446, 4046.92307651, 3930.64102495, 4125.64102537, 4093.97435863, 4110.51282024, 4128.71794844, 4184.87179474,8.57
4127.17948691, 4129.99999973, 4127.56410229, 4121.92307665, 4123.20512793, 4056.79487138, 4070.51282017, 4049.99999959, 3934.48717880, 4129.48717921, 4095.51282017, 4116.92307665, 4133.46153819, 4194.35897422,8.57
4123.58974332, 4130.25640998, 4128.33333306, 4124.87179460, 4123.58974332, 4057.17948677, 4065.12820472, 4055.89743548, 3943.46153784, 4130.51282024, 4100.64102530, 4119.35897408, 4136.79487159, 4193.07692294,8.57
4123.07692280, 4123.84615357, 4121.53846126, 4121.79487152, 4124.48717921, 4065.25640984, 4069.61538420, 4069.87179453, 3960.12820451, 4128.07692280, 4099.23076889, 4111.02564075, 4134.23076896, 4191.28205115,8.57
4132.17948691, 4129.35897408, 4129.10256383, 4128.20512793, 4125.38461511, 4070.25640991, 4081.02564068, 4076.15384581, 3968.20512758, 4127.82051255, 4096.92307658, 4124.35897408, 4137.82051262, 4197.94871781,8.57
4116.53846126, 4126.79487152, 4118.58974332, 4122.56410229, 4121.92307665, 4066.02564061, 4076.66666632, 4069.87179453, 3960.64102502, 4127.69230742, 4095.51282017, 4117.05128178, 4132.56410229, 4195.12820499,8.57
4124.61538434, 4131.15384588, 4125.12820485, 4122.94871767, 4125.76923050, 4059.74358933, 4067.30769189, 4061.28205087, 3950.12820451, 4127.82051255, 4099.87179453, 4121.15384588, 4134.48717921, 4196.79487166,8.57
4126.79487152, 4129.61538434, 4126.79487152, 4125.12820485, 4128.33333306, 4056.15384574, 4067.05128164, 4059.35897395, 3950.38461476, 4129.35897408, 4100.64102530, 4126.15384588, 4138.07692287, 4196.15384602,8.57
4114.48717921, 4119.10256383, 4114.99999973, 4119.61538434, 4121.79487152, 4058.84615343, 4066.92307651, 4058.46153805, 3957.43589681, 4129.87179460, 4097.30769196, 4112.56410229, 4132.05128178, 4197.94871781,8.57
4127.17948691, 4125.64102537, 4125.76923050, 4125.12820485, 4121.15384588, 4056.41025600, 4056.28205087, 4043.84615343, 3949.23076861, 4128.46153819, 4098.97435863, 4123.97435870, 4135.64102544, 4202.69230763,8.57
4121.41025614, 4125.12820485, 4118.84615357, 4119.87179460, 4125.12820485, 4043.33333292, 4045.51282010, 4028.97435849, 3932.56410187, 4125.64102537, 4094.74358940, 4116.53846126, 4134.48717921, 4195.25641012,8.57
4120.89743562, 4125.89743562, 4117.43589716, 4118.97435870, 4125.64102537, 4041.66666625, 4047.05128164, 4038.07692266, 3936.15384546, 4127.05128178, 4093.84615350, 4111.79487152, 4131.79487152, 4194.35897422,8.57
4123.71794844, 4127.17948691, 4121.15384588, 4125.38461511, 4121.28205101, 4052.05128164, 4055.76923036, 4052.94871754, 3951.28205066, 4128.84615357, 4097.43589709, 4117.56410229, 4134.74358947, 4194.48717935,8.57
4114.99999973, 4121.15384588, 4113.20512793, 4119.74358947, 4121.79487152, 4054.74358933, 4061.28205087, 4054.61538420, 3958.71794810, 4128.71794844, 4093.84615350, 4106.92307665, 4131.79487152, 4193.58974345,8.57
4123.84615357, 4126.15384588, 4124.87179460, 4122.05128178, 4125.64102537, 4050.89743548, 4061.53846113, 4054.99999959, 3963.58974297, 4130.64102537, 4094.10256376, 4117.69230742, 4131.79487152, 4196.41025628,8.57
4118.33333306, 4122.94871767, 4124.10256383, 4121.15384588, 4120.89743562, 4054.87179446, 4061.79487138, 4054.87179446, 3963.58974297, 4129.23076896, 4096.79487145, 4114.48717921, 4130.38461511, 4190.76923063,8.57
4118.71794844, 4123.46153819, 4123.58974332, 4121.15384588, 4119.74358947, 4056.92307651, 4061.28205087, 4041.66666625, 3947.94871733, 4126.28205101, 4097.56410222, 4110.76923050, 4132.56410229, 4191.66666653,8.57
4124.48717921, 4129.74358947, 4125.51282024, 4124.35897408, 4122.94871767, 4058.07692266, 4066.66666625, 4037.56410215, 3945.51281989, 4128.07692280, 4099.48717914, 4122.30769203, 4136.28205108, 4193.07692294,8.57
4117.05128178, 4123.07692280, 4117.17948691, 4118.71794844, 4123.07692280, 4065.25640984, 4074.61538427, 4054.61538420, 3969.35897374, 4130.76923050, 4099.61538427, 4111.66666639, 4131.15384588, 4188.97435884,8.57
4125.51282024, 4125.89743562, 4132.82051255, 4125.89743562, 4125.89743562, 4060.76923036, 4066.92307651, 4052.94871754, 3971.28205073, 4129.99999973, 4102.94871767, 4117.17948691, 4134.87179460, 4194.10256397,8.57
4121.02564075, 4126.79487152, 4129.48717921, 4124.23076896, 4123.46153819, 4056.53846113, 4062.94871754, 4039.35897395, 3957.05128143, 4126.02564075, 4102.69230742, 4121.53846126, 4135.64102544, 4194.61538448,8.57
4118.84615357, 4125.76923050, 4119.99999973, 4118.33333306, 4119.48717921, 4068.58974318, 4075.76923043, 4056.53846113, 3971.28205073, 4125.51282024, 4099.87179453, 4120.89743562, 4132.30769203, 4196.79487166,8.57
4118.84615357, 4125.76923050, 4119.99999973, 4118.33333306, 4119.48717921, 4068.58974318, 4075.76923043, 4056.53846113, 3971.28205073, 4125.51282024, 4099.87179453, 4120.89743562, 4132.30769203, 4196.79487166,8.57
4123.20512793, 4126.53846126, 4125.51282024, 4124.35897408, 4122.30769203, 4070.64102530, 4077.17948684, 4075.64102530, 3990.64102509, 4128.58974332, 4103.07692280, 4129.74358947, 4137.94871774, 4198.71794858,8.57
4113.20512793, 4118.46153819, 4119.10256383, 4119.35897408, 4125.64102537, 4057.56410215, 4063.71794830, 4061.02564061, 3979.87179432, 4127.82051255, 4100.76923043, 4115.12820485, 4136.41025621, 4195.25641012,8.57
4124.23076896, 4126.28205101, 4127.05128178, 4121.15384588, 4127.94871767, 4054.48717907, 4062.43589702, 4049.35897395, 3972.43589688, 4125.76923050, 4097.82051248, 4119.61538434, 4137.82051262, 4199.61538448,8.57
4121.28205101, 4127.94871767, 4122.94871767, 4121.02564075, 4124.87179460, 4060.38461497, 4065.76923036, 4055.64102523, 3985.38461483, 4126.92307665, 4098.97435863, 4124.87179460, 4136.41025621, 4196.41025628,8.57
4114.74358947, 4121.79487152, 4116.66666639, 4117.82051255, 4122.43589716, 4062.43589702, 4063.07692266, 4051.53846113, 3983.20512765, 4127.17948691, 4099.35897402, 4115.51282024, 4129.61538434, 4195.51282038,8.57
4126.02564075, 4125.51282024, 4126.79487152, 4123.84615357, 4125.25640998, 4061.28205087, 4062.69230728, 4043.58974318, 3975.51281996, 4128.97435870, 4102.30769196, 4122.82051255, 4134.99999973, 4199.48717935,8.57
4117.05128178, 4122.17948691, 4118.97435870, 4119.87179460, 4123.07692280, 4058.58974318, 4063.58974318, 4050.89743548, 3986.41025586, 4130.25640998, 4101.66666632, 4113.46153819, 4135.64102544, 4194.23076910,8.57
4117.69230742, 4124.74358947, 4123.20512793, 4121.66666639, 4122.17948691, 4060.38461497, 4064.74358933, 4057.43589702, 3992.05128150, 4127.43589716, 4099.48717914, 4115.25640998, 4134.35897408, 4196.02564089,8.57
4118.97435870, 4124.35897408, 4123.58974332, 4121.41025614, 4122.69230742, 4061.92307651, 4062.69230728, 4046.53846113, 3979.35897381, 4126.66666639, 4097.82051248, 4120.12820485, 4132.69230742, 4194.74358961,8.57
4114.48717921, 4121.92307665, 4115.89743562, 4117.56410229, 4123.20512793, 4057.30769189, 4060.25640984, 4038.71794830, 3975.12820458, 4127.82051255, 4099.61538427, 4111.02564075, 4128.71794844, 4192.56410243,8.57
4120.64102537, 4128.46153819, 4127.17948691, 4126.28205101, 4125.25640998, 4057.17948677, 4064.74358933, 4058.46153805, 3998.58974304, 4128.07692280, 4104.87179460, 4122.05128178, 4134.10256383, 4196.41025628,8.57
4113.58974332, 4124.99999973, 4121.79487152, 4121.92307665, 4122.94871767, 4063.07692266, 4068.46153805, 4078.20512786, 4019.87179439, 4128.33333306, 4101.92307658, 4115.64102537, 4132.82051255, 4191.79487166,8.57
4119.87179460, 4127.30769203, 4123.33333306, 4121.02564075, 4124.10256383, 4066.79487138, 4067.56410215, 4069.74358940, 4013.97435849, 4129.74358947, 4102.30769196, 4113.58974332, 4133.07692280, 4192.05128192,8.57
4127.30769203, 4130.38461511, 4130.38461511, 4127.43589716, 4127.17948691, 4064.35897395, 4068.33333292, 4059.23076882, 4001.53846099, 4129.23076896, 4107.17948691, 4121.53846126, 4135.12820485, 4192.30769217,8.57
4121.53846126, 4120.25640998, 4121.79487152, 4121.79487152, 4124.87179460, 4058.84615343, 4065.12820472, 4055.64102523, 3993.07692252, 4125.89743562, 4103.33333306, 4111.28205101, 4127.05128178, 4190.76923063,8.57
4127.94871767, 4122.17948691, 4128.58974332, 4124.35897408, 4123.07692280, 4054.35897395, 4054.74358933, 4048.97435856, 3988.97435842, 4127.56410229, 4101.79487145, 4122.43589716, 4130.12820485, 4195.12820499,8.57
4118.97435870, 4123.97435870, 4123.97435870, 4123.33333306, 4123.84615357, 4055.76923036, 4058.33333292, 4058.71794830, 4005.64102516, 4131.53846126, 4103.71794844, 4123.20512793, 4133.33333306, 4193.07692294,8.57
4118.97435870, 4123.97435870, 4123.97435870, 4123.33333306, 4123.84615357, 4055.76923036, 4058.33333292, 4058.71794830, 4005.64102516, 4131.53846126, 4103.71794844, 4123.20512793, 4133.33333306, 4193.07692294,8.57
4120.64102537, 4121.15384588, 4119.87179460, 4119.99999973, 4126.15384588, 4058.33333292, 4063.97435856, 4067.82051241, 4019.74358926, 4130.89743562, 4104.23076896, 4119.87179460, 4133.71794844, 4197.43589730,8.57
4128.84615357, 4124.35897408, 4125.76923050, 4125.25640998, 4124.61538434, 4054.74358933, 4055.25640984, 4050.51282010, 4007.30769183, 4128.58974332, 4102.82051255, 4128.58974332, 4135.76923056, 4198.46153833,8.57
4114.61538434, 4123.97435870, 4119.10256383, 4122.17948691, 4119.87179460, 4054.61538420, 4054.23076882, 4044.74358933, 4006.53846106, 4129.87179460, 4100.25640991, 4115.51282024, 4130.89743562, 4193.58974345,8.57
4119.99999973, 4129.61538434, 4123.71794844, 4123.07692280, 4120.51282024, 4055.51282010, 4060.38461497, 4056.66666625, 4019.74358926, 4130.51282024, 4103.20512793, 4122.17948691, 4136.15384595, 4201.41025634,8.57
4126.66666639, 4128.58974332, 4120.25640998, 4121.28205101, 4122.43589716, 4051.41025600, 4056.02564061, 4051.92307651, 4011.79487131, 4127.43589716, 4103.58974332, 4126.41025614, 4137.82051262, 4202.05128199,8.57
4123.71794844, 4124.23076896, 4117.94871767, 4117.56410229, 4123.20512793, 4051.66666625, 4050.25640984, 4037.82051241, 3993.84615329, 4127.43589716, 4102.17948684, 4118.71794844, 4131.79487152, 4199.10256397,8.57
4122.69230742, 4126.41025614, 4123.20512793, 4122.56410229, 4124.10256383, 4057.82051241, 4053.71794830, 4037.69230728, 3992.30769176, 4129.99999973, 4106.02564075, 4123.84615357, 4135.38461518, 4197.69230756,8.57
4116.92307665, 4124.99999973, 4115.12820485, 4121.41025614, 4123.46153819, 4061.28205087, 4059.35897395, 4046.41025600, 4003.71794817, 4129.61538434, 4104.35897408, 4114.23076896, 4133.46153819, 4192.43589730,8.57
4123.58974332, 4126.41025614, 4122.94871767, 4123.20512793, 4124.48717921, 4060.89743548, 4058.97435856, 4051.53846113, 4010.25640977, 4127.43589716, 4102.56410229, 4117.56410229, 4131.28205101, 4197.05128192,8.57
4121.15384588, 4123.71794844, 4125.51282024, 4123.84615357, 4123.84615357, 4061.92307651, 4055.89743548, 4052.94871754, 4013.58974311, 4127.56410229, 4102.69230742, 4117.17948691, 4132.05128178, 4197.43589730,8.57
4117.30769203, 4122.56410229, 4120.25640998, 4120.38461511, 4123.58974332, 4068.58974318, 4061.79487138, 4054.87179446, 4026.79487131, 4127.69230742, 4100.76923043, 4109.35897408, 4131.53846126, 4194.10256397,8.57
4123.97435870, 4127.05128178, 4127.43589716, 4121.79487152, 4125.38461511, 4073.46153812, 4069.61538420, 4060.25640984, 4040.89743548, 4126.02564075, 4102.82051255, 4120.64102537, 4133.71794844, 4194.61538448,8.57
4117.05128178, 4121.28205101, 4121.41025614, 4117.17948691, 4123.71794844, 4066.02564061, 4061.28205087, 4059.48717907, 4039.48717907, 4124.99999973, 4106.41025614, 4112.56410229, 4128.58974332, 4191.28205115,8.57
4122.17948691, 4123.20512793, 4123.84615357, 4123.20512793, 4124.48717921, 4057.94871754, 4046.41025600, 4045.64102523, 4025.38461490, 4127.56410229, 4109.10256383, 4116.02564075, 4130.12820485, 4193.71794858,8.57
4126.02564075, 4126.66666639, 4126.41025614, 4128.07692280, 4125.51282024, 4056.28205087, 4041.15384574, 4030.89743541, 4011.79487131, 4128.97435870, 4105.89743562, 4126.53846126, 4134.99999973, 4193.07692294,8.57
4118.58974332, 4122.05128178, 4120.76923050, 4121.79487152, 4124.61538434, 4051.53846113, 4039.74358933, 4028.33333285, 4007.05128157, 4127.69230742, 4104.23076896, 4120.12820485, 4131.15384588, 4191.28205115,8.57
4124.35897408, 4127.05128178, 4128.20512793, 4125.12820485, 4125.51282024, 4048.33333292, 4038.20512779, 4037.17948677, 4012.43589695, 4129.23076896, 4108.20512793, 4126.41025614, 4134.10256383, 4193.46153833,8.57
4120.76923050, 4127.56410229, 4122.69230742, 4122.82051255, 4122.82051255, 4056.53846113, 4042.82051241, 4041.41025600, 4014.61538413, 4129.10256383, 4103.33333306, 4116.41025614, 4132.94871767, 4190.51282038,8.57
4121.53846126, 4125.25640998, 4124.74358947, 4121.79487152, 4123.07692280, 4060.76923036, 4045.25640984, 4032.69230721, 4007.56410208, 4127.05128178, 4103.46153819, 4118.33333306, 4133.71794844, 4198.71794858,8.57
4122.94871767, 4124.87179460, 4130.38461511, 4124.35897408, 4127.69230742, 4057.56410215, 4041.53846113, 4028.71794824, 4006.53846106, 4129.10256383, 4110.51282024, 4129.23076896, 4138.58974339, 4200.89743576,8.57
4117.30769203, 4122.17948691, 4121.28205101, 4120.51282024, 4127.05128178, 4056.92307651, 4045.51282010, 4041.92307651, 4022.94871747, 4130.25640998, 4107.30769203, 4114.23076896, 4133.58974332, 4193.71794858,8.57
4124.61538434, 4123.84615357, 4124.99999973, 4122.43589716, 4125.25640998, 4072.94871761, 4054.74358933, 4055.38461497, 4046.66666625, 4126.92307665, 4108.84615357, 4118.33333306, 4133.58974332, 4189.23076910,8.57
4119.23076896, 4123.46153819, 4117.17948691, 4121.15384588, 4124.61538434, 4063.33333292, 4045.51282010, 4049.87179446, 4044.23076882, 4127.69230742, 4110.64102537, 4114.61538434, 4133.33333306, 4189.87179474,8.57
4125.76923050, 4128.97435870, 4126.15384588, 4123.97435870, 4122.30769203, 4050.89743548, 4036.53846106, 4050.38461497, 4052.94871754, 4130.12820485, 4115.89743562, 4126.66666639, 4135.76923056, 4197.05128192,8.57
4120.51282024, 4124.48717921, 4119.87179460, 4119.61538434, 4121.79487152, 4055.76923036, 4042.05128164, 4050.12820472, 4053.97435856, 4128.46153819, 4113.84615357, 4115.76923050, 4130.51282024, 4191.92307679,8.57
4125.12820485, 4125.12820485, 4124.61538434, 4121.66666639, 4124.99999973, 4065.38461497, 4051.28205087, 4052.56410215, 4050.51282010, 4127.94871767, 4112.17948691, 4119.99999973, 4133.71794844, 4192.56410243,8.57
4124.23076896, 4125.51282024, 4124.99999973, 4123.20512793, 4123.71794844, 4064.61538420, 4050.38461497, 4057.17948677, 4060.38461497, 4128.58974332, 4113.84615357, 4126.41025614, 4133.84615357, 4193.46153833,8.57
4118.84615357, 4121.79487152, 4116.79487152, 4121.15384588, 4122.94871767, 4063.33333292, 4045.76923036, 4051.15384574, 4061.28205087, 4126.92307665, 4111.28205101, 4118.97435870, 4131.02564075, 4195.76923063,8.57
4124.74358947, 4125.64102537, 4126.79487152, 4127.43589716, 4127.43589716, 4071.28205094, 4049.87179446, 4045.89743548, 4050.51282010, 4127.69230742, 4109.87179460, 4127.94871767, 4139.87179467, 4197.56410243,8.57
4116.79487152, 4122.30769203, 4123.20512793, 4123.97435870, 4126.15384588, 4076.02564068, 4059.35897395, 4056.02564061, 4059.48717907, 4128.46153819, 4111.28205101, 4120.76923050, 4135.76923056, 4193.20512807,8.57
4120.38461511, 4124.99999973, 4126.66666639, 4123.20512793, 4123.84615357, 4071.66666632, 4060.51282010, 4063.97435856, 4074.10256376, 4126.66666639, 4114.99999973, 4125.25640998, 4133.84615357, 4200.64102551,8.57
4126.41025614, 4127.82051255, 4129.48717921, 4124.48717921, 4123.07692280, 4065.25640984, 4055.89743548, 4060.76923036, 4074.48717914, 4127.43589716, 4110.89743562, 4129.87179460, 4137.43589723, 4200.89743576,8.57
4121.79487152, 4120.25640998, 4118.46153819, 4120.12820485, 4122.17948691, 4064.23076882, 4055.51282010, 4064.10256369, 4078.97435863, 4129.10256383, 4107.56410229, 4115.51282024, 4134.61538434, 4195.89743576,8.57
4125.51282024, 4123.20512793, 4122.17948691, 4123.84615357, 4125.25640998, 4068.58974318, 4057.17948677, 4071.02564068, 4087.43589709, 4128.58974332, 4114.48717921, 4126.66666639, 4136.41025621, 4198.97435884,8.57
4116.79487152, 4121.28205101, 4118.46153819, 4120.12820485, 4124.87179460, 4070.89743555, 4059.61538420, 4069.74358940, 4082.43589709, 4126.79487152, 4112.82051255, 4122.56410229, 4133.07692280, 4195.89743576,8.57
4119.10256383, 4120.89743562, 4121.15384588, 4122.30769203, 4124.10256383, 4068.84615343, 4061.41025600, 4070.51282017, 4077.82051248, 4126.28205101, 4108.20512793, 4118.46153819, 4132.82051255, 4197.30769217,8.57
4124.74358947, 4124.74358947, 4124.61538434, 4128.33333306, 4124.35897408, 4067.94871754, 4058.33333292, 4069.87179453, 4077.17948684, 4126.15384588, 4112.82051255, 4125.12820485, 4135.64102544, 4196.28205115,8.57
4116.79487152, 4121.53846126, 4117.82051255, 4121.02564075, 4123.07692280, 4072.05128171, 4056.53846113, 4063.84615343, 4080.51282017, 4127.82051255, 4114.35897408, 4113.97435870, 4129.48717921, 4193.33333320,8.57
4121.92307665, 4124.23076896, 4126.79487152, 4122.69230742, 4125.76923050, 4069.61538420, 4049.10256369, 4048.84615343, 4079.10256376, 4130.25640998, 4112.17948691, 4121.28205101, 4132.17948691, 4198.20512807,8.57
4117.56410229, 4125.25640998, 4122.30769203, 4121.02564075, 4126.28205101, 4064.10256369, 4038.33333292, 4030.64102516, 4067.17948677, 4128.46153819, 4111.02564075, 4118.58974332, 4133.20512793, 4194.23076910,8.57
4117.56410229, 4125.25640998, 4122.30769203, 4121.02564075, 4126.28205101, 4064.10256369, 4038.33333292, 4030.64102516, 4067.17948677, 4128.46153819, 4111.02564075, 4118.58974332, 4133.20512793, 4194.23076910,8.57
4121.53846126, 4126.66666639, 4122.56410229, 4122.05128178, 4123.97435870, 4068.20512779, 4042.94871754, 4028.20512772, 4064.61538420, 4126.66666639, 4113.33333306, 4117.30769203, 4129.48717921, 4191.53846140,8.57
4127.94871767, 4126.79487152, 4128.07692280, 4128.97435870, 4124.23076896, 4069.61538420, 4053.58974318, 4040.76923036, 4073.46153812, 4130.25640998, 4111.66666639, 4126.53846126, 4130.76923050, 4190.38461525,8.57
4118.84615357, 4122.17948691, 4118.71794844, 4122.30769203, 4124.48717921, 4060.89743548, 4050.64102523, 4050.38461497, 4075.64102530, 4131.15384588, 4108.71794844, 4117.82051255, 4129.74358947, 4187.69230756,8.57
4126.79487152, 4127.43589716, 4128.97435870, 4123.58974332, 4124.87179460, 4057.17948677, 4048.58974318, 4055.38461497, 4077.69230735, 4127.94871767, 4115.64102537, 4126.02564075, 4134.10256383, 4194.74358961,8.57
4124.23076896, 4125.76923050, 4126.28205101, 4123.71794844, 4122.43589716, 4062.17948677, 4057.30769189, 4064.48717907, 4092.17948684, 4128.84615357, 4118.46153819, 4124.87179460, 4134.99999973, 4195.64102551,8.57
4121.92307665, 4124.10256383, 4120.76923050, 4122.30769203, 4123.58974332, 4065.38461497, 4058.84615343, 4064.35897395, 4091.53846119, 4130.64102537, 4116.28205101, 4121.53846126, 4134.61538434, 4192.82051269,8.57
4126.66666639, 4128.97435870, 4127.43589716, 4125.89743562, 4127.17948691, 4067.82051241, 4055.12820472, 4054.99999959, 4076.28205094, 4129.48717921, 4116.28205101, 4132.82051255, 4138.97435877, 4192.05128192,8.57
4115.76923050, 4123.71794844, 4119.35897408, 4120.25640998, 4124.10256383, 4071.02564068, 4060.25640984, 4058.97435856, 4082.82051248, 4127.05128178, 4113.20512793, 4120.12820485, 4132.30769203, 4195.25641012,8.57
4122.94871767, 4124.74358947, 4122.56410229, 4123.07692280, 4122.82051255, 4069.61538420, 4063.84615343, 4068.58974318, 4099.87179453, 4127.17948691, 4116.02564075, 4124.10256383, 4134.10256383, 4203.58974352,8.57
4124.74358947, 4123.07692280, 4119.74358947, 4123.84615357, 4124.87179460, 4067.94871754, 4061.53846113, 4063.71794830, 4101.41025607, 4129.35897408, 4119.61538434, 4127.94871767, 4136.92307672, 4195.89743576,8.57
4122.94871767, 4122.56410229, 4117.82051255, 4121.92307665, 4125.89743562, 4065.12820472, 4056.92307651, 4049.61538420, 4087.94871761, 4128.20512793, 4117.56410229, 4118.33333306, 4133.46153819, 4192.94871781,8.57
4126.92307665, 4129.61538434, 4124.61538434, 4126.66666639, 4125.38461511, 4058.46153805, 4051.79487138, 4048.97435856, 4080.12820478, 4126.28205101, 4115.51282024, 4125.12820485, 4135.25640998, 4200.76923063,8.57
4115.38461511, 4123.58974332, 4115.51282024, 4119.99999973, 4124.10256383, 4057.82051241, 4053.97435856, 4058.46153805, 4088.84615350, 4128.07692280, 4113.97435870, 4118.71794844, 4132.94871767, 4195.25641012,8.57
4122.17948691, 4125.12820485, 4125.12820485, 4121.66666639, 4124.74358947, 4057.56410215, 4057.43589702, 4060.51282010, 4097.94871761, 4129.87179460, 4118.46153819, 4121.53846126, 4133.71794844, 4192.05128192,8.57
4123.97435870, 4124.99999973, 4124.87179460, 4124.61538434, 4122.82051255, 4053.33333292, 4051.41025600, 4056.02564061, 4093.46153812, 4128.84615357, 4120.12820485, 4122.17948691, 4133.46153819, 4191.15384602,8.57
4117.82051255, 4121.02564075, 4114.87179460, 4119.87179460, 4123.46153819, 4059.87179446, 4049.23076882, 4057.43589702, 4089.99999966, 4128.97435870, 4115.89743562, 4114.23076896, 4129.61538434, 4193.46153833,8.57
4124.35897408, 4125.38461511, 4126.02564075, 4124.35897408, 4127.05128178, 4069.48717907, 4055.76923036, 4067.69230728, 4099.48717914, 4129.48717921, 4118.33333306, 4125.76923050, 4133.33333306, 4193.07692294,8.57
4116.79487152, 4120.25640998, 4120.51282024, 4121.02564075, 4123.84615357, 4061.79487138, 4051.53846113, 4066.15384574, 4099.87179453, 4126.53846126, 4119.23076896, 4118.71794844, 4131.92307665, 4185.89743576,8.57
4123.20512793, 4121.92307665, 4123.20512793, 4122.94871767, 4122.82051255, 4051.66666625, 4043.20512779, 4050.64102523, 4081.79487145, 4125.51282024, 4118.46153819, 4122.56410229, 4133.46153819, 4193.71794858,8.57
4126.79487152, 4125.76923050, 4127.94871767, 4126.79487152, 4124.48717921, 4056.15384574, 4051.79487138, 4057.56410215, 4083.97435863, 4127.30769203, 4118.07692280, 4128.07692280, 4135.25640998, 4195.38461525,8.57
4117.43589716, 4121.28205101, 4121.53846126, 4120.64102537, 4124.10256383, 4059.61538420, 4058.07692266, 4076.66666632, 4105.25640998, 4126.79487152, 4114.74358947, 4116.79487152, 4129.87179460, 4192.05128192,8.57
4125.51282024, 4125.64102537, 4130.38461511, 4125.12820485, 4125.38461511, 4056.53846113, 4050.64102523, 4076.66666632, 4107.94871767, 4127.69230742, 4119.23076896, 4131.79487152, 4133.46153819, 4199.35897422,8.57
4119.87179460, 4123.58974332, 4121.92307665, 4123.97435870, 4123.07692280, 4061.53846113, 4052.56410215, 4074.87179453, 4101.92307658, 4128.58974332, 4122.17948691, 4127.69230742, 4131.02564075, 4195.38461525,8.57
4119.10256383, 4122.94871767, 4120.89743562, 4120.64102537, 4123.20512793, 4068.46153805, 4061.02564061, 4084.35897402, 4107.43589716, 4128.71794844, 4119.74358947, 4123.84615357, 4129.99999973, 4196.92307679,8.57
4124.35897408, 4128.20512793, 4128.46153819, 4122.56410229, 4124.99999973, 4065.12820472, 4058.97435856, 4081.15384581, 4109.61538434, 4129.10256383, 4119.35897408, 4132.94871767, 4137.30769210, 4202.56410250,8.57
4118.46153819, 4123.33333306, 4119.99999973, 4120.64102537, 4121.92307665, 4061.41025600, 4056.02564061, 4065.25640984, 4097.56410222, 4127.94871767, 4117.94871767, 4118.97435870, 4132.17948691, 4199.74358961,8.57
4124.61538434, 4125.12820485, 4124.99999973, 4124.61538434, 4124.23076896, 4058.71794830, 4047.05128164, 4050.51282010, 4086.53846119, 4127.82051255, 4118.46153819, 4127.05128178, 4132.94871767, 4200.51282038,8.57
4118.97435870, 4122.17948691, 4122.43589716, 4118.07692280, 4126.15384588, 4053.20512779, 4030.76923029, 4033.07692259, 4077.30769196, 4129.48717921, 4116.79487152, 4127.43589716, 4135.12820485, 4195.89743576,8.57
4118.84615357, 4120.76923050, 4119.99999973, 4114.87179460, 4124.61538434, 4052.69230728, 4028.58974311, 4024.48717900, 4069.61538420, 4128.84615357, 4115.64102537, 4117.43589716, 4133.33333306, 4193.33333320,8.57
4124.23076896, 4127.05128178, 4123.58974332, 4122.43589716, 4123.20512793, 4051.15384574, 4031.41025593, 4027.30769183, 4068.07692266, 4127.17948691, 4115.12820485, 4123.58974332, 4134.48717921, 4194.87179474,8.57
4113.84615357, 4123.46153819, 4118.71794844, 4118.71794844, 4123.33333306, 4042.17948677, 4023.20512772, 4023.33333285, 4065.38461497, 4127.56410229, 4110.12820485, 4115.64102537, 4130.12820485, 4193.84615371,8.57
4120.89743562, 4125.12820485, 4126.66666639, 4122.69230742, 4126.02564075, 4043.20512779, 4024.87179439, 4025.12820465, 4073.07692273, 4128.97435870, 4112.94871767, 4119.61538434, 4131.79487152, 4195.51282038,8.57
4122.05128178, 4122.69230742, 4118.33333306, 4122.05128178, 4123.46153819, 4062.94871754, 4042.94871754, 4043.84615343, 4087.30769196, 4127.43589716, 4116.79487152, 4119.99999973, 4133.20512793, 4192.94871781,8.57
4119.99999973, 4122.05128178, 4115.38461511, 4118.97435870, 4121.79487152, 4073.20512786, 4047.69230728, 4052.30769189, 4086.15384581, 4126.15384588, 4114.74358947, 4120.76923050, 4132.56410229, 4195.25641012,8.57
4124.48717921, 4128.97435870, 4130.76923050, 4127.05128178, 4125.89743562, 4061.15384574, 4038.71794830, 4047.56410215, 4084.48717914, 4129.35897408, 4114.23076896, 4132.69230742, 4134.61538434, 4194.23076910,8.57
4115.12820485, 4121.79487152, 4120.76923050, 4122.56410229, 4126.53846126, 4053.07692266, 4036.79487131, 4048.97435856, 4091.53846119, 4129.99999973, 4114.48717921, 4117.05128178, 4128.71794844, 4187.82051269,8.57
4124.99999973, 4120.76923050, 4124.23076896, 4123.20512793, 4126.02564075, 4054.35897395, 4035.76923029, 4038.97435856, 4078.46153812, 4125.25640998, 4116.79487152, 4122.30769203, 4131.02564075, 4195.12820499,8.57
4126.41025614, 4123.84615357, 4129.35897408, 4125.51282024, 4123.84615357, 4051.28205087, 4032.56410208, 4030.12820465, 4065.89743548, 4125.38461511, 4115.25640998, 4130.76923050, 4133.84615357, 4195.38461525,8.57
4118.46153819, 4123.20512793, 4122.56410229, 4121.02564075, 4122.43589716, 4048.33333292, 4037.05128164, 4047.30769189, 4088.46153812, 4129.74358947, 4114.35897408, 4121.41025614, 4131.79487152, 4194.35897422,8.57
4126.15384588, 4124.74358947, 4128.97435870, 4125.89743562, 4124.87179460, 4055.64102523, 4042.82051241, 4059.99999959, 4102.30769196, 4130.38461511, 4118.71794844, 4132.17948691, 4138.07692287, 4198.97435884,8.57
4117.56410229, 4118.58974332, 4121.66666639, 4124.35897408, 4123.46153819, 4062.30769189, 4042.82051241, 4053.46153805, 4089.10256376, 4127.30769203, 4116.92307665, 4122.05128178, 4134.10256383, 4195.51282038,8.57
4121.66666639, 4122.82051255, 4123.71794844, 4124.23076896, 4125.38461511, 4055.76923036, 4044.23076882, 4051.79487138, 4088.71794837, 4126.15384588, 4115.89743562, 4121.41025614, 4133.58974332, 4199.35897422,8.57
4125.76923050, 4125.12820485, 4124.74358947, 4124.99999973, 4128.58974332, 4049.99999959, 4047.69230728, 4059.35897395, 4100.89743555, 4127.82051255, 4116.92307665, 4131.66666639, 4136.53846133, 4197.17948704,8.57
4117.05128178, 4121.02564075, 4117.17948691, 4120.89743562, 4125.51282024, 4062.30769189, 4055.38461497, 4070.38461504, 4108.71794844, 4127.56410229, 4114.61538434, 4119.61538434, 4130.89743562, 4192.30769217,8.57
4122.56410229, 4128.97435870, 4124.74358947, 4126.15384588, 4123.84615357, 4074.48717914, 4064.10256369, 4076.15384581, 4114.61538434, 4126.79487152, 4117.69230742, 4126.53846126, 4136.15384595, 4197.94871781,8.57
4117.82051255, 4123.84615357, 4115.89743562, 4119.87179460, 4124.23076896, 4067.17948677, 4060.76923036, 4067.82051241, 4119.48717921, 4125.76923050, 4117.82051255, 4124.87179460, 4134.74358947, 4196.92307679,8.57
4119.87179460, 4120.51282024, 4118.46153819, 4117.05128178, 4125.51282024, 4059.35897395, 4049.87179446, 4053.97435856, 4112.94871767, 4127.56410229, 4115.38461511, 4121.15384588, 4130.25640998, 4197.05128192,8.57
4121.92307665, 4126.92307665, 4127.05128178, 4123.97435870, 4123.58974332, 4059.61538420, 4042.94871754, 4043.97435856, 4100.76923043, 4129.23076896, 4116.79487152, 4121.92307665, 4134.61538434, 4195.64102551,8.57
4114.87179460, 4125.12820485, 4117.30769203, 4121.28205101, 4122.82051255, 4054.99999959, 4037.43589702, 4041.02564061, 4100.51282017, 4126.53846126, 4116.66666639, 4113.58974332, 4132.69230742, 4192.30769217,8.57
4123.97435870, 4126.92307665, 4127.17948691, 4126.15384588, 4127.17948691, 4049.87179446, 4033.46153798, 4048.20512779, 4112.17948691, 4125.76923050, 4119.61538434, 4128.07692280, 4133.84615357, 4193.46153833,8.57
4118.84615357, 4123.97435870, 4126.02564075, 4123.97435870, 4125.38461511, 4053.33333292, 4036.02564054, 4056.15384574, 4118.71794844, 4128.20512793, 4119.35897408, 4121.79487152, 4133.07692280, 4188.84615371,8.57
4120.51282024, 4122.30769203, 4120.51282024, 4119.99999973, 4122.43589716, 4056.02564061, 4037.82051241, 4051.41025600, 4109.35897408, 4128.46153819, 4116.66666639, 4115.25640998, 4130.76923050, 4193.71794858,8.57
4128.33333306, 4125.25640998, 4125.25640998, 4124.74358947, 4124.99999973, 4050.89743548, 4033.58974311, 4040.76923036, 4099.48717914, 4128.33333306, 4118.07692280, 4128.71794844, 4132.43589716, 4196.79487166,8.57
4116.28205101, 4121.02564075, 4120.64102537, 4121.28205101, 4125.51282024, 4044.10256369, 4027.69230721, 4038.07692266, 4097.05128171, 4128.07692280, 4115.51282024, 4120.12820485, 4129.87179460, 4190.89743576,8.57
4122.17948691, 4124.74358947, 4129.48717921, 4124.35897408, 4125.38461511, 4043.71794830, 4024.10256362, 4041.79487138, 4098.84615350, 4126.53846126, 4116.41025614, 4126.15384588, 4132.69230742, 4196.28205115,8.57
4124.10256383, 4125.12820485, 4124.61538434, 4124.23076896, 4123.46153819, 4053.84615343, 4029.35897388, 4045.51282010, 4105.25640998, 4127.56410229, 4120.38461511, 4127.30769203, 4131.28205101, 4194.74358961,8.57
4121.28205101, 4122.82051255, 4120.25640998, 4124.61538434, 4123.20512793, 4058.84615343, 4036.53846106, 4047.94871754, 4108.07692280, 4129.23076896, 4120.25640998, 4124.87179460, 4130.89743562, 4195.51282038,8.57
4124.61538434, 4127.94871767, 4130.51282024, 4129.48717921, 4127.43589716, 4054.35897395, 4034.87179439, 4046.92307651, 4110.64102537, 4126.28205101, 4119.10256383, 4133.46153819, 4134.74358947, 4199.74358961,8.57
4117.94871767, 4122.69230742, 4121.02564075, 4120.89743562, 4127.69230742, 4057.17948677, 4035.38461490, 4045.51282010, 4119.10256383, 4124.99999973, 4118.97435870, 4119.48717921, 4128.97435870, 4193.71794858,8.57
4127.69230742, 4122.17948691, 4123.07692280, 4121.02564075, 4123.84615357, 4065.25640984, 4041.15384574, 4049.74358933, 4122.56410229, 4128.20512793, 4123.07692280, 4126.15384588, 4134.35897408, 4194.61538448,8.57
4125.76923050, 4123.33333306, 4125.12820485, 4122.43589716, 4120.51282024, 4066.66666625, 4043.97435856, 4058.46153805, 4123.07692280, 4129.61538434, 4121.66666639, 4130.51282024, 4136.66666646, 4195.51282038,8.57
4119.87179460, 4121.79487152, 4120.12820485, 4118.07692280, 4121.41025614, 4066.02564061, 4044.99999959, 4062.69230728, 4127.94871767, 4127.05128178, 4118.20512793, 4116.79487152, 4128.20512793, 4196.02564089,8.57
4127.30769203, 4125.76923050, 4123.84615357, 4123.97435870, 4123.20512793, 4068.07692266, 4045.51282010, 4057.05128164, 4123.58974332, 4129.10256383, 4122.94871767, 4125.76923050, 4131.66666639, 4195.64102551,8.57
4114.74358947, 4120.64102537, 4114.48717921, 4120.38461511, 4120.89743562, 4066.28205087, 4040.38461497, 4048.33333292, 4113.20512793, 4130.89743562, 4122.17948691, 4119.48717921, 4131.79487152, 4192.56410243,8.57
4118.58974332, 4121.15384588, 4122.05128178, 4119.35897408, 4123.07692280, 4064.99999959, 4036.15384567, 4049.23076882, 4115.51282024, 4128.20512793, 4119.87179460, 4119.48717921, 4131.53846126, 4196.92307679,8.57
4125.51282024, 4124.23076896, 4127.05128178, 4123.20512793, 4125.76923050, 4067.82051241, 4038.97435856, 4055.38461497, 4123.33333306, 4126.41025614, 4121.92307665, 4125.25640998, 4133.46153819, 4193.20512807,8.57
4116.66666639, 4121.53846126, 4117.17948691, 4121.66666639, 4124.35897408, 4072.05128171, 4045.89743548, 4055.12820472, 4126.02564075, 4126.79487152, 4121.15384588, 4113.20512793, 4128.71794844, 4192.05128192,8.57
4123.20512793, 4124.48717921, 4127.30769203, 4124.48717921, 4124.74358947, 4079.99999966, 4052.56410215, 4057.05128164, 4127.56410229, 4125.89743562, 4122.82051255, 4119.87179460, 4131.53846126, 4198.71794858,8.57
4120.38461511, 4122.05128178, 4124.99999973, 4118.84615357, 4125.38461511, 4084.23076889, 4051.79487138, 4063.84615343, 4130.64102537, 4123.97435870, 4122.56410229, 4118.33333306, 4131.66666639, 4191.53846140,8.57
4121.15384588, 4123.58974332, 4123.58974332, 4120.76923050, 4127.56410229, 4074.61538427, 4044.74358933, 4059.23076882, 4128.97435870, 4125.89743562, 4121.02564075, 4121.15384588, 4130.89743562, 4191.15384602,8.57
4123.58974332, 4125.76923050, 4125.38461511, 4126.79487152, 4127.56410229, 4070.25640991, 4047.56410215, 4057.56410215, 4126.66666639, 4129.23076896, 4121.41025614, 4127.05128178, 4132.30769203, 4195.51282038,8.57
4117.05128178, 4120.38461511, 4118.58974332, 4119.74358947, 4124.99999973, 4077.17948684, 4052.69230728, 4065.64102523, 4127.05128178, 4128.84615357, 4121.02564075, 4117.17948691, 4128.46153819, 4193.84615371,8.57
4126.66666639, 4125.51282024, 4127.94871767, 4122.56410229, 4125.51282024, 4069.61538420, 4043.58974318, 4058.46153805, 4123.58974332, 4127.56410229, 4123.20512793, 4132.56410229, 4131.53846126, 4197.17948704,8.57
4122.17948691, 4123.46153819, 4121.92307665, 4123.58974332, 4124.48717921, 4062.56410215, 4041.28205087, 4051.92307651, 4126.53846126, 4125.76923050, 4123.97435870, 4129.74358947, 4131.92307665, 4196.66666653,8.57
4118.58974332, 4120.89743562, 4119.35897408, 4122.05128178, 4126.28205101, 4072.56410222, 4054.10256369, 4061.53846113, 4133.84615357, 4126.53846126, 4124.61538434, 4118.97435870, 4132.82051255, 4200.76923063,8.57
4121.92307665, 4125.25640998, 4126.41025614, 4124.48717921, 4125.76923050, 4072.43589709, 4051.02564061, 4059.35897395, 4128.33333306, 4128.58974332, 4121.28205101, 4127.69230742, 4133.97435870, 4200.64102551,8.57
4116.02564075, 4120.76923050, 4118.71794844, 4120.76923050, 4121.79487152, 4066.02564061, 4043.84615343, 4053.97435856, 4127.69230742, 4126.53846126, 4116.53846126, 4120.12820485, 4128.33333306, 4192.30769217,8.57
4125.51282024, 4125.25640998, 4124.99999973, 4125.12820485, 4126.15384588, 4072.56410222, 4049.35897395, 4056.66666625, 4130.64102537, 4125.64102537, 4121.15384588, 4125.25640998, 4135.38461518, 4195.25641012,8.57
4118.71794844, 4123.97435870, 4119.10256383, 4123.07692280, 4125.38461511, 4074.99999966, 4049.61538420, 4047.30769189, 4118.20512793, 4126.79487152, 4118.97435870, 4120.89743562, 4135.51282031, 4194.35897422,8.57
4115.76923050, 4120.51282024, 4113.84615357, 4118.46153819, 4119.23076896, 4074.35897402, 4047.30769189, 4042.69230728, 4119.10256383, 4126.53846126, 4115.76923050, 4112.43589716, 4128.20512793, 4196.15384602,8.57
4126.53846126, 4124.61538434, 4124.10256383, 4123.20512793, 4122.05128178, 4082.82051248, 4054.23076882, 4059.87179446, 4143.20512800, 4128.20512793, 4123.84615357, 4122.56410229, 4133.84615357, 4198.46153833,8.57
4118.71794844, 4121.15384588, 4118.07692280, 4118.20512793, 4124.61538434, 4084.99999966, 4057.69230728, 4069.35897395, 4152.05128185, 4129.74358947, 4121.79487152, 4113.97435870, 4133.07692280, 4192.43589730,8.57
4121.53846126, 4124.35897408, 4125.25640998, 4122.05128178, 4123.07692280, 4077.56410222, 4051.66666625, 4065.38461497, 4143.46153826, 4128.20512793, 4116.28205101, 4119.87179460, 4129.48717921, 4193.20512807,8.57
4117.94871767, 4121.92307665, 4126.15384588, 4124.48717921, 4122.17948691, 4077.43589709, 4050.89743548, 4073.97435863, 4143.97435877, 4124.87179460, 4120.76923050, 4122.30769203, 4129.87179460, 4190.76923063,8.57
4118.20512793, 4119.48717921, 4121.92307665, 4119.61538434, 4124.48717921, 4083.20512786, 4056.15384574, 4084.48717914, 4152.30769210, 4124.61538434, 4124.87179460, 4114.61538434, 4131.15384588, 4192.56410243,8.57
4129.74358947, 4125.89743562, 4129.74358947, 4127.05128178, 4125.51282024, 4082.43589709, 4058.20512779, 4076.28205094, 4151.53846133, 4128.84615357, 4124.99999973, 4127.82051255, 4134.87179460, 4194.61538448,8.57
4117.43589716, 4119.74358947, 4120.51282024, 4122.56410229, 4121.66666639, 4083.20512786, 4062.56410215, 4067.82051241, 4144.10256390, 4129.35897408, 4121.92307665, 4118.71794844, 4131.15384588, 4191.41025628,8.57
4120.89743562, 4122.94871767, 4126.53846126, 4121.41025614, 4123.33333306, 4088.71794837, 4068.58974318, 4070.25640991, 4137.56410236, 4126.92307665, 4121.53846126, 4121.28205101, 4133.84615357, 4198.33333320,8.57
4126.79487152, 4126.28205101, 4127.17948691, 4126.02564075, 4122.43589716, 4089.74358940, 4067.43589702, 4067.94871754, 4132.56410229, 4126.92307665, 4120.76923050, 4129.23076896, 4135.38461518, 4194.87179474,8.57
4120.64102537, 4119.35897408, 4116.02564075, 4123.97435870, 4119.35897408, 4086.66666632, 4063.07692266, 4063.20512779, 4128.07692280, 4125.12820485, 4120.25640998, 4120.38461511, 4128.07692280, 4193.46153833,8.57
4126.92307665, 4123.97435870, 4128.20512793, 4127.17948691, 4124.61538434, 4089.48717914, 4065.76923036, 4066.92307651, 4128.58974332, 4125.89743562, 4125.64102537, 4131.15384588, 4133.33333306, 4200.89743576,8.57
4121.02564075, 4122.56410229, 4124.99999973, 4119.74358947, 4123.33333306, 4093.07692273, 4068.58974318, 4072.30769196, 4139.74358954, 4128.46153819, 4124.10256383, 4122.82051255, 4133.33333306, 4196.28205115,8.57
4124.61538434, 4123.46153819, 4122.05128178, 4118.97435870, 4118.84615357, 4085.51282017, 4062.43589702, 4069.99999966, 4145.51282031, 4126.15384588, 4121.79487152, 4121.41025614, 4132.56410229, 4198.97435884,8.57
4127.30769203, 4127.30769203, 4123.71794844, 4123.97435870, 4122.43589716, 4079.23076889, 4057.43589702, 4065.51282010, 4140.89743569, 4123.33333306, 4124.61538434, 4130.51282024, 4135.38461518, 4200.12820499,8.57
4119.23076896, 4123.07692280, 4119.87179460, 4118.84615357, 4124.99999973, 4082.05128171, 4059.99999959, 4069.23076882, 4144.10256390, 4126.28205101, 4124.99999973, 4117.17948691, 4130.12820485, 4194.87179474,8.57
4126.15384588, 4126.02564075, 4125.38461511, 4122.69230742, 4122.56410229, 4084.61538427, 4062.56410215, 4079.87179453, 4154.10256390, 4127.30769203, 4125.76923050, 4122.56410229, 4133.84615357, 4198.46153833,8.57
4117.69230742, 4122.94871767, 4115.51282024, 4121.28205101, 4120.64102537, 4090.76923043, 4069.35897395, 4091.15384581, 4157.05128185, 4126.28205101, 4124.61538434, 4120.38461511, 4133.71794844, 4197.94871781,8.57
4115.25640998, 4122.05128178, 4119.87179460, 4119.99999973, 4124.87179460, 4099.23076889, 4078.20512786, 4093.97435863, 4153.84615364, 4129.48717921, 4124.10256383, 4116.02564075, 4130.12820485, 4196.15384602,8.57
4122.82051255, 4125.25640998, 4128.97435870, 4123.46153819, 4126.02564075, 4095.64102530, 4076.92307658, 4088.84615350, 4153.46153826, 4128.46153819, 4126.15384588, 4121.02564075, 4131.66666639, 4190.76923063,8.57
4117.30769203, 4121.92307665, 4117.05128178, 4120.38461511, 4122.43589716, 4089.35897402, 4073.58974325, 4085.25640991, 4157.43589723, 4125.25640998, 4125.38461511, 4114.74358947, 4129.61538434, 4189.10256397,8.57
4123.84615357, 4125.51282024, 4126.28205101, 4124.87179460, 4125.38461511, 4091.28205094, 4070.76923043, 4078.97435863, 4155.38461518, 4127.05128178, 4125.12820485, 4129.48717921, 4132.56410229, 4196.15384602,8.57
4120.51282024, 4123.33333306, 4124.74358947, 4122.69230742, 4126.02564075, 4090.64102530, 4061.92307651, 4062.94871754, 4140.12820492, 4126.79487152, 4124.10256383, 4126.79487152, 4129.35897408, 4188.97435884,8.57
4121.15384588, 4121.92307665, 4119.23076896, 4121.41025614, 4124.10256383, 4084.23076889, 4057.82051241, 4050.64102523, 4127.82051255, 4124.23076896, 4126.79487152, 4117.43589716, 4126.66666639, 4188.71794858,8.57
4127.30769203, 4127.30769203, 4128.97435870, 4125.12820485, 4125.25640998, 4088.20512786, 4065.12820472, 4056.66666625, 4131.02564075, 4125.25640998, 4128.07692280, 4128.07692280, 4130.64102537, 4197.30769217,8.57
4114.99999973, 4122.17948691, 4122.82051255, 4116.28205101, 4124.23076896, 4098.71794837, 4068.97435856, 4064.74358933, 4134.10256383, 4127.94871767, 4119.99999973, 4116.28205101, 4128.46153819, 4194.48717935,8.57
4124.10256383, 4125.38461511, 4127.94871767, 4120.89743562, 4124.87179460, 4095.51282017, 4067.30769189, 4071.79487145, 4138.58974339, 4128.71794844, 4122.56410229, 4125.12820485, 4134.23076896, 4198.20512807,8.57
4126.41025614, 4125.64102537, 4126.92307665, 4125.64102537, 4123.97435870, 4092.94871761, 4076.02564068, 4092.17948684, 4155.38461518, 4130.12820485, 4127.43589716, 4132.43589716, 4134.99999973, 4198.97435884,8.57
4116.66666639, 4120.25640998, 4120.25640998, 4121.02564075, 4123.58974332, 4099.74358940, 4085.38461504, 4103.33333306, 4163.33333313, 4128.97435870, 4122.56410229, 4120.51282024, 4129.48717921, 4199.61538448,8.57
4122.17948691, 4125.38461511, 4127.05128178, 4125.12820485, 4123.58974332, 4100.38461504, 4087.69230735, 4102.30769196, 4163.71794851, 4128.20512793, 4124.61538434, 4128.71794844, 4135.25640998, 4201.28205122,8.57
4116.92307665, 4122.30769203, 4119.48717921, 4122.82051255, 4119.99999973, 4100.12820478, 4091.92307658, 4111.15384588, 4175.89743576, 4128.84615357, 4125.51282024, 4122.17948691, 4132.17948691, 4193.97435884,8.57
4122.43589716, 4123.58974332, 4123.97435870, 4123.84615357, 4122.17948691, 4106.02564075, 4092.94871761, 4107.69230742, 4173.20512807, 4127.30769203, 4123.84615357, 4123.84615357, 4130.12820485, 4195.89743576,8.57
4122.43589716, 4125.12820485, 4123.58974332, 4123.07692280, 4124.61538434, 4104.10256383, 4083.33333299, 4083.33333299, 4152.43589723, 4125.12820485, 4123.58974332, 4125.12820485, 4131.79487152, 4197.69230756,8.57
4115.76923050, 4122.05128178, 4115.64102537, 4117.17948691, 4123.97435870, 4098.07692273, 4075.25640991, 4077.17948684, 4150.76923056, 4125.64102537, 4121.66666639, 4113.84615357, 4127.82051255, 4196.66666653,8.57
4125.89743562, 4126.28205101, 4127.56410229, 4124.48717921, 4124.87179460, 4098.20512786, 4076.28205094, 4083.71794837, 4156.53846133, 4128.33333306, 4123.84615357, 4123.71794844, 4131.79487152, 4195.89743576,8.57
4119.99999973, 4121.28205101, 4120.51282024, 4122.69230742, 4121.66666639, 4096.02564068, 4074.35897402, 4075.12820478, 4146.53846133, 4128.07692280, 4124.23076896, 4118.58974332, 4131.15384588, 4190.38461525,8.57
4120.12820485, 4122.43589716, 4120.12820485, 4121.79487152, 4120.89743562, 4101.79487145, 4081.02564068, 4084.35897402, 4153.07692287, 4128.46153819, 4123.46153819, 4119.10256383, 4129.87179460, 4193.97435884,8.57
4121.66666639, 4127.82051255, 4127.17948691, 4125.64102537, 4122.94871767, 4116.28205101, 4097.82051248, 4108.33333306, 4174.61538448, 4129.48717921, 4123.33333306, 4122.69230742, 4132.69230742, 4192.43589730,8.57
4117.56410229, 4124.74358947, 4122.94871767, 4121.28205101, 4124.74358947, 4112.43589716, 4098.07692273, 4102.05128171, 4170.25641012, 4126.92307665, 4120.25640998, 4111.92307665, 4130.64102537, 4190.25641012,8.57
4126.92307665, 4127.05128178, 4127.05128178, 4125.51282024, 4127.05128178, 4104.87179460, 4091.02564068, 4089.23076889, 4154.87179467, 4125.89743562, 4120.89743562, 4124.61538434, 4133.71794844, 4194.87179474,8.57
4119.48717921, 4124.48717921, 4119.10256383, 4123.07692280, 4123.84615357, 4115.12820485, 4100.12820478, 4104.10256383, 4163.97435877, 4127.43589716, 4122.94871767, 4124.35897408, 4131.66666639, 4189.99999986,8.57
4120.25640998, 4125.12820485, 4125.51282024, 4123.58974332, 4122.30769203, 4123.33333306, 4111.02564075, 4118.58974332, 4182.43589730, 4128.71794844, 4127.17948691, 4120.38461511, 4130.64102537, 4191.41025628,8.57
4124.61538434, 4127.69230742, 4131.02564075, 4126.02564075, 4123.71794844, 4118.33333306, 4105.25640998, 4108.46153819, 4179.35897422, 4128.58974332, 4128.07692280, 4125.76923050, 4131.66666639, 4195.12820499,8.57
4119.61538434, 4124.23076896, 4118.46153819, 4117.94871767, 4124.99999973, 4114.61538434, 4097.43589709, 4093.33333299, 4159.35897415, 4128.33333306, 4120.76923050, 4119.74358947, 4127.30769203, 4193.84615371,8.57
4129.61538434, 4129.99999973, 4125.12820485, 4122.94871767, 4125.64102537, 4117.56410229, 4098.71794837, 4091.53846119, 4154.23076903, 4128.84615357, 4122.30769203, 4130.76923050, 4132.94871767, 4194.74358961,8.57
4120.25640998, 4125.51282024, 4120.76923050, 4124.23076896, 4121.02564075, 4124.74358947, 4102.69230742, 4104.99999973, 4178.84615371, 4127.30769203, 4126.15384588, 4123.33333306, 4133.20512793, 4193.58974345,8.57
4118.84615357, 4122.43589716, 4118.71794844, 4119.48717921, 4119.61538434, 4124.74358947, 4102.94871767, 4120.12820485, 4198.71794858, 4126.53846126, 4124.35897408, 4115.25640998, 4130.89743562, 4202.05128199,8.57
4128.07692280, 4127.56410229, 4122.56410229, 4122.56410229, 4121.66666639, 4119.61538434, 4101.92307658, 4118.07692280, 4193.07692294, 4129.35897408, 4123.71794844, 4128.97435870, 4134.74358947, 4201.53846147,8.57
4117.94871767, 4121.66666639, 4112.17948691, 4120.38461511, 4120.89743562, 4123.46153819, 4103.46153819, 4111.66666639, 4187.82051269, 4129.87179460, 4122.82051255, 4118.33333306, 4130.38461511, 4190.64102551,8.57
4121.79487152, 4123.71794844, 4121.92307665, 4121.79487152, 4123.84615357, 4129.23076896, 4104.35897408, 4112.17948691, 4185.38461525, 4128.33333306, 4123.84615357, 4120.64102537, 4133.97435870, 4197.56410243,8.57
4121.15384588, 4122.43589716, 4121.53846126, 4120.25640998, 4125.89743562, 4127.69230742, 4106.28205101, 4110.38461511, 4176.53846140, 4129.87179460, 4121.92307665, 4122.69230742, 4134.61538434, 4197.94871781,8.57
4120.76923050, 4120.51282024, 4117.69230742, 4122.30769203, 4124.87179460, 4123.20512793, 4109.10256383, 4104.61538434, 4169.61538448, 4128.97435870, 4122.05128178, 4117.43589716, 4129.87179460, 4192.30769217,8.57
4122.43589716, 4126.02564075, 4125.89743562, 4127.43589716, 4123.46153819, 4122.05128178, 4106.15384588, 4101.66666632, 4167.56410236, 4125.51282024, 4126.15384588, 4126.15384588, 4134.48717921, 4193.33333320,8.57
4113.07692280, 4121.28205101, 4116.02564075, 4117.69230742, 4122.56410229, 4123.71794844, 4099.35897402, 4094.23076889, 4161.79487159, 4125.89743562, 4124.10256383, 4112.69230742, 4131.15384588, 4193.97435884,8.57
4124.99999973, 4122.94871767, 4123.20512793, 4120.12820485, 4126.41025614, 4126.41025614, 4098.71794837, 4090.51282017, 4166.28205108, 4127.17948691, 4123.84615357, 4117.05128178, 4129.23076896, 4196.53846140,8.57
4124.99999973, 4125.76923050, 4129.61538434, 4124.23076896, 4125.64102537, 4128.20512793, 4103.58974332, 4106.02564075, 4186.66666653, 4127.30769203, 4125.12820485, 4125.64102537, 4129.74358947, 4191.53846140,8.57
4116.79487152, 4126.28205101, 4123.97435870, 4118.20512793, 4122.56410229, 4125.64102537, 4104.35897408, 4114.61538434, 4189.87179474, 4128.97435870, 4124.99999973, 4117.30769203, 4126.66666639, 4192.30769217,8.57
4127.56410229, 4130.89743562, 4129.35897408, 4121.02564075, 4123.58974332, 4120.12820485, 4098.71794837, 4103.58974332, 4172.56410243, 4132.17948691, 4125.89743562, 4127.56410229, 4131.92307665, 4197.17948704,8.57
4123.20512793, 4123.33333306, 4120.38461511, 4117.94871767, 4121.66666639, 4120.76923050, 4097.43589709, 4104.48717921, 4177.05128192, 4130.25640998, 4122.17948691, 4123.58974332, 4129.87179460, 4190.38461525,8.57
4125.89743562, 4122.56410229, 4126.79487152, 4120.89743562, 4122.94871767, 4128.20512793, 4105.12820485, 4119.23076896, 4197.43589730, 4126.92307665, 4123.33333306, 4127.56410229, 4128.58974332, 4193.84615371,8.57
4126.41025614, 4126.53846126, 4132.69230742, 4124.99999973, 4124.74358947, 4130.12820485, 4110.38461511, 4121.79487152, 4194.61538448, 4128.20512793, 4127.05128178, 4132.43589716, 4132.56410229, 4199.10256397,8.57
4118.20512793, 4121.92307665, 4120.64102537, 4118.71794844, 4121.28205101, 4123.46153819, 4107.69230742, 4106.92307665, 4175.12820499, 4129.99999973, 4125.12820485, 4121.15384588, 4128.71794844, 4197.82051269,8.57
4127.82051255, 4125.25640998, 4125.25640998, 4120.25640998, 4121.53846126, 4117.82051255, 4102.05128171, 4091.41025607, 4162.30769210, 4129.61538434, 4126.92307665, 4131.15384588, 4130.12820485, 4196.79487166,8.57
4121.79487152, 4124.10256383, 4123.58974332, 4119.35897408, 4124.61538434, 4124.23076896, 4102.94871767, 4095.76923043, 4161.92307672, 4128.58974332, 4125.51282024, 4124.99999973, 4129.10256383, 4192.05128192,8.57
4120.38461511, 4123.33333306, 4123.84615357, 4121.28205101, 4124.99999973, 4127.30769203, 4103.20512793, 4102.30769196, 4160.51282031, 4128.84615357, 4122.69230742, 4121.15384588, 4128.84615357, 4198.33333320,8.57
4125.76923050, 4124.48717921, 4124.35897408, 4122.69230742, 4124.61538434, 4117.69230742, 4097.43589709, 4094.10256376, 4155.38461518, 4129.23076896, 4123.58974332, 4127.69230742, 4130.64102537, 4200.38461525,8.57
4116.66666639, 4120.64102537, 4113.97435870, 4114.10256383, 4123.71794844, 4117.69230742, 4094.10256376, 4091.02564068, 4157.69230749, 4125.38461511, 4123.71794844, 4115.25640998, 4126.66666639, 4194.74358961,8.57
4122.43589716, 4123.71794844, 4120.38461511, 4119.74358947, 4124.87179460, 4121.15384588, 4091.02564068, 4094.74358940, 4164.35897415, 4123.46153819, 4126.02564075, 4123.07692280, 4132.82051255, 4199.10256397,8.57
4120.76923050, 4120.64102537, 4119.61538434, 4122.05128178, 4123.84615357, 4114.10256383, 4091.53846119, 4095.38461504, 4167.82051262, 4127.56410229, 4122.43589716, 4120.76923050, 4131.79487152, 4195.12820499,8.57
4118.84615357, 4120.38461511, 4120.38461511, 4119.87179460, 4124.23076896, 4111.02564075, 4095.12820478, 4098.71794837, 4168.58974345, 4129.48717921, 4120.25640998, 4113.97435870, 4127.30769203, 4193.07692294,8.57
4125.38461511, 4125.76923050, 4125.89743562, 4126.02564075, 4127.05128178, 4117.56410229, 4094.87179453, 4098.97435863, 4167.69230749, 4127.17948691, 4125.25640998, 4124.35897408, 4133.58974332, 4195.89743576,8.57
4122.05128178, 4122.17948691, 4116.92307665, 4121.53846126, 4125.64102537, 4124.87179460, 4100.25640991, 4098.97435863, 4171.41025628, 4128.33333306, 4126.28205101, 4115.89743562, 4128.46153819, 4191.28205115,8.57
4122.05128178, 4122.17948691, 4116.92307665, 4121.53846126, 4125.64102537, 4124.87179460, 4100.25640991, 4098.97435863, 4171.41025628, 4128.33333306, 4126.28205101, 4115.89743562, 4128.46153819, 4191.28205115,8.57
4127.94871767, 4125.38461511, 4127.17948691, 4122.30769203, 4124.99999973, 4124.35897408, 4107.43589716, 4105.64102537, 4179.35897422, 4129.61538434, 4126.41025614, 4122.43589716, 4126.15384588, 4192.69230756,8.57
4122.69230742, 4124.10256383, 4126.66666639, 4121.53846126, 4123.71794844, 4118.07692280, 4106.28205101, 4103.58974332, 4176.02564089, 4127.05128178, 4125.89743562, 4125.12820485, 4129.87179460, 4195.64102551,8.57
4119.87179460, 4120.64102537, 4118.84615357, 4118.58974332, 4122.17948691, 4123.58974332, 4110.25640998, 4100.64102530, 4167.82051262, 4125.38461511, 4125.51282024, 4117.94871767, 4127.94871767, 4198.97435884,8.57
4129.48717921, 4126.41025614, 4127.43589716, 4122.69230742, 4122.94871767, 4135.25640998, 4119.35897408, 4111.53846126, 4174.74358961, 4126.15384588, 4125.64102537, 4128.33333306, 4128.71794844, 4196.41025628,8.57
4121.79487152, 4122.43589716, 4119.99999973, 4118.71794844, 4123.07692280, 4131.66666639, 4119.87179460, 4119.87179460, 4190.12820499, 4124.10256383, 4122.43589716, 4120.64102537, 4127.94871767, 4190.89743576,8.57
4125.76923050, 4123.84615357, 4123.97435870, 4122.43589716, 4123.58974332, 4127.05128178, 4120.76923050, 4126.28205101, 4202.82051275, 4124.61538434, 4125.12820485, 4125.76923050, 4131.41025614, 4198.33333320,8.57
4126.28205101, 4126.79487152, 4126.53846126, 4122.43589716, 4121.66666639, 4133.46153819, 4126.28205101, 4138.58974339, 4208.33333327, 4127.69230742, 4125.64102537, 4131.28205101, 4129.87179460, 4197.56410243,8.57
4119.35897408, 4123.58974332, 4119.10256383, 4115.25640998, 4122.56410229, 4133.97435870, 4118.33333306, 4131.79487152, 4201.28205122, 4128.58974332, 4121.66666639, 4123.07692280, 4127.05128178, 4196.15384602,8.57
4125.38461511, 4126.02564075, 4122.94871767, 4122.30769203, 4126.28205101, 4125.51282024, 4101.53846119, 4103.20512793, 4178.33333320, 4128.58974332, 4123.84615357, 4131.53846126, 4134.74358947, 4199.23076910,8.57
4120.12820485, 4122.69230742, 4117.69230742, 4120.64102537, 4125.25640998, 4122.69230742, 4097.94871761, 4093.84615350, 4165.51282031, 4127.69230742, 4122.05128178, 4120.51282024, 4131.53846126, 4194.10256397,8.57
4124.23076896, 4125.25640998, 4124.10256383, 4116.28205101, 4126.15384588, 4124.87179460, 4104.87179460, 4105.89743562, 4171.53846140, 4128.84615357, 4120.89743562, 4120.51282024, 4130.76923050, 4198.58974345,8.57
4124.10256383, 4126.41025614, 4125.12820485, 4119.23076896, 4127.17948691, 4120.12820485, 4102.56410229, 4100.25640991, 4166.15384595, 4129.87179460, 4123.33333306, 4126.66666639, 4133.20512793, 4199.10256397,8.57
4115.76923050, 4119.99999973, 4114.35897408, 4118.20512793, 4123.33333306, 4112.82051255, 4096.02564068, 4088.07692273, 4155.38461518, 4128.33333306, 4120.89743562, 4113.71794844, 4128.46153819, 4194.35897422,8.57
4122.82051255, 4123.33333306, 4120.89743562, 4122.05128178, 4123.20512793, 4113.84615357, 4098.97435863, 4095.76923043, 4164.74358954, 4128.46153819, 4121.92307665, 4123.07692280, 4131.53846126, 4196.92307679,8.57
4117.30769203, 4123.84615357, 4117.17948691, 4121.28205101, 4124.48717921, 4122.17948691, 4107.30769203, 4104.74358947, 4177.69230756, 4128.71794844, 4122.82051255, 4121.41025614, 4129.74358947, 4192.69230756,8.57
4120.76923050, 4125.38461511, 4119.99999973, 4123.58974332, 4125.25640998, 4130.38461511, 4113.84615357, 4105.89743562, 4177.43589730, 4127.56410229, 4123.84615357, 4119.74358947, 4129.61538434, 4194.23076910,8.57
4124.87179460, 4126.02564075, 4125.89743562, 4125.64102537, 4123.58974332, 4135.89743569, 4121.28205101, 4116.02564075, 4179.74358961, 4127.69230742, 4126.92307665, 4125.64102537, 4130.76923050, 4196.41025628,8.57
4116.41025614, 4121.92307665, 4120.76923050, 4118.58974332, 4121.66666639, 4139.99999980, 4127.43589716, 4126.02564075, 4193.07692294, 4127.82051255, 4126.28205101, 4115.51282024, 4124.10256383, 4192.94871781,8.57
4125.51282024, 4127.56410229, 4128.46153819, 4122.94871767, 4124.48717921, 4147.30769210, 4132.82051255, 4128.97435870, 4205.12820506, 4128.97435870, 4129.48717921, 4124.48717921, 4128.58974332, 4193.97435884,8.57
4121.02564075, 4124.10256383, 4121.53846126, 4121.53846126, 4123.71794844, 4154.99999980, 4142.17948697, 4144.99999980, 4214.48717942, 4129.87179460, 4132.69230742, 4122.82051255, 4129.87179460, 4190.64102551,8.57
4121.28205101, 4121.41025614, 4121.41025614, 4118.84615357, 4121.92307665, 4152.69230749, 4146.66666646, 4159.10256390, 4213.46153840, 4130.12820485, 4130.64102537, 4120.76923050, 4127.82051255, 4195.51282038,8.57
4127.17948691, 4123.97435870, 4127.82051255, 4122.56410229, 4122.30769203, 4146.41025621, 4138.20512800, 4146.28205108, 4195.38461525, 4128.58974332, 4128.33333306, 4128.71794844, 4132.17948691, 4198.84615371,8.57
4119.35897408, 4118.07692280, 4117.05128178, 4119.23076896, 4121.92307665, 4144.48717928, 4127.30769203, 4122.82051255, 4172.17948704, 4125.51282024, 4126.41025614, 4118.46153819, 4129.48717921, 4193.46153833,8.57
4128.46153819, 4123.97435870, 4128.20512793, 4123.97435870, 4124.87179460, 4137.30769210, 4116.02564075, 4099.23076889, 4149.87179467, 4125.76923050, 4127.94871767, 4129.10256383, 4131.79487152, 4197.05128192,8.57
4126.41025614, 4124.48717921, 4128.84615357, 4122.94871767, 4124.48717921, 4126.92307665, 4103.20512793, 4078.46153812, 4133.71794844, 4128.97435870, 4124.74358947, 4128.33333306, 4132.05128178, 4195.76923063,8.57
4121.41025614, 4119.99999973, 4118.46153819, 4118.46153819, 4123.58974332, 4124.10256383, 4097.05128171, 4073.97435863, 4142.94871774, 4129.74358947, 4121.66666639, 4118.07692280, 4128.58974332, 4195.89743576,8.57
4126.41025614, 4124.10256383, 4122.82051255, 4123.71794844, 4124.48717921, 4129.23076896, 4100.89743555, 4084.10256376, 4165.64102544, 4128.71794844, 4125.12820485, 4127.94871767, 4132.30769203, 4197.69230756,8.57
4117.69230742, 4121.92307665, 4119.48717921, 4118.20512793, 4120.51282024, 4141.66666646, 4112.69230742, 4100.64102530, 4169.99999986, 4128.58974332, 4121.66666639, 4119.99999973, 4129.48717921, 4195.25641012,8.57
4121.92307665, 4124.23076896, 4124.48717921, 4117.82051255, 4123.33333306, 4151.66666646, 4130.25640998, 4132.17948691, 4186.28205115, 4127.56410229, 4122.94871767, 4123.58974332, 4130.51282024, 4200.64102551,8.57
4122.82051255, 4122.17948691, 4120.89743562, 4122.05128178, 4128.46153819, 4150.25641005, 4141.02564082, 4162.82051262, 4222.05128199, 4125.76923050, 4126.66666639, 4122.43589716, 4131.66666639, 4196.41025628,8.57
4118.71794844, 4119.23076896, 4116.28205101, 4121.02564075, 4127.05128178, 4149.74358954, 4144.61538441, 4163.84615364, 4219.10256404, 4126.79487152, 4121.66666639, 4112.30769203, 4126.92307665, 4191.41025628,8.57
4124.74358947, 4127.17948691, 4127.30769203, 4122.82051255, 4126.41025614, 4154.35897415, 4146.53846133, 4157.17948697, 4198.58974345, 4130.76923050, 4121.66666639, 4126.15384588, 4128.84615357, 4194.23076910,8.57
4117.82051255, 4124.48717921, 4118.71794844, 4116.79487152, 4126.15384588, 4144.87179467, 4139.35897415, 4151.92307672, 4200.12820499, 4130.89743562, 4125.25640998, 4116.79487152, 4125.51282024, 4192.17948704,8.57
4121.79487152, 4122.94871767, 4120.38461511, 4121.41025614, 4125.76923050, 4131.53846126, 4126.79487152, 4131.15384588, 4186.92307679, 4128.46153819, 4125.64102537, 4116.41025614, 4128.71794844, 4194.61538448,8.57
4126.53846126, 4124.61538434, 4127.30769203, 4127.43589716, 4123.97435870, 4132.69230742, 4118.97435870, 4109.87179460, 4161.66666646, 4130.64102537, 4121.92307665, 4127.30769203, 4133.84615357, 4191.02564089,8.57
4119.99999973, 4119.61538434, 4119.87179460, 4118.46153819, 4123.71794844, 4127.82051255, 4107.56410229, 4097.56410222, 4154.99999980, 4129.10256383, 4120.51282024, 4118.07692280, 4127.56410229, 4188.97435884,8.57
4127.17948691, 4123.71794844, 4125.12820485, 4121.53846126, 4125.64102537, 4115.64102537, 4095.38461504, 4083.07692273, 4150.25641005, 4125.89743562, 4123.84615357, 4127.17948691, 4128.46153819, 4194.74358961,8.57
4120.64102537, 4123.58974332, 4121.41025614, 4124.35897408, 4124.99999973, 4128.20512793, 4102.30769196, 4078.84615350, 4150.76923056, 4128.33333306, 4122.30769203, 4123.20512793, 4128.33333306, 4192.30769217,8.57
4119.74358947, 4120.76923050, 4123.07692280, 4123.20512793, 4124.10256383, 4152.82051262, 4121.66666639, 4094.74358940, 4165.76923056, 4130.76923050, 4120.51282024, 4121.28205101, 4132.17948691, 4195.76923063,8.57
4127.69230742, 4124.23076896, 4127.43589716, 4122.05128178, 4124.61538434, 4159.87179467, 4134.48717921, 4121.02564075, 4181.92307679, 4130.25640998, 4121.02564075, 4130.89743562, 4134.74358947, 4198.46153833,8.57
4119.74358947, 4121.79487152, 4116.92307665, 4118.07692280, 4124.87179460, 4156.15384595, 4141.66666646, 4146.66666646, 4198.33333320, 4129.10256383, 4118.07692280, 4122.69230742, 4127.69230742, 4197.69230756,8.57
4122.05128178, 4122.43589716, 4122.94871767, 4123.46153819, 4123.33333306, 4150.89743569, 4141.28205108, 4148.46153826, 4204.48717942, 4129.23076896, 4119.23076896, 4131.79487152, 4131.02564075, 4201.28205122,8.57
4120.51282024, 4119.99999973, 4122.17948691, 4122.56410229, 4121.41025614, 4152.94871774, 4142.69230749, 4141.41025621, 4200.51282038, 4128.84615357, 4120.76923050, 4127.82051255, 4129.48717921, 4195.89743576,8.57
4122.30769203, 4122.82051255, 4120.51282024, 4120.64102537, 4123.97435870, 4162.05128185, 4151.15384595, 4151.66666646, 4204.99999993, 4126.79487152, 4121.41025614, 4120.12820485, 4126.79487152, 4197.30769217,8.57
4124.74358947, 4126.92307665, 4123.20512793, 4124.10256383, 4125.25640998, 4164.10256390, 4154.48717928, 4157.17948697, 4204.35897429, 4127.17948691, 4123.84615357, 4128.71794844, 4132.05128178, 4200.89743576,8.57
4117.82051255, 4120.12820485, 4114.99999973, 4117.69230742, 4121.41025614, 4156.02564082, 4149.87179467, 4149.99999980, 4199.61538448, 4128.71794844, 4121.41025614, 4119.48717921, 4128.97435870, 4194.48717935,8.57
4127.43589716, 4123.33333306, 4123.46153819, 4120.89743562, 4124.35897408, 4149.23076903, 4148.07692287, 4149.35897415, 4203.46153840, 4127.94871767, 4123.58974332, 4124.23076896, 4129.87179460, 4194.99999986,8.57
4121.92307665, 4123.07692280, 4120.76923050, 4121.53846126, 4125.76923050, 4153.71794851, 4155.64102544, 4149.74358954, 4198.58974345, 4126.15384588, 4124.99999973, 4121.41025614, 4131.02564075, 4194.10256397,8.57
4116.41025614, 4121.28205101, 4119.35897408, 4119.61538434, 4122.30769203, 4162.82051262, 4160.38461518, 4143.84615364, 4191.02564089, 4128.58974332, 4121.92307665, 4114.35897408, 4129.23076896, 4194.87179474,8.57
4123.46153819, 4126.02564075, 4130.38461511, 4125.76923050, 4125.64102537, 4161.92307672, 4149.48717928, 4134.87179460, 4189.74358961, 4128.97435870, 4121.79487152, 4125.64102537, 4131.79487152, 4192.43589730,8.57
4115.64102537, 4121.41025614, 4120.12820485, 4119.87179460, 4127.05128178, 4156.02564082, 4136.92307672, 4125.51282024, 4185.12820499, 4126.28205101, 4119.61538434, 4116.28205101, 4126.28205101, 4186.66666653,8.57
4121.02564075, 4123.46153819, 4123.20512793, 4124.61538434, 4127.56410229, 4159.99999980, 4139.61538441, 4134.10256383, 4189.35897422, 4127.94871767, 4121.79487152, 4122.56410229, 4127.94871767, 4195.51282038,8.57
4121.15384588, 4125.25640998, 4124.61538434, 4128.71794844, 4127.82051255, 4163.58974339, 4142.94871774, 4155.64102544, 4206.15384609, 4129.99999973, 4122.17948691, 4127.94871767, 4131.92307665, 4196.02564089,8.57
4118.71794844, 4123.84615357, 4121.92307665, 4120.76923050, 4125.76923050, 4155.76923056, 4136.28205108, 4158.33333313, 4214.87179481, 4129.10256383, 4120.89743562, 4120.25640998, 4128.71794844, 4193.33333320,8.57
4128.58974332, 4126.92307665, 4130.38461511, 4124.23076896, 4125.38461511, 4152.05128185, 4137.17948697, 4153.97435877, 4216.79487173, 4129.87179460, 4125.25640998, 4129.87179460, 4130.12820485, 4194.99999986,8.57
4121.15384588, 4119.10256383, 4118.84615357, 4122.94871767, 4124.48717921, 4153.58974339, 4142.43589723, 4154.61538441, 4214.23076917, 4128.07692280, 4124.87179460, 4124.74358947, 4128.84615357, 4192.94871781,8.57
4122.56410229, 4120.89743562, 4122.69230742, 4123.46153819, 4124.87179460, 4149.99999980, 4138.33333313, 4143.46153826, 4199.87179474, 4126.28205101, 4125.51282024, 4132.69230742, 4131.79487152, 4199.35897422,8.57
4122.56410229, 4125.12820485, 4128.46153819, 4123.58974332, 4124.23076896, 4151.53846133, 4137.82051262, 4135.38461518, 4192.05128192, 4130.12820485, 4127.30769203, 4134.35897408, 4131.66666639, 4198.71794858,8.57
4118.84615357, 4119.74358947, 4121.53846126, 4118.20512793, 4123.84615357, 4157.56410236, 4144.10256390, 4142.30769210, 4192.05128192, 4130.25640998, 4124.74358947, 4118.07692280, 4126.92307665, 4197.56410243,8.57
4126.41025614, 4123.20512793, 4126.28205101, 4122.82051255, 4125.64102537, 4151.15384595, 4138.71794851, 4135.89743569, 4178.20512807, 4126.15384588, 4124.23076896, 4130.38461511, 4130.64102537, 4202.43589737,8.57
4116.79487152, 4120.76923050, 4118.84615357, 4122.17948691, 4123.20512793, 4141.53846133, 4128.84615357, 4116.02564075, 4160.25641005, 4127.56410229, 4121.79487152, 4124.74358947, 4126.41025614, 4194.35897422,8.57
4122.30769203, 4121.79487152, 4121.15384588, 4122.17948691, 4122.82051255, 4144.23076903, 4129.74358947, 4111.79487152, 4159.10256390, 4131.28205101, 4120.38461511, 4119.61538434, 4128.07692280, 4193.20512807,8.57
4126.92307665, 4124.10256383, 4123.97435870, 4121.79487152, 4124.48717921, 4147.30769210, 4128.20512793, 4113.97435870, 4164.48717928, 4129.87179460, 4120.51282024, 4126.41025614, 4133.07692280, 4196.28205115,8.57
4118.58974332, 4120.64102537, 4116.41025614, 4119.61538434, 4124.48717921, 4146.79487159, 4126.53846126, 4117.94871767, 4166.28205108, 4127.56410229, 4118.58974332, 4117.30769203, 4126.28205101, 4196.02564089,8.57
4128.33333306, 4124.74358947, 4124.48717921, 4128.07692280, 4126.02564075, 4150.25641005, 4134.35897408, 4134.99999973, 4175.12820499, 4130.89743562, 4121.15384588, 4124.48717921, 4129.99999973, 4196.79487166,8.57
4120.89743562, 4121.41025614, 4118.07692280, 4122.82051255, 4124.87179460, 4156.41025621, 4140.76923056, 4147.43589723, 4189.74358961, 4130.89743562, 4121.15384588, 4120.38461511, 4131.53846126, 4191.15384602,8.57
4117.17948691, 4121.02564075, 4122.30769203, 4120.89743562, 4125.76923050, 4158.58974339, 4138.33333313, 4142.69230749, 4194.87179474, 4128.07692280, 4119.99999973, 4118.20512793, 4127.17948691, 4193.33333320,8.57
4122.17948691, 4123.97435870, 4130.64102537, 4125.25640998, 4125.51282024, 4151.92307672, 4131.15384588, 4134.74358947, 4183.84615371, 4128.07692280, 4121.15384588, 4126.28205101, 4130.25640998, 4193.58974345,8.57
4115.76923050, 4120.12820485, 4119.35897408, 4117.17948691, 4123.58974332, 4147.94871774, 4127.56410229, 4137.17948697, 4179.23076910, 4129.35897408, 4120.51282024, 4116.66666639, 4128.33333306, 4190.25641012,8.57
4123.97435870, 4126.02564075, 4126.79487152, 4123.33333306, 4127.05128178, 4149.87179467, 4125.12820485, 4131.66666639, 4176.15384602, 4129.61538434, 4121.28205101, 4125.76923050, 4129.61538434, 4195.25641012,8.57
4121.41025614, 4123.97435870, 4123.33333306, 4126.15384588, 4123.58974332, 4149.99999980, 4119.74358947, 4111.92307665, 4158.71794851, 4127.30769203, 4120.64102537, 4126.15384588, 4129.74358947, 4191.66666653,8.57
4122.30769203, 4120.76923050, 4121.02564075, 4121.92307665, 4121.53846126, 4146.28205108, 4117.17948691, 4107.17948691, 4152.30769210, 4127.17948691, 4123.58974332, 4124.74358947, 4130.38461511, 4194.74358961,8.57
4127.82051255, 4123.20512793, 4128.58974332, 4125.12820485, 4124.35897408, 4143.71794851, 4118.07692280, 4120.51282024, 4163.58974339, 4129.99999973, 4126.92307665, 4135.25640998, 4133.71794844, 4201.02564096,8.57
