AF3,F7,F3,FC5,T7,P7,O1,O2,P8,T8,FC6,F4,F8,AF4,Label
4116.15384588, 4117.69230742, 4117.17948691, 4121.92307665, 4120.51282024, 4138.20512800, 4102.94871767, 4119.10256383, 4132.94871767, 4122.94871767, 4128.33333306, 4118.20512793, 4129.61538434, 4194.10256397,8.57
4123.71794844, 4126.53846126, 4121.41025614, 4122.82051255, 4123.84615357, 4138.33333313, 4105.38461511, 4123.84615357, 4143.58974339, 4125.38461511, 4127.30769203, 4123.71794844, 4130.76923050, 4195.12820499,8.57
4115.64102537, 4127.69230742, 4118.20512793, 4123.58974332, 4119.87179460, 4141.53846133, 4102.56410229, 4122.69230742, 4141.02564082, 4127.30769203, 4127.94871767, 4124.74358947, 4131.15384588, 4195.51282038,8.57
4122.82051255, 4125.76923050, 4124.35897408, 4124.61538434, 4125.25640998, 4139.35897415, 4097.94871761, 4114.23076896, 4123.07692280, 4125.51282024, 4127.17948691, 4116.28205101, 4130.76923050, 4196.15384602,8.57
4123.07692280, 4125.12820485, 4124.61538434, 4119.35897408, 4126.66666639, 4131.53846126, 4098.07692273, 4110.64102537, 4118.46153819, 4125.89743562, 4128.07692280, 4119.10256383, 4130.25640998, 4197.17948704,8.57
4115.25640998, 4123.84615357, 4117.30769203, 4117.56410229, 4119.74358947, 4134.61538434, 4104.10256383, 4115.89743562, 4129.61538434, 4127.43589716, 4126.28205101, 4120.38461511, 4127.17948691, 4195.64102551,8.57
4127.17948691, 4125.12820485, 4127.69230742, 4127.43589716, 4122.94871767, 4140.89743569, 4108.46153819, 4117.05128178, 4128.46153819, 4126.15384588, 4124.61538434, 4121.92307665, 4129.74358947, 4197.94871781,8.57
4119.48717921, 4121.92307665, 4122.43589716, 4124.61538434, 4122.17948691, 4137.94871774, 4105.89743562, 4111.41025614, 4118.33333306, 4124.99999973, 4125.89743562, 4122.56410229, 4132.94871767, 4197.82051269,8.57
4123.20512793, 4127.43589716, 4122.30769203, 4121.28205101, 4122.17948691, 4134.10256383, 4103.20512793, 4109.23076896, 4117.82051255, 4126.15384588, 4123.97435870, 4119.99999973, 4130.25640998, 4198.58974345,8.57
4128.07692280, 4126.41025614, 4127.05128178, 4125.12820485, 4123.33333306, 4135.25640998, 4106.02564075, 4117.69230742, 4129.48717921, 4126.66666639, 4123.84615357, 4124.35897408, 4131.02564075, 4200.64102551,8.57
4115.76923050, 4117.30769203, 4116.92307665, 4121.79487152, 4121.41025614, 4139.74358954, 4115.76923050, 4130.76923050, 4139.99999980, 4126.15384588, 4126.66666639, 4120.76923050, 4132.05128178, 4196.28205115,8.57
4122.94871767, 4125.51282024, 4120.76923050, 4122.56410229, 4122.43589716, 4141.53846133, 4119.35897408, 4134.35897408, 4142.94871774, 4126.79487152, 4127.94871767, 4120.51282024, 4131.15384588, 4194.48717935,8.57
4117.94871767, 4123.97435870, 4118.58974332, 4121.02564075, 4119.74358947, 4137.17948697, 4112.17948691, 4133.20512793, 4146.92307672, 4126.15384588, 4127.17948691, 4125.38461511, 4131.28205101, 4197.43589730,8.57
4119.74358947, 4119.48717921, 4117.43589716, 4119.74358947, 4123.46153819, 4130.89743562, 4112.30769203, 4136.53846133, 4150.12820492, 4124.23076896, 4127.82051255, 4122.05128178, 4128.71794844, 4200.25641012,8.57
4126.53846126, 4122.69230742, 4122.30769203, 4124.10256383, 4125.38461511, 4133.20512793, 4118.84615357, 4141.66666646, 4149.23076903, 4124.35897408, 4130.76923050, 4123.97435870, 4128.07692280, 4198.58974345,8.57
4114.74358947, 4121.41025614, 4116.53846126, 4121.28205101, 4120.25640998, 4135.76923056, 4112.82051255, 4134.74358947, 4140.12820492, 4124.48717921, 4127.82051255, 4121.15384588, 4129.35897408, 4194.10256397,8.57
4120.25640998, 4127.43589716, 4123.84615357, 4120.76923050, 4122.94871767, 4128.07692280, 4100.51282017, 4115.89743562, 4122.82051255, 4125.51282024, 4124.74358947, 4119.23076896, 4130.89743562, 4195.89743576,8.57
4117.69230742, 4126.41025614, 4122.05128178, 4120.89743562, 4119.61538434, 4125.51282024, 4097.05128171, 4104.61538434, 4112.94871767, 4124.61538434, 4128.84615357, 4123.33333306, 4129.99999973, 4194.61538448,8.57
4116.92307665, 4122.82051255, 4118.71794844, 4121.92307665, 4118.33333306, 4126.41025614, 4094.35897402, 4101.02564068, 4108.33333306, 4122.56410229, 4132.43589716, 4119.35897408, 4128.33333306, 4191.79487166,8.57
4123.71794844, 4123.71794844, 4125.76923050, 4123.33333306, 4124.35897408, 4123.84615357, 4090.51282017, 4101.66666632, 4105.76923050, 4124.99999973, 4131.79487152, 4123.07692280, 4132.05128178, 4195.64102551,8.57
4115.51282024, 4121.79487152, 4118.58974332, 4118.84615357, 4122.43589716, 4122.82051255, 4094.10256376, 4107.30769203, 4111.41025614, 4125.38461511, 4127.43589716, 4123.07692280, 4129.87179460, 4196.53846140,8.57
4125.25640998, 4125.89743562, 4122.17948691, 4120.38461511, 4120.64102537, 4116.53846126, 4094.48717914, 4107.56410229, 4111.66666639, 4122.94871767, 4127.43589716, 4118.84615357, 4127.05128178, 4195.38461525,8.57
4124.23076896, 4121.92307665, 4123.84615357, 4123.58974332, 4119.10256383, 4107.94871767, 4088.07692273, 4105.89743562, 4109.35897408, 4124.10256383, 4131.53846126, 4124.61538434, 4131.53846126, 4194.74358961,8.57
4118.20512793, 4119.23076896, 4119.99999973, 4123.71794844, 4120.51282024, 4108.97435870, 4087.56410222, 4107.30769203, 4111.02564075, 4125.25640998, 4126.15384588, 4122.94871767, 4130.51282024, 4195.38461525,8.57
4127.17948691, 4124.99999973, 4125.89743562, 4124.10256383, 4123.71794844, 4111.66666639, 4090.38461504, 4102.43589709, 4104.61538434, 4124.35897408, 4121.79487152, 4122.94871767, 4129.61538434, 4198.33333320,8.57
4119.87179460, 4119.87179460, 4118.84615357, 4120.51282024, 4121.02564075, 4108.20512793, 4088.20512786, 4093.33333299, 4093.33333299, 4126.15384588, 4127.69230742, 4125.89743562, 4129.74358947, 4197.05128192,8.57
4125.12820485, 4122.43589716, 4121.79487152, 4123.33333306, 4123.20512793, 4103.84615357, 4080.12820478, 4088.84615350, 4092.17948684, 4126.02564075, 4130.25640998, 4125.64102537, 4129.23076896, 4198.58974345,8.57
4123.46153819, 4123.97435870, 4123.46153819, 4123.33333306, 4122.94871767, 4102.30769196, 4072.69230735, 4086.15384581, 4091.92307658, 4125.76923050, 4127.56410229, 4125.64102537, 4131.53846126, 4198.07692294,8.57
4115.25640998, 4120.89743562, 4116.28205101, 4117.56410229, 4120.89743562, 4097.56410222, 4068.97435856, 4081.92307658, 4084.48717914, 4128.07692280, 4125.76923050, 4118.84615357, 4128.58974332, 4194.10256397,8.57
4128.07692280, 4127.30769203, 4125.51282024, 4121.92307665, 4124.23076896, 4090.12820478, 4064.74358933, 4075.64102530, 4080.25640991, 4126.53846126, 4123.58974332, 4120.38461511, 4127.69230742, 4195.64102551,8.57
4122.94871767, 4122.94871767, 4122.30769203, 4122.43589716, 4120.25640998, 4085.89743555, 4060.51282010, 4073.20512786, 4081.79487145, 4124.74358947, 4121.41025614, 4122.56410229, 4131.53846126, 4193.84615371,8.57
4122.43589716, 4120.38461511, 4121.02564075, 4120.89743562, 4117.94871767, 4086.02564068, 4064.48717907, 4077.94871761, 4086.28205094, 4125.25640998, 4125.25640998, 4119.87179460, 4128.33333306, 4193.71794858,8.57
4122.17948691, 4121.79487152, 4122.56410229, 4122.43589716, 4118.84615357, 4090.38461504, 4070.76923043, 4083.07692273, 4089.74358940, 4125.89743562, 4128.97435870, 4123.33333306, 4124.10256383, 4196.41025628,8.57
4112.69230742, 4119.99999973, 4115.89743562, 4121.28205101, 4120.51282024, 4092.05128171, 4069.10256369, 4082.30769196, 4087.69230735, 4126.53846126, 4124.74358947, 4117.82051255, 4124.61538434, 4195.38461525,8.57
4123.20512793, 4123.46153819, 4123.33333306, 4123.71794844, 4125.25640998, 4086.79487145, 4062.17948677, 4071.66666632, 4078.71794837, 4126.66666639, 4121.79487152, 4117.69230742, 4129.23076896, 4195.76923063,8.57
4119.48717921, 4119.99999973, 4119.10256383, 4120.38461511, 4121.02564075, 4081.92307658, 4056.92307651, 4057.56410215, 4064.10256369, 4126.28205101, 4122.30769203, 4122.69230742, 4129.10256383, 4195.12820499,8.57
4119.61538434, 4121.66666639, 4120.64102537, 4118.97435870, 4121.66666639, 4081.28205094, 4053.46153805, 4052.69230728, 4055.76923036, 4127.94871767, 4122.05128178, 4117.05128178, 4127.17948691, 4196.28205115,8.57
4124.61538434, 4124.74358947, 4128.58974332, 4122.94871767, 4123.46153819, 4083.97435863, 4054.61538420, 4057.56410215, 4062.30769189, 4127.05128178, 4124.61538434, 4118.71794844, 4131.15384588, 4196.53846140,8.57
4117.17948691, 4119.99999973, 4119.35897408, 4121.02564075, 4119.10256383, 4086.15384581, 4061.02564061, 4064.35897395, 4072.94871761, 4121.79487152, 4126.41025614, 4118.71794844, 4129.61538434, 4193.46153833,8.57
4126.66666639, 4124.48717921, 4123.33333306, 4121.92307665, 4124.48717921, 4087.82051248, 4062.43589702, 4066.41025600, 4070.64102530, 4123.46153819, 4126.41025614, 4119.48717921, 4126.28205101, 4196.41025628,8.57
4121.66666639, 4125.38461511, 4122.56410229, 4120.64102537, 4123.84615357, 4086.41025607, 4058.20512779, 4065.12820472, 4068.71794830, 4127.82051255, 4126.02564075, 4124.35897408, 4128.97435870, 4197.94871781,8.57
4120.76923050, 4126.15384588, 4119.35897408, 4120.12820485, 4119.48717921, 4081.02564068, 4055.25640984, 4064.35897395, 4071.28205094, 4124.61538434, 4124.74358947, 4120.38461511, 4128.07692280, 4196.28205115,8.57
4129.48717921, 4127.69230742, 4124.35897408, 4123.71794844, 4120.38461511, 4080.25640991, 4052.05128164, 4065.12820472, 4068.58974318, 4123.46153819, 4127.56410229, 4122.30769203, 4128.58974332, 4199.61538448,8.57
4118.97435870, 4121.02564075, 4117.56410229, 4120.12820485, 4118.84615357, 4083.97435863, 4054.10256369, 4065.51282010, 4069.61538420, 4127.69230742, 4127.94871767, 4122.17948691, 4130.25640998, 4198.07692294,8.57
4126.66666639, 4126.92307665, 4123.71794844, 4122.05128178, 4119.23076896, 4084.99999966, 4062.17948677, 4066.28205087, 4074.10256376, 4127.30769203, 4124.35897408, 4122.05128178, 4130.89743562, 4195.89743576,8.57
4124.99999973, 4126.53846126, 4124.48717921, 4122.30769203, 4116.92307665, 4084.48717914, 4061.15384574, 4068.46153805, 4074.99999966, 4124.61538434, 4126.15384588, 4127.56410229, 4132.30769203, 4197.69230756,8.57
4119.61538434, 4121.41025614, 4117.82051255, 4118.97435870, 4120.76923050, 4083.20512786, 4053.33333292, 4069.87179453, 4079.35897402, 4124.61538434, 4126.79487152, 4122.30769203, 4130.89743562, 4198.84615371,8.57
4127.56410229, 4124.74358947, 4124.61538434, 4123.33333306, 4126.92307665, 4082.56410222, 4054.61538420, 4067.69230728, 4080.89743555, 4126.15384588, 4124.48717921, 4122.43589716, 4131.28205101, 4198.46153833,8.57
4119.10256383, 4120.25640998, 4121.92307665, 4122.30769203, 4122.17948691, 4086.53846119, 4058.07692266, 4063.20512779, 4069.48717907, 4128.84615357, 4122.30769203, 4123.33333306, 4130.12820485, 4194.48717935,8.57
4124.74358947, 4122.43589716, 4123.33333306, 4121.92307665, 4123.46153819, 4089.87179453, 4055.89743548, 4054.35897395, 4055.38461497, 4128.07692280, 4122.05128178, 4121.41025614, 4128.07692280, 4194.99999986,8.57
4121.66666639, 4123.46153819, 4120.76923050, 4122.82051255, 4123.84615357, 4086.92307658, 4053.84615343, 4047.82051241, 4059.48717907, 4126.02564075, 4126.41025614, 4123.97435870, 4131.53846126, 4197.17948704,8.57
4113.33333306, 4122.05128178, 4116.66666639, 4120.64102537, 4121.02564075, 4082.30769196, 4054.61538420, 4051.15384574, 4069.48717907, 4125.76923050, 4127.82051255, 4118.20512793, 4129.74358947, 4195.25641012,8.57
4126.53846126, 4127.30769203, 4128.20512793, 4121.28205101, 4123.58974332, 4081.28205094, 4055.89743548, 4059.48717907, 4065.64102523, 4125.76923050, 4125.25640998, 4120.25640998, 4126.66666639, 4194.23076910,8.57
4122.17948691, 4123.71794844, 4123.71794844, 4118.58974332, 4122.30769203, 4083.71794837, 4058.20512779, 4061.53846113, 4060.25640984, 4126.66666639, 4122.94871767, 4122.43589716, 4130.12820485, 4193.58974345,8.57
4122.30769203, 4123.20512793, 4124.23076896, 4122.17948691, 4125.64102537, 4080.51282017, 4056.66666625, 4055.76923036, 4059.74358933, 4127.05128178, 4123.71794844, 4116.66666639, 4132.17948691, 4195.76923063,8.57
4120.38461511, 4124.48717921, 4127.17948691, 4123.84615357, 4123.71794844, 4069.74358940, 4050.38461497, 4056.53846113, 4063.20512779, 4126.02564075, 4127.05128178, 4123.58974332, 4129.23076896, 4195.64102551,8.57
4114.35897408, 4122.43589716, 4119.61538434, 4118.97435870, 4117.69230742, 4072.94871761, 4056.66666625, 4071.28205094, 4072.05128171, 4124.87179460, 4125.64102537, 4125.89743562, 4127.69230742, 4194.61538448,8.57
4127.17948691, 4125.89743562, 4124.87179460, 4123.33333306, 4121.41025614, 4082.43589709, 4065.12820472, 4080.38461504, 4079.74358940, 4126.66666639, 4124.23076896, 4122.05128178, 4131.92307665, 4199.74358961,8.57
4119.48717921, 4121.53846126, 4121.41025614, 4123.07692280, 4120.51282024, 4078.20512786, 4060.12820472, 4077.69230735, 4083.71794837, 4127.69230742, 4126.02564075, 4122.05128178, 4131.92307665, 4199.35897422,8.57
4122.43589716, 4122.82051255, 4122.82051255, 4121.41025614, 4120.64102537, 4072.43589709, 4061.66666625, 4076.02564068, 4084.10256376, 4125.51282024, 4125.89743562, 4123.07692280, 4129.48717921, 4197.94871781,8.57
4128.07692280, 4124.48717921, 4123.84615357, 4124.10256383, 4121.92307665, 4076.92307658, 4068.33333292, 4077.69230735, 4077.43589709, 4124.74358947, 4125.64102537, 4127.17948691, 4132.56410229, 4199.35897422,8.57
4117.17948691, 4118.33333306, 4112.05128178, 4120.51282024, 4119.74358947, 4081.53846119, 4062.17948677, 4069.48717907, 4063.58974318, 4126.79487152, 4124.35897408, 4119.99999973, 4130.12820485, 4197.30769217,8.57
4127.43589716, 4124.61538434, 4124.61538434, 4121.92307665, 4123.71794844, 4077.82051248, 4052.05128164, 4056.92307651, 4056.92307651, 4127.94871767, 4124.61538434, 4119.35897408, 4129.61538434, 4197.30769217,8.57
4122.05128178, 4123.07692280, 4126.28205101, 4123.20512793, 4122.82051255, 4073.07692273, 4047.82051241, 4053.71794830, 4058.58974318, 4127.56410229, 4126.79487152, 4127.82051255, 4132.17948691, 4196.92307679,8.57
4117.82051255, 4121.02564075, 4115.64102537, 4121.41025614, 4120.89743562, 4065.76923036, 4042.30769189, 4052.17948677, 4057.05128164, 4126.28205101, 4124.74358947, 4120.76923050, 4127.82051255, 4199.74358961,8.57
4124.23076896, 4124.48717921, 4119.74358947, 4122.30769203, 4120.89743562, 4062.05128164, 4043.84615343, 4053.97435856, 4061.53846113, 4124.87179460, 4123.71794844, 4117.82051255, 4127.43589716, 4201.53846147,8.57
4112.56410229, 4120.38461511, 4119.23076896, 4120.25640998, 4120.64102537, 4074.61538427, 4057.94871754, 4067.82051241, 4077.43589709, 4124.87179460, 4125.12820485, 4119.48717921, 4129.74358947, 4195.51282038,8.57
4120.64102537, 4124.48717921, 4123.20512793, 4123.07692280, 4126.41025614, 4083.58974325, 4065.12820472, 4076.92307658, 4082.56410222, 4125.89743562, 4125.12820485, 4120.89743562, 4129.87179460, 4195.38461525,8.57
4121.28205101, 4122.05128178, 4118.84615357, 4122.43589716, 4121.02564075, 4076.41025607, 4059.87179446, 4069.48717907, 4071.41025607, 4126.53846126, 4124.99999973, 4121.92307665, 4129.61538434, 4197.05128192,8.57
4116.53846126, 4119.61538434, 4118.20512793, 4118.07692280, 4117.94871767, 4071.92307658, 4054.74358933, 4064.48717907, 4066.41025600, 4128.20512793, 4123.84615357, 4117.05128178, 4127.43589716, 4195.38461525,8.57
4123.20512793, 4126.02564075, 4125.38461511, 4119.48717921, 4124.35897408, 4079.74358940, 4058.33333292, 4068.20512779, 4068.58974318, 4129.87179460, 4126.15384588, 4123.20512793, 4129.99999973, 4194.74358961,8.57
4116.15384588, 4122.82051255, 4115.89743562, 4119.48717921, 4121.79487152, 4078.97435863, 4061.79487138, 4066.53846113, 4066.28205087, 4127.05128178, 4128.58974332, 4123.07692280, 4130.64102537, 4193.84615371,8.57
4123.58974332, 4123.46153819, 4123.46153819, 4123.84615357, 4123.71794844, 4073.97435863, 4063.07692266, 4069.23076882, 4069.99999966, 4123.84615357, 4125.76923050, 4117.43589716, 4129.74358947, 4198.84615371,8.57
4119.74358947, 4123.07692280, 4126.79487152, 4123.58974332, 4123.58974332, 4079.23076889, 4066.15384574, 4082.94871761, 4083.84615350, 4126.41025614, 4123.20512793, 4123.71794844, 4133.58974332, 4201.28205122,8.57
4114.23076896, 4123.20512793, 4117.05128178, 4119.87179460, 4119.74358947, 4077.69230735, 4063.84615343, 4088.33333299, 4088.07692273, 4128.20512793, 4123.33333306, 4123.20512793, 4132.43589716, 4198.71794858,8.57
4127.05128178, 4127.05128178, 4123.58974332, 4125.51282024, 4123.97435870, 4067.56410215, 4054.48717907, 4073.33333299, 4072.82051248, 4126.15384588, 4124.61538434, 4124.23076896, 4131.92307665, 4198.58974345,8.57
4116.66666639, 4118.71794844, 4117.43589716, 4122.05128178, 4124.48717921, 4067.69230728, 4050.12820472, 4060.51282010, 4062.30769189, 4124.61538434, 4121.92307665, 4125.51282024, 4132.05128178, 4194.74358961,8.57
4121.66666639, 4122.69230742, 4118.58974332, 4118.46153819, 4122.69230742, 4071.79487145, 4053.46153805, 4064.10256369, 4070.25640991, 4125.12820485, 4121.15384588, 4123.71794844, 4128.97435870, 4195.25641012,8.57
4127.69230742, 4126.92307665, 4123.84615357, 4121.41025614, 4119.74358947, 4072.94871761, 4055.89743548, 4070.76923043, 4074.23076889, 4127.94871767, 4124.61538434, 4127.43589716, 4132.43589716, 4197.56410243,8.57
4117.17948691, 4118.71794844, 4117.17948691, 4121.15384588, 4120.64102537, 4074.99999966, 4054.74358933, 4061.66666625, 4061.02564061, 4128.84615357, 4121.28205101, 4121.79487152, 4132.82051255, 4193.97435884,8.57
4123.46153819, 4124.61538434, 4123.33333306, 4121.41025614, 4127.94871767, 4072.30769196, 4048.20512779, 4048.97435856, 4048.97435856, 4127.43589716, 4117.43589716, 4122.17948691, 4130.38461511, 4196.28205115,8.57
4116.92307665, 4124.87179460, 4118.97435870, 4118.46153819, 4124.74358947, 4068.46153805, 4044.87179446, 4055.89743548, 4055.12820472, 4126.15384588, 4118.20512793, 4124.99999973, 4129.35897408, 4198.20512807,8.57
4118.71794844, 4121.28205101, 4117.43589716, 4122.17948691, 4122.94871767, 4071.66666632, 4051.02564061, 4064.74358933, 4059.61538420, 4127.05128178, 4118.07692280, 4119.61538434, 4128.07692280, 4197.56410243,8.57
4125.25640998, 4123.97435870, 4122.69230742, 4127.56410229, 4124.48717921, 4075.51282017, 4056.92307651, 4058.33333292, 4055.38461497, 4128.07692280, 4119.23076896, 4122.30769203, 4129.99999973, 4197.82051269,8.57
4115.38461511, 4122.69230742, 4115.64102537, 4120.12820485, 4121.92307665, 4075.89743555, 4059.23076882, 4059.61538420, 4058.71794830, 4125.12820485, 4121.41025614, 4119.61538434, 4129.23076896, 4196.53846140,8.57
4124.48717921, 4123.97435870, 4123.58974332, 4117.94871767, 4124.99999973, 4072.05128171, 4056.66666625, 4065.38461497, 4057.43589702, 4124.23076896, 4123.58974332, 4119.35897408, 4130.38461511, 4198.71794858,8.57
4125.25640998, 4122.05128178, 4123.71794844, 4120.12820485, 4121.92307665, 4066.66666625, 4047.43589702, 4054.74358933, 4047.43589702, 4126.92307665, 4124.23076896, 4123.58974332, 4130.64102537, 4197.56410243,8.57
4123.58974332, 4124.35897408, 4121.41025614, 4123.20512793, 4121.41025614, 4063.33333292, 4037.56410215, 4044.10256369, 4043.46153805, 4127.30769203, 4122.82051255, 4119.87179460, 4125.89743562, 4194.35897422,8.57
4126.28205101, 4125.64102537, 4124.99999973, 4123.58974332, 4123.71794844, 4064.35897395, 4038.33333292, 4050.51282010, 4049.74358933, 4126.41025614, 4123.97435870, 4124.10256383, 4125.64102537, 4195.38461525,8.57
4116.79487152, 4118.97435870, 4117.05128178, 4118.20512793, 4120.76923050, 4071.41025607, 4048.84615343, 4057.05128164, 4057.56410215, 4126.41025614, 4123.71794844, 4124.87179460, 4128.07692280, 4196.79487166,8.57
4125.51282024, 4125.51282024, 4124.48717921, 4123.71794844, 4125.51282024, 4071.66666632, 4052.17948677, 4054.23076882, 4057.82051241, 4127.30769203, 4123.33333306, 4123.33333306, 4130.89743562, 4197.43589730,8.57
4121.79487152, 4124.48717921, 4124.87179460, 4123.33333306, 4123.97435870, 4065.25640984, 4044.74358933, 4051.28205087, 4054.61538420, 4125.64102537, 4122.69230742, 4126.15384588, 4130.12820485, 4195.76923063,8.57
4117.82051255, 4119.87179460, 4120.25640998, 4117.43589716, 4120.76923050, 4069.99999966, 4046.79487138, 4052.43589702, 4057.30769189, 4123.46153819, 4119.23076896, 4121.92307665, 4126.66666639, 4197.43589730,8.57
4127.05128178, 4122.56410229, 4125.51282024, 4122.69230742, 4123.46153819, 4076.92307658, 4054.23076882, 4052.56410215, 4061.79487138, 4126.02564075, 4120.25640998, 4126.53846126, 4129.23076896, 4200.51282038,8.57
4118.07692280, 4118.20512793, 4117.56410229, 4123.20512793, 4120.64102537, 4076.15384581, 4053.84615343, 4058.07692266, 4061.66666625, 4128.07692280, 4121.92307665, 4127.56410229, 4128.58974332, 4196.92307679,8.57
4123.46153819, 4122.30769203, 4122.82051255, 4123.71794844, 4123.97435870, 4075.64102530, 4055.12820472, 4064.23076882, 4062.43589702, 4125.51282024, 4120.64102537, 4120.64102537, 4127.05128178, 4198.71794858,8.57
4122.17948691, 4123.58974332, 4126.15384588, 4123.84615357, 4125.25640998, 4072.05128171, 4050.64102523, 4054.74358933, 4058.71794830, 4126.02564075, 4123.46153819, 4123.58974332, 4131.79487152, 4199.87179474,8.57
4114.35897408, 4119.61538434, 4116.41025614, 4119.61538434, 4122.56410229, 4060.51282010, 4029.99999952, 4030.76923029, 4040.25640984, 4127.94871767, 4125.12820485, 4123.46153819, 4130.64102537, 4194.48717935,8.57
4123.97435870, 4124.48717921, 4122.69230742, 4121.53846126, 4124.35897408, 4058.33333292, 4023.07692259, 4020.89743541, 4024.10256362, 4127.56410229, 4123.58974332, 4124.23076896, 4128.20512793, 4196.02564089,8.57
4118.97435870, 4124.48717921, 4123.07692280, 4123.84615357, 4122.30769203, 4064.74358933, 4038.46153805, 4034.10256362, 4033.97435849, 4126.53846126, 4121.28205101, 4122.05128178, 4128.71794844, 4197.43589730,8.57
4121.41025614, 4124.61538434, 4120.38461511, 4123.97435870, 4123.84615357, 4060.25640984, 4043.20512779, 4047.05128164, 4054.23076882, 4125.51282024, 4121.53846126, 4118.07692280, 4128.71794844, 4196.28205115,8.57
4123.46153819, 4122.17948691, 4120.25640998, 4120.76923050, 4124.48717921, 4058.71794830, 4040.64102523, 4054.74358933, 4062.30769189, 4126.79487152, 4123.33333306, 4124.99999973, 4131.15384588, 4196.02564089,8.57
4121.53846126, 4119.23076896, 4120.51282024, 4119.74358947, 4122.05128178, 4068.46153805, 4050.38461497, 4063.07692266, 4062.56410215, 4127.69230742, 4122.05128178, 4120.64102537, 4127.82051255, 4193.97435884,8.57
4129.48717921, 4123.20512793, 4127.94871767, 4126.28205101, 4124.61538434, 4072.56410222, 4055.76923036, 4066.66666625, 4064.23076882, 4126.15384588, 4121.15384588, 4118.07692280, 4125.38461511, 4194.35897422,8.57
4121.66666639, 4122.30769203, 4121.92307665, 4126.92307665, 4124.61538434, 4071.15384581, 4051.66666625, 4066.66666625, 4068.20512779, 4126.92307665, 4120.76923050, 4125.76923050, 4128.84615357, 4195.76923063,8.57
4121.28205101, 4124.10256383, 4121.02564075, 4124.23076896, 4125.51282024, 4077.17948684, 4059.74358933, 4073.07692273, 4074.48717914, 4128.58974332, 4118.97435870, 4122.56410229, 4128.58974332, 4196.53846140,8.57
4122.82051255, 4126.02564075, 4126.92307665, 4124.10256383, 4121.92307665, 4088.97435863, 4073.71794837, 4084.10256376, 4079.87179453, 4127.17948691, 4120.76923050, 4121.41025614, 4127.43589716, 4196.02564089,8.57
4119.23076896, 4122.17948691, 4123.20512793, 4123.07692280, 4119.48717921, 4089.48717914, 4070.38461504, 4083.97435863, 4073.33333299, 4124.99999973, 4123.46153819, 4123.46153819, 4127.43589716, 4195.76923063,8.57
4124.10256383, 4120.89743562, 4121.92307665, 4120.51282024, 4125.76923050, 4077.43589709, 4056.41025600, 4072.05128171, 4060.64102523, 4125.64102537, 4124.23076896, 4123.58974332, 4128.71794844, 4198.33333320,8.57
4120.89743562, 4120.64102537, 4119.99999973, 4118.84615357, 4123.71794844, 4080.12820478, 4059.23076882, 4069.61538420, 4060.51282010, 4125.51282024, 4122.43589716, 4124.48717921, 4130.76923050, 4199.61538448,8.57
4123.71794844, 4124.23076896, 4122.05128178, 4120.51282024, 4121.79487152, 4092.94871761, 4072.94871761, 4077.56410222, 4064.87179446, 4123.71794844, 4118.71794844, 4121.92307665, 4130.76923050, 4198.71794858,8.57
4123.71794844, 4122.94871767, 4122.17948691, 4120.38461511, 4123.07692280, 4088.58974325, 4070.76923043, 4076.28205094, 4065.89743548, 4123.97435870, 4119.87179460, 4125.12820485, 4130.38461511, 4197.30769217,8.57
4118.58974332, 4120.12820485, 4119.48717921, 4120.89743562, 4122.82051255, 4085.51282017, 4063.71794830, 4070.25640991, 4069.87179453, 4129.23076896, 4123.97435870, 4125.64102537, 4128.20512793, 4197.69230756,8.57
4121.28205101, 4122.94871767, 4123.33333306, 4122.05128178, 4125.38461511, 4094.87179453, 4065.51282010, 4068.71794830, 4065.64102523, 4129.74358947, 4122.94871767, 4117.82051255, 4127.17948691, 4198.58974345,8.57
4118.97435870, 4122.30769203, 4123.58974332, 4122.17948691, 4122.17948691, 4091.28205094, 4060.76923036, 4061.79487138, 4055.76923036, 4125.89743562, 4120.64102537, 4120.38461511, 4128.84615357, 4196.79487166,8.57
4121.92307665, 4122.82051255, 4122.43589716, 4123.84615357, 4122.05128178, 4076.15384581, 4049.23076882, 4048.20512779, 4051.41025600, 4128.97435870, 4119.35897408, 4120.51282024, 4126.66666639, 4195.76923063,8.57
4123.33333306, 4121.15384588, 4122.17948691, 4120.64102537, 4122.69230742, 4076.53846119, 4050.51282010, 4052.56410215, 4056.79487138, 4131.28205101, 4119.61538434, 4121.28205101, 4127.17948691, 4197.43589730,8.57
4121.41025614, 4118.33333306, 4122.94871767, 4119.48717921, 4122.56410229, 4086.02564068, 4059.87179446, 4069.10256369, 4066.53846113, 4125.64102537, 4120.51282024, 4122.94871767, 4129.87179460, 4197.94871781,8.57
4120.64102537, 4118.97435870, 4123.07692280, 4120.38461511, 4126.66666639, 4086.66666632, 4063.46153805, 4070.51282017, 4067.94871754, 4123.58974332, 4119.48717921, 4115.51282024, 4126.41025614, 4197.17948704,8.57
4114.74358947, 4117.82051255, 4124.10256383, 4120.64102537, 4121.15384588, 4088.20512786, 4066.41025600, 4071.02564068, 4067.69230728, 4128.20512793, 4119.23076896, 4124.10256383, 4127.30769203, 4197.30769217,8.57
4121.15384588, 4120.64102537, 4127.69230742, 4123.46153819, 4119.61538434, 4092.94871761, 4068.58974318, 4078.71794837, 4067.69230728, 4127.30769203, 4118.33333306, 4127.43589716, 4129.48717921, 4195.51282038,8.57
4123.46153819, 4119.23076896, 4124.74358947, 4120.12820485, 4125.89743562, 4092.69230735, 4066.15384574, 4078.07692273, 4068.20512779, 4127.05128178, 4121.15384588, 4119.10256383, 4127.56410229, 4197.94871781,8.57
4121.28205101, 4120.64102537, 4124.10256383, 4119.10256383, 4123.46153819, 4093.33333299, 4069.35897395, 4079.87179453, 4076.66666632, 4130.12820485, 4126.02564075, 4124.10256383, 4127.17948691, 4200.89743576,8.57
4125.89743562, 4126.15384588, 4125.25640998, 4120.51282024, 4122.17948691, 4099.10256376, 4080.64102530, 4090.12820478, 4085.38461504, 4127.17948691, 4120.38461511, 4122.30769203, 4128.58974332, 4194.61538448,8.57
4120.25640998, 4121.66666639, 4120.89743562, 4119.23076896, 4121.53846126, 4099.35897402, 4082.69230735, 4089.74358940, 4084.48717914, 4125.38461511, 4118.33333306, 4122.05128178, 4129.74358947, 4195.12820499,8.57
4121.15384588, 4123.71794844, 4122.05128178, 4122.56410229, 4121.66666639, 4092.30769196, 4071.66666632, 4078.20512786, 4074.74358940, 4128.97435870, 4123.07692280, 4127.43589716, 4127.94871767, 4198.97435884,8.57
4124.23076896, 4123.84615357, 4122.43589716, 4122.94871767, 4124.99999973, 4095.76923043, 4074.35897402, 4080.12820478, 4071.41025607, 4130.12820485, 4122.17948691, 4126.02564075, 4125.89743562, 4198.07692294,8.57
4121.79487152, 4120.51282024, 4122.94871767, 4121.53846126, 4124.61538434, 4104.48717921, 4087.69230735, 4093.84615350, 4081.28205094, 4127.05128178, 4121.41025614, 4125.89743562, 4127.69230742, 4198.71794858,8.57
4122.17948691, 4124.99999973, 4125.64102537, 4119.61538434, 4123.58974332, 4102.30769196, 4087.94871761, 4096.28205094, 4088.71794837, 4126.28205101, 4120.51282024, 4120.25640998, 4127.43589716, 4195.51282038,8.57
4116.92307665, 4122.94871767, 4121.41025614, 4117.43589716, 4120.76923050, 4095.38461504, 4076.79487145, 4083.33333299, 4078.71794837, 4126.28205101, 4117.56410229, 4122.05128178, 4128.84615357, 4195.38461525,8.57
4118.58974332, 4121.41025614, 4120.64102537, 4121.92307665, 4122.94871767, 4090.89743555, 4070.64102530, 4071.02564068, 4067.43589702, 4124.10256383, 4118.33333306, 4124.10256383, 4131.41025614, 4197.69230756,8.57
4120.51282024, 4122.43589716, 4121.53846126, 4121.15384588, 4124.87179460, 4088.20512786, 4072.30769196, 4072.17948684, 4071.15384581, 4124.74358947, 4121.66666639, 4116.53846126, 4129.87179460, 4196.53846140,8.57
4117.43589716, 4122.82051255, 4120.76923050, 4118.58974332, 4118.97435870, 4082.94871761, 4068.71794830, 4071.28205094, 4068.71794830, 4123.84615357, 4119.48717921, 4124.35897408, 4128.07692280, 4197.56410243,8.57
4118.71794844, 4124.61538434, 4120.64102537, 4121.02564075, 4121.41025614, 4076.66666632, 4058.58974318, 4063.46153805, 4057.69230728, 4123.71794844, 4114.35897408, 4121.92307665, 4127.56410229, 4196.53846140,8.57
4117.30769203, 4122.56410229, 4121.66666639, 4121.02564075, 4124.87179460, 4080.25640991, 4057.94871754, 4069.10256369, 4064.48717907, 4127.43589716, 4117.94871767, 4116.15384588, 4129.99999973, 4194.10256397,8.57
4122.43589716, 4123.71794844, 4127.56410229, 4121.41025614, 4121.66666639, 4085.76923043, 4062.94871754, 4076.53846119, 4072.56410222, 4128.20512793, 4120.25640998, 4121.53846126, 4130.64102537, 4193.46153833,8.57
4123.84615357, 4124.74358947, 4125.89743562, 4119.87179460, 4125.25640998, 4081.53846119, 4061.53846113, 4072.43589709, 4066.15384574, 4126.28205101, 4116.79487152, 4115.76923050, 4127.17948691, 4193.33333320,8.57
4118.58974332, 4121.92307665, 4121.92307665, 4120.64102537, 4126.15384588, 4081.41025607, 4063.71794830, 4074.87179453, 4070.89743555, 4126.92307665, 4119.10256383, 4120.12820485, 4128.07692280, 4197.17948704,8.57
4123.46153819, 4122.82051255, 4124.48717921, 4121.66666639, 4122.82051255, 4087.56410222, 4069.99999966, 4081.92307658, 4083.97435863, 4127.56410229, 4121.41025614, 4122.56410229, 4127.94871767, 4197.17948704,8.57
4122.94871767, 4122.56410229, 4125.76923050, 4118.84615357, 4122.43589716, 4084.48717914, 4064.23076882, 4071.02564068, 4078.07692273, 4126.41025614, 4120.89743562, 4119.10256383, 4128.33333306, 4196.79487166,8.57
4120.64102537, 4123.20512793, 4125.64102537, 4120.76923050, 4123.84615357, 4077.56410222, 4055.64102523, 4056.02564061, 4061.15384574, 4126.15384588, 4120.38461511, 4126.41025614, 4129.99999973, 4198.58974345,8.57
4122.56410229, 4124.10256383, 4120.25640998, 4121.15384588, 4124.48717921, 4079.35897402, 4056.79487138, 4057.05128164, 4057.56410215, 4124.99999973, 4119.87179460, 4124.23076896, 4128.46153819, 4196.66666653,8.57
4121.53846126, 4121.79487152, 4118.07692280, 4121.66666639, 4121.15384588, 4086.41025607, 4066.79487138, 4068.33333292, 4068.20512779, 4125.51282024, 4121.79487152, 4125.25640998, 4132.17948691, 4199.48717935,8.57
4122.82051255, 4122.05128178, 4119.99999973, 4123.33333306, 4122.82051255, 4090.38461504, 4075.51282017, 4074.87179453, 4074.74358940, 4126.92307665, 4121.92307665, 4122.94871767, 4133.58974332, 4199.99999986,8.57
4121.28205101, 4121.66666639, 4119.48717921, 4120.89743562, 4125.38461511, 4084.35897402, 4068.71794830, 4063.46153805, 4063.46153805, 4126.53846126, 4119.74358947, 4119.99999973, 4129.61538434, 4198.97435884,8.57
4121.79487152, 4125.38461511, 4124.10256383, 4122.82051255, 4121.92307665, 4071.15384581, 4052.69230728, 4047.43589702, 4047.30769189, 4126.79487152, 4117.17948691, 4126.53846126, 4130.25640998, 4200.25641012,8.57
4123.07692280, 4125.12820485, 4122.43589716, 4122.43589716, 4123.84615357, 4063.58974318, 4045.38461497, 4043.33333292, 4042.17948677, 4126.53846126, 4114.35897408, 4117.94871767, 4130.25640998, 4195.12820499,8.57
4123.97435870, 4120.38461511, 4121.02564075, 4121.53846126, 4123.97435870, 4068.71794830, 4047.43589702, 4046.66666625, 4046.79487138, 4125.76923050, 4116.02564075, 4118.84615357, 4132.30769203, 4194.23076910,8.57
4125.64102537, 4124.74358947, 4124.74358947, 4123.71794844, 4124.35897408, 4075.64102530, 4052.56410215, 4047.43589702, 4049.61538420, 4127.69230742, 4117.82051255, 4122.30769203, 4130.51282024, 4195.51282038,8.57
4115.51282024, 4122.05128178, 4120.12820485, 4118.71794844, 4125.25640998, 4076.66666632, 4058.97435856, 4051.28205087, 4046.92307651, 4128.33333306, 4116.15384588, 4116.41025614, 4125.64102537, 4194.74358961,8.57
4116.02564075, 4123.07692280, 4120.89743562, 4118.20512793, 4122.94871767, 4077.94871761, 4062.30769189, 4064.35897395, 4052.82051241, 4125.76923050, 4116.79487152, 4122.05128178, 4127.82051255, 4194.23076910,8.57
4120.51282024, 4128.20512793, 4122.30769203, 4118.58974332, 4125.12820485, 4074.35897402, 4057.30769189, 4069.48717907, 4064.35897395, 4124.87179460, 4118.46153819, 4117.94871767, 4127.56410229, 4191.15384602,8.57
4118.46153819, 4123.07692280, 4124.35897408, 4118.33333306, 4123.20512793, 4067.94871754, 4048.46153805, 4058.46153805, 4059.87179446, 4125.89743562, 4120.38461511, 4119.10256383, 4127.69230742, 4194.23076910,8.57
4124.61538434, 4122.94871767, 4127.56410229, 4123.84615357, 4122.17948691, 4073.33333299, 4053.46153805, 4050.25640984, 4045.38461497, 4127.82051255, 4119.23076896, 4122.56410229, 4128.84615357, 4195.76923063,8.57
4121.15384588, 4124.10256383, 4118.97435870, 4120.51282024, 4123.84615357, 4076.53846119, 4059.74358933, 4055.64102523, 4047.56410215, 4128.46153819, 4117.56410229, 4115.38461511, 4126.41025614, 4194.99999986,8.57
4123.58974332, 4126.53846126, 4123.46153819, 4120.76923050, 4120.76923050, 4063.46153805, 4046.41025600, 4052.94871754, 4056.15384574, 4126.66666639, 4122.69230742, 4124.87179460, 4131.28205101, 4199.23076910,8.57
4128.33333306, 4126.41025614, 4126.66666639, 4123.46153819, 4122.05128178, 4056.15384574, 4040.64102523, 4044.99999959, 4054.10256369, 4124.48717921, 4123.20512793, 4124.74358947, 4131.28205101, 4196.92307679,8.57
4119.61538434, 4119.61538434, 4118.46153819, 4122.56410229, 4122.30769203, 4064.99999959, 4052.82051241, 4055.12820472, 4053.71794830, 4126.41025614, 4119.23076896, 4122.94871767, 4127.30769203, 4196.02564089,8.57
4121.79487152, 4122.82051255, 4120.12820485, 4125.25640998, 4121.28205101, 4068.33333292, 4051.92307651, 4057.17948677, 4049.23076882, 4128.07692280, 4118.33333306, 4129.74358947, 4129.61538434, 4195.76923063,8.57
4121.28205101, 4123.46153819, 4117.56410229, 4119.23076896, 4122.17948691, 4064.10256369, 4042.43589702, 4040.64102523, 4036.66666618, 4127.17948691, 4118.07692280, 4123.71794844, 4129.87179460, 4195.64102551,8.57
4122.17948691, 4123.20512793, 4123.58974332, 4121.66666639, 4122.56410229, 4065.51282010, 4045.89743548, 4039.35897395, 4034.74358926, 4127.69230742, 4118.84615357, 4128.71794844, 4131.28205101, 4200.76923063,8.57
4124.61538434, 4124.87179460, 4124.74358947, 4125.64102537, 4123.71794844, 4067.82051241, 4046.41025600, 4043.07692266, 4034.99999952, 4126.53846126, 4118.33333306, 4125.38461511, 4130.25640998, 4197.43589730,8.57
4124.61538434, 4124.87179460, 4124.74358947, 4125.64102537, 4123.71794844, 4067.82051241, 4046.41025600, 4043.07692266, 4034.99999952, 4126.53846126, 4118.33333306, 4125.38461511, 4130.25640998, 4197.43589730,8.57
4117.69230742, 4120.25640998, 4114.10256383, 4118.71794844, 4119.10256383, 4068.97435856, 4044.48717907, 4036.15384567, 4031.92307644, 4125.64102537, 4119.10256383, 4120.76923050, 4127.82051255, 4198.07692294,8.57
4123.33333306, 4123.58974332, 4123.20512793, 4123.07692280, 4117.56410229, 4068.58974318, 4050.12820472, 4046.53846113, 4043.71794830, 4127.82051255, 4118.84615357, 4127.94871767, 4129.10256383, 4202.05128199,8.57
4120.51282024, 4122.17948691, 4121.66666639, 4123.20512793, 4123.58974332, 4065.38461497, 4050.76923036, 4062.17948677, 4058.33333292, 4129.23076896, 4117.30769203, 4117.94871767, 4126.79487152, 4195.64102551,8.57
4115.76923050, 4118.97435870, 4117.69230742, 4120.76923050, 4121.28205101, 4069.74358940, 4049.87179446, 4059.35897395, 4057.56410215, 4127.43589716, 4118.46153819, 4119.74358947, 4128.58974332, 4196.92307679,8.57
4123.97435870, 4124.61538434, 4122.69230742, 4123.07692280, 4119.74358947, 4074.35897402, 4054.87179446, 4061.53846113, 4060.51282010, 4125.64102537, 4116.66666639, 4121.79487152, 4130.64102537, 4199.23076910,8.57
4119.99999973, 4123.58974332, 4119.48717921, 4120.64102537, 4120.25640998, 4070.64102530, 4054.48717907, 4067.82051241, 4071.41025607, 4126.28205101, 4116.15384588, 4117.17948691, 4129.87179460, 4196.15384602,8.57
4120.64102537, 4124.99999973, 4124.87179460, 4124.23076896, 4118.20512793, 4065.12820472, 4050.51282010, 4061.15384574, 4067.82051241, 4126.79487152, 4118.97435870, 4125.64102537, 4129.35897408, 4193.84615371,8.57
4121.15384588, 4124.23076896, 4124.48717921, 4121.41025614, 4120.89743562, 4069.48717907, 4054.74358933, 4057.56410215, 4053.46153805, 4126.02564075, 4117.94871767, 4117.56410229, 4127.05128178, 4189.61538448,8.57
4118.07692280, 4122.56410229, 4123.20512793, 4119.10256383, 4120.51282024, 4081.92307658, 4063.84615343, 4058.46153805, 4046.92307651, 4124.87179460, 4117.43589716, 4118.58974332, 4128.71794844, 4194.48717935,8.57
4123.20512793, 4125.76923050, 4124.99999973, 4125.76923050, 4121.15384588, 4081.41025607, 4065.38461497, 4058.84615343, 4052.17948677, 4124.23076896, 4118.33333306, 4125.64102537, 4130.12820485, 4198.07692294,8.57
4121.79487152, 4119.23076896, 4120.64102537, 4123.58974332, 4124.35897408, 4068.58974318, 4061.66666625, 4068.33333292, 4063.84615343, 4125.64102537, 4117.17948691, 4120.64102537, 4130.12820485, 4195.76923063,8.57
4123.20512793, 4119.99999973, 4127.69230742, 4125.12820485, 4123.33333306, 4066.79487138, 4061.79487138, 4073.07692273, 4064.23076882, 4126.79487152, 4117.05128178, 4124.74358947, 4132.05128178, 4197.94871781,8.57
4122.94871767, 4124.23076896, 4126.02564075, 4123.84615357, 4124.23076896, 4072.30769196, 4060.76923036, 4063.46153805, 4053.84615343, 4125.89743562, 4117.05128178, 4118.71794844, 4129.23076896, 4199.10256397,8.57
4121.28205101, 4120.76923050, 4121.66666639, 4119.23076896, 4123.46153819, 4068.84615343, 4059.61538420, 4061.02564061, 4055.38461497, 4127.17948691, 4118.07692280, 4122.82051255, 4129.10256383, 4199.87179474,8.57
4126.15384588, 4124.99999973, 4125.51282024, 4123.58974332, 4123.33333306, 4066.92307651, 4061.79487138, 4064.23076882, 4063.58974318, 4128.71794844, 4118.97435870, 4126.28205101, 4126.92307665, 4196.41025628,8.57
4122.05128178, 4125.38461511, 4121.41025614, 4119.87179460, 4123.46153819, 4070.89743555, 4059.23076882, 4060.25640984, 4063.20512779, 4126.79487152, 4117.69230742, 4117.94871767, 4124.87179460, 4195.89743576,8.57
4122.94871767, 4125.38461511, 4121.66666639, 4118.84615357, 4121.41025614, 4071.02564068, 4054.87179446, 4061.66666625, 4066.41025600, 4125.38461511, 4117.69230742, 4127.05128178, 4131.53846126, 4200.25641012,8.57
4123.97435870, 4125.76923050, 4121.15384588, 4120.64102537, 4123.20512793, 4076.79487145, 4060.12820472, 4072.56410222, 4068.71794830, 4127.05128178, 4116.15384588, 4120.64102537, 4128.97435870, 4197.43589730,8.57
4117.56410229, 4121.53846126, 4118.58974332, 4119.23076896, 4122.43589716, 4083.33333299, 4065.25640984, 4074.74358940, 4059.61538420, 4127.43589716, 4116.66666639, 4117.69230742, 4125.89743562, 4199.23076910,8.57
4120.25640998, 4123.71794844, 4120.89743562, 4119.87179460, 4122.69230742, 4074.10256376, 4058.58974318, 4066.15384574, 4055.38461497, 4125.25640998, 4118.46153819, 4122.17948691, 4129.61538434, 4199.23076910,8.57
4124.48717921, 4122.94871767, 4119.48717921, 4116.79487152, 4124.99999973, 4067.30769189, 4052.82051241, 4065.51282010, 4063.71794830, 4125.76923050, 4118.33333306, 4112.30769203, 4127.05128178, 4195.25641012,8.57
4125.12820485, 4120.38461511, 4121.79487152, 4121.53846126, 4123.46153819, 4072.94871761, 4054.35897395, 4070.51282017, 4070.12820478, 4128.33333306, 4121.92307665, 4119.10256383, 4126.92307665, 4197.17948704,8.57
4122.30769203, 4122.17948691, 4123.07692280, 4123.46153819, 4124.23076896, 4075.38461504, 4061.02564061, 4068.97435856, 4068.33333292, 4127.05128178, 4122.82051255, 4118.07692280, 4127.69230742, 4194.99999986,8.57
4119.74358947, 4124.48717921, 4121.92307665, 4118.46153819, 4122.94871767, 4074.10256376, 4063.20512779, 4068.71794830, 4067.56410215, 4126.15384588, 4122.82051255, 4116.66666639, 4127.69230742, 4194.23076910,8.57
4121.53846126, 4124.48717921, 4124.74358947, 4122.05128178, 4120.64102537, 4078.71794837, 4063.46153805, 4069.61538420, 4061.28205087, 4127.69230742, 4125.89743562, 4124.74358947, 4128.46153819, 4194.74358961,8.57
4122.82051255, 4120.89743562, 4125.25640998, 4122.69230742, 4124.48717921, 4089.23076889, 4076.79487145, 4069.74358940, 4055.89743548, 4127.30769203, 4124.35897408, 4116.92307665, 4127.17948691, 4192.56410243,8.57
4124.23076896, 4123.58974332, 4125.89743562, 4119.99999973, 4123.46153819, 4091.28205094, 4084.74358940, 4080.51282017, 4066.41025600, 4125.64102537, 4121.92307665, 4121.53846126, 4131.02564075, 4196.28205115,8.57
4123.33333306, 4128.20512793, 4123.71794844, 4118.33333306, 4119.99999973, 4083.97435863, 4072.82051248, 4087.30769196, 4072.17948684, 4126.28205101, 4119.35897408, 4124.23076896, 4130.51282024, 4196.28205115,8.57
4122.94871767, 4125.12820485, 4123.46153819, 4121.15384588, 4120.64102537, 4084.23076889, 4066.92307651, 4079.35897402, 4066.15384574, 4126.41025614, 4118.33333306, 4121.41025614, 4127.56410229, 4196.02564089,8.57
4122.94871767, 4123.07692280, 4123.58974332, 4124.61538434, 4121.53846126, 4087.94871761, 4076.66666632, 4082.94871761, 4075.38461504, 4125.51282024, 4119.74358947, 4124.74358947, 4130.89743562, 4197.94871781,8.57
4124.87179460, 4126.28205101, 4119.48717921, 4122.43589716, 4122.05128178, 4083.58974325, 4078.46153812, 4095.76923043, 4091.41025607, 4126.53846126, 4117.94871767, 4119.35897408, 4128.84615357, 4197.30769217,8.57
4125.38461511, 4127.56410229, 4122.05128178, 4123.46153819, 4120.89743562, 4078.71794837, 4071.66666632, 4094.10256376, 4087.82051248, 4127.69230742, 4117.94871767, 4127.05128178, 4130.89743562, 4196.53846140,8.57
4120.12820485, 4123.97435870, 4121.28205101, 4120.64102537, 4122.82051255, 4084.61538427, 4075.38461504, 4091.66666632, 4085.51282017, 4126.66666639, 4118.33333306, 4124.10256383, 4131.41025614, 4194.99999986,8.57
4120.64102537, 4121.66666639, 4121.28205101, 4119.23076896, 4123.97435870, 4094.87179453, 4087.17948684, 4105.25640998, 4097.30769196, 4125.76923050, 4117.43589716, 4117.05128178, 4127.43589716, 4200.64102551,8.57
4122.69230742, 4121.79487152, 4119.23076896, 4122.82051255, 4120.12820485, 4101.66666632, 4094.35897402, 4112.05128178, 4099.87179453, 4126.15384588, 4117.94871767, 4124.35897408, 4130.38461511, 4202.43589737,8.57
4120.25640998, 4122.17948691, 4112.82051255, 4117.82051255, 4118.84615357, 4097.05128171, 4085.89743555, 4097.43589709, 4088.58974325, 4126.92307665, 4117.30769203, 4115.38461511, 4128.20512793, 4194.99999986,8.57
4118.84615357, 4123.71794844, 4120.12820485, 4119.23076896, 4118.07692280, 4085.51282017, 4073.58974325, 4083.58974325, 4075.89743555, 4125.76923050, 4116.53846126, 4117.43589716, 4126.53846126, 4195.64102551,8.57
4117.94871767, 4122.82051255, 4121.92307665, 4122.56410229, 4121.66666639, 4084.61538427, 4077.43589709, 4085.64102530, 4072.30769196, 4124.23076896, 4112.94871767, 4120.12820485, 4127.17948691, 4195.12820499,8.57
4123.20512793, 4124.74358947, 4120.25640998, 4120.76923050, 4128.33333306, 4086.02564068, 4078.97435863, 4082.94871761, 4070.89743555, 4123.84615357, 4111.92307665, 4116.28205101, 4129.10256383, 4195.25641012,8.57
4120.51282024, 4127.94871767, 4120.51282024, 4121.92307665, 4124.61538434, 4083.97435863, 4071.66666632, 4070.12820478, 4064.74358933, 4124.87179460, 4114.35897408, 4121.66666639, 4131.15384588, 4195.38461525,8.57
4116.79487152, 4126.15384588, 4118.71794844, 4121.28205101, 4122.30769203, 4093.07692273, 4084.61538427, 4085.64102530, 4076.28205094, 4126.41025614, 4110.38461511, 4113.46153819, 4125.76923050, 4192.69230756,8.57
4123.97435870, 4125.51282024, 4126.66666639, 4123.20512793, 4122.56410229, 4108.97435870, 4108.46153819, 4118.20512793, 4110.25640998, 4127.17948691, 4113.97435870, 4120.38461511, 4129.87179460, 4196.41025628,8.57
4119.74358947, 4126.66666639, 4125.38461511, 4123.71794844, 4119.61538434, 4106.41025614, 4107.69230742, 4121.28205101, 4123.71794844, 4127.56410229, 4121.28205101, 4123.46153819, 4133.20512793, 4194.99999986,8.57
4121.92307665, 4129.87179460, 4122.82051255, 4123.58974332, 4122.17948691, 4098.46153812, 4100.51282017, 4111.15384588, 4105.76923050, 4127.56410229, 4117.17948691, 4114.48717921, 4131.41025614, 4194.35897422,8.57
4124.87179460, 4127.82051255, 4124.99999973, 4124.61538434, 4122.30769203, 4107.30769203, 4108.71794844, 4112.94871767, 4089.48717914, 4128.33333306, 4112.69230742, 4123.46153819, 4134.99999973, 4198.33333320,8.57
4121.02564075, 4124.99999973, 4121.66666639, 4122.94871767, 4120.64102537, 4102.17948684, 4101.15384581, 4102.17948684, 4083.07692273, 4128.20512793, 4112.05128178, 4120.51282024, 4130.76923050, 4195.25641012,8.57
4126.15384588, 4128.71794844, 4124.99999973, 4123.97435870, 4119.23076896, 4081.92307658, 4080.12820478, 4083.71794837, 4079.48717914, 4126.15384588, 4111.79487152, 4119.61538434, 4127.69230742, 4195.76923063,8.57
4119.48717921, 4123.58974332, 4119.10256383, 4119.48717921, 4118.97435870, 4084.48717914, 4083.97435863, 4088.07692273, 4086.02564068, 4126.15384588, 4110.64102537, 4120.25640998, 4129.48717921, 4196.53846140,8.57
4123.46153819, 4121.53846126, 4121.15384588, 4117.30769203, 4124.99999973, 4100.76923043, 4097.94871761, 4101.02564068, 4094.74358940, 4126.79487152, 4111.15384588, 4118.84615357, 4129.48717921, 4196.66666653,8.57
4126.02564075, 4123.58974332, 4126.66666639, 4118.71794844, 4123.58974332, 4103.33333306, 4090.76923043, 4098.33333299, 4092.05128171, 4126.15384588, 4115.76923050, 4128.07692280, 4130.38461511, 4198.71794858,8.57
4117.30769203, 4119.87179460, 4117.17948691, 4117.69230742, 4120.12820485, 4099.35897402, 4081.28205094, 4088.71794837, 4086.28205094, 4125.76923050, 4112.05128178, 4117.94871767, 4127.43589716, 4195.89743576,8.57
4123.46153819, 4123.58974332, 4122.30769203, 4126.53846126, 4122.17948691, 4104.10256383, 4090.76923043, 4090.76923043, 4086.92307658, 4127.69230742, 4107.56410229, 4116.92307665, 4129.99999973, 4197.94871781,8.57
4116.79487152, 4122.94871767, 4118.71794844, 4124.23076896, 4123.84615357, 4109.87179460, 4101.41025607, 4103.20512793, 4095.38461504, 4127.94871767, 4108.97435870, 4121.92307665, 4132.56410229, 4196.02564089,8.57
4118.46153819, 4122.94871767, 4117.56410229, 4115.51282024, 4125.12820485, 4111.28205101, 4102.56410229, 4106.53846126, 4103.33333306, 4126.41025614, 4110.12820485, 4114.23076896, 4128.33333306, 4191.53846140,8.57
4125.12820485, 4126.53846126, 4126.66666639, 4121.53846126, 4122.05128178, 4115.76923050, 4105.12820485, 4109.10256383, 4109.74358947, 4127.30769203, 4111.15384588, 4118.46153819, 4129.48717921, 4193.71794858,8.57
4116.02564075, 4122.69230742, 4117.05128178, 4122.30769203, 4122.82051255, 4123.71794844, 4111.79487152, 4118.33333306, 4112.56410229, 4126.79487152, 4111.28205101, 4113.84615357, 4128.20512793, 4194.48717935,8.57
4123.84615357, 4127.56410229, 4122.30769203, 4121.53846126, 4125.12820485, 4119.48717921, 4112.69230742, 4116.53846126, 4107.43589716, 4126.15384588, 4112.05128178, 4116.28205101, 4127.82051255, 4198.07692294,8.57
4122.43589716, 4127.30769203, 4123.46153819, 4119.87179460, 4117.43589716, 4113.46153819, 4114.61538434, 4118.58974332, 4114.99999973, 4127.30769203, 4112.43589716, 4121.66666639, 4130.64102537, 4193.07692294,8.57
4121.66666639, 4122.69230742, 4119.87179460, 4119.61538434, 4119.23076896, 4122.56410229, 4121.79487152, 4136.15384595, 4131.66666639, 4126.79487152, 4110.38461511, 4112.69230742, 4128.97435870, 4189.74358961,8.57
4127.43589716, 4125.38461511, 4127.69230742, 4125.38461511, 4126.15384588, 4127.30769203, 4121.02564075, 4135.12820485, 4132.94871767, 4126.28205101, 4111.15384588, 4121.53846126, 4130.89743562, 4198.84615371,8.57
4117.17948691, 4122.56410229, 4119.74358947, 4121.66666639, 4121.15384588, 4121.92307665, 4119.87179460, 4126.41025614, 4128.84615357, 4125.89743562, 4113.07692280, 4119.48717921, 4129.23076896, 4199.23076910,8.57
4124.99999973, 4125.64102537, 4124.99999973, 4121.79487152, 4120.38461511, 4126.28205101, 4129.10256383, 4143.46153826, 4142.69230749, 4125.89743562, 4115.89743562, 4117.94871767, 4128.20512793, 4197.56410243,8.57
4127.05128178, 4124.99999973, 4127.43589716, 4123.71794844, 4122.56410229, 4136.79487159, 4133.33333306, 4153.46153826, 4151.53846133, 4126.53846126, 4115.51282024, 4127.43589716, 4131.79487152, 4197.17948704,8.57
4119.10256383, 4119.23076896, 4118.97435870, 4119.87179460, 4121.92307665, 4139.87179467, 4131.53846126, 4141.79487159, 4141.02564082, 4127.94871767, 4110.51282024, 4119.48717921, 4129.10256383, 4197.94871781,8.57
4123.07692280, 4124.48717921, 4126.79487152, 4121.28205101, 4120.76923050, 4140.76923056, 4132.43589716, 4142.17948697, 4141.53846133, 4129.23076896, 4112.82051255, 4123.46153819, 4130.64102537, 4200.89743576,8.57
4117.17948691, 4124.87179460, 4120.51282024, 4117.43589716, 4121.02564075, 4140.64102544, 4135.38461518, 4145.12820492, 4144.87179467, 4127.82051255, 4114.10256383, 4120.89743562, 4131.53846126, 4196.15384602,8.57
4124.99999973, 4125.76923050, 4120.25640998, 4120.38461511, 4125.64102537, 4141.92307672, 4141.92307672, 4136.02564082, 4132.56410229, 4125.12820485, 4110.12820485, 4114.10256383, 4128.58974332, 4196.92307679,8.57
4126.79487152, 4127.43589716, 4124.74358947, 4126.41025614, 4124.74358947, 4150.76923056, 4150.76923056, 4143.07692287, 4136.53846133, 4126.02564075, 4113.07692280, 4121.92307665, 4128.71794844, 4198.58974345,8.57
4115.64102537, 4122.82051255, 4117.82051255, 4117.82051255, 4122.82051255, 4159.48717928, 4156.66666646, 4162.82051262, 4162.82051262, 4129.35897408, 4114.61538434, 4115.38461511, 4127.56410229, 4195.89743576,8.57
4123.84615357, 4122.43589716, 4121.79487152, 4120.25640998, 4124.48717921, 4163.46153826, 4162.82051262, 4168.58974345, 4170.12820499, 4130.12820485, 4114.23076896, 4118.58974332, 4130.89743562, 4198.97435884,8.57
4120.38461511, 4121.53846126, 4118.20512793, 4122.82051255, 4123.84615357, 4166.41025621, 4166.28205108, 4170.76923063, 4162.56410236, 4128.46153819, 4113.33333306, 4118.71794844, 4130.76923050, 4194.74358961,8.57
4116.02564075, 4124.23076896, 4119.99999973, 4118.33333306, 4123.84615357, 4166.66666646, 4162.43589723, 4176.41025628, 4167.56410236, 4127.30769203, 4112.69230742, 4113.58974332, 4128.33333306, 4192.82051269,8.57
4120.12820485, 4126.02564075, 4126.41025614, 4122.56410229, 4123.84615357, 4165.25641005, 4159.10256390, 4173.46153833, 4171.66666653, 4127.94871767, 4113.58974332, 4124.48717921, 4132.30769203, 4197.69230756,8.57
4115.38461511, 4119.35897408, 4118.58974332, 4122.43589716, 4125.64102537, 4168.20512807, 4160.25641005, 4168.20512807, 4164.61538441, 4127.94871767, 4108.97435870, 4116.79487152, 4129.61538434, 4194.35897422,8.57
4121.53846126, 4121.66666639, 4126.92307665, 4122.17948691, 4125.25640998, 4174.48717935, 4162.94871774, 4171.41025628, 4163.20512800, 4127.17948691, 4108.07692280, 4117.17948691, 4130.38461511, 4196.53846140,8.57
4125.25640998, 4126.66666639, 4130.89743562, 4123.07692280, 4124.10256383, 4183.58974345, 4169.87179474, 4177.82051269, 4170.89743576, 4127.82051255, 4111.92307665, 4124.23076896, 4134.87179460, 4197.69230756,8.57
4123.07692280, 4125.51282024, 4120.38461511, 4122.05128178, 4125.89743562, 4192.05128192, 4175.76923063, 4176.53846140, 4171.79487166, 4127.94871767, 4111.92307665, 4116.15384588, 4130.64102537, 4196.02564089,8.57
4123.97435870, 4125.25640998, 4123.07692280, 4124.35897408, 4121.28205101, 4194.48717935, 4175.64102551, 4176.02564089, 4172.56410243, 4127.30769203, 4111.41025614, 4126.53846126, 4130.51282024, 4200.89743576,8.57
4120.89743562, 4123.97435870, 4123.58974332, 4121.28205101, 4119.10256383, 4189.10256397, 4173.97435884, 4174.99999986, 4172.94871781, 4126.79487152, 4109.48717921, 4123.33333306, 4130.89743562, 4199.74358961,8.57
4125.25640998, 4124.74358947, 4123.58974332, 4121.15384588, 4122.69230742, 4181.66666653, 4169.23076910, 4166.79487159, 4163.84615364, 4128.71794844, 4109.35897408, 4118.84615357, 4130.64102537, 4197.94871781,8.57
4124.61538434, 4123.58974332, 4121.41025614, 4120.89743562, 4120.51282024, 4185.38461525, 4169.35897422, 4169.61538448, 4164.10256390, 4127.30769203, 4111.66666639, 4128.20512793, 4133.07692280, 4197.82051269,8.57
4119.87179460, 4121.41025614, 4116.28205101, 4115.12820485, 4120.25640998, 4196.28205115, 4180.38461525, 4187.56410243, 4180.38461525, 4123.71794844, 4111.15384588, 4120.12820485, 4130.38461511, 4197.17948704,8.57
4124.99999973, 4124.74358947, 4121.66666639, 4119.61538434, 4120.76923050, 4202.30769224, 4186.15384602, 4194.74358961, 4192.05128192, 4126.66666639, 4110.76923050, 4123.07692280, 4129.61538434, 4199.48717935,8.57
4121.41025614, 4123.97435870, 4118.46153819, 4122.17948691, 4120.38461511, 4201.79487173, 4184.48717935, 4189.87179474, 4191.28205115, 4129.35897408, 4109.99999973, 4121.53846126, 4129.61538434, 4195.51282038,8.57
4118.71794844, 4121.92307665, 4118.71794844, 4120.38461511, 4122.17948691, 4203.33333327, 4189.99999986, 4191.53846140, 4192.43589730, 4127.43589716, 4111.79487152, 4116.15384588, 4130.64102537, 4196.79487166,8.57
4119.87179460, 4122.30769203, 4122.69230742, 4123.33333306, 4121.79487152, 4204.87179481, 4194.10256397, 4195.25641012, 4195.51282038, 4126.28205101, 4114.10256383, 4122.94871767, 4129.23076896, 4201.28205122,8.57
4120.12820485, 4122.30769203, 4117.56410229, 4119.35897408, 4122.82051255, 4201.02564096, 4186.02564089, 4190.51282038, 4193.20512807, 4126.92307665, 4109.35897408, 4113.46153819, 4123.07692280, 4196.53846140,8.57
4122.94871767, 4124.74358947, 4123.07692280, 4119.48717921, 4122.69230742, 4206.53846147, 4187.56410243, 4192.94871781, 4192.05128192, 4128.20512793, 4110.51282024, 4115.25640998, 4128.71794844, 4196.41025628,8.57
4118.46153819, 4123.07692280, 4123.46153819, 4121.92307665, 4122.56410229, 4219.99999993, 4203.20512814, 4207.94871788, 4203.46153840, 4128.97435870, 4112.69230742, 4116.79487152, 4128.46153819, 4195.38461525,8.57
4122.69230742, 4120.64102537, 4122.17948691, 4121.66666639, 4124.87179460, 4219.35897429, 4207.82051275, 4214.23076917, 4218.58974352, 4128.20512793, 4109.99999973, 4113.33333306, 4123.46153819, 4193.07692294,8.57
4124.87179460, 4122.17948691, 4124.87179460, 4124.10256383, 4121.15384588, 4218.58974352, 4212.56410250, 4217.56410250, 4223.20512814, 4126.53846126, 4111.28205101, 4122.94871767, 4129.74358947, 4192.82051269,8.57
4117.94871767, 4122.56410229, 4118.84615357, 4121.41025614, 4118.20512793, 4231.92307686, 4224.99999993, 4226.41025634, 4220.89743583, 4125.89743562, 4110.12820485, 4117.43589716, 4129.48717921, 4191.02564089,8.57
4123.58974332, 4126.15384588, 4123.20512793, 4121.66666639, 4119.99999973, 4230.38461532, 4221.15384609, 4222.05128199, 4218.97435891, 4127.17948691, 4110.25640998, 4120.89743562, 4126.66666639, 4195.38461525,8.57
4120.89743562, 4125.25640998, 4123.20512793, 4122.56410229, 4121.28205101, 4222.69230763, 4210.51282045, 4217.05128199, 4222.17948711, 4127.69230742, 4111.79487152, 4122.94871767, 4127.94871767, 4193.07692294,8.57
4122.05128178, 4122.69230742, 4123.84615357, 4122.82051255, 4122.82051255, 4233.58974352, 4224.87179481, 4234.23076923, 4229.10256404, 4125.12820485, 4110.51282024, 4118.58974332, 4128.84615357, 4193.46153833,8.57
4127.30769203, 4125.12820485, 4125.64102537, 4123.33333306, 4121.53846126, 4242.17948718, 4240.76923077, 4251.28205129, 4238.07692308, 4125.12820485, 4109.87179460, 4128.07692280, 4130.25640998, 4200.51282038,8.57
4120.12820485, 4123.97435870, 4116.92307665, 4117.56410229, 4121.53846126, 4242.30769231, 4237.82051282, 4249.35897436, 4245.12820513, 4128.07692280, 4108.33333306, 4118.33333306, 4128.71794844, 4200.38461525,8.57
4123.33333306, 4124.87179460, 4123.33333306, 4120.64102537, 4122.05128178, 4244.10256411, 4239.23076923, 4252.05128206, 4250.76923077, 4129.23076896, 4109.35897408, 4119.74358947, 4131.28205101, 4201.41025634,8.57
4119.99999973, 4124.35897408, 4119.87179460, 4121.92307665, 4120.38461511, 4244.10256411, 4243.07692308, 4257.17948718, 4252.69230770, 4128.07692280, 4110.25640998, 4126.15384588, 4130.76923050, 4196.79487166,8.57
4120.89743562, 4126.79487152, 4116.02564075, 4118.46153819, 4124.48717921, 4239.87179488, 4234.74358975, 4244.10256411, 4245.00000000, 4126.28205101, 4108.71794844, 4118.46153819, 4127.05128178, 4196.53846140,8.57
4123.33333306, 4128.33333306, 4123.84615357, 4123.84615357, 4123.07692280, 4237.69230770, 4229.10256404, 4231.15384609, 4238.97435898, 4125.64102537, 4109.87179460, 4124.61538434, 4130.64102537, 4200.38461525,8.57
4115.25640998, 4120.38461511, 4114.74358947, 4122.56410229, 4118.97435870, 4240.00000000, 4235.25641026, 4231.79487173, 4236.28205129, 4128.07692280, 4110.12820485, 4120.64102537, 4127.94871767, 4193.58974345,8.57
4124.99999973, 4121.66666639, 4118.97435870, 4120.12820485, 4124.10256383, 4245.25641026, 4241.53846154, 4237.43589744, 4238.33333334, 4129.74358947, 4110.51282024, 4120.76923050, 4129.35897408, 4195.12820499,8.57
4120.89743562, 4122.82051255, 4122.94871767, 4121.53846126, 4123.58974332, 4254.61538462, 4247.05128206, 4247.69230770, 4253.58974359, 4126.53846126, 4109.10256383, 4121.02564075, 4134.99999973, 4197.30769217,8.57
4113.58974332, 4121.66666639, 4120.76923050, 4122.05128178, 4120.38461511, 4260.51282052, 4256.66666667, 4259.48717949, 4267.56410264, 4123.84615357, 4107.17948691, 4112.69230742, 4130.89743562, 4193.58974345,8.57
4122.43589716, 4124.10256383, 4125.25640998, 4123.58974332, 4122.05128178, 4255.00000000, 4257.43589744, 4261.15384616, 4269.23076930, 4126.15384588, 4109.87179460, 4122.56410229, 4133.97435870, 4194.87179474,8.57
4118.20512793, 4121.79487152, 4117.82051255, 4119.35897408, 4124.23076896, 4247.56410257, 4249.74358975, 4256.41025641, 4267.30769238, 4127.69230742, 4110.12820485, 4115.89743562, 4132.69230742, 4195.64102551,8.57
4121.15384588, 4127.05128178, 4124.48717921, 4121.92307665, 4124.61538434, 4251.02564103, 4248.84615385, 4255.76923077, 4266.66666674, 4126.53846126, 4110.64102537, 4114.99999973, 4129.10256383, 4198.58974345,8.57
4123.07692280, 4126.53846126, 4125.64102537, 4125.25640998, 4121.79487152, 4260.76923077, 4259.61538462, 4262.82051282, 4268.97435905, 4127.17948691, 4110.25640998, 4126.15384588, 4132.56410229, 4195.64102551,8.57
4121.92307665, 4120.64102537, 4116.79487152, 4120.25640998, 4123.20512793, 4260.89743590, 4263.84615385, 4264.61538462, 4269.61538469, 4129.23076896, 4106.66666639, 4118.71794844, 4131.02564075, 4195.12820499,8.57
4128.33333306, 4126.28205101, 4127.69230742, 4121.28205101, 4124.74358947, 4256.66666667, 4255.00000000, 4252.05128206, 4262.17948718, 4129.48717921, 4110.25640998, 4126.02564075, 4133.33333306, 4201.66666660,8.57
4119.48717921, 4125.64102537, 4122.56410229, 4119.87179460, 4121.92307665, 4261.15384616, 4257.30769231, 4250.12820513, 4261.02564103, 4126.92307665, 4112.43589716, 4123.20512793, 4133.84615357, 4196.28205115,8.57
4121.28205101, 4123.84615357, 4120.76923050, 4120.25640998, 4122.69230742, 4267.30769238, 4270.51282059, 4266.15384616, 4274.87179495, 4124.87179460, 4110.51282024, 4119.48717921, 4132.43589716, 4196.66666653,8.57
4123.97435870, 4125.38461511, 4126.02564075, 4122.82051255, 4121.66666639, 4265.64102564, 4269.48717956, 4274.35897443, 4282.82051289, 4127.69230742, 4111.28205101, 4130.76923050, 4132.69230742, 4199.99999986,8.57
4117.82051255, 4121.53846126, 4118.33333306, 4118.20512793, 4119.99999973, 4263.20512821, 4265.89743590, 4276.41025648, 4286.15384623, 4129.61538434, 4110.25640998, 4119.87179460, 4129.87179460, 4195.38461525,8.57
4125.12820485, 4121.41025614, 4122.43589716, 4120.25640998, 4120.89743562, 4271.53846161, 4277.82051289, 4289.74358982, 4296.15384623, 4128.58974332, 4109.61538434, 4121.02564075, 4134.10256383, 4199.10256397,8.57
4118.07692280, 4121.41025614, 4117.69230742, 4119.35897408, 4120.64102537, 4280.89743597, 4287.94871802, 4297.43589751, 4299.10256418, 4127.69230742, 4108.97435870, 4122.56410229, 4133.33333306, 4198.33333320,8.57
4116.53846126, 4125.25640998, 4117.17948691, 4120.38461511, 4122.56410229, 4282.43589751, 4287.30769238, 4292.05128212, 4293.71794879, 4128.46153819, 4108.20512793, 4118.84615357, 4130.25640998, 4197.43589730,8.57
4120.76923050, 4126.28205101, 4122.69230742, 4124.74358947, 4121.02564075, 4286.15384623, 4289.61538469, 4289.74358982, 4290.76923084, 4128.97435870, 4109.74358947, 4125.38461511, 4133.07692280, 4199.99999986,8.57
4116.79487152, 4118.97435870, 4115.76923050, 4118.07692280, 4120.51282024, 4285.12820520, 4287.43589751, 4281.28205136, 4280.51282059, 4126.79487152, 4107.82051255, 4115.38461511, 4127.94871767, 4197.05128192,8.57
4121.41025614, 4122.30769203, 4121.41025614, 4120.25640998, 4123.46153819, 4277.82051289, 4274.87179495, 4265.89743590, 4268.84615392, 4127.30769203, 4107.05128178, 4119.61538434, 4129.10256383, 4197.82051269,8.57
4115.51282024, 4124.99999973, 4119.35897408, 4123.58974332, 4120.51282024, 4276.79487187, 4272.17948725, 4268.46153853, 4277.69230777, 4129.23076896, 4107.56410229, 4120.12820485, 4133.07692280, 4195.38461525,8.57
4121.79487152, 4124.61538434, 4122.69230742, 4122.30769203, 4119.23076896, 4285.25641033, 4284.10256418, 4286.15384623, 4291.66666674, 4127.69230742, 4107.05128178, 4109.99999973, 4129.99999973, 4193.97435884,8.57
4130.12820485, 4124.23076896, 4130.76923050, 4126.41025614, 4119.48717921, 4293.97435905, 4294.48717956, 4294.61538469, 4292.05128212, 4125.12820485, 4109.48717921, 4122.56410229, 4131.66666639, 4196.53846140,8.57
4118.46153819, 4120.25640998, 4119.35897408, 4123.33333306, 4120.12820485, 4295.38461546, 4297.05128212, 4294.35897443, 4293.71794879, 4125.89743562, 4108.46153819, 4121.66666639, 4129.87179460, 4194.23076910,8.57
4124.61538434, 4126.15384588, 4125.76923050, 4124.48717921, 4123.46153819, 4289.87179495, 4297.43589751, 4299.23076930, 4301.15384630, 4128.33333306, 4109.23076896, 4122.17948691, 4130.25640998, 4198.46153833,8.57
4121.41025614, 4127.30769203, 4129.48717921, 4124.23076896, 4122.43589716, 4286.79487187, 4298.20512828, 4303.97435912, 4303.33333348, 4127.30769203, 4110.38461511, 4123.97435870, 4134.23076896, 4199.48717935,8.57
4118.97435870, 4123.97435870, 4125.12820485, 4120.64102537, 4121.28205101, 4291.15384623, 4298.07692315, 4300.89743604, 4301.28205142, 4125.89743562, 4110.38461511, 4117.56410229, 4132.82051255, 4198.46153833,8.57
4127.56410229, 4125.12820485, 4129.35897408, 4125.89743562, 4119.87179460, 4297.17948725, 4302.94871809, 4301.92307707, 4307.30769245, 4127.43589716, 4115.12820485, 4129.35897408, 4131.41025614, 4201.79487173,8.57
4116.66666639, 4121.92307665, 4120.76923050, 4123.20512793, 4120.12820485, 4306.02564117, 4313.46153860, 4310.00000014, 4316.15384630, 4127.94871767, 4111.79487152, 4125.25640998, 4129.74358947, 4198.71794858,8.57
4122.56410229, 4125.76923050, 4125.25640998, 4123.84615357, 4124.99999973, 4311.92307707, 4318.84615399, 4310.76923091, 4314.61538476, 4126.28205101, 4106.02564075, 4124.74358947, 4135.51282031, 4200.64102551,8.57
4123.20512793, 4125.89743562, 4123.97435870, 4124.10256383, 4122.43589716, 4311.02564117, 4317.43589758, 4304.74358989, 4307.43589758, 4126.53846126, 4108.97435870, 4130.51282024, 4135.51282031, 4199.48717935,8.57
4115.12820485, 4121.02564075, 4116.02564075, 4116.15384588, 4120.76923050, 4309.23076937, 4312.82051296, 4304.74358989, 4305.64102578, 4127.82051255, 4111.02564075, 4118.07692280, 4127.56410229, 4197.43589730,8.57
4123.20512793, 4125.25640998, 4125.64102537, 4121.92307665, 4123.71794844, 4304.48717963, 4305.64102578, 4307.43589758, 4309.48717963, 4129.48717921, 4108.84615357, 4123.20512793, 4133.84615357, 4201.41025634,8.57
4117.30769203, 4121.53846126, 4118.20512793, 4123.07692280, 4123.33333306, 4299.87179501, 4306.28205142, 4312.17948732, 4315.38461553, 4129.35897408, 4107.17948691, 4119.99999973, 4132.56410229, 4195.64102551,8.57
4120.51282024, 4120.76923050, 4120.25640998, 4120.64102537, 4123.46153819, 4298.58974366, 4312.30769245, 4318.07692322, 4320.12820527, 4127.17948691, 4111.92307665, 4114.35897408, 4127.17948691, 4195.25641012,8.57
4120.51282024, 4122.82051255, 4124.61538434, 4123.46153819, 4122.30769203, 4300.51282066, 4310.38461553, 4314.87179501, 4318.33333348, 4126.79487152, 4113.07692280, 4118.20512793, 4131.28205101, 4196.15384602,8.57
4116.66666639, 4120.25640998, 4116.15384588, 4122.30769203, 4124.74358947, 4306.28205142, 4310.76923091, 4310.51282066, 4315.00000014, 4126.41025614, 4106.92307665, 4109.99999973, 4130.12820485, 4192.30769217,8.57
4126.79487152, 4124.87179460, 4125.12820485, 4124.74358947, 4125.89743562, 4317.82051296, 4324.61538476, 4319.23076937, 4316.92307707, 4123.97435870, 4110.51282024, 4118.71794844, 4128.07692280, 4195.38461525,8.57
4116.92307665, 4123.97435870, 4122.43589716, 4122.30769203, 4120.38461511, 4323.84615399, 4335.64102585, 4329.10256425, 4318.71794886, 4123.71794844, 4113.46153819, 4117.82051255, 4126.02564075, 4193.20512807,8.57
4118.58974332, 4125.12820485, 4125.12820485, 4124.23076896, 4122.82051255, 4314.74358989, 4329.61538476, 4322.94871809, 4311.41025655, 4127.56410229, 4109.87179460, 4115.38461511, 4127.82051255, 4195.12820499,8.57
4123.20512793, 4126.53846126, 4127.94871767, 4127.43589716, 4124.23076896, 4307.56410271, 4316.92307707, 4312.82051296, 4302.05128219, 4128.46153819, 4111.41025614, 4125.38461511, 4133.20512793, 4198.33333320,8.57
4119.23076896, 4122.17948691, 4117.69230742, 4122.17948691, 4122.17948691, 4314.48717963, 4313.84615399, 4311.15384630, 4300.12820527, 4125.12820485, 4110.38461511, 4116.92307665, 4130.25640998, 4194.23076910,8.57
4130.25640998, 4126.79487152, 4128.46153819, 4125.64102537, 4122.56410229, 4314.61538476, 4316.02564117, 4311.53846168, 4300.12820527, 4126.28205101, 4108.71794844, 4123.46153819, 4130.64102537, 4196.53846140,8.57
4120.64102537, 4124.10256383, 4124.35897408, 4122.43589716, 4119.48717921, 4303.07692322, 4311.66666681, 4310.89743604, 4300.64102578, 4129.35897408, 4109.74358947, 4125.12820485, 4131.41025614, 4198.97435884,8.57
4121.92307665, 4124.48717921, 4121.28205101, 4120.25640998, 4122.43589716, 4299.48717963, 4307.05128219, 4305.76923091, 4298.33333341, 4127.69230742, 4109.61538434, 4119.87179460, 4131.92307665, 4201.79487173,8.57
4130.51282024, 4128.33333306, 4127.82051255, 4125.89743562, 4123.46153819, 4305.38461553, 4308.71794886, 4302.69230784, 4297.05128212, 4126.15384588, 4110.38461511, 4128.46153819, 4136.15384595, 4200.76923063,8.57
4116.79487152, 4123.58974332, 4117.43589716, 4120.12820485, 4120.51282024, 4307.56410271, 4315.12820527, 4307.30769245, 4303.20512835, 4126.53846126, 4110.51282024, 4118.07692280, 4130.64102537, 4197.17948704,8.57
4122.82051255, 4126.92307665, 4124.87179460, 4121.66666639, 4123.84615357, 4304.87179501, 4316.92307707, 4310.25641040, 4309.10256425, 4127.30769203, 4110.76923050, 4121.79487152, 4131.66666639, 4204.74358968,8.57
4119.23076896, 4123.33333306, 4120.12820485, 4121.66666639, 4123.58974332, 4306.41025655, 4314.48717963, 4306.53846168, 4312.69230784, 4125.76923050, 4109.99999973, 4125.38461511, 4136.15384595, 4200.76923063,8.57
4117.30769203, 4121.66666639, 4115.51282024, 4118.46153819, 4122.82051255, 4308.58974373, 4315.38461553, 4308.20512835, 4324.74358989, 4124.35897408, 4110.64102537, 4115.51282024, 4132.17948691, 4193.97435884,8.57
4123.46153819, 4129.23076896, 4127.30769203, 4125.12820485, 4121.15384588, 4302.69230784, 4314.61538476, 4316.66666681, 4344.87179508, 4127.17948691, 4111.53846126, 4121.79487152, 4132.30769203, 4196.53846140,8.57
4113.97435870, 4124.10256383, 4118.46153819, 4123.71794844, 4118.33333306, 4296.79487187, 4312.82051296, 4312.43589758, 4353.33333355, 4127.94871767, 4108.33333306, 4114.61538434, 4130.89743562, 4196.92307679,8.57
4123.84615357, 4123.97435870, 4122.30769203, 4124.35897408, 4125.25640998, 4298.07692315, 4314.10256425, 4307.43589758, 4358.07692329, 4125.89743562, 4109.99999973, 4116.28205101, 4132.82051255, 4200.89743576,8.57
4120.12820485, 4122.94871767, 4123.07692280, 4123.46153819, 4127.43589716, 4301.66666681, 4315.64102578, 4311.79487194, 4373.20512849, 4126.15384588, 4108.20512793, 4119.87179460, 4132.94871767, 4197.69230756,8.57
4116.53846126, 4121.79487152, 4122.43589716, 4121.02564075, 4123.84615357, 4297.30769238, 4310.89743604, 4302.30769245, 4373.71794900, 4127.56410229, 4103.20512793, 4111.15384588, 4128.33333306, 4194.23076910,8.57
4127.69230742, 4126.92307665, 4130.38461511, 4125.64102537, 4122.43589716, 4293.33333341, 4301.02564117, 4280.64102571, 4354.48717970, 4128.07692280, 4109.35897408, 4121.66666639, 4131.53846126, 4196.53846140,8.57
4116.79487152, 4120.12820485, 4116.41025614, 4120.64102537, 4121.92307665, 4295.00000007, 4298.33333341, 4280.64102571, 4353.20512842, 4127.94871767, 4110.89743562, 4117.30769203, 4130.38461511, 4194.10256397,8.57
4122.94871767, 4123.97435870, 4124.87179460, 4123.46153819, 4125.38461511, 4295.12820520, 4305.12820527, 4299.23076930, 4371.15384644, 4127.17948691, 4108.07692280, 4117.82051255, 4131.53846126, 4198.46153833,8.57
4122.82051255, 4126.41025614, 4128.20512793, 4126.66666639, 4123.07692280, 4296.15384623, 4310.12820527, 4304.35897450, 4378.33333362, 4128.71794844, 4112.17948691, 4127.69230742, 4136.15384595, 4197.30769217,8.57
4117.94871767, 4122.94871767, 4116.92307665, 4119.99999973, 4122.82051255, 4297.82051289, 4308.07692322, 4295.64102571, 4372.56410285, 4132.05128178, 4113.84615357, 4119.48717921, 4131.79487152, 4192.82051269,8.57
4129.61538434, 4129.10256383, 4128.20512793, 4122.94871767, 4125.89743562, 4298.46153853, 4308.46153860, 4292.82051289, 4361.92307714, 4129.61538434, 4111.66666639, 4127.94871767, 4129.74358947, 4198.07692294,8.57
4118.84615357, 4121.02564075, 4117.94871767, 4121.15384588, 4124.10256383, 4297.94871802, 4314.48717963, 4297.05128212, 4351.92307714, 4125.51282024, 4109.35897408, 4124.48717921, 4130.64102537, 4196.79487166,8.57
4122.82051255, 4118.33333306, 4117.82051255, 4123.97435870, 4124.99999973, 4294.23076930, 4314.35897450, 4293.33333341, 4349.87179508, 4127.69230742, 4111.15384588, 4118.71794844, 4135.38461518, 4200.38461525,8.57
4126.15384588, 4124.48717921, 4128.20512793, 4125.76923050, 4122.69230742, 4284.23076930, 4298.46153853, 4279.87179495, 4347.69230790, 4128.58974332, 4111.02564075, 4128.07692280, 4136.41025621, 4203.07692301,8.57
4115.76923050, 4122.56410229, 4120.51282024, 4118.46153819, 4120.76923050, 4278.07692315, 4287.30769238, 4274.74358982, 4345.00000021, 4126.66666639, 4106.41025614, 4117.17948691, 4129.23076896, 4198.07692294,8.57
4122.56410229, 4121.66666639, 4123.20512793, 4124.99999973, 4121.92307665, 4286.02564110, 4295.38461546, 4282.30769238, 4350.12820534, 4126.53846126, 4106.79487152, 4117.43589716, 4133.46153819, 4201.41025634,8.57
4113.84615357, 4116.66666639, 4116.28205101, 4123.71794844, 4120.64102537, 4287.17948725, 4296.28205136, 4285.25641033, 4350.12820534, 4123.97435870, 4104.61538434, 4117.94871767, 4133.71794844, 4198.71794858,8.57
4119.23076896, 4119.87179460, 4118.97435870, 4118.84615357, 4124.87179460, 4274.35897443, 4283.71794879, 4277.05128212, 4335.89743611, 4122.30769203, 4102.69230742, 4116.41025614, 4129.10256383, 4196.53846140,8.57
4123.84615357, 4122.69230742, 4122.05128178, 4122.56410229, 4122.82051255, 4273.97435905, 4286.41025648, 4276.41025648, 4331.41025655, 4125.89743562, 4107.05128178, 4122.94871767, 4131.41025614, 4196.41025628,8.57
4110.89743562, 4118.71794844, 4112.94871767, 4121.15384588, 4118.97435870, 4286.66666674, 4298.84615392, 4284.10256418, 4339.23076944, 4127.05128178, 4105.76923050, 4110.51282024, 4128.07692280, 4192.05128192,8.57
4122.56410229, 4126.53846126, 4124.74358947, 4124.87179460, 4123.20512793, 4285.00000007, 4297.82051289, 4282.82051289, 4335.89743611, 4124.61538434, 4104.61538434, 4115.89743562, 4131.66666639, 4195.38461525,8.57
4121.28205101, 4125.51282024, 4121.53846126, 4123.07692280, 4121.15384588, 4273.71794879, 4294.10256418, 4276.15384623, 4326.66666681, 4124.61538434, 4106.66666639, 4121.15384588, 4134.48717921, 4193.84615371,8.57
4121.92307665, 4122.43589716, 4119.23076896, 4119.23076896, 4121.53846126, 4273.71794879, 4294.48717956, 4275.38461546, 4324.10256425, 4126.66666639, 4105.25640998, 4113.46153819, 4127.94871767, 4192.05128192,8.57
4126.53846126, 4126.53846126, 4127.82051255, 4124.35897408, 4124.10256383, 4277.05128212, 4292.56410264, 4279.74358982, 4330.25641040, 4126.79487152, 4104.99999973, 4123.07692280, 4128.84615357, 4194.35897422,8.57
4116.79487152, 4124.23076896, 4119.35897408, 4121.15384588, 4122.17948691, 4278.20512828, 4296.79487187, 4283.07692315, 4332.69230790, 4124.48717921, 4106.92307665, 4120.25640998, 4131.66666639, 4194.35897422,8.57
4129.10256383, 4127.30769203, 4128.46153819, 4122.94871767, 4123.46153819, 4277.43589751, 4300.51282066, 4283.20512828, 4328.58974373, 4125.51282024, 4108.20512793, 4122.69230742, 4134.61538434, 4200.64102551,8.57
4123.71794844, 4123.33333306, 4128.07692280, 4124.74358947, 4122.82051255, 4273.58974366, 4292.82051289, 4282.82051289, 4329.35897450, 4129.48717921, 4107.05128178, 4125.76923050, 4133.07692280, 4198.84615371,8.57
4116.79487152, 4118.84615357, 4118.84615357, 4119.35897408, 4123.20512793, 4274.23076930, 4289.61538469, 4278.46153853, 4326.79487194, 4128.58974332, 4105.25640998, 4120.89743562, 4131.28205101, 4197.30769217,8.57
4126.41025614, 4123.71794844, 4123.58974332, 4120.38461511, 4121.28205101, 4273.46153853, 4290.25641033, 4266.02564103, 4318.20512835, 4124.99999973, 4106.53846126, 4130.38461511, 4136.92307672, 4203.58974352,8.57
4118.58974332, 4120.76923050, 4114.87179460, 4117.69230742, 4118.58974332, 4262.30769231, 4277.69230777, 4253.71794872, 4311.92307707, 4125.12820485, 4106.92307665, 4119.87179460, 4132.69230742, 4199.61538448,8.57
4122.69230742, 4123.33333306, 4120.51282024, 4122.30769203, 4122.82051255, 4253.46153847, 4267.30769238, 4246.79487180, 4303.07692322, 4127.82051255, 4108.33333306, 4116.53846126, 4129.10256383, 4200.12820499,8.57
4120.38461511, 4122.30769203, 4122.94871767, 4124.61538434, 4121.02564075, 4260.00000000, 4273.46153853, 4247.17948718, 4293.58974366, 4127.94871767, 4106.02564075, 4125.76923050, 4133.71794844, 4201.28205122,8.57
4117.43589716, 4121.15384588, 4115.25640998, 4117.43589716, 4117.82051255, 4267.17948725, 4280.51282059, 4261.02564103, 4298.46153853, 4125.51282024, 4100.25640991, 4115.76923050, 4131.41025614, 4199.23076910,8.57
4126.15384588, 4128.20512793, 4122.05128178, 4121.79487152, 4120.12820485, 4269.87179495, 4286.79487187, 4274.48717956, 4305.51282066, 4127.05128178, 4103.97435870, 4120.25640998, 4131.02564075, 4200.38461525,8.57
4115.38461511, 4122.56410229, 4114.87179460, 4121.28205101, 4120.89743562, 4272.30769238, 4296.28205136, 4277.43589751, 4304.74358989, 4128.20512793, 4104.35897408, 4118.07692280, 4131.28205101, 4195.25641012,8.57
4119.99999973, 4123.07692280, 4118.97435870, 4121.15384588, 4122.43589716, 4265.38461539, 4297.43589751, 4274.87179495, 4305.38461553, 4125.12820485, 4102.94871767, 4116.15384588, 4130.51282024, 4196.02564089,8.57
4121.66666639, 4126.92307665, 4122.56410229, 4123.97435870, 4119.87179460, 4256.02564103, 4289.48717956, 4272.56410264, 4306.79487194, 4125.89743562, 4106.79487152, 4122.94871767, 4130.51282024, 4197.30769217,8.57
4115.89743562, 4123.07692280, 4115.51282024, 4120.89743562, 4119.74358947, 4254.87179488, 4287.43589751, 4271.28205136, 4305.00000014, 4129.48717921, 4104.87179460, 4112.17948691, 4126.92307665, 4194.61538448,8.57
4126.79487152, 4126.41025614, 4126.79487152, 4125.64102537, 4122.30769203, 4253.46153847, 4288.97435905, 4270.38461546, 4303.33333348, 4129.10256383, 4104.61538434, 4119.10256383, 4131.41025614, 4197.17948704,8.57
4118.20512793, 4125.12820485, 4123.33333306, 4124.87179460, 4121.28205101, 4252.69230770, 4288.07692315, 4267.56410264, 4300.12820527, 4127.05128178, 4106.92307665, 4121.92307665, 4131.53846126, 4193.58974345,8.57
4119.10256383, 4124.35897408, 4123.84615357, 4124.10256383, 4123.20512793, 4253.07692308, 4282.94871802, 4258.46153847, 4288.58974366, 4127.17948691, 4106.53846126, 4117.69230742, 4126.79487152, 4193.97435884,8.57
4126.66666639, 4124.35897408, 4128.58974332, 4125.38461511, 4119.87179460, 4247.82051282, 4275.00000007, 4253.58974359, 4279.35897443, 4128.07692280, 4105.64102537, 4125.76923050, 4129.61538434, 4198.20512807,8.57
4120.51282024, 4123.97435870, 4117.69230742, 4120.12820485, 4117.94871767, 4245.00000000, 4272.30769238, 4249.48717949, 4276.28205136, 4126.92307665, 4103.07692280, 4119.61538434, 4129.48717921, 4197.82051269,8.57
4125.64102537, 4129.87179460, 4124.35897408, 4123.07692280, 4122.69230742, 4240.12820513, 4266.53846154, 4237.30769231, 4270.89743597, 4125.64102537, 4104.48717921, 4126.15384588, 4130.89743562, 4200.76923063,8.57
4118.58974332, 4124.10256383, 4121.15384588, 4121.79487152, 4121.15384588, 4226.02564096, 4251.15384616, 4229.61538455, 4266.53846154, 4126.41025614, 4106.53846126, 4127.17948691, 4128.71794844, 4197.94871781,8.57
4120.64102537, 4123.20512793, 4118.07692280, 4119.35897408, 4122.56410229, 4226.79487173, 4249.23076923, 4237.94871795, 4267.69230777, 4128.07692280, 4103.46153819, 4118.46153819, 4127.82051255, 4199.35897422,8.57
4126.53846126, 4128.58974332, 4124.61538434, 4121.79487152, 4123.33333306, 4242.69230770, 4258.84615385, 4245.12820513, 4270.51282059, 4129.61538434, 4101.79487145, 4129.87179460, 4133.46153819, 4202.30769224,8.57
4115.89743562, 4120.51282024, 4116.79487152, 4117.82051255, 4119.61538434, 4237.43589744, 4255.76923077, 4238.46153847, 4265.25641026, 4127.17948691, 4101.15384581, 4124.61538434, 4128.58974332, 4194.48717935,8.57
4124.61538434, 4120.38461511, 4123.46153819, 4121.92307665, 4120.89743562, 4223.46153840, 4250.25641026, 4234.10256411, 4254.23076923, 4125.64102537, 4101.79487145, 4123.33333306, 4128.58974332, 4197.94871781,8.57
4121.53846126, 4122.56410229, 4122.30769203, 4124.23076896, 4120.51282024, 4236.41025641, 4263.46153847, 4240.89743590, 4256.15384616, 4126.66666639, 4100.25640991, 4126.02564075, 4132.82051255, 4200.25641012,8.57
4116.15384588, 4122.69230742, 4117.30769203, 4119.99999973, 4121.79487152, 4246.53846154, 4271.53846161, 4246.15384616, 4267.82051289, 4126.02564075, 4097.94871761, 4115.64102537, 4129.99999973, 4196.66666653,8.57
4124.61538434, 4126.41025614, 4126.02564075, 4123.46153819, 4123.97435870, 4233.71794865, 4258.46153847, 4236.15384616, 4261.28205129, 4127.17948691, 4101.92307658, 4123.58974332, 4131.92307665, 4198.71794858,8.57
4115.76923050, 4123.20512793, 4117.94871767, 4120.89743562, 4122.94871767, 4232.43589737, 4256.28205129, 4229.87179481, 4251.15384616, 4127.30769203, 4100.76923043, 4117.43589716, 4130.76923050, 4195.38461525,8.57
4118.71794844, 4123.07692280, 4119.61538434, 4119.87179460, 4123.46153819, 4247.82051282, 4270.64102571, 4240.89743590, 4261.02564103, 4123.20512793, 4099.48717914, 4113.46153819, 4130.76923050, 4194.61538448,8.57
4121.79487152, 4122.56410229, 4124.35897408, 4123.58974332, 4120.25640998, 4245.51282052, 4269.48717956, 4243.20512821, 4264.87179488, 4122.69230742, 4102.82051255, 4122.56410229, 4133.20512793, 4194.35897422,8.57
4120.51282024, 4120.64102537, 4122.94871767, 4121.53846126, 4121.79487152, 4226.28205122, 4255.51282052, 4233.46153840, 4253.97435898, 4126.92307665, 4100.89743555, 4117.05128178, 4129.61538434, 4193.46153833,8.57
4125.76923050, 4124.61538434, 4127.56410229, 4125.64102537, 4126.28205101, 4226.92307686, 4258.20512821, 4241.02564103, 4258.84615385, 4127.43589716, 4100.25640991, 4123.07692280, 4132.17948691, 4196.15384602,8.57
4118.84615357, 4122.17948691, 4118.20512793, 4124.61538434, 4122.43589716, 4238.46153847, 4266.02564103, 4249.87179488, 4262.94871795, 4126.41025614, 4101.41025607, 4120.25640998, 4133.33333306, 4193.46153833,8.57
4125.25640998, 4123.07692280, 4126.15384588, 4122.30769203, 4120.38461511, 4233.20512814, 4257.30769231, 4231.41025634, 4242.94871795, 4127.94871767, 4101.53846119, 4120.12820485, 4132.94871767, 4196.02564089,8.57
4123.46153819, 4124.48717921, 4130.76923050, 4121.79487152, 4119.87179460, 4229.35897429, 4251.15384616, 4225.12820506, 4237.43589744, 4125.51282024, 4100.12820478, 4128.58974332, 4134.10256383, 4197.69230756,8.57
4116.53846126, 4122.56410229, 4116.79487152, 4117.94871767, 4121.28205101, 4236.15384616, 4256.79487180, 4243.84615385, 4254.61538462, 4123.33333306, 4097.82051248, 4119.23076896, 4130.38461511, 4196.79487166,8.57
4128.07692280, 4127.17948691, 4124.99999973, 4123.84615357, 4123.20512793, 4231.66666660, 4255.25641026, 4244.35897436, 4253.20512821, 4126.66666639, 4101.66666632, 4127.30769203, 4133.33333306, 4200.25641012,8.57
4120.12820485, 4121.79487152, 4121.28205101, 4122.17948691, 4119.74358947, 4226.15384609, 4245.51282052, 4224.61538455, 4236.92307693, 4127.69230742, 4102.05128171, 4127.82051255, 4132.43589716, 4197.30769217,8.57
4121.02564075, 4121.02564075, 4118.97435870, 4118.97435870, 4119.35897408, 4229.23076917, 4235.76923077, 4215.64102558, 4230.89743583, 4126.66666639, 4099.61538427, 4121.79487152, 4129.87179460, 4200.51282038,8.57
4124.10256383, 4123.71794844, 4123.71794844, 4122.17948691, 4119.10256383, 4219.10256404, 4227.94871788, 4212.69230763, 4227.69230763, 4126.79487152, 4100.51282017, 4128.97435870, 4134.74358947, 4201.66666660,8.57
4114.48717921, 4119.48717921, 4116.41025614, 4119.74358947, 4121.66666639, 4206.02564096, 4226.41025634, 4203.20512814, 4220.76923070, 4124.10256383, 4098.46153812, 4119.61538434, 4133.20512793, 4196.28205115,8.57
4120.25640998, 4124.48717921, 4125.89743562, 4123.71794844, 4125.51282024, 4209.48717942, 4227.94871788, 4197.30769217, 4213.58974352, 4124.61538434, 4097.43589709, 4122.43589716, 4131.66666639, 4200.51282038,8.57
4113.07692280, 4122.69230742, 4120.89743562, 4121.92307665, 4121.79487152, 4215.76923070, 4228.20512814, 4201.15384609, 4214.23076917, 4129.35897408, 4097.30769196, 4123.33333306, 4128.84615357, 4196.41025628,8.57
4116.66666639, 4120.25640998, 4117.56410229, 4119.87179460, 4122.94871767, 4211.92307686, 4230.12820506, 4211.02564096, 4224.48717942, 4128.07692280, 4098.84615350, 4117.56410229, 4129.10256383, 4193.20512807,8.57
4124.48717921, 4123.33333306, 4124.48717921, 4126.53846126, 4123.84615357, 4205.76923070, 4230.51282045, 4211.41025634, 4225.12820506, 4124.74358947, 4103.07692280, 4123.33333306, 4134.35897408, 4197.69230756,8.57
4113.84615357, 4121.28205101, 4115.64102537, 4122.56410229, 4121.41025614, 4209.87179481, 4234.10256411, 4212.17948711, 4225.64102558, 4125.25640998, 4102.17948684, 4112.43589716, 4129.87179460, 4196.66666653,8.57
4125.38461511, 4125.89743562, 4123.84615357, 4121.28205101, 4124.35897408, 4215.64102558, 4243.20512821, 4228.71794865, 4246.15384616, 4127.17948691, 4102.17948684, 4118.58974332, 4130.76923050, 4198.84615371,8.57
4123.20512793, 4126.02564075, 4124.87179460, 4120.89743562, 4123.20512793, 4213.97435891, 4240.89743590, 4228.97435891, 4249.23076923, 4128.33333306, 4103.46153819, 4126.02564075, 4132.30769203, 4194.48717935,8.57
4118.84615357, 4123.97435870, 4122.17948691, 4119.23076896, 4123.84615357, 4211.28205122, 4226.41025634, 4202.94871788, 4219.87179481, 4126.53846126, 4101.66666632, 4116.92307665, 4128.71794844, 4193.46153833,8.57
4128.84615357, 4126.53846126, 4130.51282024, 4123.71794844, 4125.89743562, 4211.02564096, 4220.38461532, 4190.76923063, 4204.99999993, 4123.33333306, 4100.64102530, 4124.74358947, 4134.74358947, 4198.46153833,8.57
4120.64102537, 4121.53846126, 4121.41025614, 4119.87179460, 4123.07692280, 4206.53846147, 4219.99999993, 4196.15384602, 4207.05128199, 4123.20512793, 4098.97435863, 4121.53846126, 4133.97435870, 4195.89743576,8.57
4125.25640998, 4124.35897408, 4124.10256383, 4118.97435870, 4123.07692280, 4202.05128199, 4215.51282045, 4195.51282038, 4204.99999993, 4126.28205101, 4100.25640991, 4124.74358947, 4130.12820485, 4199.87179474,8.57
4124.23076896, 4127.30769203, 4123.20512793, 4120.12820485, 4123.33333306, 4203.20512814, 4213.33333327, 4195.25641012, 4209.10256404, 4126.02564075, 4102.94871767, 4130.12820485, 4133.46153819, 4199.74358961,8.57
4120.25640998, 4124.74358947, 4116.92307665, 4118.20512793, 4123.71794844, 4197.17948704, 4209.48717942, 4191.02564089, 4205.38461532, 4123.97435870, 4101.66666632, 4119.48717921, 4133.58974332, 4197.82051269,8.57
4127.05128178, 4125.89743562, 4127.05128178, 4124.23076896, 4121.02564075, 4187.30769217, 4203.97435891, 4177.43589730, 4185.76923063, 4127.05128178, 4101.28205094, 4126.79487152, 4131.92307665, 4201.92307686,8.57
4115.12820485, 4119.61538434, 4120.64102537, 4122.17948691, 4118.58974332, 4188.58974345, 4203.33333327, 4170.89743576, 4179.87179474, 4130.25640998, 4100.51282017, 4121.15384588, 4128.20512793, 4196.41025628,8.57
4119.87179460, 4120.89743562, 4121.41025614, 4120.12820485, 4124.10256383, 4191.66666653, 4200.51282038, 4174.87179474, 4188.07692294, 4126.92307665, 4101.66666632, 4118.20512793, 4130.76923050, 4196.79487166,8.57
4124.87179460, 4123.71794844, 4123.33333306, 4122.17948691, 4121.66666639, 4187.82051269, 4199.10256397, 4184.87179474, 4196.53846140, 4122.94871767, 4103.84615357, 4128.84615357, 4132.43589716, 4198.58974345,8.57
4113.97435870, 4119.87179460, 4114.74358947, 4121.41025614, 4121.41025614, 4181.79487166, 4202.05128199, 4187.82051269, 4196.66666653, 4125.38461511, 4100.51282017, 4116.41025614, 4128.07692280, 4193.97435884,8.57
4117.69230742, 4122.30769203, 4123.84615357, 4124.74358947, 4125.89743562, 4180.76923063, 4199.35897422, 4176.41025628, 4182.94871781, 4126.92307665, 4102.17948684, 4117.30769203, 4133.07692280, 4196.41025628,8.57
4117.43589716, 4121.53846126, 4121.66666639, 4119.23076896, 4122.30769203, 4182.56410243, 4194.23076910, 4174.48717935, 4181.53846140, 4124.35897408, 4102.69230742, 4117.82051255, 4132.17948691, 4196.41025628,8.57
4122.17948691, 4123.58974332, 4121.53846126, 4118.97435870, 4123.97435870, 4182.43589730, 4194.10256397, 4182.43589730, 4192.69230756, 4124.99999973, 4098.20512786, 4113.97435870, 4130.25640998, 4197.56410243,8.57
4121.92307665, 4123.84615357, 4124.35897408, 4125.12820485, 4125.38461511, 4180.25641012, 4188.20512807, 4172.94871781, 4179.10256397, 4127.82051255, 4100.12820478, 4120.38461511, 4134.74358947, 4197.30769217,8.57
4116.92307665, 4119.61538434, 4115.76923050, 4119.74358947, 4122.17948691, 4172.94871781, 4177.30769217, 4153.46153826, 4156.92307672, 4126.15384588, 4101.92307658, 4110.76923050, 4128.84615357, 4191.53846140,8.57
4125.38461511, 4125.38461511, 4124.35897408, 4122.69230742, 4122.05128178, 4165.25641005, 4170.76923063, 4151.15384595, 4158.71794851, 4125.25640998, 4101.28205094, 4116.53846126, 4130.25640998, 4194.10256397,8.57
4116.66666639, 4125.38461511, 4122.17948691, 4124.35897408, 4122.05128178, 4166.28205108, 4170.12820499, 4158.20512800, 4163.20512800, 4126.92307665, 4100.89743555, 4121.66666639, 4134.48717921, 4192.94871781,8.57
4120.64102537, 4124.48717921, 4121.41025614, 4123.71794844, 4123.58974332, 4170.51282038, 4176.41025628, 4154.10256390, 4157.94871774, 4126.79487152, 4101.15384581, 4117.94871767, 4129.61538434, 4193.71794858,8.57
4129.87179460, 4126.53846126, 4128.33333306, 4128.20512793, 4122.05128178, 4166.66666646, 4176.79487166, 4150.76923056, 4161.79487159, 4127.94871767, 4103.07692280, 4127.94871767, 4133.07692280, 4197.30769217,8.57
4117.82051255, 4122.05128178, 4118.46153819, 4123.33333306, 4120.89743562, 4161.53846133, 4173.07692294, 4161.41025621, 4168.97435884, 4129.35897408, 4102.30769196, 4122.56410229, 4134.61538434, 4195.51282038,8.57
4124.10256383, 4126.41025614, 4124.10256383, 4125.25640998, 4121.15384588, 4166.92307672, 4177.43589730, 4167.94871774, 4168.07692287, 4127.56410229, 4103.46153819, 4126.92307665, 4134.10256383, 4200.51282038,8.57
4121.92307665, 4124.61538434, 4123.33333306, 4126.53846126, 4118.84615357, 4171.41025628, 4180.89743576, 4157.82051262, 4163.20512800, 4124.10256383, 4104.48717921, 4131.66666639, 4132.17948691, 4198.20512807,8.57
4118.97435870, 4121.28205101, 4117.30769203, 4121.28205101, 4122.05128178, 4165.12820492, 4171.15384602, 4149.23076903, 4158.58974339, 4123.46153819, 4102.05128171, 4121.41025614, 4128.33333306, 4196.79487166,8.57
4124.99999973, 4126.41025614, 4123.33333306, 4122.30769203, 4123.46153819, 4159.74358954, 4165.76923056, 4149.99999980, 4158.33333313, 4127.43589716, 4100.12820478, 4128.33333306, 4132.05128178, 4200.64102551,8.57
4116.41025614, 4120.76923050, 4115.51282024, 4117.69230742, 4119.48717921, 4165.51282031, 4171.79487166, 4148.46153826, 4155.76923056, 4128.46153819, 4097.82051248, 4124.35897408, 4131.53846126, 4194.87179474,8.57
4121.66666639, 4118.84615357, 4118.33333306, 4118.33333306, 4121.15384588, 4166.66666646, 4168.07692287, 4141.92307672, 4142.69230749, 4125.25640998, 4098.97435863, 4124.35897408, 4131.41025614, 4197.43589730,8.57
4121.66666639, 4118.84615357, 4118.33333306, 4118.33333306, 4121.15384588, 4166.66666646, 4168.07692287, 4141.92307672, 4142.69230749, 4125.25640998, 4098.97435863, 4124.35897408, 4131.41025614, 4197.43589730,8.57
4119.87179460, 4120.76923050, 4118.58974332, 4120.76923050, 4124.48717921, 4160.51282031, 4160.12820492, 4141.92307672, 4142.30769210, 4124.35897408, 4097.82051248, 4125.64102537, 4132.17948691, 4199.35897422,8.57
4116.53846126, 4121.79487152, 4115.51282024, 4119.35897408, 4125.76923050, 4160.12820492, 4164.10256390, 4145.12820492, 4154.48717928, 4127.05128178, 4095.89743555, 4111.79487152, 4131.41025614, 4194.99999986,8.57
4125.76923050, 4125.38461511, 4123.97435870, 4124.74358947, 4122.69230742, 4159.74358954, 4162.94871774, 4139.35897415, 4151.41025621, 4129.10256383, 4104.35897408, 4120.76923050, 4136.92307672, 4195.89743576,8.57
4115.76923050, 4121.92307665, 4118.07692280, 4122.56410229, 4118.84615357, 4159.10256390, 4158.33333313, 4138.07692287, 4148.71794851, 4125.12820485, 4108.33333306, 4120.51282024, 4132.94871767, 4193.84615371,8.57
4117.30769203, 4123.58974332, 4123.20512793, 4121.92307665, 4122.94871767, 4158.97435877, 4163.20512800, 4146.41025621, 4161.28205108, 4122.43589716, 4106.92307665, 4116.15384588, 4125.89743562, 4194.23076910,8.57
4121.41025614, 4125.12820485, 4126.53846126, 4124.99999973, 4122.69230742, 4157.17948697, 4166.02564082, 4145.76923056, 4159.74358954, 4126.79487152, 4107.30769203, 4123.20512793, 4129.61538434, 4195.25641012,8.57
4117.56410229, 4122.69230742, 4121.28205101, 4121.02564075, 4120.64102537, 4160.76923056, 4164.61538441, 4141.53846133, 4144.23076903, 4128.97435870, 4103.84615357, 4115.38461511, 4130.89743562, 4192.05128192,8.57
4123.46153819, 4127.69230742, 4128.46153819, 4123.71794844, 4123.33333306, 4166.92307672, 4168.71794858, 4146.15384595, 4148.84615364, 4127.69230742, 4103.33333306, 4119.99999973, 4130.64102537, 4193.58974345,8.57
4116.66666639, 4124.61538434, 4119.10256383, 4122.43589716, 4124.74358947, 4161.92307672, 4165.51282031, 4148.33333313, 4161.79487159, 4128.20512793, 4104.35897408, 4120.51282024, 4130.76923050, 4194.10256397,8.57
4120.89743562, 4120.76923050, 4119.23076896, 4121.41025614, 4125.25640998, 4156.53846133, 4158.58974339, 4145.51282031, 4161.15384595, 4129.74358947, 4104.23076896, 4119.61538434, 4134.35897408, 4196.66666653,8.57
4124.35897408, 4122.56410229, 4128.20512793, 4124.87179460, 4121.92307665, 4168.46153833, 4168.20512807, 4154.61538441, 4161.66666646, 4128.71794844, 4106.41025614, 4131.28205101, 4138.46153826, 4197.69230756,8.57
4118.46153819, 4124.99999973, 4119.87179460, 4121.53846126, 4121.28205101, 4175.25641012, 4177.82051269, 4157.30769210, 4162.30769210, 4126.02564075, 4105.38461511, 4124.23076896, 4132.05128178, 4196.92307679,8.57
4126.02564075, 4129.10256383, 4124.23076896, 4122.82051255, 4123.84615357, 4167.17948697, 4167.94871774, 4142.94871774, 4152.56410236, 4125.51282024, 4104.10256383, 4125.89743562, 4131.53846126, 4202.17948711,8.57
4119.10256383, 4123.46153819, 4123.20512793, 4121.41025614, 4122.05128178, 4161.28205108, 4158.07692287, 4136.53846133, 4144.87179467, 4126.15384588, 4102.30769196, 4124.74358947, 4132.69230742, 4197.82051269,8.57
4119.48717921, 4122.56410229, 4119.87179460, 4118.97435870, 4123.20512793, 4157.94871774, 4156.79487159, 4134.74358947, 4142.30769210, 4126.79487152, 4101.15384581, 4118.07692280, 4129.10256383, 4196.66666653,8.57
4121.79487152, 4124.61538434, 4119.99999973, 4123.97435870, 4121.15384588, 4152.17948697, 4151.28205108, 4125.64102537, 4135.51282031, 4126.15384588, 4105.12820485, 4126.28205101, 4130.76923050, 4199.48717935,8.57
4111.92307665, 4119.10256383, 4111.92307665, 4122.69230742, 4119.87179460, 4147.94871774, 4145.38461518, 4126.53846126, 4138.20512800, 4125.12820485, 4105.25640998, 4117.56410229, 4129.61538434, 4195.25641012,8.57
4119.23076896, 4122.56410229, 4122.30769203, 4123.46153819, 4122.69230742, 4151.28205108, 4149.87179467, 4137.94871774, 4146.92307672, 4125.38461511, 4103.71794844, 4120.38461511, 4130.89743562, 4198.20512807,8.57
4115.89743562, 4122.82051255, 4121.02564075, 4122.43589716, 4121.66666639, 4154.23076903, 4156.41025621, 4138.58974339, 4145.12820492, 4126.53846126, 4101.28205094, 4124.23076896, 4130.89743562, 4196.79487166,8.57
4114.23076896, 4121.92307665, 4116.28205101, 4119.99999973, 4124.35897408, 4150.38461518, 4153.71794851, 4132.82051255, 4138.33333313, 4125.25640998, 4101.02564068, 4114.61538434, 4127.69230742, 4195.51282038,8.57
4123.07692280, 4126.53846126, 4123.46153819, 4124.61538434, 4124.61538434, 4152.05128185, 4153.07692287, 4132.94871767, 4138.46153826, 4125.38461511, 4105.25640998, 4122.69230742, 4132.17948691, 4197.56410243,8.57
4117.17948691, 4124.23076896, 4117.94871767, 4122.56410229, 4121.79487152, 4157.82051262, 4156.15384595, 4131.15384588, 4135.76923056, 4128.33333306, 4102.69230742, 4117.56410229, 4131.02564075, 4192.05128192,8.57
4117.17948691, 4124.23076896, 4117.94871767, 4122.56410229, 4121.79487152, 4157.82051262, 4156.15384595, 4131.15384588, 4135.76923056, 4128.33333306, 4102.69230742, 4117.56410229, 4131.02564075, 4192.05128192,8.57
4120.89743562, 4126.41025614, 4127.69230742, 4123.07692280, 4123.46153819, 4153.58974339, 4151.92307672, 4129.99999973, 4127.94871767, 4127.56410229, 4099.99999966, 4118.71794844, 4129.61538434, 4195.38461525,8.57
4119.74358947, 4125.89743562, 4129.23076896, 4123.71794844, 4121.79487152, 4155.25641005, 4151.28205108, 4138.58974339, 4138.46153826, 4125.38461511, 4101.66666632, 4125.25640998, 4133.20512793, 4199.23076910,8.57
4117.69230742, 4122.05128178, 4122.17948691, 4121.66666639, 4122.69230742, 4167.30769210, 4159.23076903, 4145.64102544, 4152.43589723, 4126.92307665, 4101.53846119, 4118.07692280, 4133.46153819, 4197.05128192,8.57
4124.48717921, 4125.64102537, 4131.53846126, 4126.41025614, 4122.94871767, 4160.38461518, 4156.28205108, 4138.20512800, 4139.35897415, 4127.82051255, 4103.46153819, 4126.66666639, 4134.61538434, 4198.07692294,8.57
4117.69230742, 4123.20512793, 4125.25640998, 4122.94871767, 4121.02564075, 4142.56410236, 4142.30769210, 4126.02564075, 4120.76923050, 4125.76923050, 4104.10256383, 4123.97435870, 4132.56410229, 4196.53846140,8.57
4124.48717921, 4124.35897408, 4126.02564075, 4122.69230742, 4122.82051255, 4144.61538441, 4141.53846133, 4128.20512793, 4124.23076896, 4125.76923050, 4102.69230742, 4124.61538434, 4133.07692280, 4198.84615371,8.57
4124.48717921, 4125.25640998, 4128.84615357, 4123.97435870, 4121.92307665, 4151.53846133, 4148.97435877, 4139.23076903, 4137.30769210, 4127.05128178, 4101.79487145, 4132.17948691, 4132.17948691, 4196.15384602,8.57
4116.28205101, 4121.66666639, 4122.30769203, 4119.99999973, 4121.28205101, 4141.53846133, 4144.48717928, 4140.64102544, 4138.33333313, 4123.46153819, 4101.15384581, 4120.38461511, 4126.28205101, 4193.20512807,8.57
4122.94871767, 4124.87179460, 4126.92307665, 4125.38461511, 4123.07692280, 4133.07692280, 4137.30769210, 4135.51282031, 4137.30769210, 4121.92307665, 4103.20512793, 4124.87179460, 4132.69230742, 4201.92307686,8.57
4117.69230742, 4121.02564075, 4121.28205101, 4122.82051255, 4120.12820485, 4138.33333313, 4136.41025621, 4127.69230742, 4131.28205101, 4126.28205101, 4103.33333306, 4125.76923050, 4133.46153819, 4199.10256397,8.57
4119.87179460, 4121.41025614, 4121.66666639, 4120.38461511, 4120.25640998, 4144.35897415, 4141.92307672, 4119.87179460, 4118.84615357, 4130.12820485, 4101.53846119, 4122.17948691, 4131.02564075, 4196.53846140,8.57
4119.35897408, 4123.58974332, 4121.41025614, 4125.38461511, 4124.48717921, 4145.12820492, 4144.87179467, 4122.69230742, 4118.33333306, 4129.23076896, 4102.30769196, 4126.53846126, 4134.48717921, 4199.48717935,8.57
4113.71794844, 4119.99999973, 4114.35897408, 4121.66666639, 4126.15384588, 4140.38461518, 4138.58974339, 4123.20512793, 4118.20512793, 4126.66666639, 4099.74358940, 4116.28205101, 4129.35897408, 4196.28205115,8.57
4123.46153819, 4125.89743562, 4125.76923050, 4121.79487152, 4123.20512793, 4133.46153819, 4131.02564075, 4115.64102537, 4111.28205101, 4126.28205101, 4098.71794837, 4118.46153819, 4128.20512793, 4195.12820499,8.57
4116.15384588, 4124.99999973, 4122.17948691, 4123.97435870, 4119.61538434, 4134.23076896, 4132.43589716, 4119.61538434, 4117.82051255, 4128.07692280, 4098.97435863, 4116.02564075, 4128.71794844, 4192.43589730,8.57
4116.53846126, 4123.84615357, 4119.99999973, 4126.92307665, 4124.23076896, 4135.76923056, 4135.25640998, 4124.48717921, 4123.71794844, 4129.10256383, 4097.94871761, 4113.58974332, 4127.94871767, 4195.25641012,8.57
4122.30769203, 4126.15384588, 4127.17948691, 4126.02564075, 4124.23076896, 4131.79487152, 4131.41025614, 4115.76923050, 4113.84615357, 4128.46153819, 4100.76923043, 4124.23076896, 4134.10256383, 4195.64102551,8.57
4115.38461511, 4122.94871767, 4120.51282024, 4117.05128178, 4120.25640998, 4133.84615357, 4133.20512793, 4116.92307665, 4116.28205101, 4129.23076896, 4101.92307658, 4114.74358947, 4133.20512793, 4189.74358961,8.57
4123.84615357, 4125.76923050, 4128.20512793, 4121.66666639, 4121.66666639, 4134.10256383, 4132.43589716, 4120.89743562, 4123.58974332, 4130.25640998, 4102.82051255, 4121.28205101, 4131.28205101, 4195.38461525,8.57
4120.12820485, 4124.74358947, 4125.89743562, 4122.43589716, 4121.02564075, 4124.48717921, 4122.82051255, 4108.71794844, 4113.33333306, 4126.92307665, 4101.66666632, 4127.82051255, 4130.38461511, 4196.28205115,8.57
4119.74358947, 4124.35897408, 4124.10256383, 4119.10256383, 4125.12820485, 4122.30769203, 4117.82051255, 4103.07692280, 4107.30769203, 4126.15384588, 4101.41025607, 4117.94871767, 4128.97435870, 4195.51282038,8.57
4126.28205101, 4125.51282024, 4132.43589716, 4125.76923050, 4125.51282024, 4128.07692280, 4119.48717921, 4107.94871767, 4110.12820485, 4129.23076896, 4105.38461511, 4125.12820485, 4133.97435870, 4200.89743576,8.57
4117.43589716, 4119.87179460, 4120.76923050, 4123.07692280, 4121.41025614, 4128.84615357, 4125.12820485, 4110.64102537, 4112.56410229, 4127.69230742, 4103.33333306, 4122.17948691, 4132.56410229, 4198.71794858,8.57
4125.64102537, 4123.46153819, 4123.58974332, 4123.71794844, 4125.12820485, 4124.23076896, 4123.97435870, 4107.56410229, 4110.38461511, 4125.51282024, 4103.20512793, 4125.76923050, 4130.51282024, 4200.64102551,8.57
4122.94871767, 4124.10256383, 4122.94871767, 4125.64102537, 4125.64102537, 4122.69230742, 4114.48717921, 4101.79487145, 4103.58974332, 4126.15384588, 4103.84615357, 4130.12820485, 4131.28205101, 4200.51282038,8.57
4116.66666639, 4121.15384588, 4117.56410229, 4122.30769203, 4122.69230742, 4121.66666639, 4115.25640998, 4105.25640998, 4106.15384588, 4126.02564075, 4103.84615357, 4121.02564075, 4129.10256383, 4200.51282038,8.57
4119.23076896, 4123.71794844, 4122.43589716, 4124.48717921, 4120.12820485, 4115.89743562, 4119.99999973, 4111.79487152, 4112.56410229, 4126.66666639, 4107.17948691, 4127.69230742, 4131.92307665, 4202.05128199,8.57
4109.87179460, 4120.76923050, 4115.25640998, 4122.05128178, 4120.51282024, 4115.25640998, 4113.97435870, 4107.82051255, 4106.02564075, 4127.43589716, 4103.20512793, 4121.53846126, 4130.51282024, 4195.12820499,8.57
4120.89743562, 4123.71794844, 4123.84615357, 4121.79487152, 4123.33333306, 4116.41025614, 4112.17948691, 4104.87179460, 4103.71794844, 4128.46153819, 4101.92307658, 4118.33333306, 4130.25640998, 4198.20512807,8.57
4120.76923050, 4123.71794844, 4123.97435870, 4124.87179460, 4119.10256383, 4111.41025614, 4117.69230742, 4107.82051255, 4109.61538434, 4129.74358947, 4106.92307665, 4121.02564075, 4130.89743562, 4200.12820499,8.57
4113.84615357, 4121.79487152, 4114.10256383, 4125.12820485, 4119.61538434, 4106.53846126, 4113.33333306, 4104.99999973, 4101.41025607, 4127.69230742, 4104.48717921, 4109.61538434, 4126.92307665, 4196.41025628,8.57
4123.46153819, 4127.05128178, 4123.71794844, 4126.28205101, 4123.46153819, 4108.84615357, 4109.99999973, 4103.84615357, 4097.17948684, 4127.56410229, 4102.30769196, 4119.74358947, 4130.89743562, 4197.82051269,8.57
4114.87179460, 4122.69230742, 4120.12820485, 4121.02564075, 4121.41025614, 4112.05128178, 4114.10256383, 4107.94871767, 4104.87179460, 4128.71794844, 4105.64102537, 4119.61538434, 4129.61538434, 4193.71794858,8.57
4118.71794844, 4124.23076896, 4121.28205101, 4124.48717921, 4123.33333306, 4109.23076896, 4107.69230742, 4099.61538427, 4095.25640991, 4126.79487152, 4107.82051255, 4114.61538434, 4126.79487152, 4193.58974345,8.57
4124.10256383, 4126.53846126, 4123.07692280, 4128.20512793, 4124.48717921, 4109.61538434, 4101.66666632, 4087.69230735, 4079.35897402, 4125.76923050, 4107.30769203, 4122.43589716, 4132.56410229, 4193.46153833,8.57
4117.30769203, 4122.05128178, 4117.82051255, 4119.48717921, 4124.74358947, 4116.66666639, 4108.84615357, 4091.28205094, 4084.87179453, 4126.53846126, 4103.97435870, 4116.28205101, 4132.30769203, 4191.53846140,8.57
4124.48717921, 4125.12820485, 4129.23076896, 4124.23076896, 4125.89743562, 4115.64102537, 4109.35897408, 4099.23076889, 4096.15384581, 4127.30769203, 4103.71794844, 4122.56410229, 4131.28205101, 4196.15384602,8.57
4119.23076896, 4124.10256383, 4123.46153819, 4124.99999973, 4122.05128178, 4101.41025607, 4099.48717914, 4092.94871761, 4092.30769196, 4127.82051255, 4104.23076896, 4122.17948691, 4130.64102537, 4194.61538448,8.57
4122.43589716, 4125.76923050, 4122.05128178, 4120.25640998, 4122.56410229, 4096.28205094, 4095.89743555, 4081.28205094, 4080.51282017, 4128.07692280, 4103.84615357, 4119.99999973, 4131.53846126, 4197.17948704,8.57
4126.41025614, 4129.10256383, 4128.84615357, 4123.07692280, 4124.87179460, 4107.17948691, 4104.48717921, 4094.74358940, 4091.15384581, 4126.92307665, 4105.89743562, 4128.84615357, 4134.99999973, 4200.38461525,8.57
4116.92307665, 4125.12820485, 4120.12820485, 4121.15384588, 4123.97435870, 4109.10256383, 4113.07692280, 4118.58974332, 4116.15384588, 4126.02564075, 4105.38461511, 4117.30769203, 4133.71794844, 4198.07692294,8.57
4126.53846126, 4125.89743562, 4125.64102537, 4124.74358947, 4123.07692280, 4104.35897408, 4110.25640998, 4117.05128178, 4116.02564075, 4127.30769203, 4107.43589716, 4123.20512793, 4136.79487159, 4204.48717942,8.57
4124.10256383, 4122.30769203, 4121.41025614, 4124.35897408, 4120.38461511, 4106.92307665, 4103.46153819, 4105.12820485, 4101.92307658, 4127.17948691, 4107.82051255, 4127.05128178, 4134.23076896, 4201.02564096,8.57
4119.87179460, 4121.92307665, 4117.56410229, 4121.79487152, 4121.79487152, 4109.61538434, 4105.38461511, 4105.89743562, 4104.74358947, 4125.89743562, 4104.23076896, 4115.51282024, 4127.17948691, 4196.15384602,8.57
4121.02564075, 4124.99999973, 4122.17948691, 4125.12820485, 4121.41025614, 4103.07692280, 4104.87179460, 4104.87179460, 4108.20512793, 4126.28205101, 4106.92307665, 4123.46153819, 4133.46153819, 4199.87179474,8.57
4113.84615357, 4121.92307665, 4113.07692280, 4122.43589716, 4121.66666639, 4098.07692273, 4098.07692273, 4093.84615350, 4098.84615350, 4128.46153819, 4109.48717921, 4118.84615357, 4135.76923056, 4195.76923063,8.57
4123.07692280, 4125.12820485, 4122.69230742, 4122.43589716, 4124.99999973, 4102.69230742, 4100.51282017, 4090.12820478, 4094.35897402, 4128.07692280, 4108.20512793, 4118.33333306, 4133.71794844, 4195.51282038,8.57
4118.58974332, 4122.43589716, 4123.84615357, 4122.69230742, 4121.79487152, 4102.82051255, 4103.71794844, 4092.43589709, 4098.33333299, 4123.84615357, 4106.28205101, 4121.28205101, 4132.69230742, 4195.89743576,8.57
4114.99999973, 4120.51282024, 4118.07692280, 4124.48717921, 4122.43589716, 4093.84615350, 4099.23076889, 4097.30769196, 4107.43589716, 4123.07692280, 4104.87179460, 4113.33333306, 4130.64102537, 4194.23076910,8.57
4122.82051255, 4126.15384588, 4125.25640998, 4127.56410229, 4123.71794844, 4093.71794837, 4099.99999966, 4106.53846126, 4115.64102537, 4125.38461511, 4107.56410229, 4121.53846126, 4134.10256383, 4194.10256397,8.57
4116.66666639, 4122.05128178, 4120.51282024, 4119.99999973, 4119.99999973, 4105.89743562, 4108.97435870, 4111.66666639, 4110.12820485, 4125.64102537, 4108.71794844, 4117.05128178, 4131.92307665, 4193.20512807,8.57
4123.97435870, 4122.94871767, 4126.79487152, 4124.35897408, 4122.82051255, 4107.69230742, 4111.02564075, 4114.87179460, 4109.61538434, 4125.76923050, 4108.46153819, 4117.69230742, 4131.02564075, 4198.33333320,8.57
4121.92307665, 4126.02564075, 4126.28205101, 4130.51282024, 4124.61538434, 4104.74358947, 4107.69230742, 4117.05128178, 4122.05128178, 4126.28205101, 4107.94871767, 4123.97435870, 4131.66666639, 4195.89743576,8.57
4119.23076896, 4125.12820485, 4120.76923050, 4122.82051255, 4122.05128178, 4108.33333306, 4108.84615357, 4108.71794844, 4113.97435870, 4125.89743562, 4105.64102537, 4115.12820485, 4130.38461511, 4191.28205115,8.57
4127.82051255, 4127.69230742, 4131.02564075, 4124.48717921, 4119.99999973, 4107.17948691, 4105.89743562, 4092.30769196, 4087.43589709, 4124.99999973, 4106.53846126, 4124.74358947, 4134.74358947, 4194.48717935,8.57
4117.43589716, 4123.20512793, 4122.05128178, 4123.07692280, 4120.12820485, 4103.46153819, 4101.66666632, 4089.61538427, 4088.58974325, 4124.48717921, 4106.79487152, 4124.99999973, 4130.38461511, 4194.10256397,8.57
4124.10256383, 4124.87179460, 4123.33333306, 4123.46153819, 4122.43589716, 4105.76923050, 4105.12820485, 4094.10256376, 4101.92307658, 4125.51282024, 4110.12820485, 4123.33333306, 4131.02564075, 4201.41025634,8.57
4123.07692280, 4125.38461511, 4127.69230742, 4126.53846126, 4117.82051255, 4106.66666639, 4103.07692280, 4086.41025607, 4088.58974325, 4128.20512793, 4112.43589716, 4127.69230742, 4136.41025621, 4201.41025634,8.57
4113.97435870, 4119.10256383, 4118.20512793, 4122.05128178, 4118.33333306, 4095.64102530, 4090.76923043, 4081.15384581, 4080.38461504, 4128.84615357, 4105.89743562, 4119.23076896, 4130.89743562, 4194.74358961,8.57
4125.89743562, 4121.53846126, 4123.33333306, 4124.35897408, 4123.46153819, 4089.23076889, 4085.89743555, 4086.92307658, 4098.20512786, 4127.69230742, 4106.28205101, 4128.20512793, 4131.79487152, 4199.48717935,8.57
4117.82051255, 4120.25640998, 4116.41025614, 4121.28205101, 4121.15384588, 4092.94871761, 4092.17948684, 4089.48717914, 4103.07692280, 4125.76923050, 4108.33333306, 4123.46153819, 4131.28205101, 4197.82051269,8.57
4117.30769203, 4121.41025614, 4116.92307665, 4119.48717921, 4124.35897408, 4092.56410222, 4096.28205094, 4088.20512786, 4095.38461504, 4124.99999973, 4107.17948691, 4117.43589716, 4130.25640998, 4196.79487166,8.57
4118.71794844, 4121.15384588, 4120.76923050, 4122.94871767, 4123.33333306, 4091.79487145, 4093.46153812, 4092.56410222, 4101.92307658, 4127.56410229, 4108.33333306, 4126.41025614, 4133.20512793, 4197.30769217,8.57
4111.28205101, 4118.46153819, 4112.82051255, 4120.12820485, 4118.58974332, 4097.94871761, 4097.69230735, 4096.41025607, 4104.23076896, 4126.79487152, 4107.30769203, 4116.28205101, 4128.20512793, 4195.64102551,8.57
4122.17948691, 4125.64102537, 4124.74358947, 4124.61538434, 4121.28205101, 4104.10256383, 4108.71794844, 4099.23076889, 4096.53846119, 4124.87179460, 4109.23076896, 4118.46153819, 4127.82051255, 4197.94871781,8.57
4116.02564075, 4122.05128178, 4123.07692280, 4125.38461511, 4120.89743562, 4109.87179460, 4114.48717921, 4106.53846126, 4104.10256383, 4126.28205101, 4109.10256383, 4117.56410229, 4128.33333306, 4192.69230756,8.57
4119.10256383, 4122.82051255, 4123.46153819, 4124.87179460, 4125.12820485, 4117.82051255, 4115.89743562, 4107.05128178, 4110.38461511, 4128.07692280, 4107.56410229, 4116.41025614, 4128.46153819, 4194.10256397,8.57
4123.07692280, 4126.02564075, 4126.66666639, 4126.66666639, 4125.38461511, 4113.46153819, 4116.02564075, 4098.20512786, 4103.84615357, 4127.43589716, 4108.84615357, 4125.89743562, 4130.38461511, 4195.25641012,8.57
4113.97435870, 4119.87179460, 4117.69230742, 4121.02564075, 4121.53846126, 4104.87179460, 4112.43589716, 4100.64102530, 4108.97435870, 4126.02564075, 4107.82051255, 4116.02564075, 4127.56410229, 4193.20512807,8.57
4128.46153819, 4125.25640998, 4133.20512793, 4124.61538434, 4123.20512793, 4110.25640998, 4113.58974332, 4116.92307665, 4127.94871767, 4125.76923050, 4107.30769203, 4122.05128178, 4131.28205101, 4200.51282038,8.57
4118.33333306, 4121.66666639, 4128.84615357, 4123.46153819, 4119.23076896, 4118.46153819, 4124.48717921, 4131.79487152, 4143.97435877, 4125.38461511, 4105.25640998, 4125.38461511, 4131.28205101, 4195.89743576,8.57
4116.92307665, 4121.15384588, 4123.07692280, 4120.51282024, 4122.56410229, 4118.58974332, 4126.53846126, 4132.82051255, 4141.02564082, 4125.89743562, 4109.10256383, 4122.69230742, 4129.74358947, 4194.61538448,8.57
4128.84615357, 4128.71794844, 4131.66666639, 4126.66666639, 4124.99999973, 4118.20512793, 4119.87179460, 4126.02564075, 4127.43589716, 4126.02564075, 4113.07692280, 4130.12820485, 4133.20512793, 4198.84615371,8.57
4115.12820485, 4120.25640998, 4119.48717921, 4122.17948691, 4117.69230742, 4122.94871767, 4123.71794844, 4122.30769203, 4119.35897408, 4124.35897408, 4105.64102537, 4118.46153819, 4128.97435870, 4197.05128192,8.57
4127.05128178, 4122.82051255, 4127.43589716, 4123.33333306, 4124.23076896, 4120.25640998, 4123.58974332, 4110.76923050, 4108.33333306, 4125.25640998, 4105.38461511, 4127.05128178, 4134.35897408, 4202.43589737,8.57
4121.92307665, 4123.84615357, 4123.20512793, 4122.05128178, 4127.94871767, 4108.97435870, 4110.76923050, 4096.79487145, 4103.71794844, 4127.56410229, 4110.64102537, 4129.99999973, 4136.02564082, 4198.33333320,8.57
4114.61538434, 4120.38461511, 4116.15384588, 4117.05128178, 4122.43589716, 4104.61538434, 4107.05128178, 4095.76923043, 4108.07692280, 4126.41025614, 4108.97435870, 4117.56410229, 4127.94871767, 4196.66666653,8.57
4123.97435870, 4124.61538434, 4127.56410229, 4122.82051255, 4121.15384588, 4112.69230742, 4116.66666639, 4103.84615357, 4109.74358947, 4126.92307665, 4108.71794844, 4128.71794844, 4130.25640998, 4202.69230763,8.57
4109.99999973, 4120.12820485, 4113.97435870, 4119.35897408, 4122.56410229, 4117.56410229, 4119.74358947, 4112.05128178, 4111.92307665, 4128.97435870, 4108.46153819, 4121.53846126, 4129.61538434, 4197.69230756,8.57
4119.23076896, 4121.92307665, 4119.87179460, 4123.07692280, 4125.12820485, 4109.74358947, 4115.12820485, 4116.92307665, 4118.20512793, 4128.33333306, 4108.07692280, 4121.15384588, 4130.12820485, 4198.71794858,8.57
4117.69230742, 4121.92307665, 4126.28205101, 4126.92307665, 4121.02564075, 4108.58974332, 4115.89743562, 4119.61538434, 4124.23076896, 4127.43589716, 4106.53846126, 4126.79487152, 4132.56410229, 4198.33333320,8.57
4110.12820485, 4120.25640998, 4119.48717921, 4120.12820485, 4122.05128178, 4118.46153819, 4123.33333306, 4118.58974332, 4120.89743562, 4126.53846126, 4104.48717921, 4114.23076896, 4128.97435870, 4193.97435884,8.57
4123.58974332, 4125.25640998, 4128.58974332, 4121.66666639, 4127.17948691, 4120.12820485, 4122.69230742, 4112.56410229, 4110.51282024, 4126.79487152, 4107.56410229, 4122.17948691, 4130.12820485, 4195.38461525,8.57
4115.89743562, 4120.51282024, 4119.61538434, 4119.87179460, 4122.94871767, 4111.92307665, 4113.58974332, 4103.97435870, 4104.61538434, 4127.43589716, 4105.38461511, 4122.05128178, 4127.56410229, 4193.33333320,8.57
4121.66666639, 4125.51282024, 4122.30769203, 4124.23076896, 4121.92307665, 4108.46153819, 4109.23076896, 4096.66666632, 4100.12820478, 4126.79487152, 4101.28205094, 4118.58974332, 4127.56410229, 4197.05128192,8.57
4121.66666639, 4127.82051255, 4127.05128178, 4127.30769203, 4122.69230742, 4109.99999973, 4107.05128178, 4092.05128171, 4095.64102530, 4126.79487152, 4105.38461511, 4124.61538434, 4131.41025614, 4196.66666653,8.57
4114.87179460, 4119.61538434, 4118.58974332, 4119.74358947, 4124.74358947, 4103.84615357, 4102.43589709, 4089.87179453, 4100.64102530, 4127.17948691, 4106.41025614, 4118.33333306, 4128.20512793, 4191.41025628,8.57
4129.61538434, 4125.38461511, 4128.33333306, 4123.58974332, 4124.23076896, 4101.79487145, 4103.58974332, 4097.43589709, 4112.69230742, 4128.46153819, 4106.02564075, 4126.79487152, 4131.92307665, 4198.33333320,8.57
4119.48717921, 4126.15384588, 4124.48717921, 4123.20512793, 4118.20512793, 4110.38461511, 4113.84615357, 4111.02564075, 4119.23076896, 4127.69230742, 4106.79487152, 4126.28205101, 4133.97435870, 4198.33333320,8.57
4117.56410229, 4125.89743562, 4125.64102537, 4121.79487152, 4123.20512793, 4110.76923050, 4115.64102537, 4110.12820485, 4113.84615357, 4125.38461511, 4107.05128178, 4120.25640998, 4127.17948691, 4196.53846140,8.57
4124.99999973, 4126.41025614, 4128.20512793, 4125.38461511, 4125.89743562, 4100.76923043, 4104.99999973, 4095.89743555, 4102.94871767, 4125.76923050, 4107.05128178, 4130.51282024, 4126.66666639, 4198.58974345,8.57
4118.33333306, 4122.43589716, 4115.76923050, 4122.05128178, 4121.41025614, 4094.74358940, 4100.25640991, 4085.25640991, 4097.43589709, 4127.43589716, 4105.38461511, 4123.58974332, 4126.79487152, 4196.92307679,8.57
4125.25640998, 4127.05128178, 4126.53846126, 4124.10256383, 4121.79487152, 4103.20512793, 4107.56410229, 4088.84615350, 4097.69230735, 4127.56410229, 4106.66666639, 4124.10256383, 4131.02564075, 4199.61538448,8.57
4116.53846126, 4123.97435870, 4123.71794844, 4122.43589716, 4120.76923050, 4111.66666639, 4111.28205101, 4095.38461504, 4094.48717914, 4127.05128178, 4107.30769203, 4125.38461511, 4131.53846126, 4197.56410243,8.57
4116.53846126, 4121.02564075, 4114.61538434, 4121.53846126, 4122.43589716, 4104.10256383, 4105.64102537, 4091.15384581, 4089.23076889, 4126.53846126, 4106.41025614, 4118.97435870, 4126.53846126, 4197.17948704,8.57
4122.56410229, 4123.33333306, 4119.99999973, 4127.82051255, 4124.35897408, 4099.10256376, 4102.43589709, 4085.64102530, 4091.53846119, 4126.53846126, 4107.82051255, 4125.76923050, 4130.51282024, 4199.23076910,8.57
4110.38461511, 4120.12820485, 4117.69230742, 4123.20512793, 4124.74358947, 4107.56410229, 4105.38461511, 4087.69230735, 4098.46153812, 4126.28205101, 4105.51282024, 4116.92307665, 4131.79487152, 4193.71794858,8.57
4118.33333306, 4123.97435870, 4124.10256383, 4122.69230742, 4125.89743562, 4109.61538434, 4103.33333306, 4086.66666632, 4099.87179453, 4125.89743562, 4104.74358947, 4116.79487152, 4129.87179460, 4194.87179474,8.57
4117.94871767, 4120.89743562, 4118.97435870, 4124.35897408, 4121.92307665, 4106.79487152, 4099.10256376, 4087.43589709, 4100.51282017, 4126.66666639, 4107.56410229, 4123.71794844, 4127.94871767, 4195.51282038,8.57
4116.28205101, 4121.66666639, 4120.64102537, 4124.48717921, 4122.17948691, 4110.89743562, 4101.41025607, 4094.48717914, 4105.25640998, 4126.92307665, 4106.15384588, 4114.99999973, 4126.28205101, 4195.12820499,8.57
4120.64102537, 4129.10256383, 4132.17948691, 4127.69230742, 4122.56410229, 4112.56410229, 4106.66666639, 4101.79487145, 4114.74358947, 4126.15384588, 4107.05128178, 4119.23076896, 4130.64102537, 4196.28205115,8.57
4113.71794844, 4121.79487152, 4119.35897408, 4121.02564075, 4119.74358947, 4109.61538434, 4108.97435870, 4108.58974332, 4124.35897408, 4126.79487152, 4108.71794844, 4118.20512793, 4128.58974332, 4193.58974345,8.57
4127.69230742, 4125.51282024, 4126.79487152, 4122.56410229, 4124.35897408, 4102.69230742, 4105.25640998, 4105.25640998, 4119.48717921, 4127.30769203, 4107.56410229, 4120.38461511, 4127.17948691, 4198.33333320,8.57
4112.43589716, 4123.07692280, 4123.84615357, 4121.41025614, 4121.41025614, 4097.17948684, 4102.69230742, 4093.58974325, 4105.38461511, 4125.64102537, 4107.94871767, 4122.56410229, 4130.64102537, 4197.69230756,8.57
4124.10256383, 4125.38461511, 4128.07692280, 4123.33333306, 4121.41025614, 4107.43589716, 4113.07692280, 4094.74358940, 4100.38461504, 4126.02564075, 4110.51282024, 4121.66666639, 4131.02564075, 4197.43589730,8.57
4144.87179467, 4135.12820485, 4137.43589723, 4127.69230742, 4126.28205101, 4117.94871767, 4122.05128178, 4099.35897402, 4098.97435863, 4127.82051255, 4110.89743562, 4131.79487152, 4131.79487152, 4197.94871781,8.57
4083.20512786, 4102.43589709, 4089.87179453, 4100.38461504, 4116.41025614, 4119.87179460, 4117.69230742, 4093.07692273, 4094.74358940, 4127.30769203, 4106.02564075, 4116.02564075, 4129.35897408, 4189.87179474,8.57
4145.25641005, 4131.92307665, 4140.51282031, 4129.35897408, 4125.51282024, 4113.84615357, 4110.51282024, 4086.41025607, 4093.84615350, 4125.89743562, 4107.82051255, 4132.30769203, 4131.66666639, 4202.94871788,8.57
4132.30769203, 4135.25640998, 4132.30769203, 4129.99999973, 4124.61538434, 4107.94871767, 4108.07692280, 4093.84615350, 4103.20512793, 4126.02564075, 4112.43589716, 4133.71794844, 4132.94871767, 4200.64102551,8.57
4091.79487145, 4107.94871767, 4101.02564068, 4102.82051255, 4117.30769203, 4110.64102537, 4107.05128178, 4097.30769196, 4107.69230742, 4126.53846126, 4110.12820485, 4115.25640998, 4130.38461511, 4199.61538448,8.57
4161.28205108, 4142.94871774, 4161.28205108, 4140.89743569, 4127.82051255, 4112.17948691, 4104.87179460, 4087.17948684, 4099.99999966, 4126.15384588, 4108.84615357, 4133.07692280, 4130.76923050, 4204.10256404,8.57
4078.71794837, 4102.56410229, 4091.79487145, 4109.99999973, 4113.97435870, 4109.48717921, 4107.17948691, 4091.66666632, 4106.92307665, 4125.38461511, 4111.53846126, 4114.61538434, 4129.87179460, 4193.33333320,8.57
4131.53846126, 4125.12820485, 4129.48717921, 4120.12820485, 4123.58974332, 4102.17948684, 4107.94871767, 4100.76923043, 4114.99999973, 4125.76923050, 4112.05128178, 4130.76923050, 4135.25640998, 4206.41025634,8.57
4143.07692287, 4143.20512800, 4147.69230749, 4139.99999980, 4129.10256383, 4104.74358947, 4105.89743562, 4102.69230742, 4115.64102537, 4127.05128178, 4107.94871767, 4131.02564075, 4133.20512793, 4195.64102551,8.57
4066.02564061, 4097.69230735, 4082.17948684, 4103.71794844, 4114.48717921, 4120.38461511, 4116.28205101, 4113.97435870, 4125.25640998, 4128.46153819, 4108.46153819, 4102.94871767, 4128.84615357, 4188.84615371,8.57
4156.53846133, 4140.25641005, 4149.74358954, 4133.58974332, 4128.71794844, 4119.61538434, 4125.12820485, 4118.33333306, 4123.20512793, 4126.92307665, 4112.56410229, 4132.56410229, 4132.43589716, 4203.46153840,8.57
4119.35897408, 4126.92307665, 4123.71794844, 4124.61538434, 4124.99999973, 4116.66666639, 4119.74358947, 4114.87179460, 4119.74358947, 4125.25640998, 4112.05128178, 4120.64102537, 4129.10256383, 4190.25641012,8.57
4103.84615357, 4114.48717921, 4109.99999973, 4113.07692280, 4122.30769203, 4127.43589716, 4118.97435870, 4115.76923050, 4123.97435870, 4126.79487152, 4112.05128178, 4110.25640998, 4129.61538434, 4192.69230756,8.57
4135.64102544, 4133.84615357, 4137.69230749, 4128.71794844, 4124.61538434, 4128.71794844, 4118.84615357, 4108.07692280, 4114.48717921, 4127.94871767, 4113.46153819, 4126.79487152, 4132.69230742, 4196.66666653,8.57
4116.79487152, 4123.58974332, 4122.30769203, 4121.92307665, 4120.76923050, 4117.30769203, 4108.46153819, 4093.84615350, 4099.61538427, 4126.92307665, 4109.74358947, 4119.23076896, 4130.25640998, 4193.07692294,8.57
4122.17948691, 4124.48717921, 4127.56410229, 4124.99999973, 4123.20512793, 4116.79487152, 4104.23076896, 4089.35897402, 4102.05128171, 4125.25640998, 4108.97435870, 4121.02564075, 4130.38461511, 4197.69230756,8.57
4116.53846126, 4121.92307665, 4122.30769203, 4123.58974332, 4119.61538434, 4122.56410229, 4111.66666639, 4095.12820478, 4116.66666639, 4126.41025614, 4113.84615357, 4128.20512793, 4130.76923050, 4199.74358961,8.57
