AF3,F7,F3,FC5,T7,P7,O1,O2,P8,T8,FC6,F4,F8,AF4,Label
4146.02564082, 4138.84615364, 4142.30769210, 4133.71794844, 4131.15384588, 4059.48717907, 4071.92307658, 4083.84615350, 4086.92307658, 4129.35897408, 4136.53846133, 4134.35897408, 4139.61538441, 4194.10256397,8.57
4143.84615364, 4138.33333313, 4140.76923056, 4134.23076896, 4131.41025614, 4059.10256369, 4074.61538427, 4083.71794837, 4087.05128171, 4127.94871767, 4132.94871767, 4131.66666639, 4137.82051262, 4195.12820499,8.57
4155.76923056, 4143.20512800, 4149.23076903, 4140.76923056, 4133.46153819, 4046.28205087, 4064.74358933, 4071.41025607, 4075.38461504, 4128.58974332, 4135.38461518, 4138.46153826, 4136.28205108, 4201.92307686,8.57
4151.79487159, 4143.97435877, 4147.94871774, 4139.87179467, 4133.20512793, 4058.97435856, 4085.64102530, 4091.79487145, 4091.41025607, 4129.61538434, 4138.33333313, 4141.79487159, 4137.94871774, 4198.07692294,8.57
4162.82051262, 4150.89743569, 4154.99999980, 4143.07692287, 4139.87179467, 4101.79487145, 4127.30769203, 4134.35897408, 4134.74358947, 4128.07692280, 4143.33333313, 4134.74358947, 4137.56410236, 4196.66666653,8.57
4171.66666653, 4151.15384595, 4160.64102544, 4147.43589723, 4142.43589723, 4112.56410229, 4132.17948691, 4145.51282031, 4144.10256390, 4128.33333306, 4152.05128185, 4144.23076903, 4142.43589723, 4200.76923063,8.57
4143.20512800, 4136.28205108, 4139.74358954, 4134.99999973, 4134.35897408, 4073.07692273, 4094.99999966, 4110.12820485, 4098.71794837, 4129.61538434, 4143.46153826, 4131.66666639, 4136.28205108, 4194.87179474,8.57
4124.48717921, 4130.89743562, 4130.38461511, 4129.48717921, 4129.99999973, 4043.46153805, 4064.99999959, 4076.92307658, 4064.23076882, 4129.48717921, 4134.10256383, 4124.10256383, 4132.30769203, 4194.87179474,8.57
4103.20512793, 4114.74358947, 4110.51282024, 4119.61538434, 4119.87179460, 4065.51282010, 4086.92307658, 4101.53846119, 4093.71794837, 4128.58974332, 4134.87179460, 4121.79487152, 4133.07692280, 4194.10256397,8.57
4094.87179453, 4106.28205101, 4097.82051248, 4111.41025614, 4112.94871767, 4095.51282017, 4119.48717921, 4136.53846133, 4124.74358947, 4127.43589716, 4131.53846126, 4105.64102537, 4127.56410229, 4192.17948704,8.57
4105.76923050, 4117.94871767, 4112.43589716, 4117.05128178, 4114.35897408, 4082.05128171, 4099.23076889, 4120.64102537, 4109.10256383, 4126.66666639, 4133.07692280, 4115.51282024, 4129.99999973, 4196.79487166,8.57
4106.28205101, 4117.94871767, 4110.12820485, 4116.79487152, 4115.76923050, 4047.69230728, 4062.94871754, 4091.15384581, 4083.71794837, 4124.48717921, 4132.43589716, 4115.89743562, 4130.38461511, 4193.33333320,8.57
4119.87179460, 4119.61538434, 4116.53846126, 4123.20512793, 4120.51282024, 4047.56410215, 4073.71794837, 4095.25640991, 4078.20512786, 4126.66666639, 4130.25640998, 4113.46153819, 4130.89743562, 4192.17948704,8.57
4125.51282024, 4120.64102537, 4124.61538434, 4127.05128178, 4120.12820485, 4075.89743555, 4097.56410222, 4109.48717921, 4084.10256376, 4131.02564075, 4134.35897408, 4123.46153819, 4132.69230742, 4192.17948704,8.57
4118.84615357, 4120.25640998, 4118.46153819, 4119.48717921, 4118.58974332, 4063.84615343, 4071.15384581, 4083.71794837, 4057.05128164, 4128.07692280, 4128.97435870, 4117.69230742, 4129.61538434, 4188.33333320,8.57
4122.82051255, 4125.89743562, 4123.46153819, 4123.33333306, 4121.92307665, 4045.51282010, 4058.97435856, 4070.25640991, 4047.43589702, 4126.53846126, 4126.15384588, 4125.12820485, 4137.05128185, 4191.66666653,8.57
4118.46153819, 4124.35897408, 4124.87179460, 4127.69230742, 4124.74358947, 4082.94871761, 4109.74358947, 4119.48717921, 4111.53846126, 4128.71794844, 4132.82051255, 4123.97435870, 4135.89743569, 4193.97435884,8.57
4120.64102537, 4126.28205101, 4129.35897408, 4128.33333306, 4128.20512793, 4096.02564068, 4118.71794844, 4134.23076896, 4133.58974332, 4127.30769203, 4136.79487159, 4123.33333306, 4129.48717921, 4195.38461525,8.57
4123.84615357, 4126.02564075, 4129.48717921, 4124.23076896, 4125.25640998, 4043.20512779, 4056.28205087, 4065.76923036, 4056.41025600, 4125.76923050, 4130.64102537, 4135.38461518, 4132.69230742, 4194.99999986,8.57
4118.20512793, 4124.99999973, 4121.92307665, 4120.51282024, 4118.84615357, 4014.74358926, 4031.02564054, 4024.61538413, 4013.20512772, 4127.94871767, 4121.53846126, 4121.92307665, 4132.69230742, 4196.66666653,8.57
4123.97435870, 4131.02564075, 4129.10256383, 4127.94871767, 4119.48717921, 4019.61538413, 4039.10256369, 4032.82051234, 4032.94871747, 4130.51282024, 4126.79487152, 4125.89743562, 4136.41025621, 4203.07692301,8.57
4126.79487152, 4127.43589716, 4126.28205101, 4128.20512793, 4123.20512793, 4014.10256362, 4031.66666618, 4042.17948677, 4055.38461497, 4129.74358947, 4133.07692280, 4129.48717921, 4134.87179460, 4193.97435884,8.57
4131.41025614, 4127.43589716, 4125.12820485, 4128.33333306, 4125.12820485, 4006.53846106, 4024.99999952, 4045.76923036, 4063.20512779, 4127.43589716, 4132.69230742, 4122.94871767, 4132.05128178, 4189.48717935,8.57
4130.76923050, 4130.76923050, 4128.97435870, 4128.84615357, 4124.74358947, 3973.71794817, 3986.41025586, 3998.84615329, 4006.92307644, 4129.23076896, 4127.43589716, 4130.51282024, 4139.48717928, 4196.02564089,8.57
4128.46153819, 4127.43589716, 4126.02564075, 4124.74358947, 4126.02564075, 3934.48717880, 3939.10256348, 3941.41025579, 3937.05128136, 4131.02564075, 4116.02564075, 4121.28205101, 4137.56410236, 4194.87179474,8.57
4133.84615357, 4128.46153819, 4131.66666639, 4130.89743562, 4127.05128178, 3956.53846092, 3965.25640963, 3966.79487117, 3964.10256348, 4127.05128178, 4119.48717921, 4123.46153819, 4135.89743569, 4193.33333320,8.57
4118.07692280, 4123.33333306, 4123.58974332, 4125.64102537, 4122.56410229, 3998.97435842, 4015.89743541, 4019.99999952, 4027.69230721, 4125.51282024, 4127.82051255, 4121.28205101, 4134.87179460, 4189.48717935,8.57
4115.76923050, 4123.20512793, 4119.61538434, 4120.25640998, 4122.05128178, 3992.56410201, 4009.10256362, 4019.23076875, 4030.12820465, 4129.23076896, 4123.58974332, 4112.30769203, 4132.05128178, 4193.20512807,8.57
4124.48717921, 4125.38461511, 4123.84615357, 4124.61538434, 4123.46153819, 3957.30769169, 3969.61538399, 3978.84615329, 3985.76923022, 4130.25640998, 4119.61538434, 4121.28205101, 4134.10256383, 4196.28205115,8.57
4125.12820485, 4126.53846126, 4123.20512793, 4122.82051255, 4122.94871767, 3928.97435828, 3935.51281982, 3933.84615316, 3938.71794810, 4127.05128178, 4115.89743562, 4117.17948691, 4128.20512793, 4188.33333320,8.57
4137.17948697, 4137.17948697, 4138.84615364, 4131.02564075, 4127.82051255, 3917.69230700, 3922.82051213, 3920.51281982, 3932.17948649, 4126.41025614, 4118.20512793, 4127.56410229, 4131.53846126, 4190.38461525,8.57
4134.74358947, 4133.07692280, 4137.82051262, 4131.02564075, 4129.48717921, 3924.87179418, 3933.33333264, 3941.41025579, 3953.71794810, 4129.23076896, 4118.97435870, 4132.43589716, 4139.48717928, 4193.84615371,8.57
4146.66666646, 4136.53846133, 4142.30769210, 4130.25640998, 4132.56410229, 3912.43589674, 3921.53846085, 3931.15384546, 3936.79487110, 4130.25640998, 4111.79487152, 4125.25640998, 4137.56410236, 4195.38461525,8.57
4160.76923056, 4148.84615364, 4156.92307672, 4140.51282031, 4135.38461518, 3872.30769148, 3884.23076847, 3890.12820437, 3898.97435821, 4128.97435870, 4112.30769203, 4140.38461518, 4140.38461518, 4195.51282038,8.57
4144.48717928, 4140.89743569, 4141.79487159, 4135.64102544, 4133.07692280, 3859.23076840, 3872.94871719, 3876.41025565, 3893.33333257, 4128.07692280, 4113.20512793, 4134.10256383, 4139.99999980, 4191.92307679,8.57
4139.74358954, 4135.25640998, 4134.61538434, 4131.79487152, 4132.17948691, 3885.12820437, 3897.05128129, 3901.92307616, 3917.69230700, 4129.35897408, 4113.46153819, 4128.58974332, 4139.48717928, 4197.30769217,8.57
4125.38461511, 4127.94871767, 4123.20512793, 4126.66666639, 4123.71794844, 3894.61538385, 3908.20512751, 3926.53846085, 3932.17948649, 4129.48717921, 4111.79487152, 4125.64102537, 4135.51282031, 4194.74358961,8.57
4113.84615357, 4124.35897408, 4113.84615357, 4119.87179460, 4119.74358947, 3870.12820430, 3887.17948642, 3906.79487110, 3910.12820444, 4128.33333306, 4106.15384588, 4114.87179460, 4129.99999973, 4191.41025628,8.57
4116.79487152, 4124.74358947, 4119.87179460, 4121.15384588, 4121.02564075, 3869.61538379, 3884.48717873, 3887.43589668, 3898.46153770, 4129.10256383, 4113.20512793, 4126.02564075, 4135.38461518, 4196.41025628,8.57
4107.43589716, 4116.02564075, 4113.07692280, 4116.79487152, 4115.51282024, 3891.66666591, 3904.10256334, 3903.97435821, 3918.71794803, 4126.92307665, 4116.53846126, 4119.23076896, 4132.82051255, 4195.25641012,8.57
4113.07692280, 4119.61538434, 4116.66666639, 4118.07692280, 4118.46153819, 3884.74358898, 3902.30769155, 3911.66666598, 3922.56410187, 4124.10256383, 4109.99999973, 4114.23076896, 4131.53846126, 4196.92307679,8.57
4111.28205101, 4121.53846126, 4114.23076896, 4118.07692280, 4121.28205101, 3880.25640950, 3902.56410180, 3912.43589674, 3920.51281982, 4127.43589716, 4105.64102537, 4117.69230742, 4133.71794844, 4193.71794858,8.57
4109.99999973, 4118.46153819, 4112.69230742, 4115.38461511, 4119.74358947, 3899.35897360, 3917.43589674, 3919.61538392, 3927.82051213, 4129.74358947, 4105.64102537, 4109.48717921, 4129.61538434, 4191.66666653,8.57
4118.84615357, 4121.92307665, 4123.97435870, 4120.76923050, 4120.12820485, 3893.33333257, 3907.82051213, 3911.92307623, 3914.10256341, 4128.07692280, 4111.02564075, 4119.23076896, 4133.58974332, 4195.25641012,8.57
4111.02564075, 4119.99999973, 4116.53846126, 4119.61538434, 4118.46153819, 3887.56410180, 3903.07692232, 3908.07692239, 3905.64102495, 4127.94871767, 4108.46153819, 4114.87179460, 4131.66666639, 4189.61538448,8.57
4119.87179460, 4122.82051255, 4121.53846126, 4123.20512793, 4120.12820485, 3928.71794803, 3937.82051213, 3933.20512751, 3935.12820444, 4128.46153819, 4109.87179460, 4114.10256383, 4131.15384588, 4189.99999986,8.57
4119.48717921, 4120.89743562, 4120.51282024, 4123.33333306, 4121.79487152, 3949.74358912, 3957.05128143, 3950.38461476, 3959.74358912, 4129.23076896, 4116.53846126, 4121.15384588, 4136.41025621, 4191.28205115,8.57
4112.56410229, 4120.38461511, 4112.82051255, 4117.30769203, 4122.69230742, 3943.33333271, 3951.92307630, 3948.33333271, 3960.25640963, 4129.61538434, 4112.69230742, 4112.17948691, 4130.89743562, 4188.84615371,8.57
4125.12820485, 4129.74358947, 4128.07692280, 4125.38461511, 4122.56410229, 3943.33333271, 3944.99999938, 3939.23076861, 3947.56410194, 4128.97435870, 4115.76923050, 4126.53846126, 4132.17948691, 4193.58974345,8.57
4122.30769203, 4126.02564075, 4124.48717921, 4127.43589716, 4119.74358947, 3923.71794803, 3928.71794803, 3920.89743521, 3931.41025572, 4128.07692280, 4118.71794844, 4128.07692280, 4131.53846126, 4194.99999986,8.57
4127.17948691, 4126.79487152, 4124.10256383, 4125.76923050, 4123.33333306, 3927.94871726, 3937.17948649, 3934.35897367, 3954.87179425, 4127.56410229, 4119.48717921, 4124.23076896, 4129.74358947, 4197.30769217,8.57
4123.84615357, 4128.33333306, 4126.02564075, 4125.64102537, 4124.35897408, 3968.71794810, 3970.76923015, 3969.87179425, 3993.58974304, 4127.82051255, 4125.64102537, 4128.97435870, 4136.15384595, 4196.53846140,8.57
4116.66666639, 4121.79487152, 4119.99999973, 4122.69230742, 4121.53846126, 3963.33333271, 3970.51281989, 3965.64102502, 3981.53846099, 4126.79487152, 4125.25640998, 4117.69230742, 4134.23076896, 4196.53846140,8.57
4126.41025614, 4124.99999973, 4124.99999973, 4125.76923050, 4122.17948691, 3930.51281982, 3948.58974297, 3947.43589681, 3959.48717887, 4126.92307665, 4124.61538434, 4128.33333306, 4133.46153819, 4201.92307686,8.57
4110.89743562, 4123.58974332, 4111.15384588, 4119.23076896, 4120.76923050, 3933.46153777, 3948.97435835, 3954.99999938, 3971.41025586, 4128.46153819, 4122.17948691, 4125.25640998, 4131.02564075, 4195.38461525,8.57
4113.84615357, 4122.56410229, 4116.41025614, 4116.53846126, 4123.46153819, 3950.38461476, 3964.74358912, 3968.84615322, 3986.66666611, 4126.79487152, 4122.94871767, 4117.17948691, 4132.43589716, 4195.51282038,8.57
4118.20512793, 4120.38461511, 4126.53846126, 4122.56410229, 4122.94871767, 3967.30769169, 3982.82051227, 3983.33333278, 3996.28205073, 4126.28205101, 4128.84615357, 4126.92307665, 4138.07692287, 4196.53846140,8.57
4106.02564075, 4116.53846126, 4112.30769203, 4119.99999973, 4120.76923050, 3971.92307637, 3993.46153791, 4001.53846099, 4014.61538413, 4128.58974332, 4127.30769203, 4116.02564075, 4131.53846126, 4189.99999986,8.57
4119.99999973, 4124.87179460, 4118.97435870, 4122.30769203, 4126.41025614, 3954.10256348, 3988.58974304, 4005.89743541, 4020.25640977, 4128.97435870, 4131.53846126, 4122.56410229, 4132.82051255, 4194.74358961,8.57
4113.20512793, 4119.87179460, 4119.74358947, 4121.28205101, 4122.30769203, 3955.51281989, 3983.07692252, 4000.25640970, 4006.15384567, 4127.56410229, 4132.17948691, 4122.43589716, 4133.07692280, 4189.61538448,8.57
4112.82051255, 4118.07692280, 4119.87179460, 4121.92307665, 4118.07692280, 3966.79487117, 3982.30769176, 3991.53846099, 3991.02564047, 4126.41025614, 4123.97435870, 4112.94871767, 4128.33333306, 4185.51282038,8.57
4120.76923050, 4125.25640998, 4121.28205101, 4126.66666639, 4120.51282024, 3962.69230707, 3984.23076868, 3982.94871740, 3984.99999945, 4128.20512793, 4128.07692280, 4128.20512793, 4133.20512793, 4192.56410243,8.57
4108.84615357, 4118.20512793, 4111.28205101, 4117.56410229, 4120.51282024, 3980.76923022, 4003.07692252, 4000.12820458, 4000.25640970, 4128.33333306, 4132.69230742, 4122.17948691, 4129.35897408, 4192.82051269,8.57
4118.71794844, 4119.61538434, 4123.71794844, 4118.46153819, 4121.53846126, 4005.12820465, 4018.71794824, 4021.53846106, 4018.07692259, 4127.05128178, 4132.43589716, 4123.97435870, 4129.10256383, 4194.87179474,8.57
4117.82051255, 4121.79487152, 4122.69230742, 4125.38461511, 4119.35897408, 3997.82051227, 4009.23076875, 4007.82051234, 4006.66666618, 4126.15384588, 4131.28205101, 4129.99999973, 4134.74358947, 4193.46153833,8.57
4113.07692280, 4119.74358947, 4116.02564075, 4122.30769203, 4119.74358947, 3993.58974304, 4005.89743541, 3998.20512765, 3995.12820458, 4126.02564075, 4131.28205101, 4120.25640998, 4132.05128178, 4195.64102551,8.57
4120.38461511, 4122.56410229, 4123.71794844, 4123.07692280, 4122.43589716, 3998.71794817, 4013.46153798, 4008.84615336, 4002.56410201, 4127.17948691, 4136.53846133, 4130.89743562, 4136.02564082, 4199.48717935,8.57
4114.35897408, 4120.25640998, 4114.61538434, 4121.02564075, 4121.66666639, 3994.48717894, 4010.76923029, 4009.10256362, 4009.74358926, 4127.82051255, 4133.97435870, 4127.43589716, 4135.12820485, 4195.89743576,8.57
4119.61538434, 4119.87179460, 4114.48717921, 4119.23076896, 4119.74358947, 3998.33333278, 4011.66666618, 4011.53846106, 4020.51282003, 4128.71794844, 4131.66666639, 4127.69230742, 4133.58974332, 4199.99999986,8.57
4118.33333306, 4122.30769203, 4118.97435870, 4120.51282024, 4116.79487152, 4013.71794824, 4027.43589695, 4033.07692259, 4046.28205087, 4125.64102537, 4137.43589723, 4132.94871767, 4136.53846133, 4199.23076910,8.57
4110.12820485, 4121.53846126, 4114.99999973, 4115.89743562, 4120.64102537, 4011.15384567, 4024.87179439, 4029.23076875, 4047.05128164, 4123.84615357, 4136.41025621, 4119.10256383, 4131.53846126, 4196.15384602,8.57
4116.92307665, 4121.66666639, 4121.41025614, 4117.43589716, 4124.35897408, 4003.84615329, 4012.56410208, 4012.43589695, 4030.25640977, 4127.43589716, 4135.51282031, 4128.20512793, 4132.94871767, 4200.25641012,8.57
4116.92307665, 4123.71794844, 4121.15384588, 4121.15384588, 4123.46153819, 4024.10256362, 4029.48717900, 4036.28205080, 4049.48717907, 4128.20512793, 4133.07692280, 4126.53846126, 4132.56410229, 4195.76923063,8.57
4118.46153819, 4122.43589716, 4120.25640998, 4117.94871767, 4124.61538434, 4035.12820465, 4037.82051241, 4050.12820472, 4062.94871754, 4125.76923050, 4131.66666639, 4118.58974332, 4130.76923050, 4195.25641012,8.57
4121.15384588, 4122.43589716, 4124.23076896, 4122.05128178, 4124.99999973, 4022.05128157, 4022.30769183, 4028.07692259, 4043.71794830, 4126.15384588, 4135.64102544, 4126.66666639, 4135.51282031, 4196.79487166,8.57
4117.30769203, 4122.82051255, 4120.64102537, 4124.48717921, 4124.87179460, 4017.17948670, 4021.28205080, 4021.15384567, 4037.56410215, 4127.56410229, 4129.99999973, 4120.64102537, 4133.20512793, 4193.07692294,8.57
4121.66666639, 4122.05128178, 4122.43589716, 4123.97435870, 4122.82051255, 4017.30769183, 4021.66666618, 4025.25640977, 4039.61538420, 4125.89743562, 4126.28205101, 4126.28205101, 4132.05128178, 4194.99999986,8.57
4121.66666639, 4123.07692280, 4121.15384588, 4123.97435870, 4123.20512793, 4014.48717900, 4015.12820465, 4022.94871747, 4037.30769189, 4125.51282024, 4127.30769203, 4123.20512793, 4128.46153819, 4193.97435884,8.57
4117.30769203, 4123.07692280, 4119.48717921, 4117.30769203, 4124.74358947, 4029.61538413, 4030.51282003, 4041.79487138, 4059.10256369, 4127.82051255, 4129.23076896, 4117.43589716, 4128.58974332, 4193.84615371,8.57
4118.84615357, 4124.23076896, 4124.35897408, 4121.92307665, 4120.76923050, 4041.92307651, 4045.89743548, 4063.07692266, 4080.64102530, 4128.20512793, 4133.46153819, 4131.53846126, 4135.89743569, 4193.84615371,8.57
4119.48717921, 4122.17948691, 4119.10256383, 4124.61538434, 4118.33333306, 4026.92307644, 4034.48717900, 4049.61538420, 4065.25640984, 4125.64102537, 4130.64102537, 4122.82051255, 4131.15384588, 4192.05128192,8.57
4121.02564075, 4123.20512793, 4119.87179460, 4119.74358947, 4119.35897408, 4029.23076875, 4039.23076882, 4043.46153805, 4059.23076882, 4126.79487152, 4133.84615357, 4125.64102537, 4132.30769203, 4196.66666653,8.57
4119.87179460, 4127.69230742, 4122.17948691, 4123.20512793, 4122.94871767, 4052.94871754, 4061.79487138, 4068.20512779, 4081.79487145, 4128.71794844, 4137.82051262, 4133.58974332, 4137.94871774, 4193.33333320,8.57
4121.02564075, 4120.64102537, 4120.25640998, 4121.66666639, 4128.07692280, 4048.46153805, 4058.46153805, 4074.10256376, 4079.74358940, 4126.15384588, 4131.66666639, 4125.38461511, 4136.66666646, 4194.23076910,8.57
4120.38461511, 4118.97435870, 4122.69230742, 4121.02564075, 4125.12820485, 4034.10256362, 4044.99999959, 4052.05128164, 4057.94871754, 4128.33333306, 4132.43589716, 4131.79487152, 4138.07692287, 4199.74358961,8.57
4116.92307665, 4126.28205101, 4120.25640998, 4120.89743562, 4120.64102537, 4037.94871754, 4045.25640984, 4043.84615343, 4062.17948677, 4129.87179460, 4133.20512793, 4128.46153819, 4132.94871767, 4196.02564089,8.57
4119.48717921, 4125.25640998, 4123.20512793, 4118.84615357, 4121.28205101, 4044.87179446, 4051.41025600, 4058.20512779, 4078.71794837, 4125.12820485, 4132.43589716, 4131.92307665, 4133.84615357, 4199.48717935,8.57
4113.71794844, 4122.05128178, 4123.97435870, 4121.28205101, 4119.61538434, 4051.66666625, 4054.35897395, 4062.43589702, 4077.05128171, 4123.84615357, 4132.43589716, 4131.15384588, 4135.25640998, 4201.53846147,8.57
4113.97435870, 4121.41025614, 4121.02564075, 4119.61538434, 4119.48717921, 4050.12820472, 4046.15384574, 4048.84615343, 4067.69230728, 4127.94871767, 4127.69230742, 4117.17948691, 4129.61538434, 4200.12820499,8.57
4118.58974332, 4121.41025614, 4121.15384588, 4121.15384588, 4119.99999973, 4032.17948670, 4031.02564054, 4037.82051241, 4065.38461497, 4129.99999973, 4126.79487152, 4126.41025614, 4132.69230742, 4196.28205115,8.57
4111.79487152, 4121.79487152, 4115.51282024, 4121.66666639, 4119.23076896, 4022.69230721, 4026.02564054, 4039.10256369, 4058.58974318, 4126.92307665, 4126.28205101, 4118.97435870, 4129.99999973, 4189.10256397,8.57
4117.05128178, 4121.41025614, 4118.20512793, 4119.61538434, 4121.15384588, 4034.87179439, 4037.17948677, 4052.56410215, 4055.38461497, 4126.79487152, 4128.33333306, 4114.61538434, 4129.10256383, 4196.15384602,8.57
4116.28205101, 4121.66666639, 4118.58974332, 4121.66666639, 4120.51282024, 4052.17948677, 4056.66666625, 4074.61538427, 4079.35897402, 4130.25640998, 4130.89743562, 4122.94871767, 4130.64102537, 4195.89743576,8.57
4111.79487152, 4121.53846126, 4116.28205101, 4119.99999973, 4121.28205101, 4061.66666625, 4068.97435856, 4085.51282017, 4098.07692273, 4127.56410229, 4127.56410229, 4115.38461511, 4124.87179460, 4188.97435884,8.57
4122.17948691, 4122.56410229, 4126.02564075, 4120.76923050, 4122.94871767, 4056.41025600, 4059.99999959, 4074.74358940, 4082.56410222, 4124.10256383, 4129.10256383, 4126.28205101, 4130.12820485, 4194.35897422,8.57
4119.87179460, 4121.92307665, 4122.30769203, 4120.12820485, 4122.43589716, 4042.05128164, 4045.89743548, 4060.76923036, 4062.17948677, 4126.79487152, 4126.92307665, 4125.89743562, 4129.48717921, 4192.82051269,8.57
4116.79487152, 4120.51282024, 4118.33333306, 4118.84615357, 4120.89743562, 4039.61538420, 4046.02564061, 4059.99999959, 4058.33333292, 4128.46153819, 4124.48717921, 4117.05128178, 4124.99999973, 4191.15384602,8.57
4124.23076896, 4123.58974332, 4125.12820485, 4124.99999973, 4118.33333306, 4052.05128164, 4051.41025600, 4066.79487138, 4064.35897395, 4127.43589716, 4131.15384588, 4129.23076896, 4129.87179460, 4192.30769217,8.57
4122.30769203, 4121.92307665, 4119.61538434, 4120.38461511, 4120.25640998, 4057.82051241, 4054.35897395, 4070.89743555, 4076.53846119, 4127.17948691, 4129.23076896, 4123.97435870, 4126.41025614, 4190.89743576,8.57
4120.76923050, 4121.53846126, 4120.76923050, 4118.97435870, 4121.41025614, 4059.48717907, 4058.33333292, 4074.48717914, 4088.97435863, 4127.43589716, 4127.30769203, 4128.33333306, 4128.46153819, 4197.56410243,8.57
4121.15384588, 4124.74358947, 4123.46153819, 4125.89743562, 4120.38461511, 4066.92307651, 4064.48717907, 4079.61538427, 4092.05128171, 4128.84615357, 4129.74358947, 4132.94871767, 4132.05128178, 4197.82051269,8.57
4118.84615357, 4121.79487152, 4118.58974332, 4120.12820485, 4121.53846126, 4066.02564061, 4059.87179446, 4074.23076889, 4083.07692273, 4128.33333306, 4127.43589716, 4121.15384588, 4129.35897408, 4196.92307679,8.57
4118.07692280, 4121.79487152, 4120.89743562, 4120.89743562, 4120.38461511, 4047.69230728, 4041.92307651, 4058.97435856, 4072.43589709, 4125.12820485, 4128.84615357, 4129.74358947, 4134.23076896, 4201.15384609,8.57
4114.48717921, 4121.92307665, 4115.38461511, 4123.20512793, 4119.74358947, 4048.20512779, 4044.35897395, 4059.23076882, 4082.56410222, 4125.64102537, 4127.94871767, 4124.35897408, 4131.92307665, 4197.05128192,8.57
4116.66666639, 4121.92307665, 4115.38461511, 4121.79487152, 4122.94871767, 4078.07692273, 4070.76923043, 4078.84615350, 4106.53846126, 4130.51282024, 4131.02564075, 4122.69230742, 4128.71794844, 4198.33333320,8.57
4119.87179460, 4124.99999973, 4121.41025614, 4124.48717921, 4125.76923050, 4084.87179453, 4072.69230735, 4083.97435863, 4103.07692280, 4128.71794844, 4133.20512793, 4127.56410229, 4130.12820485, 4199.35897422,8.57
4115.89743562, 4122.43589716, 4116.79487152, 4119.23076896, 4124.35897408, 4061.53846113, 4052.43589702, 4071.15384581, 4083.58974325, 4124.10256383, 4125.89743562, 4114.23076896, 4128.07692280, 4195.89743576,8.57
4119.87179460, 4122.30769203, 4119.87179460, 4122.05128178, 4121.66666639, 4050.89743548, 4052.30769189, 4068.20512779, 4086.02564068, 4128.71794844, 4128.33333306, 4123.07692280, 4131.02564075, 4197.56410243,8.57
4120.38461511, 4123.07692280, 4120.25640998, 4122.94871767, 4124.23076896, 4072.56410222, 4073.46153812, 4084.99999966, 4104.10256383, 4132.56410229, 4129.74358947, 4120.38461511, 4128.33333306, 4193.71794858,8.57
4118.33333306, 4122.05128178, 4120.76923050, 4118.46153819, 4125.64102537, 4090.25640991, 4084.48717914, 4099.74358940, 4114.74358947, 4129.48717921, 4126.28205101, 4113.84615357, 4127.30769203, 4191.53846140,8.57
4123.71794844, 4124.99999973, 4124.61538434, 4126.15384588, 4121.66666639, 4076.53846119, 4068.20512779, 4086.02564068, 4101.41025607, 4127.43589716, 4127.43589716, 4125.12820485, 4132.82051255, 4193.07692294,8.57
4122.17948691, 4121.02564075, 4121.15384588, 4123.46153819, 4122.69230742, 4070.38461504, 4061.02564061, 4078.46153812, 4094.99999966, 4128.20512793, 4128.58974332, 4120.64102537, 4130.51282024, 4192.30769217,8.57
4123.33333306, 4122.82051255, 4129.48717921, 4122.05128178, 4124.10256383, 4081.02564068, 4070.64102530, 4090.89743555, 4107.94871767, 4129.10256383, 4131.28205101, 4127.43589716, 4133.20512793, 4197.82051269,8.57
4122.17948691, 4128.71794844, 4126.02564075, 4125.38461511, 4120.89743562, 4066.15384574, 4053.84615343, 4071.92307658, 4092.30769196, 4128.58974332, 4127.56410229, 4124.48717921, 4134.23076896, 4197.05128192,8.57
4122.05128178, 4123.46153819, 4117.05128178, 4120.76923050, 4121.28205101, 4048.46153805, 4034.87179439, 4046.02564061, 4076.02564068, 4127.56410229, 4127.30769203, 4121.66666639, 4132.17948691, 4195.12820499,8.57
4130.25640998, 4123.58974332, 4126.28205101, 4123.71794844, 4123.58974332, 4070.51282017, 4052.30769189, 4065.25640984, 4101.02564068, 4127.17948691, 4134.74358947, 4134.35897408, 4135.12820485, 4197.05128192,8.57
4123.71794844, 4123.20512793, 4122.94871767, 4120.51282024, 4121.66666639, 4087.82051248, 4068.97435856, 4084.99999966, 4116.41025614, 4127.30769203, 4130.76923050, 4118.84615357, 4132.30769203, 4195.12820499,8.57
4123.58974332, 4123.46153819, 4119.61538434, 4118.71794844, 4119.35897408, 4071.66666632, 4061.66666625, 4073.33333299, 4098.20512786, 4127.69230742, 4126.92307665, 4122.17948691, 4133.84615357, 4196.66666653,8.57
4126.41025614, 4124.87179460, 4120.12820485, 4123.07692280, 4122.05128178, 4061.79487138, 4059.48717907, 4072.56410222, 4097.05128171, 4127.17948691, 4126.41025614, 4127.82051255, 4131.28205101, 4191.92307679,8.57
4119.35897408, 4119.23076896, 4116.53846126, 4121.15384588, 4122.05128178, 4073.97435863, 4072.17948684, 4095.38461504, 4113.58974332, 4128.20512793, 4124.10256383, 4114.35897408, 4127.30769203, 4192.94871781,8.57
4124.87179460, 4125.51282024, 4122.82051255, 4126.66666639, 4120.25640998, 4092.82051248, 4088.46153812, 4109.23076896, 4116.92307665, 4130.51282024, 4128.33333306, 4125.51282024, 4133.07692280, 4199.99999986,8.57
4122.82051255, 4125.38461511, 4121.66666639, 4123.33333306, 4122.82051255, 4094.99999966, 4090.12820478, 4105.76923050, 4112.69230742, 4128.97435870, 4127.43589716, 4119.61538434, 4128.33333306, 4194.87179474,8.57
4118.97435870, 4119.48717921, 4121.28205101, 4121.53846126, 4124.35897408, 4077.05128171, 4074.23076889, 4097.82051248, 4113.46153819, 4128.58974332, 4126.53846126, 4115.89743562, 4128.71794844, 4192.94871781,8.57
4122.17948691, 4125.38461511, 4122.69230742, 4126.79487152, 4123.97435870, 4074.61538427, 4073.07692273, 4103.07692280, 4130.76923050, 4130.51282024, 4127.56410229, 4120.76923050, 4131.79487152, 4189.48717935,8.57
4117.05128178, 4126.15384588, 4119.48717921, 4119.61538434, 4122.30769203, 4088.71794837, 4081.79487145, 4103.71794844, 4140.12820492, 4126.79487152, 4122.94871767, 4110.25640998, 4126.92307665, 4189.87179474,8.57
4120.38461511, 4126.28205101, 4128.84615357, 4124.74358947, 4121.02564075, 4081.02564068, 4065.89743548, 4079.87179453, 4117.94871767, 4126.02564075, 4126.53846126, 4119.35897408, 4132.94871767, 4195.89743576,8.57
4121.41025614, 4123.97435870, 4124.23076896, 4125.64102537, 4123.84615357, 4064.87179446, 4049.87179446, 4063.46153805, 4101.53846119, 4128.71794844, 4129.61538434, 4115.25640998, 4131.66666639, 4189.99999986,8.57
4121.02564075, 4122.05128178, 4121.92307665, 4121.41025614, 4124.87179460, 4066.28205087, 4051.79487138, 4066.66666625, 4108.71794844, 4127.30769203, 4128.33333306, 4117.17948691, 4129.48717921, 4192.43589730,8.57
4126.02564075, 4128.07692280, 4130.51282024, 4127.17948691, 4121.02564075, 4077.05128171, 4056.28205087, 4073.58974325, 4124.48717921, 4126.53846126, 4127.17948691, 4129.10256383, 4132.94871767, 4196.79487166,8.57
4119.35897408, 4124.23076896, 4121.79487152, 4121.41025614, 4118.97435870, 4093.58974325, 4071.53846119, 4091.53846119, 4154.10256390, 4129.10256383, 4126.15384588, 4117.17948691, 4128.33333306, 4193.07692294,8.57
4121.66666639, 4121.41025614, 4123.20512793, 4120.89743562, 4120.76923050, 4108.20512793, 4086.79487145, 4109.74358947, 4182.94871781, 4128.58974332, 4129.74358947, 4128.71794844, 4132.05128178, 4198.20512807,8.57
4124.23076896, 4121.15384588, 4125.25640998, 4121.41025614, 4122.82051255, 4097.94871761, 4069.74358940, 4093.20512786, 4173.07692294, 4127.56410229, 4125.51282024, 4125.64102537, 4133.20512793, 4196.53846140,8.57
4124.23076896, 4123.84615357, 4125.12820485, 4122.05128178, 4121.79487152, 4074.74358940, 4049.48717907, 4065.64102523, 4146.15384595, 4129.48717921, 4125.76923050, 4118.58974332, 4132.56410229, 4196.92307679,8.57
4128.58974332, 4128.97435870, 4128.97435870, 4128.97435870, 4120.12820485, 4067.69230728, 4050.76923036, 4062.69230728, 4137.94871774, 4129.74358947, 4131.66666639, 4131.41025614, 4135.89743569, 4200.89743576,8.57
4121.02564075, 4120.76923050, 4118.46153819, 4121.41025614, 4121.79487152, 4072.82051248, 4043.84615343, 4072.17948684, 4148.58974339, 4128.84615357, 4123.84615357, 4115.51282024, 4129.35897408, 4195.25641012,8.57
4126.79487152, 4120.89743562, 4120.76923050, 4121.66666639, 4123.07692280, 4089.74358940, 4042.94871754, 4092.17948684, 4179.48717935, 4128.58974332, 4128.07692280, 4118.97435870, 4132.17948691, 4197.05128192,8.57
4127.43589716, 4123.84615357, 4120.76923050, 4123.33333306, 4123.71794844, 4104.48717921, 4063.20512779, 4110.51282024, 4204.48717942, 4127.43589716, 4138.58974339, 4121.28205101, 4131.66666639, 4197.43589730,8.57
4117.82051255, 4120.12820485, 4117.17948691, 4117.94871767, 4123.97435870, 4092.69230735, 4057.43589702, 4095.64102530, 4184.99999986, 4129.35897408, 4132.43589716, 4110.76923050, 4126.92307665, 4197.82051269,8.57
4124.48717921, 4124.99999973, 4125.89743562, 4125.38461511, 4124.10256383, 4089.74358940, 4048.20512779, 4087.56410222, 4168.84615371, 4129.99999973, 4126.15384588, 4121.41025614, 4134.23076896, 4195.64102551,8.57
4120.12820485, 4121.41025614, 4119.35897408, 4121.79487152, 4122.94871767, 4120.25640998, 4083.07692273, 4123.58974332, 4207.30769224, 4126.79487152, 4127.56410229, 4111.15384588, 4130.89743562, 4190.25641012,8.57
4121.92307665, 4123.71794844, 4125.12820485, 4123.58974332, 4120.76923050, 4127.43589716, 4098.33333299, 4134.87179460, 4224.87179481, 4127.43589716, 4133.71794844, 4114.74358947, 4130.25640998, 4197.69230756,8.57
4124.48717921, 4128.97435870, 4130.25640998, 4129.48717921, 4123.20512793, 4092.82051248, 4061.66666625, 4093.20512786, 4179.61538448, 4129.35897408, 4129.10256383, 4118.71794844, 4132.43589716, 4191.02564089,8.57
4115.76923050, 4120.76923050, 4120.38461511, 4120.25640998, 4126.79487152, 4078.20512786, 4044.87179446, 4073.71794837, 4157.56410236, 4125.64102537, 4123.97435870, 4110.51282024, 4129.35897408, 4185.89743576,8.57
4125.89743562, 4126.53846126, 4128.46153819, 4124.99999973, 4126.15384588, 4090.76923043, 4060.51282010, 4092.17948684, 4182.30769217, 4125.51282024, 4130.64102537, 4128.58974332, 4132.82051255, 4196.41025628,8.57
4123.33333306, 4125.76923050, 4121.66666639, 4123.46153819, 4122.43589716, 4092.30769196, 4061.79487138, 4098.33333299, 4193.58974345, 4128.58974332, 4127.30769203, 4118.33333306, 4130.25640998, 4192.69230756,8.57
4124.10256383, 4122.43589716, 4123.46153819, 4121.41025614, 4120.89743562, 4095.38461504, 4055.38461497, 4090.64102530, 4189.48717935, 4128.46153819, 4127.05128178, 4120.38461511, 4132.05128178, 4192.94871781,8.57
4125.76923050, 4125.12820485, 4128.97435870, 4124.35897408, 4121.79487152, 4121.66666639, 4072.43589709, 4104.74358947, 4199.87179474, 4126.79487152, 4132.05128178, 4132.17948691, 4136.02564082, 4194.23076910,8.57
4119.35897408, 4119.23076896, 4119.87179460, 4118.97435870, 4121.53846126, 4143.20512800, 4092.56410222, 4127.56410229, 4217.69230763, 4127.56410229, 4131.79487152, 4120.89743562, 4132.69230742, 4197.82051269,8.57
4142.17948697, 4133.71794844, 4134.61538434, 4134.99999973, 4124.23076896, 4119.61538434, 4072.69230735, 4112.05128178, 4209.87179481, 4128.97435870, 4132.94871767, 4136.92307672, 4136.53846133, 4203.84615378,8.57
4099.48717914, 4114.23076896, 4101.66666632, 4114.87179460, 4122.05128178, 4094.48717914, 4046.15384574, 4083.46153812, 4181.41025628, 4127.69230742, 4123.97435870, 4108.84615357, 4129.23076896, 4192.30769217,8.57
4125.25640998, 4119.87179460, 4123.84615357, 4118.46153819, 4122.17948691, 4103.84615357, 4051.02564061, 4082.69230735, 4165.64102544, 4128.07692280, 4123.71794844, 4123.20512793, 4132.69230742, 4202.05128199,8.57
4183.58974345, 4164.48717928, 4165.38461518, 4163.20512800, 4124.99999973, 4103.46153819, 4049.99999959, 4080.38461504, 4162.82051262, 4128.71794844, 4128.07692280, 4157.69230749, 4135.38461518, 4197.17948704,8.57
4048.33333292, 4092.43589709, 4062.17948677, 4094.99999966, 4118.07692280, 4101.28205094, 4046.02564061, 4076.15384581, 4167.56410236, 4129.10256383, 4118.97435870, 4084.35897402, 4122.82051255, 4179.87179474,8.57
4087.94871761, 4092.05128171, 4098.58974325, 4090.51282017, 4123.71794844, 4115.38461511, 4057.94871754, 4090.64102530, 4177.94871781, 4131.28205101, 4128.46153819, 4110.12820485, 4138.58974339, 4203.58974352,8.57
4185.25641012, 4159.10256390, 4169.48717935, 4153.46153826, 4131.41025614, 4112.30769203, 4055.51282010, 4098.58974325, 4185.89743576, 4129.74358947, 4132.56410229, 4144.10256390, 4134.74358947, 4195.51282038,8.57
4097.17948684, 4118.71794844, 4102.94871767, 4119.10256383, 4124.23076896, 4102.17948684, 4050.12820472, 4104.35897408, 4198.71794858, 4127.30769203, 4126.28205101, 4099.23076889, 4124.35897408, 4184.74358961,8.57
4113.71794844, 4118.71794844, 4117.69230742, 4116.92307665, 4122.56410229, 4116.92307665, 4068.46153805, 4117.43589716, 4206.41025634, 4127.82051255, 4128.33333306, 4116.66666639, 4135.76923056, 4199.23076910,8.57
4136.28205108, 4137.43589723, 4134.23076896, 4132.17948691, 4123.33333306, 4132.56410229, 4082.05128171, 4120.25640998, 4204.99999993, 4128.58974332, 4127.82051255, 4119.74358947, 4131.15384588, 4191.92307679,8.57
4122.43589716, 4129.74358947, 4131.28205101, 4131.02564075, 4123.97435870, 4120.51282024, 4067.17948677, 4102.82051255, 4194.35897422, 4129.10256383, 4134.74358947, 4120.89743562, 4132.82051255, 4191.53846140,8.57
4122.17948691, 4126.53846126, 4126.79487152, 4126.79487152, 4124.61538434, 4101.41025607, 4047.69230728, 4079.10256376, 4171.66666653, 4127.69230742, 4129.23076896, 4115.38461511, 4133.33333306, 4190.25641012,8.57
4117.82051255, 4119.48717921, 4119.74358947, 4115.64102537, 4123.84615357, 4103.71794844, 4048.97435856, 4079.74358940, 4166.02564082, 4126.66666639, 4123.07692280, 4111.66666639, 4135.51282031, 4193.97435884,8.57
4137.30769210, 4131.15384588, 4139.74358954, 4130.76923050, 4125.89743562, 4119.61538434, 4061.66666625, 4096.41025607, 4188.71794858, 4127.56410229, 4128.97435870, 4129.99999973, 4139.10256390, 4198.46153833,8.57
4120.25640998, 4124.99999973, 4123.33333306, 4125.76923050, 4124.35897408, 4128.71794844, 4068.33333292, 4106.53846126, 4205.12820506, 4128.33333306, 4129.23076896, 4118.58974332, 4133.20512793, 4193.33333320,8.57
4121.92307665, 4125.51282024, 4125.12820485, 4121.92307665, 4123.20512793, 4119.23076896, 4059.10256369, 4094.87179453, 4186.02564089, 4131.15384588, 4129.99999973, 4128.84615357, 4136.02564082, 4199.48717935,8.57
4125.76923050, 4130.12820485, 4128.07692280, 4124.74358947, 4124.74358947, 4113.33333306, 4052.56410215, 4080.51282017, 4169.23076910, 4131.02564075, 4123.58974332, 4125.64102537, 4131.53846126, 4199.99999986,8.57
4119.35897408, 4124.10256383, 4118.46153819, 4120.12820485, 4124.99999973, 4132.05128178, 4069.61538420, 4099.99999966, 4194.48717935, 4129.74358947, 4122.17948691, 4118.20512793, 4132.94871767, 4203.33333327,8.57
4123.58974332, 4127.43589716, 4121.15384588, 4121.66666639, 4123.33333306, 4143.58974339, 4085.51282017, 4118.07692280, 4209.74358968, 4129.87179460, 4128.84615357, 4126.28205101, 4140.12820492, 4200.12820499,8.57
4113.71794844, 4124.61538434, 4113.33333306, 4114.74358947, 4123.58974332, 4130.51282024, 4081.41025607, 4108.84615357, 4188.46153833, 4127.56410229, 4127.94871767, 4112.17948691, 4133.97435870, 4191.66666653,8.57
4121.02564075, 4126.92307665, 4122.56410229, 4120.76923050, 4126.02564075, 4121.28205101, 4076.02564068, 4106.41025614, 4178.71794858, 4128.71794844, 4129.48717921, 4122.17948691, 4134.23076896, 4198.58974345,8.57
4117.30769203, 4122.05128178, 4117.56410229, 4120.76923050, 4123.71794844, 4128.97435870, 4084.74358940, 4126.15384588, 4198.20512807, 4131.66666639, 4127.94871767, 4118.71794844, 4132.82051255, 4193.84615371,8.57
4117.82051255, 4122.43589716, 4114.61538434, 4119.48717921, 4124.74358947, 4133.33333306, 4088.84615350, 4133.71794844, 4205.25641019, 4130.64102537, 4125.12820485, 4108.84615357, 4131.28205101, 4189.10256397,8.57
4117.94871767, 4128.20512793, 4119.74358947, 4125.89743562, 4126.92307665, 4128.46153819, 4080.25640991, 4124.87179460, 4191.53846140, 4129.35897408, 4126.15384588, 4117.30769203, 4135.76923056, 4192.43589730,8.57
4112.56410229, 4122.30769203, 4118.33333306, 4119.48717921, 4124.87179460, 4131.15384588, 4080.76923043, 4123.07692280, 4187.82051269, 4129.10256383, 4122.56410229, 4105.64102537, 4128.71794844, 4195.64102551,8.57
4126.28205101, 4127.94871767, 4131.02564075, 4128.58974332, 4124.61538434, 4137.05128185, 4084.35897402, 4114.74358947, 4182.94871781, 4128.97435870, 4121.41025614, 4115.64102537, 4129.10256383, 4197.56410243,8.57
4112.17948691, 4116.53846126, 4119.99999973, 4121.92307665, 4123.46153819, 4142.30769210, 4085.64102530, 4113.20512793, 4180.51282038, 4128.33333306, 4125.38461511, 4120.12820485, 4137.69230749, 4189.35897422,8.57
4112.17948691, 4116.53846126, 4119.99999973, 4121.92307665, 4123.46153819, 4142.30769210, 4085.64102530, 4113.20512793, 4180.51282038, 4128.33333306, 4125.38461511, 4120.12820485, 4137.69230749, 4189.35897422,8.57
4136.02564082, 4130.76923050, 4137.56410236, 4129.35897408, 4124.23076896, 4146.66666646, 4092.30769196, 4125.38461511, 4188.84615371, 4128.33333306, 4126.02564075, 4111.53846126, 4130.89743562, 4189.23076910,8.57
4106.15384588, 4123.20512793, 4115.51282024, 4122.30769203, 4121.92307665, 4147.82051262, 4097.94871761, 4129.61538434, 4193.33333320, 4128.97435870, 4126.92307665, 4107.56410229, 4129.35897408, 4194.61538448,8.57
4108.20512793, 4109.35897408, 4107.94871767, 4109.35897408, 4124.35897408, 4146.41025621, 4098.84615350, 4125.51282024, 4193.71794858, 4129.74358947, 4125.76923050, 4119.48717921, 4138.46153826, 4198.84615371,8.57
4179.23076910, 4152.94871774, 4161.15384595, 4148.71794851, 4129.61538434, 4146.41025621, 4095.64102530, 4114.61538434, 4188.46153833, 4126.92307665, 4125.51282024, 4143.46153826, 4137.82051262, 4196.41025628,8.57
4106.02564075, 4126.02564075, 4111.79487152, 4124.10256383, 4121.66666639, 4148.20512800, 4093.46153812, 4108.07692280, 4182.82051269, 4128.07692280, 4127.82051255, 4117.94871767, 4133.71794844, 4190.64102551,8.57
4107.69230742, 4115.25640998, 4107.30769203, 4108.20512793, 4120.89743562, 4146.15384595, 4096.53846119, 4115.89743562, 4187.30769217, 4131.66666639, 4126.41025614, 4113.33333306, 4133.46153819, 4199.74358961,8.57
4155.38461518, 4145.38461518, 4141.15384595, 4137.17948697, 4124.74358947, 4143.97435877, 4098.33333299, 4126.53846126, 4192.43589730, 4128.33333306, 4125.64102537, 4136.02564082, 4136.28205108, 4198.46153833,8.57
4104.74358947, 4117.56410229, 4107.30769203, 4117.69230742, 4120.38461511, 4143.33333313, 4094.99999966, 4121.92307665, 4183.58974345, 4125.76923050, 4123.71794844, 4111.66666639, 4136.66666646, 4191.53846140,8.57
4119.10256383, 4120.25640998, 4122.17948691, 4121.28205101, 4123.58974332, 4136.15384595, 4089.23076889, 4105.12820485, 4165.76923056, 4128.07692280, 4121.79487152, 4113.46153819, 4137.43589723, 4199.23076910,8.57
4129.87179460, 4130.51282024, 4128.20512793, 4127.56410229, 4126.41025614, 4128.71794844, 4087.94871761, 4105.64102537, 4167.43589723, 4129.87179460, 4121.28205101, 4124.10256383, 4134.87179460, 4194.61538448,8.57
4117.43589716, 4121.92307665, 4112.43589716, 4118.46153819, 4124.87179460, 4138.33333313, 4099.35897402, 4121.79487152, 4185.89743576, 4129.99999973, 4119.48717921, 4108.20512793, 4127.56410229, 4190.25641012,8.57
4118.71794844, 4122.17948691, 4118.20512793, 4124.87179460, 4126.79487152, 4151.15384595, 4113.97435870, 4134.23076896, 4198.33333320, 4129.61538434, 4127.17948691, 4114.10256383, 4133.20512793, 4197.17948704,8.57
4114.99999973, 4122.82051255, 4118.71794844, 4123.58974332, 4127.17948691, 4149.23076903, 4114.99999973, 4136.15384595, 4199.74358961, 4128.84615357, 4128.97435870, 4112.82051255, 4132.43589716, 4191.28205115,8.57
4124.10256383, 4130.38461511, 4125.76923050, 4125.12820485, 4127.56410229, 4147.43589723, 4111.41025614, 4133.07692280, 4195.12820499, 4129.35897408, 4125.64102537, 4112.30769203, 4129.87179460, 4188.07692294,8.57
4123.84615357, 4128.97435870, 4124.87179460, 4124.87179460, 4124.99999973, 4152.17948697, 4114.87179460, 4134.99999973, 4198.97435884, 4130.51282024, 4128.33333306, 4118.71794844, 4133.97435870, 4189.61538448,8.57
4120.25640998, 4124.10256383, 4118.33333306, 4120.38461511, 4122.69230742, 4152.82051262, 4118.33333306, 4141.66666646, 4211.15384609, 4128.07692280, 4127.69230742, 4109.23076896, 4127.94871767, 4189.61538448,8.57
4129.61538434, 4132.56410229, 4131.53846126, 4129.35897408, 4124.99999973, 4147.56410236, 4118.20512793, 4144.10256390, 4210.89743583, 4127.05128178, 4131.92307665, 4122.30769203, 4132.94871767, 4193.58974345,8.57
4119.99999973, 4127.82051255, 4126.53846126, 4125.51282024, 4125.25640998, 4141.28205108, 4112.17948691, 4136.41025621, 4192.30769217, 4128.58974332, 4129.74358947, 4120.12820485, 4136.28205108, 4189.61538448,8.57
4123.71794844, 4127.17948691, 4126.92307665, 4120.89743562, 4124.87179460, 4139.23076903, 4105.38461511, 4126.92307665, 4179.10256397, 4127.43589716, 4125.89743562, 4114.74358947, 4131.92307665, 4193.20512807,8.57
4131.66666639, 4130.89743562, 4134.61538434, 4125.64102537, 4123.58974332, 4146.79487159, 4111.41025614, 4132.69230742, 4194.10256397, 4125.89743562, 4129.23076896, 4129.99999973, 4134.74358947, 4197.69230756,8.57
4117.94871767, 4120.89743562, 4121.02564075, 4119.74358947, 4121.41025614, 4151.02564082, 4119.61538434, 4141.79487159, 4207.43589737, 4127.17948691, 4122.17948691, 4118.97435870, 4132.43589716, 4193.07692294,8.57
4126.66666639, 4128.46153819, 4129.74358947, 4128.46153819, 4123.71794844, 4151.15384595, 4119.35897408, 4141.53846133, 4201.92307686, 4129.74358947, 4124.48717921, 4127.17948691, 4137.69230749, 4198.71794858,8.57
4129.48717921, 4132.82051255, 4133.46153819, 4131.28205101, 4126.28205101, 4163.58974339, 4122.17948691, 4142.17948697, 4201.28205122, 4129.23076896, 4129.61538434, 4129.61538434, 4137.56410236, 4198.07692294,8.57
4121.28205101, 4123.20512793, 4123.33333306, 4119.23076896, 4126.02564075, 4163.46153826, 4121.41025614, 4138.58974339, 4199.48717935, 4126.28205101, 4124.61538434, 4114.87179460, 4131.41025614, 4197.05128192,8.57
4127.94871767, 4126.41025614, 4126.53846126, 4123.97435870, 4123.71794844, 4143.58974339, 4109.10256383, 4128.84615357, 4190.64102551, 4126.79487152, 4126.02564075, 4129.10256383, 4136.79487159, 4202.30769224,8.57
4118.71794844, 4124.23076896, 4118.58974332, 4122.43589716, 4121.66666639, 4139.10256390, 4104.10256383, 4127.43589716, 4189.99999986, 4128.46153819, 4124.87179460, 4117.43589716, 4132.56410229, 4195.38461525,8.57
4120.38461511, 4123.07692280, 4123.71794844, 4122.56410229, 4123.33333306, 4153.84615364, 4113.71794844, 4138.46153826, 4200.64102551, 4128.46153819, 4124.99999973, 4116.15384588, 4132.43589716, 4194.10256397,8.57
4121.92307665, 4124.48717921, 4124.48717921, 4125.51282024, 4122.56410229, 4166.15384595, 4128.84615357, 4155.25641005, 4213.07692301, 4129.23076896, 4127.56410229, 4123.20512793, 4135.64102544, 4191.66666653,8.57
4113.58974332, 4121.92307665, 4116.79487152, 4120.38461511, 4122.69230742, 4167.82051262, 4136.53846133, 4160.51282031, 4217.82051275, 4130.38461511, 4126.79487152, 4110.51282024, 4129.87179460, 4189.61538448,8.57
4123.07692280, 4129.35897408, 4129.61538434, 4128.97435870, 4126.79487152, 4162.82051262, 4129.87179460, 4153.07692287, 4215.64102558, 4130.38461511, 4128.84615357, 4122.05128178, 4131.92307665, 4193.46153833,8.57
4117.30769203, 4126.15384588, 4121.53846126, 4125.76923050, 4125.76923050, 4165.64102544, 4123.84615357, 4150.12820492, 4210.89743583, 4128.07692280, 4126.92307665, 4111.92307665, 4131.15384588, 4188.58974345,8.57
4125.38461511, 4126.79487152, 4127.30769203, 4125.12820485, 4125.64102537, 4177.43589730, 4132.56410229, 4156.41025621, 4208.33333327, 4128.71794844, 4129.48717921, 4113.71794844, 4133.33333306, 4192.05128192,8.57
4132.69230742, 4131.28205101, 4133.20512793, 4132.17948691, 4126.92307665, 4184.10256397, 4148.20512800, 4166.02564082, 4219.74358968, 4130.64102537, 4132.43589716, 4127.30769203, 4135.12820485, 4192.94871781,8.57
4120.38461511, 4124.48717921, 4118.58974332, 4122.43589716, 4124.87179460, 4185.89743576, 4151.92307672, 4172.43589730, 4234.23076923, 4127.17948691, 4129.23076896, 4112.17948691, 4128.71794844, 4191.53846140,8.57
4133.58974332, 4133.33333306, 4136.92307672, 4129.74358947, 4123.46153819, 4186.66666653, 4146.28205108, 4163.84615364, 4220.89743583, 4126.28205101, 4131.66666639, 4127.69230742, 4135.38461518, 4196.53846140,8.57
4123.97435870, 4130.64102537, 4132.05128178, 4129.74358947, 4122.43589716, 4182.82051269, 4143.58974339, 4150.51282031, 4198.20512807, 4127.05128178, 4127.05128178, 4128.46153819, 4136.28205108, 4191.53846140,8.57
4119.74358947, 4124.87179460, 4121.92307665, 4122.56410229, 4123.20512793, 4174.99999986, 4137.05128185, 4148.33333313, 4194.48717935, 4125.89743562, 4122.05128178, 4123.71794844, 4137.56410236, 4198.97435884,8.57
4132.17948691, 4130.64102537, 4130.38461511, 4125.51282024, 4122.30769203, 4172.30769217, 4128.46153819, 4143.46153826, 4185.38461525, 4127.56410229, 4123.33333306, 4131.66666639, 4141.53846133, 4202.69230763,8.57
4121.92307665, 4124.10256383, 4123.71794844, 4118.46153819, 4121.15384588, 4172.82051269, 4131.15384588, 4137.69230749, 4171.79487166, 4128.97435870, 4121.41025614, 4115.64102537, 4131.53846126, 4196.02564089,8.57
4125.51282024, 4125.38461511, 4125.64102537, 4123.07692280, 4122.82051255, 4176.28205115, 4138.71794851, 4145.89743569, 4179.87179474, 4127.69230742, 4123.46153819, 4123.84615357, 4134.23076896, 4201.15384609,8.57
4121.79487152, 4124.87179460, 4117.56410229, 4124.99999973, 4123.20512793, 4182.17948704, 4140.12820492, 4158.20512800, 4200.12820499, 4127.05128178, 4120.38461511, 4120.89743562, 4134.99999973, 4199.74358961,8.57
4120.89743562, 4124.48717921, 4119.23076896, 4122.82051255, 4126.28205101, 4173.33333320, 4132.56410229, 4155.38461518, 4209.35897429, 4128.46153819, 4120.89743562, 4111.53846126, 4132.82051255, 4198.97435884,8.57
4120.25640998, 4124.23076896, 4122.05128178, 4122.94871767, 4124.99999973, 4162.94871774, 4130.89743562, 4150.38461518, 4213.07692301, 4129.35897408, 4129.74358947, 4117.30769203, 4137.43589723, 4194.74358961,8.57
4113.58974332, 4119.35897408, 4113.97435870, 4117.69230742, 4119.74358947, 4171.66666653, 4142.69230749, 4158.71794851, 4210.76923070, 4127.94871767, 4124.99999973, 4110.38461511, 4132.69230742, 4189.74358961,8.57
4124.48717921, 4129.74358947, 4128.84615357, 4126.28205101, 4122.30769203, 4179.23076910, 4147.69230749, 4162.69230749, 4198.97435884, 4127.56410229, 4120.76923050, 4122.43589716, 4133.97435870, 4196.15384602,8.57
4113.33333306, 4128.33333306, 4124.48717921, 4123.20512793, 4122.94871767, 4181.66666653, 4150.51282031, 4168.71794858, 4209.35897429, 4129.23076896, 4122.17948691, 4114.10256383, 4130.51282024, 4190.12820499,8.57
4118.58974332, 4125.51282024, 4124.35897408, 4123.33333306, 4123.20512793, 4192.94871781, 4164.99999980, 4182.82051269, 4232.17948711, 4129.35897408, 4123.20512793, 4109.23076896, 4128.07692280, 4191.15384602,8.57
4126.79487152, 4128.33333306, 4131.02564075, 4131.41025614, 4123.20512793, 4203.07692301, 4174.10256397, 4185.12820499, 4223.46153840, 4128.33333306, 4127.43589716, 4126.92307665, 4134.87179460, 4194.87179474,8.57
4112.56410229, 4122.30769203, 4117.56410229, 4120.51282024, 4120.89743562, 4200.25641012, 4171.92307679, 4178.84615371, 4208.20512814, 4130.38461511, 4128.71794844, 4111.92307665, 4129.87179460, 4190.64102551,8.57
4129.99999973, 4131.79487152, 4133.20512793, 4127.30769203, 4126.15384588, 4184.99999986, 4161.02564082, 4170.12820499, 4206.15384609, 4131.15384588, 4132.56410229, 4122.43589716, 4133.71794844, 4196.15384602,8.57
4126.92307665, 4129.74358947, 4133.46153819, 4129.99999973, 4125.76923050, 4171.28205115, 4146.02564082, 4160.64102544, 4203.33333327, 4126.92307665, 4127.43589716, 4129.48717921, 4138.20512800, 4192.94871781,8.57
4122.82051255, 4124.10256383, 4124.35897408, 4122.56410229, 4120.89743562, 4181.66666653, 4148.71794851, 4163.07692287, 4212.05128199, 4127.69230742, 4123.07692280, 4117.94871767, 4134.87179460, 4193.97435884,8.57
4133.71794844, 4130.89743562, 4130.76923050, 4126.79487152, 4122.43589716, 4196.15384602, 4157.05128185, 4167.69230749, 4219.10256404, 4131.92307665, 4131.02564075, 4127.69230742, 4137.05128185, 4198.33333320,8.57
4115.89743562, 4121.66666639, 4117.30769203, 4120.12820485, 4124.10256383, 4190.64102551, 4152.17948697, 4162.56410236, 4205.76923070, 4127.82051255, 4125.38461511, 4114.87179460, 4129.99999973, 4192.94871781,8.57
4127.17948691, 4126.41025614, 4127.05128178, 4126.53846126, 4126.02564075, 4176.53846140, 4145.76923056, 4158.58974339, 4199.87179474, 4124.87179460, 4122.56410229, 4122.43589716, 4133.58974332, 4199.48717935,8.57
4128.84615357, 4127.43589716, 4127.17948691, 4127.82051255, 4122.69230742, 4166.28205108, 4137.56410236, 4153.58974339, 4199.87179474, 4129.87179460, 4126.79487152, 4128.33333306, 4137.43589723, 4199.74358961,8.57
4118.71794844, 4121.53846126, 4117.82051255, 4117.56410229, 4118.71794844, 4162.82051262, 4131.53846126, 4145.76923056, 4184.48717935, 4131.02564075, 4122.94871767, 4114.23076896, 4131.15384588, 4197.94871781,8.57
4127.56410229, 4130.25640998, 4126.53846126, 4124.74358947, 4121.66666639, 4171.15384602, 4142.17948697, 4152.43589723, 4187.82051269, 4127.82051255, 4127.56410229, 4126.53846126, 4138.97435877, 4199.10256397,8.57
4116.02564075, 4122.30769203, 4115.51282024, 4120.38461511, 4123.84615357, 4192.43589730, 4164.99999980, 4178.84615371, 4226.41025634, 4126.66666639, 4130.51282024, 4114.61538434, 4136.53846133, 4192.56410243,8.57
4122.56410229, 4119.99999973, 4122.30769203, 4122.05128178, 4124.99999973, 4206.41025634, 4175.51282038, 4196.15384602, 4240.76923077, 4128.20512793, 4129.10256383, 4114.48717921, 4132.05128178, 4198.71794858,8.57
4120.89743562, 4123.84615357, 4122.69230742, 4125.38461511, 4121.92307665, 4199.23076910, 4166.41025621, 4179.61538448, 4212.69230763, 4128.97435870, 4125.51282024, 4121.92307665, 4132.69230742, 4196.92307679,8.57
4116.02564075, 4123.97435870, 4115.76923050, 4117.56410229, 4121.15384588, 4177.82051269, 4147.43589723, 4149.48717928, 4185.25641012, 4126.66666639, 4120.76923050, 4107.94871767, 4132.05128178, 4189.10256397,8.57
4132.43589716, 4130.76923050, 4131.02564075, 4128.20512793, 4126.15384588, 4163.46153826, 4136.79487159, 4143.71794851, 4184.23076910, 4127.30769203, 4126.79487152, 4119.10256383, 4137.69230749, 4189.74358961,8.57
4116.92307665, 4122.94871767, 4121.28205101, 4126.02564075, 4123.71794844, 4172.56410243, 4146.66666646, 4157.43589723, 4194.61538448, 4129.35897408, 4125.64102537, 4110.25640998, 4130.25640998, 4184.87179474,8.57
4122.17948691, 4126.02564075, 4128.20512793, 4122.94871767, 4122.94871767, 4188.07692294, 4156.66666646, 4161.02564082, 4192.94871781, 4128.33333306, 4123.20512793, 4111.53846126, 4129.35897408, 4190.89743576,8.57
4127.30769203, 4130.38461511, 4133.33333306, 4126.79487152, 4123.97435870, 4194.99999986, 4158.58974339, 4159.74358954, 4192.94871781, 4128.20512793, 4129.23076896, 4126.15384588, 4136.02564082, 4193.84615371,8.57
4113.33333306, 4122.17948691, 4117.43589716, 4121.66666639, 4121.53846126, 4199.23076910, 4165.12820492, 4171.02564089, 4210.89743583, 4128.07692280, 4130.89743562, 4113.84615357, 4131.66666639, 4192.82051269,8.57
4128.58974332, 4129.74358947, 4131.02564075, 4131.15384588, 4121.15384588, 4195.64102551, 4165.25641005, 4177.30769217, 4217.56410250, 4127.43589716, 4133.97435870, 4128.33333306, 4137.82051262, 4198.46153833,8.57
4121.28205101, 4124.61538434, 4124.87179460, 4126.28205101, 4118.84615357, 4194.61538448, 4162.05128185, 4171.15384602, 4203.71794865, 4128.71794844, 4128.33333306, 4124.87179460, 4139.74358954, 4194.35897422,8.57
4122.05128178, 4122.94871767, 4122.30769203, 4119.99999973, 4122.30769203, 4208.46153840, 4174.10256397, 4176.79487166, 4207.30769224, 4128.84615357, 4122.17948691, 4116.66666639, 4137.05128185, 4198.84615371,8.57
4130.25640998, 4130.89743562, 4131.28205101, 4127.17948691, 4125.76923050, 4204.99999993, 4175.51282038, 4182.17948704, 4216.02564096, 4128.07692280, 4128.20512793, 4127.69230742, 4138.20512800, 4199.99999986,8.57
4118.07692280, 4122.69230742, 4120.51282024, 4121.79487152, 4121.53846126, 4172.69230756, 4147.30769210, 4153.97435877, 4191.92307679, 4128.71794844, 4126.53846126, 4113.20512793, 4133.33333306, 4193.71794858,8.57
4128.20512793, 4125.51282024, 4127.05128178, 4127.56410229, 4122.82051255, 4160.76923056, 4137.17948697, 4129.87179460, 4176.79487166, 4128.71794844, 4123.58974332, 4121.53846126, 4138.20512800, 4199.48717935,8.57
4122.56410229, 4123.97435870, 4121.66666639, 4125.76923050, 4126.28205101, 4186.53846140, 4165.64102544, 4155.64102544, 4198.46153833, 4127.05128178, 4123.46153819, 4125.12820485, 4136.02564082, 4196.66666653,8.57
4121.53846126, 4122.82051255, 4122.30769203, 4119.48717921, 4126.92307665, 4201.92307686, 4182.56410243, 4183.97435884, 4205.12820506, 4128.84615357, 4123.46153819, 4117.69230742, 4131.41025614, 4195.12820499,8.57
4126.53846126, 4128.33333306, 4128.58974332, 4127.43589716, 4124.35897408, 4192.30769217, 4175.12820499, 4179.87179474, 4194.61538448, 4130.38461511, 4125.25640998, 4123.07692280, 4137.43589723, 4194.23076910,8.57
4109.99999973, 4120.89743562, 4111.41025614, 4123.97435870, 4121.66666639, 4186.79487166, 4174.87179474, 4174.23076910, 4202.30769224, 4128.07692280, 4120.89743562, 4108.71794844, 4132.05128178, 4189.87179474,8.57
4124.87179460, 4127.17948691, 4124.61538434, 4126.92307665, 4123.20512793, 4191.28205115, 4179.48717935, 4173.58974345, 4208.71794865, 4128.97435870, 4123.84615357, 4121.41025614, 4134.48717921, 4195.25641012,8.57
4128.46153819, 4129.87179460, 4131.53846126, 4127.56410229, 4121.79487152, 4186.15384602, 4171.79487166, 4165.89743569, 4198.84615371, 4130.89743562, 4125.51282024, 4127.17948691, 4138.84615364, 4188.97435884,8.57
4122.94871767, 4124.99999973, 4125.64102537, 4123.58974332, 4124.35897408, 4170.64102551, 4159.23076903, 4158.58974339, 4191.92307679, 4127.56410229, 4119.74358947, 4112.17948691, 4132.82051255, 4186.28205115,8.57
4141.92307672, 4137.56410236, 4143.84615364, 4137.17948697, 4131.41025614, 4169.99999986, 4156.41025621, 4155.38461518, 4186.41025628, 4125.64102537, 4123.58974332, 4128.33333306, 4138.07692287, 4191.66666653,8.57
4142.05128185, 4139.74358954, 4142.05128185, 4135.38461518, 4131.28205101, 4180.38461525, 4162.82051262, 4162.30769210, 4195.38461525, 4127.82051255, 4122.94871767, 4124.99999973, 4137.05128185, 4186.79487166,8.57
4148.58974339, 4140.38461518, 4146.41025621, 4134.48717921, 4132.82051255, 4175.51282038, 4161.66666646, 4169.23076910, 4207.17948711, 4130.12820485, 4122.56410229, 4130.89743562, 4136.92307672, 4193.07692294,8.57
4146.15384595, 4139.87179467, 4145.64102544, 4138.84615364, 4133.84615357, 4158.07692287, 4147.56410236, 4154.61538441, 4187.82051269, 4129.74358947, 4126.02564075, 4139.10256390, 4139.74358954, 4194.74358961,8.57
4124.35897408, 4126.02564075, 4124.74358947, 4126.41025614, 4126.02564075, 4159.23076903, 4146.28205108, 4147.05128185, 4176.92307679, 4126.41025614, 4121.79487152, 4117.69230742, 4133.46153819, 4191.79487166,8.57
4129.87179460, 4126.79487152, 4131.53846126, 4125.51282024, 4122.94871767, 4174.10256397, 4157.69230749, 4163.20512800, 4198.84615371, 4124.99999973, 4122.43589716, 4129.99999973, 4140.64102544, 4202.30769224,8.57
4133.46153819, 4130.51282024, 4134.87179460, 4127.43589716, 4126.41025614, 4169.10256397, 4156.02564082, 4160.51282031, 4196.92307679, 4126.02564075, 4121.15384588, 4129.99999973, 4142.17948697, 4202.17948711,8.57
4137.82051262, 4134.74358947, 4137.56410236, 4130.38461511, 4128.97435870, 4168.33333320, 4158.07692287, 4159.48717928, 4186.66666653, 4126.79487152, 4119.87179460, 4125.12820485, 4138.71794851, 4200.89743576,8.57
4140.64102544, 4138.58974339, 4141.92307672, 4133.84615357, 4130.51282024, 4186.66666653, 4173.20512807, 4178.97435884, 4210.25641019, 4127.56410229, 4122.56410229, 4137.17948697, 4144.61538441, 4200.51282038,8.57
4121.92307665, 4125.12820485, 4126.15384588, 4121.28205101, 4128.33333306, 4189.10256397, 4176.15384602, 4178.20512807, 4222.69230763, 4127.30769203, 4120.64102537, 4118.58974332, 4138.33333313, 4193.33333320,8.57
4121.92307665, 4123.20512793, 4123.20512793, 4123.07692280, 4126.15384588, 4175.51282038, 4166.79487159, 4168.46153833, 4205.38461532, 4128.97435870, 4124.23076896, 4120.89743562, 4133.97435870, 4194.61538448,8.57
4120.76923050, 4123.58974332, 4116.41025614, 4125.38461511, 4127.56410229, 4166.66666646, 4155.89743569, 4163.33333313, 4196.79487166, 4130.51282024, 4121.41025614, 4123.84615357, 4133.20512793, 4191.66666653,8.57
4114.35897408, 4118.33333306, 4114.74358947, 4119.23076896, 4126.79487152, 4165.76923056, 4151.53846133, 4152.30769210, 4208.97435891, 4128.07692280, 4117.82051255, 4116.41025614, 4132.05128178, 4192.94871781,8.57
4120.38461511, 4123.46153819, 4126.79487152, 4123.71794844, 4121.15384588, 4172.30769217, 4165.51282031, 4158.46153826, 4211.66666660, 4125.89743562, 4125.12820485, 4123.46153819, 4132.94871767, 4194.74358961,8.57
4115.76923050, 4121.92307665, 4118.71794844, 4119.35897408, 4119.48717921, 4179.99999986, 4177.05128192, 4175.51282038, 4192.69230756, 4124.48717921, 4120.25640998, 4110.12820485, 4127.30769203, 4188.33333320,8.57
4115.64102537, 4121.79487152, 4124.10256383, 4121.28205101, 4124.99999973, 4179.74358961, 4173.58974345, 4179.10256397, 4201.53846147, 4125.89743562, 4118.33333306, 4116.92307665, 4134.48717921, 4193.97435884,8.57
4110.89743562, 4121.02564075, 4126.92307665, 4124.23076896, 4124.87179460, 4183.84615371, 4179.74358961, 4190.51282038, 4235.38461539, 4128.07692280, 4123.20512793, 4123.84615357, 4136.15384595, 4193.84615371,8.57
4109.48717921, 4118.71794844, 4118.58974332, 4118.97435870, 4120.12820485, 4187.43589730, 4186.02564089, 4198.46153833, 4223.84615378, 4125.76923050, 4120.25640998, 4116.92307665, 4126.79487152, 4190.76923063,8.57
4126.41025614, 4126.92307665, 4128.07692280, 4125.76923050, 4121.79487152, 4175.25641012, 4173.07692294, 4175.25641012, 4181.92307679, 4123.33333306, 4119.23076896, 4129.87179460, 4134.10256383, 4195.38461525,8.57
4120.51282024, 4122.69230742, 4122.17948691, 4122.17948691, 4123.97435870, 4174.10256397, 4173.97435884, 4168.46153833, 4185.76923063, 4124.74358947, 4118.84615357, 4121.02564075, 4136.79487159, 4194.61538448,8.57
4123.97435870, 4123.71794844, 4124.74358947, 4122.94871767, 4123.46153819, 4185.12820499, 4186.66666653, 4181.15384602, 4204.99999993, 4127.17948691, 4122.56410229, 4126.79487152, 4135.12820485, 4198.46153833,8.57
4132.17948691, 4132.43589716, 4128.84615357, 4127.17948691, 4122.94871767, 4181.41025628, 4178.20512807, 4176.15384602, 4199.35897422, 4126.79487152, 4122.56410229, 4134.61538434, 4135.12820485, 4194.87179474,8.57
4122.82051255, 4126.53846126, 4116.92307665, 4118.71794844, 4124.10256383, 4165.89743569, 4155.51282031, 4154.48717928, 4181.92307679, 4126.92307665, 4116.15384588, 4120.25640998, 4134.10256383, 4194.48717935,8.57
4126.15384588, 4125.89743562, 4122.82051255, 4124.10256383, 4125.38461511, 4162.05128185, 4151.15384595, 4148.33333313, 4181.79487166, 4128.58974332, 4119.35897408, 4130.76923050, 4142.17948697, 4202.05128199,8.57
4120.38461511, 4125.12820485, 4122.05128178, 4121.92307665, 4123.46153819, 4171.53846140, 4163.07692287, 4164.10256390, 4207.05128199, 4127.56410229, 4119.87179460, 4122.69230742, 4136.66666646, 4197.05128192,8.57
4122.56410229, 4125.89743562, 4121.92307665, 4118.46153819, 4123.33333306, 4166.41025621, 4156.02564082, 4160.51282031, 4199.99999986, 4128.58974332, 4117.43589716, 4122.05128178, 4133.20512793, 4198.84615371,8.57
4128.46153819, 4127.17948691, 4124.10256383, 4123.58974332, 4125.51282024, 4151.79487159, 4142.69230749, 4142.82051262, 4161.41025621, 4130.76923050, 4116.66666639, 4130.64102537, 4139.74358954, 4197.94871781,8.57
4116.15384588, 4116.66666639, 4114.48717921, 4116.53846126, 4124.48717921, 4157.69230749, 4157.17948697, 4155.38461518, 4172.82051269, 4128.84615357, 4114.87179460, 4110.38461511, 4133.33333306, 4189.74358961,8.57
4116.92307665, 4120.38461511, 4121.66666639, 4121.28205101, 4123.58974332, 4174.35897422, 4176.41025628, 4177.56410243, 4212.05128199, 4127.30769203, 4121.15384588, 4116.02564075, 4131.41025614, 4191.02564089,8.57
4110.76923050, 4122.94871767, 4118.20512793, 4123.07692280, 4123.33333306, 4175.76923063, 4173.71794858, 4174.74358961, 4211.92307686, 4129.23076896, 4119.48717921, 4112.69230742, 4130.25640998, 4187.82051269,8.57
4111.15384588, 4120.25640998, 4117.69230742, 4117.69230742, 4122.05128178, 4167.17948697, 4164.35897415, 4162.43589723, 4193.71794858, 4129.99999973, 4113.20512793, 4109.48717921, 4131.53846126, 4188.33333320,8.57
4119.87179460, 4124.61538434, 4126.41025614, 4121.53846126, 4119.99999973, 4163.97435877, 4159.99999980, 4154.10256390, 4184.10256397, 4129.61538434, 4114.23076896, 4123.71794844, 4133.46153819, 4189.35897422,8.57
4116.66666639, 4121.28205101, 4119.10256383, 4118.71794844, 4121.02564075, 4164.48717928, 4160.12820492, 4156.92307672, 4183.33333320, 4129.61538434, 4114.48717921, 4114.35897408, 4128.07692280, 4190.51282038,8.57
4128.58974332, 4126.15384588, 4128.84615357, 4125.12820485, 4124.23076896, 4166.79487159, 4162.56410236, 4166.41025621, 4190.64102551, 4128.84615357, 4117.69230742, 4122.17948691, 4134.87179460, 4198.71794858,8.57
4125.12820485, 4127.56410229, 4126.53846126, 4124.74358947, 4122.94871767, 4176.02564089, 4164.10256390, 4166.28205108, 4194.10256397, 4126.66666639, 4114.61538434, 4123.33333306, 4134.35897408, 4195.51282038,8.57
4122.43589716, 4123.71794844, 4123.84615357, 4119.99999973, 4122.05128178, 4177.56410243, 4165.25641005, 4165.76923056, 4195.64102551, 4126.92307665, 4113.33333306, 4121.79487152, 4132.56410229, 4195.64102551,8.57
4130.12820485, 4127.56410229, 4133.58974332, 4127.82051255, 4121.15384588, 4154.87179467, 4153.07692287, 4155.38461518, 4188.97435884, 4131.28205101, 4120.64102537, 4132.56410229, 4139.61538441, 4197.17948704,8.57
4119.87179460, 4124.74358947, 4122.82051255, 4122.17948691, 4119.10256383, 4144.99999980, 4140.38461518, 4141.02564082, 4182.82051269, 4130.38461511, 4117.82051255, 4116.53846126, 4135.51282031, 4196.02564089,8.57
4126.28205101, 4129.74358947, 4127.05128178, 4121.79487152, 4121.02564075, 4156.92307672, 4144.99999980, 4146.41025621, 4187.69230756, 4125.64102537, 4117.56410229, 4124.35897408, 4135.25640998, 4204.10256404,8.57
4126.15384588, 4128.33333306, 4123.46153819, 4121.53846126, 4120.64102537, 4156.66666646, 4148.84615364, 4149.61538441, 4179.74358961, 4126.28205101, 4117.43589716, 4127.56410229, 4134.48717921, 4198.33333320,8.57
4124.23076896, 4122.17948691, 4118.20512793, 4117.30769203, 4120.64102537, 4159.87179467, 4153.33333313, 4148.20512800, 4180.64102551, 4130.51282024, 4113.71794844, 4117.30769203, 4134.99999973, 4196.02564089,8.57
4128.71794844, 4124.99999973, 4123.71794844, 4122.43589716, 4125.64102537, 4174.99999986, 4168.07692287, 4163.71794851, 4206.53846147, 4131.28205101, 4118.58974332, 4127.69230742, 4141.66666646, 4200.38461525,8.57
4112.56410229, 4118.20512793, 4111.92307665, 4116.92307665, 4125.38461511, 4172.82051269, 4175.12820499, 4176.28205115, 4208.71794865, 4127.94871767, 4115.38461511, 4113.46153819, 4133.58974332, 4193.84615371,8.57
4119.87179460, 4121.66666639, 4123.84615357, 4122.56410229, 4123.33333306, 4152.05128185, 4153.46153826, 4152.56410236, 4176.28205115, 4128.07692280, 4113.46153819, 4118.33333306, 4133.46153819, 4194.61538448,8.57
4121.02564075, 4124.23076896, 4126.53846126, 4126.53846126, 4125.12820485, 4139.10256390, 4131.53846126, 4124.87179460, 4161.41025621, 4129.87179460, 4116.41025614, 4124.48717921, 4137.94871774, 4192.43589730,8.57
4114.99999973, 4119.61538434, 4115.76923050, 4120.12820485, 4126.15384588, 4142.30769210, 4141.41025621, 4134.61538434, 4176.41025628, 4127.56410229, 4112.05128178, 4108.20512793, 4133.07692280, 4190.76923063,8.57
4128.58974332, 4125.12820485, 4127.56410229, 4127.43589716, 4124.61538434, 4150.89743569, 4155.25641005, 4155.51282031, 4185.76923063, 4127.17948691, 4112.56410229, 4119.87179460, 4136.02564082, 4192.17948704,8.57
4119.48717921, 4121.28205101, 4123.46153819, 4120.64102537, 4122.69230742, 4161.92307672, 4157.17948697, 4157.43589723, 4181.66666653, 4127.82051255, 4112.05128178, 4115.76923050, 4133.71794844, 4186.41025628,8.57
4121.66666639, 4125.51282024, 4127.69230742, 4122.17948691, 4124.99999973, 4163.20512800, 4158.20512800, 4153.07692287, 4177.82051269, 4126.28205101, 4113.07692280, 4119.99999973, 4135.38461518, 4194.35897422,8.57
4126.41025614, 4129.23076896, 4130.25640998, 4130.25640998, 4125.38461511, 4150.38461518, 4151.53846133, 4151.66666646, 4182.82051269, 4126.28205101, 4116.92307665, 4129.48717921, 4136.66666646, 4196.66666653,8.57
4118.07692280, 4119.74358947, 4121.41025614, 4118.97435870, 4120.89743562, 4148.71794851, 4152.69230749, 4158.97435877, 4201.53846147, 4128.07692280, 4115.64102537, 4116.41025614, 4128.84615357, 4191.66666653,8.57
4129.23076896, 4125.12820485, 4133.71794844, 4121.41025614, 4122.30769203, 4164.74358954, 4174.35897422, 4179.61538448, 4218.71794865, 4128.33333306, 4119.48717921, 4130.76923050, 4136.66666646, 4196.53846140,8.57
4123.20512793, 4124.23076896, 4125.51282024, 4122.82051255, 4124.10256383, 4160.12820492, 4173.07692294, 4177.30769217, 4208.46153840, 4127.05128178, 4119.74358947, 4129.35897408, 4137.05128185, 4195.76923063,8.57
4121.79487152, 4122.17948691, 4122.43589716, 4122.30769203, 4121.66666639, 4145.64102544, 4151.41025621, 4154.48717928, 4185.76923063, 4128.58974332, 4119.23076896, 4126.66666639, 4131.66666639, 4200.12820499,8.57
4126.53846126, 4124.99999973, 4128.97435870, 4124.61538434, 4120.12820485, 4161.28205108, 4163.07692287, 4166.92307672, 4197.56410243, 4131.15384588, 4119.61538434, 4134.61538434, 4136.02564082, 4199.61538448,8.57
4117.17948691, 4120.64102537, 4116.15384588, 4116.66666639, 4121.66666639, 4167.94871774, 4171.79487166, 4175.25641012, 4202.69230763, 4129.10256383, 4114.74358947, 4117.17948691, 4132.05128178, 4194.10256397,8.57
4126.15384588, 4128.07692280, 4121.66666639, 4120.89743562, 4124.35897408, 4150.64102544, 4154.23076903, 4151.28205108, 4178.46153833, 4124.74358947, 4118.58974332, 4126.41025614, 4133.97435870, 4200.12820499,8.57
4122.69230742, 4123.97435870, 4119.74358947, 4118.97435870, 4122.05128178, 4161.92307672, 4165.76923056, 4168.46153833, 4203.33333327, 4124.48717921, 4121.66666639, 4125.51282024, 4134.61538434, 4196.15384602,8.57
4118.58974332, 4119.35897408, 4116.41025614, 4116.79487152, 4121.02564075, 4179.87179474, 4179.23076910, 4188.46153833, 4229.74358968, 4129.48717921, 4123.84615357, 4118.33333306, 4129.74358947, 4194.99999986,8.57
4123.58974332, 4126.28205101, 4119.87179460, 4122.69230742, 4121.79487152, 4157.17948697, 4148.33333313, 4143.07692287, 4180.38461525, 4131.66666639, 4127.56410229, 4131.15384588, 4131.41025614, 4198.33333320,8.57
4115.51282024, 4118.71794844, 4111.02564075, 4113.71794844, 4121.79487152, 4134.35897408, 4129.48717921, 4120.25640998, 4148.33333313, 4127.43589716, 4119.61538434, 4117.43589716, 4130.12820485, 4193.97435884,8.57
4121.28205101, 4121.66666639, 4122.69230742, 4117.94871767, 4123.33333306, 4148.07692287, 4152.56410236, 4156.79487159, 4181.66666653, 4125.51282024, 4118.58974332, 4118.84615357, 4133.58974332, 4193.33333320,8.57
4116.15384588, 4124.61538434, 4122.56410229, 4124.48717921, 4120.89743562, 4158.33333313, 4162.43589723, 4164.35897415, 4190.12820499, 4128.07692280, 4118.07692280, 4118.97435870, 4131.53846126, 4188.58974345,8.57
4118.71794844, 4122.17948691, 4120.64102537, 4122.82051255, 4121.28205101, 4145.89743569, 4146.41025621, 4143.71794851, 4164.48717928, 4129.23076896, 4116.41025614, 4115.89743562, 4131.53846126, 4191.41025628,8.57
4129.61538434, 4126.02564075, 4128.07692280, 4125.38461511, 4124.74358947, 4135.76923056, 4138.46153826, 4141.41025621, 4161.66666646, 4128.46153819, 4122.05128178, 4126.92307665, 4136.79487159, 4194.35897422,8.57
4114.74358947, 4121.79487152, 4114.48717921, 4114.35897408, 4123.07692280, 4145.25641005, 4147.43589723, 4147.30769210, 4174.99999986, 4127.69230742, 4118.97435870, 4112.69230742, 4126.92307665, 4189.87179474,8.57
4123.33333306, 4127.43589716, 4125.76923050, 4119.99999973, 4124.48717921, 4161.66666646, 4161.92307672, 4160.51282031, 4191.53846140, 4128.97435870, 4121.41025614, 4122.82051255, 4132.82051255, 4197.30769217,8.57
4123.58974332, 4128.20512793, 4129.23076896, 4128.33333306, 4124.48717921, 4159.23076903, 4161.41025621, 4166.02564082, 4197.43589730, 4129.87179460, 4125.76923050, 4129.10256383, 4140.76923056, 4195.64102551,8.57
4116.79487152, 4122.82051255, 4118.07692280, 4121.53846126, 4122.43589716, 4153.71794851, 4150.51282031, 4147.05128185, 4179.87179474, 4129.23076896, 4122.05128178, 4123.33333306, 4133.97435870, 4194.87179474,8.57
4125.89743562, 4128.97435870, 4124.23076896, 4125.64102537, 4122.69230742, 4160.25641005, 4150.38461518, 4138.97435877, 4170.89743576, 4128.33333306, 4122.82051255, 4137.69230749, 4135.25640998, 4200.51282038,8.57
4116.28205101, 4120.38461511, 4118.20512793, 4120.38461511, 4122.05128178, 4159.23076903, 4155.76923056, 4148.58974339, 4177.82051269, 4126.79487152, 4118.84615357, 4118.97435870, 4131.02564075, 4195.51282038,8.57
4126.66666639, 4118.97435870, 4126.28205101, 4119.99999973, 4123.07692280, 4144.61538441, 4144.10256390, 4140.25641005, 4173.71794858, 4127.05128178, 4117.82051255, 4119.99999973, 4132.43589716, 4198.97435884,8.57
4126.02564075, 4123.33333306, 4125.51282024, 4121.02564075, 4120.25640998, 4139.10256390, 4132.17948691, 4130.25640998, 4165.64102544, 4128.33333306, 4116.66666639, 4129.48717921, 4134.74358947, 4194.74358961,8.57
4115.12820485, 4121.41025614, 4117.69230742, 4115.25640998, 4118.71794844, 4151.15384595, 4145.38461518, 4146.53846133, 4177.56410243, 4128.58974332, 4111.02564075, 4114.99999973, 4129.48717921, 4190.76923063,8.57
4117.82051255, 4117.82051255, 4119.10256383, 4118.20512793, 4123.58974332, 4143.97435877, 4137.43589723, 4153.33333313, 4186.41025628, 4130.12820485, 4118.07692280, 4118.07692280, 4133.58974332, 4190.12820499,8.57
4119.48717921, 4123.71794844, 4120.51282024, 4118.20512793, 4122.43589716, 4164.10256390, 4149.87179467, 4168.20512807, 4201.02564096, 4127.56410229, 4114.35897408, 4116.66666639, 4133.20512793, 4192.69230756,8.57
4127.69230742, 4132.17948691, 4128.97435870, 4130.51282024, 4121.28205101, 4156.41025621, 4146.92307672, 4158.97435877, 4194.23076910, 4126.41025614, 4118.58974332, 4133.71794844, 4136.02564082, 4194.87179474,8.57
4116.66666639, 4119.61538434, 4113.84615357, 4118.84615357, 4119.10256383, 4122.82051255, 4124.35897408, 4128.97435870, 4167.69230749, 4129.87179460, 4114.48717921, 4122.17948691, 4131.28205101, 4193.58974345,8.57
4127.17948691, 4124.87179460, 4125.51282024, 4122.17948691, 4121.02564075, 4123.46153819, 4118.33333306, 4124.10256383, 4155.25641005, 4131.79487152, 4113.07692280, 4130.89743562, 4136.79487159, 4196.66666653,8.57
4121.15384588, 4126.41025614, 4125.76923050, 4125.51282024, 4121.53846126, 4149.61538441, 4137.94871774, 4142.82051262, 4162.43589723, 4129.10256383, 4111.66666639, 4129.87179460, 4135.76923056, 4189.87179474,8.57
4116.79487152, 4118.33333306, 4118.58974332, 4115.25640998, 4120.89743562, 4145.76923056, 4151.79487159, 4155.12820492, 4177.94871781, 4128.33333306, 4109.87179460, 4122.05128178, 4131.53846126, 4193.71794858,8.57
4116.79487152, 4118.33333306, 4118.58974332, 4115.25640998, 4120.89743562, 4145.76923056, 4151.79487159, 4155.12820492, 4177.94871781, 4128.33333306, 4109.87179460, 4122.05128178, 4131.53846126, 4193.71794858,8.57
4129.23076896, 4123.97435870, 4126.41025614, 4119.48717921, 4123.07692280, 4129.48717921, 4143.84615364, 4147.30769210, 4177.82051269, 4130.38461511, 4115.25640998, 4135.25640998, 4137.82051262, 4199.48717935,8.57
4117.43589716, 4122.05128178, 4118.46153819, 4118.33333306, 4123.84615357, 4134.74358947, 4135.76923056, 4135.89743569, 4163.20512800, 4129.74358947, 4110.64102537, 4123.58974332, 4132.43589716, 4192.56410243,8.57
4121.02564075, 4122.43589716, 4122.17948691, 4119.74358947, 4124.61538434, 4141.79487159, 4138.84615364, 4138.97435877, 4163.58974339, 4128.97435870, 4110.12820485, 4129.48717921, 4132.17948691, 4195.64102551,8.57
4123.84615357, 4121.02564075, 4119.87179460, 4119.61538434, 4123.07692280, 4140.76923056, 4144.99999980, 4151.92307672, 4175.25641012, 4129.87179460, 4115.51282024, 4131.53846126, 4134.35897408, 4193.33333320,8.57
4120.38461511, 4121.53846126, 4117.94871767, 4117.69230742, 4122.82051255, 4143.58974339, 4149.48717928, 4162.69230749, 4185.89743576, 4128.84615357, 4115.25640998, 4117.94871767, 4129.99999973, 4192.69230756,8.57
4123.58974332, 4126.53846126, 4127.56410229, 4123.71794844, 4124.48717921, 4147.43589723, 4149.10256390, 4164.48717928, 4196.02564089, 4127.43589716, 4115.51282024, 4126.79487152, 4132.82051255, 4197.05128192,8.57
4112.56410229, 4117.82051255, 4116.15384588, 4117.30769203, 4122.56410229, 4151.15384595, 4150.12820492, 4163.07692287, 4193.84615371, 4127.56410229, 4110.12820485, 4118.84615357, 4130.12820485, 4190.38461525,8.57
4123.84615357, 4122.56410229, 4122.56410229, 4123.58974332, 4123.58974332, 4147.56410236, 4146.02564082, 4153.46153826, 4175.38461525, 4128.84615357, 4111.66666639, 4122.94871767, 4131.15384588, 4191.66666653,8.57
4124.10256383, 4125.51282024, 4125.38461511, 4125.89743562, 4125.25640998, 4133.58974332, 4131.53846126, 4133.58974332, 4160.64102544, 4129.61538434, 4114.48717921, 4126.02564075, 4132.30769203, 4189.35897422,8.57
4117.05128178, 4120.38461511, 4118.46153819, 4116.66666639, 4124.99999973, 4133.58974332, 4130.12820485, 4130.12820485, 4163.84615364, 4128.84615357, 4108.71794844, 4114.74358947, 4130.51282024, 4186.92307679,8.57
4131.41025614, 4129.61538434, 4131.02564075, 4128.46153819, 4125.38461511, 4139.61538441, 4138.20512800, 4141.66666646, 4172.43589730, 4129.87179460, 4113.07692280, 4132.69230742, 4137.43589723, 4194.48717935,8.57
4119.48717921, 4126.28205101, 4122.30769203, 4127.05128178, 4122.30769203, 4128.84615357, 4133.33333306, 4140.89743569, 4172.69230756, 4130.12820485, 4115.89743562, 4127.05128178, 4132.05128178, 4192.56410243,8.57
4122.56410229, 4127.30769203, 4124.87179460, 4123.07692280, 4123.58974332, 4120.25640998, 4124.99999973, 4136.41025621, 4166.92307672, 4128.33333306, 4115.12820485, 4128.20512793, 4129.87179460, 4193.58974345,8.57
4128.58974332, 4129.23076896, 4127.94871767, 4124.74358947, 4124.74358947, 4130.64102537, 4133.97435870, 4146.66666646, 4170.64102551, 4127.56410229, 4115.38461511, 4138.58974339, 4134.10256383, 4192.82051269,8.57
4121.15384588, 4120.89743562, 4117.30769203, 4118.84615357, 4122.43589716, 4140.38461518, 4146.53846133, 4150.76923056, 4172.43589730, 4128.97435870, 4112.82051255, 4123.84615357, 4130.51282024, 4193.97435884,8.57
4129.99999973, 4126.92307665, 4127.82051255, 4125.89743562, 4123.46153819, 4138.07692287, 4143.20512800, 4142.56410236, 4163.71794851, 4131.15384588, 4116.28205101, 4133.71794844, 4137.30769210, 4200.25641012,8.57
4118.07692280, 4123.20512793, 4118.46153819, 4120.12820485, 4123.71794844, 4144.99999980, 4141.92307672, 4149.10256390, 4175.89743576, 4130.12820485, 4113.71794844, 4129.87179460, 4135.12820485, 4195.64102551,8.57
4123.84615357, 4123.07692280, 4118.84615357, 4116.79487152, 4126.28205101, 4151.28205108, 4143.97435877, 4146.92307672, 4176.41025628, 4126.28205101, 4111.41025614, 4125.64102537, 4131.02564075, 4199.61538448,8.57
4130.51282024, 4129.35897408, 4125.76923050, 4123.58974332, 4124.99999973, 4134.74358947, 4130.89743562, 4121.41025614, 4144.87179467, 4126.28205101, 4113.33333306, 4132.94871767, 4136.53846133, 4199.87179474,8.57
4114.99999973, 4123.20512793, 4115.38461511, 4117.43589716, 4120.64102537, 4121.15384588, 4117.05128178, 4114.23076896, 4138.33333313, 4127.69230742, 4109.35897408, 4118.33333306, 4131.28205101, 4193.97435884,8.57
4124.74358947, 4127.43589716, 4125.38461511, 4122.30769203, 4125.89743562, 4124.99999973, 4118.58974332, 4126.66666639, 4155.12820492, 4129.10256383, 4112.82051255, 4130.38461511, 4132.05128178, 4198.71794858,8.57
4117.05128178, 4122.05128178, 4119.35897408, 4121.28205101, 4125.38461511, 4126.66666639, 4120.76923050, 4124.87179460, 4152.69230749, 4129.61538434, 4109.74358947, 4124.48717921, 4132.94871767, 4191.92307679,8.57
4116.66666639, 4118.71794844, 4119.87179460, 4121.02564075, 4122.05128178, 4122.56410229, 4115.76923050, 4121.15384588, 4143.71794851, 4127.17948691, 4105.51282024, 4113.07692280, 4129.99999973, 4189.61538448,8.57
4126.02564075, 4126.66666639, 4128.84615357, 4126.41025614, 4125.38461511, 4124.23076896, 4112.56410229, 4123.84615357, 4146.79487159, 4125.51282024, 4112.82051255, 4127.05128178, 4132.17948691, 4193.07692294,8.57
4111.53846126, 4120.25640998, 4115.64102537, 4115.12820485, 4125.51282024, 4132.56410229, 4120.64102537, 4125.76923050, 4155.64102544, 4126.02564075, 4113.07692280, 4117.56410229, 4128.71794844, 4189.35897422,8.57
4123.46153819, 4123.20512793, 4127.30769203, 4123.46153819, 4125.12820485, 4146.79487159, 4142.82051262, 4149.35897415, 4183.20512807, 4129.10256383, 4113.20512793, 4127.69230742, 4134.99999973, 4195.38461525,8.57
4126.28205101, 4123.07692280, 4127.43589716, 4127.94871767, 4124.10256383, 4148.97435877, 4148.71794851, 4161.53846133, 4185.38461525, 4130.64102537, 4115.51282024, 4129.10256383, 4134.35897408, 4193.58974345,8.57
4120.12820485, 4120.12820485, 4117.82051255, 4118.58974332, 4122.94871767, 4130.76923050, 4127.56410229, 4129.48717921, 4139.23076903, 4128.84615357, 4110.89743562, 4114.61538434, 4128.71794844, 4189.23076910,8.57
4128.84615357, 4129.61538434, 4128.46153819, 4124.23076896, 4123.46153819, 4126.02564075, 4118.71794844, 4112.82051255, 4122.56410229, 4128.97435870, 4109.10256383, 4131.28205101, 4137.30769210, 4193.33333320,8.57
4119.10256383, 4123.58974332, 4118.71794844, 4120.38461511, 4122.43589716, 4135.64102544, 4128.84615357, 4132.30769203, 4149.61538441, 4128.84615357, 4110.38461511, 4127.94871767, 4133.07692280, 4193.58974345,8.57
4126.92307665, 4123.97435870, 4124.10256383, 4122.69230742, 4123.84615357, 4125.76923050, 4120.51282024, 4128.07692280, 4149.10256390, 4127.17948691, 4114.87179460, 4131.66666639, 4131.15384588, 4197.82051269,8.57
4131.15384588, 4129.23076896, 4130.64102537, 4126.92307665, 4123.71794844, 4115.64102537, 4105.51282024, 4110.64102537, 4126.92307665, 4128.07692280, 4113.84615357, 4136.28205108, 4136.53846133, 4193.71794858,8.57
4118.33333306, 4123.58974332, 4117.43589716, 4117.30769203, 4122.17948691, 4126.66666639, 4109.99999973, 4116.15384588, 4139.48717928, 4128.71794844, 4110.12820485, 4122.56410229, 4133.71794844, 4195.25641012,8.57
4125.25640998, 4127.43589716, 4120.51282024, 4121.28205101, 4123.33333306, 4128.33333306, 4110.12820485, 4119.35897408, 4156.79487159, 4126.79487152, 4116.41025614, 4133.58974332, 4137.17948697, 4204.74358968,8.57
4120.12820485, 4124.48717921, 4117.05128178, 4120.64102537, 4122.17948691, 4122.17948691, 4106.53846126, 4115.76923050, 4146.66666646, 4126.28205101, 4111.79487152, 4125.76923050, 4133.97435870, 4196.28205115,8.57
4120.89743562, 4121.92307665, 4121.28205101, 4117.56410229, 4121.02564075, 4126.66666639, 4111.92307665, 4114.61538434, 4135.12820485, 4127.56410229, 4108.20512793, 4123.84615357, 4131.28205101, 4194.10256397,8.57
4123.07692280, 4123.07692280, 4120.51282024, 4119.87179460, 4120.76923050, 4125.25640998, 4108.97435870, 4109.74358947, 4130.89743562, 4128.33333306, 4114.74358947, 4131.15384588, 4134.10256383, 4194.61538448,8.57
4116.28205101, 4121.02564075, 4109.87179460, 4117.43589716, 4122.05128178, 4119.48717921, 4107.05128178, 4111.41025614, 4127.30769203, 4129.61538434, 4111.15384588, 4116.02564075, 4131.79487152, 4192.43589730,8.57
4124.99999973, 4127.43589716, 4124.48717921, 4124.61538434, 4127.05128178, 4124.87179460, 4119.35897408, 4124.23076896, 4131.41025614, 4131.28205101, 4109.61538434, 4126.41025614, 4135.12820485, 4196.15384602,8.57
4118.71794844, 4122.43589716, 4119.48717921, 4120.64102537, 4127.17948691, 4126.53846126, 4122.17948691, 4127.30769203, 4141.41025621, 4129.99999973, 4111.28205101, 4123.97435870, 4129.61538434, 4191.02564089,8.57
4121.02564075, 4121.41025614, 4116.53846126, 4118.84615357, 4126.02564075, 4113.33333306, 4108.33333306, 4114.87179460, 4134.35897408, 4129.35897408, 4116.02564075, 4118.58974332, 4128.33333306, 4191.41025628,8.57
4125.51282024, 4125.89743562, 4126.15384588, 4125.64102537, 4124.87179460, 4109.87179460, 4106.53846126, 4114.23076896, 4130.89743562, 4129.87179460, 4120.25640998, 4127.82051255, 4134.23076896, 4191.92307679,8.57
4117.69230742, 4119.74358947, 4120.89743562, 4119.61538434, 4122.82051255, 4117.05128178, 4109.99999973, 4122.82051255, 4140.89743569, 4128.71794844, 4116.15384588, 4118.20512793, 4127.94871767, 4190.25641012,8.57
4128.71794844, 4126.02564075, 4128.46153819, 4127.82051255, 4125.64102537, 4121.66666639, 4107.30769203, 4119.87179460, 4137.69230749, 4129.87179460, 4117.43589716, 4130.89743562, 4132.56410229, 4194.74358961,8.57
4120.76923050, 4123.33333306, 4119.99999973, 4126.28205101, 4125.76923050, 4129.10256383, 4108.97435870, 4111.92307665, 4132.17948691, 4129.87179460, 4114.61538434, 4130.76923050, 4136.15384595, 4191.66666653,8.57
4121.92307665, 4121.28205101, 4120.12820485, 4117.69230742, 4123.97435870, 4125.64102537, 4103.33333306, 4102.94871767, 4132.94871767, 4128.20512793, 4113.97435870, 4128.97435870, 4133.84615357, 4195.76923063,8.57
4130.64102537, 4129.35897408, 4131.66666639, 4124.10256383, 4123.46153819, 4111.41025614, 4093.84615350, 4093.58974325, 4127.30769203, 4128.97435870, 4119.48717921, 4142.69230749, 4136.53846133, 4198.71794858,8.57
4117.56410229, 4120.12820485, 4116.66666639, 4118.97435870, 4122.30769203, 4110.76923050, 4096.92307658, 4096.15384581, 4119.74358947, 4128.46153819, 4113.97435870, 4125.25640998, 4133.84615357, 4194.87179474,8.57
4129.87179460, 4123.20512793, 4126.66666639, 4121.79487152, 4124.23076896, 4112.69230742, 4096.92307658, 4096.53846119, 4109.74358947, 4127.05128178, 4114.87179460, 4132.30769203, 4138.46153826, 4201.66666660,8.57
4127.56410229, 4126.92307665, 4129.10256383, 4122.17948691, 4123.97435870, 4105.25640998, 4091.02564068, 4093.46153812, 4104.99999973, 4128.58974332, 4114.99999973, 4135.38461518, 4134.23076896, 4196.79487166,8.57
4119.99999973, 4121.41025614, 4119.99999973, 4116.92307665, 4124.10256383, 4107.82051255, 4095.38461504, 4102.43589709, 4114.99999973, 4128.71794844, 4107.43589716, 4121.79487152, 4127.05128178, 4192.69230756,8.57
4128.20512793, 4123.46153819, 4123.20512793, 4123.07692280, 4124.35897408, 4112.30769203, 4096.15384581, 4103.84615357, 4116.02564075, 4128.58974332, 4107.94871767, 4130.51282024, 4135.38461518, 4198.33333320,8.57
4113.71794844, 4118.07692280, 4114.48717921, 4117.82051255, 4121.28205101, 4110.51282024, 4098.07692273, 4103.58974332, 4118.71794844, 4128.58974332, 4107.69230742, 4119.74358947, 4132.17948691, 4195.89743576,8.57
4117.30769203, 4121.92307665, 4126.02564075, 4122.05128178, 4122.43589716, 4124.61538434, 4115.64102537, 4121.15384588, 4137.94871774, 4126.02564075, 4111.79487152, 4126.02564075, 4131.79487152, 4195.89743576,8.57
4118.20512793, 4121.79487152, 4125.12820485, 4125.51282024, 4123.97435870, 4133.58974332, 4117.30769203, 4119.35897408, 4137.56410236, 4125.38461511, 4114.48717921, 4126.53846126, 4131.66666639, 4191.02564089,8.57
4115.76923050, 4119.35897408, 4115.12820485, 4119.99999973, 4124.23076896, 4114.48717921, 4094.99999966, 4090.38461504, 4113.46153819, 4127.69230742, 4109.99999973, 4109.35897408, 4126.53846126, 4189.99999986,8.57
4128.71794844, 4127.82051255, 4128.46153819, 4125.64102537, 4126.41025614, 4106.15384588, 4093.20512786, 4092.05128171, 4110.89743562, 4127.94871767, 4113.58974332, 4126.53846126, 4134.87179460, 4193.58974345,8.57
4118.58974332, 4121.28205101, 4122.05128178, 4117.56410229, 4126.15384588, 4120.76923050, 4111.92307665, 4117.82051255, 4130.12820485, 4127.30769203, 4114.35897408, 4122.82051255, 4131.79487152, 4185.89743576,8.57
4123.97435870, 4123.97435870, 4125.38461511, 4121.92307665, 4123.58974332, 4122.94871767, 4109.87179460, 4112.30769203, 4130.76923050, 4128.84615357, 4111.15384588, 4122.30769203, 4130.25640998, 4191.02564089,8.57
4128.07692280, 4129.48717921, 4129.61538434, 4131.02564075, 4121.15384588, 4121.41025614, 4101.41025607, 4097.30769196, 4115.51282024, 4128.97435870, 4109.48717921, 4129.87179460, 4134.35897408, 4193.84615371,8.57
4117.82051255, 4122.05128178, 4119.23076896, 4120.89743562, 4121.92307665, 4119.87179460, 4101.79487145, 4097.69230735, 4105.12820485, 4126.53846126, 4107.05128178, 4122.94871767, 4130.25640998, 4190.38461525,8.57
4128.97435870, 4127.17948691, 4127.94871767, 4123.97435870, 4124.99999973, 4099.23076889, 4088.20512786, 4092.17948684, 4100.12820478, 4125.89743562, 4109.48717921, 4139.48717928, 4135.38461518, 4196.92307679,8.57
4121.02564075, 4122.69230742, 4124.74358947, 4123.84615357, 4124.48717921, 4091.53846119, 4076.79487145, 4086.02564068, 4104.87179460, 4125.89743562, 4107.56410229, 4129.35897408, 4133.58974332, 4196.66666653,8.57
4122.82051255, 4120.64102537, 4127.05128178, 4124.87179460, 4125.51282024, 4102.17948684, 4083.20512786, 4087.56410222, 4113.07692280, 4127.17948691, 4112.17948691, 4126.02564075, 4132.82051255, 4198.97435884,8.57
4131.66666639, 4128.84615357, 4129.99999973, 4127.56410229, 4125.76923050, 4095.51282017, 4080.51282017, 4081.15384581, 4103.71794844, 4129.48717921, 4118.84615357, 4140.64102544, 4139.74358954, 4197.94871781,8.57
4120.38461511, 4123.33333306, 4118.71794844, 4115.76923050, 4122.82051255, 4087.17948684, 4076.53846119, 4077.82051248, 4093.33333299, 4128.46153819, 4109.61538434, 4123.71794844, 4135.51282031, 4194.10256397,8.57
4129.74358947, 4123.33333306, 4126.66666639, 4119.35897408, 4125.89743562, 4100.51282017, 4091.41025607, 4095.51282017, 4109.35897408, 4127.94871767, 4110.76923050, 4129.23076896, 4135.51282031, 4199.10256397,8.57
4125.89743562, 4122.94871767, 4118.07692280, 4120.25640998, 4124.10256383, 4114.10256383, 4102.56410229, 4110.76923050, 4124.87179460, 4129.10256383, 4115.38461511, 4127.94871767, 4133.71794844, 4194.48717935,8.57
4120.38461511, 4122.82051255, 4117.17948691, 4117.17948691, 4122.17948691, 4114.74358947, 4099.35897402, 4105.38461511, 4116.92307665, 4128.07692280, 4112.05128178, 4121.28205101, 4131.41025614, 4193.71794858,8.57
4125.51282024, 4125.76923050, 4127.17948691, 4123.58974332, 4126.41025614, 4109.48717921, 4092.82051248, 4092.17948684, 4109.35897408, 4127.05128178, 4112.30769203, 4129.10256383, 4135.25640998, 4194.99999986,8.57
4116.66666639, 4120.25640998, 4114.48717921, 4120.64102537, 4125.25640998, 4105.12820485, 4090.76923043, 4093.84615350, 4118.07692280, 4126.79487152, 4109.61538434, 4115.89743562, 4131.41025614, 4191.53846140,8.57
4124.10256383, 4125.38461511, 4124.61538434, 4124.23076896, 4125.51282024, 4111.66666639, 4094.35897402, 4101.28205094, 4117.94871767, 4128.07692280, 4110.89743562, 4123.33333306, 4133.33333306, 4195.38461525,8.57
4119.10256383, 4122.05128178, 4124.74358947, 4123.46153819, 4125.76923050, 4120.38461511, 4098.71794837, 4092.56410222, 4102.94871767, 4127.30769203, 4112.43589716, 4123.97435870, 4132.05128178, 4188.71794858,8.57
4119.35897408, 4119.48717921, 4119.87179460, 4122.94871767, 4123.84615357, 4109.61538434, 4090.89743555, 4075.51282017, 4089.10256376, 4125.12820485, 4110.64102537, 4118.20512793, 4130.76923050, 4189.87179474,8.57
4129.87179460, 4128.07692280, 4130.64102537, 4128.84615357, 4124.48717921, 4093.07692273, 4079.74358940, 4070.38461504, 4091.53846119, 4126.41025614, 4110.51282024, 4133.46153819, 4137.43589723, 4196.15384602,8.57
4118.58974332, 4121.41025614, 4119.48717921, 4117.05128178, 4125.12820485, 4093.20512786, 4083.33333299, 4079.87179453, 4106.15384588, 4126.41025614, 4108.20512793, 4123.33333306, 4128.20512793, 4189.10256397,8.57
4128.97435870, 4126.41025614, 4125.64102537, 4123.58974332, 4126.53846126, 4095.38461504, 4084.87179453, 4082.05128171, 4101.28205094, 4126.92307665, 4112.05128178, 4131.28205101, 4129.35897408, 4193.33333320,8.57
4128.33333306, 4129.74358947, 4125.76923050, 4129.87179460, 4124.35897408, 4101.15384581, 4089.10256376, 4087.43589709, 4102.05128171, 4130.38461511, 4112.69230742, 4136.66666646, 4136.28205108, 4195.12820499,8.57
4120.12820485, 4123.46153819, 4118.97435870, 4118.84615357, 4126.15384588, 4117.17948691, 4104.48717921, 4107.30769203, 4128.20512793, 4128.97435870, 4111.79487152, 4123.46153819, 4133.07692280, 4193.84615371,8.57
4129.74358947, 4128.20512793, 4131.15384588, 4123.97435870, 4126.66666639, 4107.82051255, 4097.82051248, 4100.89743555, 4122.56410229, 4125.12820485, 4116.79487152, 4135.12820485, 4137.69230749, 4196.92307679,8.57
4116.66666639, 4119.10256383, 4118.33333306, 4118.07692280, 4120.64102537, 4087.69230735, 4080.12820478, 4075.38461504, 4091.28205094, 4126.41025614, 4108.58974332, 4127.43589716, 4135.51282031, 4195.38461525,8.57
4123.58974332, 4118.71794844, 4121.41025614, 4117.69230742, 4124.87179460, 4100.76923043, 4092.43589709, 4084.10256376, 4099.23076889, 4128.46153819, 4109.23076896, 4131.66666639, 4136.02564082, 4203.20512814,8.57
4125.89743562, 4124.10256383, 4127.30769203, 4124.23076896, 4126.79487152, 4115.89743562, 4110.38461511, 4107.05128178, 4120.12820485, 4127.69230742, 4117.43589716, 4134.87179460, 4136.66666646, 4199.48717935,8.57
4113.97435870, 4118.84615357, 4118.07692280, 4119.10256383, 4121.66666639, 4109.99999973, 4109.10256383, 4109.10256383, 4119.48717921, 4128.07692280, 4110.38461511, 4118.84615357, 4129.35897408, 4192.56410243,8.57
4125.25640998, 4123.97435870, 4125.38461511, 4123.71794844, 4123.58974332, 4109.99999973, 4110.38461511, 4110.25640998, 4121.79487152, 4126.92307665, 4109.48717921, 4134.99999973, 4133.58974332, 4197.94871781,8.57
4117.17948691, 4120.89743562, 4118.84615357, 4119.10256383, 4124.48717921, 4117.56410229, 4116.66666639, 4116.02564075, 4131.53846126, 4125.38461511, 4111.66666639, 4127.05128178, 4132.43589716, 4193.84615371,8.57
4116.66666639, 4120.76923050, 4123.07692280, 4118.07692280, 4123.97435870, 4111.53846126, 4108.71794844, 4104.35897408, 4124.61538434, 4128.97435870, 4110.76923050, 4121.28205101, 4131.41025614, 4194.61538448,8.57
4120.25640998, 4124.10256383, 4125.38461511, 4124.10256383, 4125.76923050, 4106.28205101, 4101.15384581, 4095.51282017, 4114.74358947, 4130.51282024, 4110.76923050, 4132.05128178, 4133.33333306, 4194.61538448,8.57
4114.61538434, 4121.41025614, 4116.02564075, 4119.99999973, 4125.76923050, 4112.82051255, 4106.02564075, 4102.56410229, 4113.58974332, 4125.76923050, 4110.25640998, 4118.07692280, 4126.92307665, 4191.66666653,8.57
4124.99999973, 4129.10256383, 4128.97435870, 4126.92307665, 4124.99999973, 4116.66666639, 4107.43589716, 4095.25640991, 4108.84615357, 4125.38461511, 4113.71794844, 4127.82051255, 4132.30769203, 4194.48717935,8.57
4117.56410229, 4123.97435870, 4122.69230742, 4123.33333306, 4124.48717921, 4113.97435870, 4101.92307658, 4084.23076889, 4106.02564075, 4128.58974332, 4109.35897408, 4128.07692280, 4135.38461518, 4188.46153833,8.57
4123.97435870, 4123.71794844, 4123.97435870, 4121.53846126, 4127.30769203, 4109.99999973, 4098.84615350, 4091.92307658, 4107.43589716, 4130.51282024, 4106.53846126, 4122.43589716, 4133.07692280, 4190.76923063,8.57
4131.02564075, 4129.61538434, 4131.15384588, 4126.02564075, 4126.28205101, 4112.56410229, 4101.92307658, 4102.43589709, 4108.46153819, 4131.41025614, 4110.38461511, 4130.64102537, 4134.48717921, 4193.20512807,8.57
4117.30769203, 4121.41025614, 4117.69230742, 4115.64102537, 4120.76923050, 4114.61538434, 4101.53846119, 4101.79487145, 4117.56410229, 4128.46153819, 4108.84615357, 4118.97435870, 4131.92307665, 4191.15384602,8.57
4130.25640998, 4127.94871767, 4131.92307665, 4123.58974332, 4122.82051255, 4106.79487152, 4100.12820478, 4103.84615357, 4127.30769203, 4125.25640998, 4114.48717921, 4132.43589716, 4138.71794851, 4197.56410243,8.57
4126.28205101, 4126.92307665, 4129.10256383, 4127.30769203, 4124.35897408, 4098.71794837, 4100.25640991, 4103.20512793, 4111.41025614, 4125.89743562, 4111.79487152, 4134.99999973, 4136.92307672, 4194.35897422,8.57
4119.87179460, 4121.92307665, 4117.56410229, 4118.97435870, 4123.46153819, 4105.12820485, 4101.15384581, 4095.76923043, 4097.17948684, 4127.56410229, 4105.25640998, 4124.35897408, 4132.30769203, 4196.41025628,8.57
4129.74358947, 4128.20512793, 4128.71794844, 4123.46153819, 4123.97435870, 4116.02564075, 4108.58974332, 4101.79487145, 4117.82051255, 4128.46153819, 4115.38461511, 4137.43589723, 4140.25641005, 4200.51282038,8.57
4118.46153819, 4121.79487152, 4121.28205101, 4118.20512793, 4123.07692280, 4108.97435870, 4110.25640998, 4102.17948684, 4119.87179460, 4127.82051255, 4114.48717921, 4126.15384588, 4135.64102544, 4192.30769217,8.57
4124.61538434, 4125.76923050, 4123.97435870, 4121.02564075, 4126.15384588, 4099.35897402, 4097.94871761, 4082.82051248, 4094.48717914, 4127.69230742, 4111.02564075, 4128.97435870, 4133.97435870, 4195.76923063,8.57
4123.46153819, 4126.79487152, 4122.82051255, 4121.92307665, 4125.76923050, 4097.82051248, 4084.74358940, 4073.71794837, 4091.92307658, 4127.43589716, 4113.33333306, 4131.66666639, 4134.10256383, 4196.79487166,8.57
4116.02564075, 4119.61538434, 4116.66666639, 4114.35897408, 4122.69230742, 4095.25640991, 4087.69230735, 4083.84615350, 4101.92307658, 4127.17948691, 4108.33333306, 4120.38461511, 4130.51282024, 4196.79487166,8.57
4124.99999973, 4124.48717921, 4122.17948691, 4121.28205101, 4123.46153819, 4102.43589709, 4100.89743555, 4091.79487145, 4097.94871761, 4129.99999973, 4108.58974332, 4131.66666639, 4134.87179460, 4199.61538448,8.57
4114.74358947, 4119.61538434, 4113.07692280, 4119.23076896, 4124.61538434, 4111.66666639, 4102.94871767, 4091.92307658, 4096.28205094, 4129.48717921, 4110.38461511, 4122.30769203, 4130.12820485, 4192.94871781,8.57
4122.05128178, 4123.20512793, 4122.69230742, 4121.15384588, 4126.41025614, 4101.92307658, 4089.74358940, 4086.79487145, 4096.79487145, 4126.15384588, 4110.64102537, 4123.20512793, 4133.07692280, 4192.94871781,8.57
4127.82051255, 4127.69230742, 4126.66666639, 4124.74358947, 4125.64102537, 4096.02564068, 4086.02564068, 4077.17948684, 4085.76923043, 4125.76923050, 4109.35897408, 4126.53846126, 4136.53846133, 4190.12820499,8.57
4119.99999973, 4123.20512793, 4119.74358947, 4118.84615357, 4122.94871767, 4103.71794844, 4091.79487145, 4075.89743555, 4084.48717914, 4124.99999973, 4108.84615357, 4117.56410229, 4128.07692280, 4189.87179474,8.57
4125.25640998, 4129.61538434, 4131.28205101, 4125.76923050, 4123.97435870, 4100.89743555, 4085.64102530, 4082.17948684, 4095.38461504, 4125.64102537, 4113.33333306, 4134.35897408, 4131.92307665, 4194.61538448,8.57
4117.94871767, 4123.97435870, 4122.56410229, 4124.23076896, 4123.71794844, 4095.89743555, 4083.84615350, 4086.92307658, 4102.05128171, 4127.30769203, 4111.53846126, 4126.02564075, 4133.84615357, 4188.46153833,8.57
4128.33333306, 4122.94871767, 4124.23076896, 4124.99999973, 4125.25640998, 4097.43589709, 4089.10256376, 4082.82051248, 4095.76923043, 4126.15384588, 4111.79487152, 4123.33333306, 4134.61538434, 4192.69230756,8.57
4131.02564075, 4127.17948691, 4128.84615357, 4126.79487152, 4125.38461511, 4094.87179453, 4087.30769196, 4074.99999966, 4085.76923043, 4124.61538434, 4114.61538434, 4134.35897408, 4135.12820485, 4195.12820499,8.57
4114.87179460, 4120.38461511, 4117.17948691, 4116.28205101, 4122.43589716, 4097.43589709, 4090.38461504, 4076.41025607, 4087.94871761, 4125.89743562, 4111.15384588, 4122.56410229, 4130.25640998, 4194.48717935,8.57
4128.07692280, 4126.15384588, 4128.84615357, 4123.20512793, 4122.56410229, 4099.87179453, 4089.61538427, 4072.56410222, 4084.61538427, 4127.94871767, 4113.33333306, 4133.71794844, 4136.41025621, 4201.53846147,8.57
4124.48717921, 4124.87179460, 4123.97435870, 4122.94871767, 4123.71794844, 4088.20512786, 4074.87179453, 4054.87179446, 4067.30769189, 4127.05128178, 4112.17948691, 4131.79487152, 4133.84615357, 4198.33333320,8.57
4122.56410229, 4120.89743562, 4117.17948691, 4118.58974332, 4125.25640998, 4086.28205094, 4079.74358940, 4062.43589702, 4075.89743555, 4124.74358947, 4111.79487152, 4127.94871767, 4131.15384588, 4201.79487173,8.57
4129.87179460, 4124.87179460, 4123.07692280, 4122.69230742, 4123.97435870, 4099.23076889, 4096.41025607, 4084.35897402, 4100.12820478, 4125.51282024, 4113.84615357, 4133.71794844, 4134.48717921, 4202.56410250,8.57
4119.61538434, 4121.66666639, 4118.46153819, 4115.89743562, 4122.05128178, 4103.58974332, 4093.97435863, 4081.92307658, 4100.12820478, 4126.02564075, 4107.30769203, 4116.92307665, 4128.20512793, 4194.10256397,8.57
4123.71794844, 4126.28205101, 4124.48717921, 4120.12820485, 4125.12820485, 4095.38461504, 4088.33333299, 4078.84615350, 4094.35897402, 4124.74358947, 4111.92307665, 4128.58974332, 4132.56410229, 4197.56410243,8.57
4118.20512793, 4123.07692280, 4116.02564075, 4120.64102537, 4122.94871767, 4088.97435863, 4087.05128171, 4085.64102530, 4096.15384581, 4124.87179460, 4115.76923050, 4129.87179460, 4132.56410229, 4195.38461525,8.57
4120.12820485, 4119.74358947, 4119.10256383, 4120.12820485, 4122.30769203, 4090.76923043, 4082.82051248, 4079.74358940, 4090.76923043, 4127.82051255, 4110.64102537, 4121.15384588, 4129.74358947, 4194.35897422,8.57
4126.92307665, 4124.87179460, 4130.89743562, 4127.05128178, 4125.76923050, 4095.12820478, 4083.97435863, 4077.05128171, 4091.92307658, 4127.30769203, 4112.05128178, 4130.38461511, 4137.43589723, 4195.38461525,8.57
4114.61538434, 4119.61538434, 4117.05128178, 4119.35897408, 4124.74358947, 4103.97435870, 4096.79487145, 4091.92307658, 4107.05128178, 4125.51282024, 4114.23076896, 4115.38461511, 4131.28205101, 4191.79487166,8.57
4124.99999973, 4126.15384588, 4126.66666639, 4125.64102537, 4126.53846126, 4105.89743562, 4100.51282017, 4091.28205094, 4108.97435870, 4129.23076896, 4117.56410229, 4121.53846126, 4130.64102537, 4194.99999986,8.57
4121.53846126, 4126.92307665, 4127.69230742, 4128.97435870, 4126.66666639, 4091.15384581, 4085.12820478, 4071.28205094, 4091.15384581, 4129.99999973, 4114.61538434, 4125.76923050, 4136.28205108, 4190.64102551,8.57
4116.92307665, 4121.66666639, 4121.15384588, 4122.69230742, 4123.33333306, 4085.76923043, 4081.41025607, 4073.58974325, 4087.69230735, 4127.17948691, 4112.17948691, 4116.66666639, 4134.61538434, 4192.82051269,8.57
4127.43589716, 4128.58974332, 4128.97435870, 4129.10256383, 4121.66666639, 4095.38461504, 4094.74358940, 4095.51282017, 4103.84615357, 4129.23076896, 4118.46153819, 4129.99999973, 4134.48717921, 4198.84615371,8.57
4115.76923050, 4124.99999973, 4118.07692280, 4121.79487152, 4120.25640998, 4095.89743555, 4094.99999966, 4101.92307658, 4108.71794844, 4128.46153819, 4116.28205101, 4121.02564075, 4130.12820485, 4191.28205115,8.57
4124.74358947, 4127.30769203, 4131.15384588, 4125.76923050, 4123.84615357, 4090.12820478, 4083.46153812, 4082.82051248, 4088.07692273, 4124.99999973, 4112.94871767, 4127.69230742, 4135.25640998, 4192.82051269,8.57
4126.28205101, 4127.69230742, 4131.41025614, 4128.07692280, 4125.64102537, 4092.69230735, 4083.58974325, 4073.33333299, 4077.69230735, 4126.92307665, 4110.64102537, 4136.66666646, 4138.71794851, 4194.23076910,8.57
4119.10256383, 4122.56410229, 4106.02564075, 4112.30769203, 4124.61538434, 4086.15384581, 4082.82051248, 4080.38461504, 4092.30769196, 4129.87179460, 4110.64102537, 4125.64102537, 4133.84615357, 4197.43589730,8.57
4134.23076896, 4129.35897408, 4114.87179460, 4117.82051255, 4125.38461511, 4080.76923043, 4077.56410222, 4082.30769196, 4104.48717921, 4128.46153819, 4119.61538434, 4138.58974339, 4138.71794851, 4202.05128199,8.57
4123.71794844, 4123.07692280, 4120.25640998, 4121.28205101, 4122.94871767, 4097.43589709, 4089.74358940, 4088.33333299, 4112.17948691, 4127.43589716, 4117.69230742, 4129.48717921, 4132.17948691, 4193.71794858,8.57
4123.84615357, 4122.17948691, 4124.99999973, 4122.82051255, 4123.33333306, 4100.64102530, 4093.71794837, 4092.94871761, 4111.15384588, 4127.94871767, 4115.89743562, 4131.15384588, 4132.05128178, 4199.87179474,8.57
4128.33333306, 4125.89743562, 4124.48717921, 4124.74358947, 4123.33333306, 4074.99999966, 4069.74358940, 4075.38461504, 4088.58974325, 4127.05128178, 4120.12820485, 4137.56410236, 4140.51282031, 4201.79487173,8.57
4117.82051255, 4120.64102537, 4117.69230742, 4118.97435870, 4120.38461511, 4068.97435856, 4060.25640984, 4059.35897395, 4074.74358940, 4125.89743562, 4116.53846126, 4116.66666639, 4133.58974332, 4192.69230756,8.57
4122.05128178, 4127.05128178, 4126.28205101, 4125.51282024, 4123.33333306, 4081.02564068, 4071.28205094, 4065.25640984, 4083.58974325, 4127.82051255, 4118.46153819, 4125.64102537, 4132.82051255, 4195.38461525,8.57
4113.33333306, 4122.94871767, 4113.46153819, 4122.56410229, 4124.61538434, 4076.66666632, 4071.28205094, 4069.61538420, 4084.99999966, 4128.58974332, 4116.02564075, 4122.69230742, 4132.43589716, 4194.61538448,8.57
4119.87179460, 4122.43589716, 4118.07692280, 4123.58974332, 4123.97435870, 4069.48717907, 4064.48717907, 4065.89743548, 4077.82051248, 4127.69230742, 4111.92307665, 4118.07692280, 4132.30769203, 4195.25641012,8.57
4125.76923050, 4129.48717921, 4128.97435870, 4128.71794844, 4123.46153819, 4076.41025607, 4066.53846113, 4067.05128164, 4079.35897402, 4127.94871767, 4115.76923050, 4124.99999973, 4134.35897408, 4189.87179474,8.57
4115.76923050, 4122.94871767, 4118.97435870, 4118.58974332, 4123.33333306, 4078.58974325, 4068.46153805, 4060.89743548, 4073.20512786, 4127.30769203, 4113.20512793, 4114.87179460, 4131.02564075, 4186.79487166,8.57
4130.12820485, 4129.10256383, 4131.92307665, 4126.53846126, 4127.17948691, 4071.02564068, 4064.23076882, 4050.12820472, 4060.25640984, 4126.79487152, 4115.51282024, 4132.43589716, 4138.07692287, 4195.64102551,8.57
4119.99999973, 4127.94871767, 4124.23076896, 4127.30769203, 4126.53846126, 4069.48717907, 4064.61538420, 4051.92307651, 4060.12820472, 4126.53846126, 4117.43589716, 4128.71794844, 4136.28205108, 4190.64102551,8.57
4116.15384588, 4125.51282024, 4118.33333306, 4120.38461511, 4124.87179460, 4072.69230735, 4067.17948677, 4052.82051241, 4059.35897395, 4124.99999973, 4116.02564075, 4116.92307665, 4131.92307665, 4193.84615371,8.57
4133.20512793, 4131.28205101, 4131.66666639, 4129.23076896, 4124.35897408, 4074.74358940, 4067.82051241, 4051.79487138, 4060.89743548, 4124.99999973, 4119.99999973, 4134.99999973, 4138.33333313, 4199.61538448,8.57
4120.12820485, 4121.66666639, 4121.41025614, 4124.87179460, 4123.33333306, 4076.28205094, 4072.17948684, 4063.20512779, 4077.56410222, 4126.41025614, 4118.71794844, 4128.71794844, 4134.87179460, 4194.10256397,8.57
4124.61538434, 4125.64102537, 4127.17948691, 4124.74358947, 4125.76923050, 4068.58974318, 4074.48717914, 4073.33333299, 4083.84615350, 4129.10256383, 4119.99999973, 4132.56410229, 4137.30769210, 4197.69230756,8.57
4125.25640998, 4127.94871767, 4125.51282024, 4123.84615357, 4123.84615357, 4068.46153805, 4073.97435863, 4073.58974325, 4072.30769196, 4129.74358947, 4117.94871767, 4130.64102537, 4137.05128185, 4193.07692294,8.57
4117.05128178, 4120.89743562, 4119.23076896, 4117.82051255, 4120.25640998, 4082.05128171, 4071.92307658, 4066.79487138, 4060.51282010, 4126.92307665, 4112.94871767, 4122.43589716, 4132.05128178, 4193.20512807,8.57
4121.66666639, 4123.20512793, 4124.87179460, 4121.92307665, 4122.43589716, 4078.20512786, 4064.10256369, 4057.94871754, 4056.66666625, 4126.41025614, 4116.28205101, 4136.53846133, 4135.25640998, 4199.61538448,8.57
4114.61538434, 4119.48717921, 4112.94871767, 4116.79487152, 4124.99999973, 4067.17948677, 4060.76923036, 4058.33333292, 4064.99999959, 4127.82051255, 4114.74358947, 4122.82051255, 4129.74358947, 4193.97435884,8.57
4123.20512793, 4125.64102537, 4121.15384588, 4122.94871767, 4125.38461511, 4078.71794837, 4067.17948677, 4063.97435856, 4070.51282017, 4126.79487152, 4117.17948691, 4125.38461511, 4131.41025614, 4195.25641012,8.57
4119.10256383, 4125.89743562, 4121.28205101, 4126.15384588, 4122.43589716, 4089.23076889, 4071.02564068, 4064.99999959, 4068.33333292, 4126.53846126, 4117.69230742, 4128.84615357, 4132.30769203, 4192.94871781,8.57
4115.12820485, 4118.46153819, 4114.10256383, 4120.89743562, 4123.46153819, 4080.89743555, 4071.41025607, 4063.84615343, 4069.10256369, 4128.46153819, 4111.28205101, 4114.61538434, 4126.79487152, 4192.56410243,8.57
4128.07692280, 4123.58974332, 4128.33333306, 4130.89743562, 4127.43589716, 4078.71794837, 4077.30769196, 4067.82051241, 4075.64102530, 4128.33333306, 4115.64102537, 4124.99999973, 4132.30769203, 4195.89743576,8.57
4116.92307665, 4120.25640998, 4119.61538434, 4124.87179460, 4124.87179460, 4087.17948684, 4084.61538427, 4077.30769196, 4088.71794837, 4126.28205101, 4117.17948691, 4117.82051255, 4129.10256383, 4188.33333320,8.57
4124.87179460, 4125.38461511, 4124.23076896, 4122.94871767, 4124.99999973, 4084.87179453, 4080.51282017, 4081.41025607, 4091.15384581, 4128.46153819, 4117.56410229, 4125.12820485, 4131.53846126, 4191.53846140,8.57
4125.51282024, 4129.23076896, 4131.66666639, 4127.69230742, 4126.15384588, 4072.56410222, 4066.92307651, 4066.15384574, 4071.28205094, 4129.74358947, 4119.23076896, 4133.71794844, 4136.53846133, 4193.58974345,8.57
4112.56410229, 4121.79487152, 4122.05128178, 4121.41025614, 4124.10256383, 4058.20512779, 4054.61538420, 4050.25640984, 4055.76923036, 4128.07692280, 4115.89743562, 4115.89743562, 4130.51282024, 4191.92307679,8.57
4128.46153819, 4129.87179460, 4129.61538434, 4128.71794844, 4125.25640998, 4053.33333292, 4052.05128164, 4055.76923036, 4064.10256369, 4130.64102537, 4117.05128178, 4132.30769203, 4134.87179460, 4195.89743576,8.57
4123.33333306, 4129.10256383, 4123.33333306, 4126.02564075, 4124.61538434, 4068.20512779, 4060.64102523, 4066.66666625, 4080.25640991, 4130.25640998, 4116.02564075, 4133.46153819, 4134.10256383, 4193.71794858,8.57
4121.15384588, 4126.41025614, 4125.89743562, 4121.66666639, 4123.71794844, 4081.02564068, 4068.58974318, 4070.25640991, 4090.38461504, 4125.12820485, 4118.71794844, 4127.94871767, 4132.05128178, 4197.43589730,8.57
4125.12820485, 4127.30769203, 4129.74358947, 4124.35897408, 4122.05128178, 4082.17948684, 4072.05128171, 4069.99999966, 4088.20512786, 4127.05128178, 4121.28205101, 4134.74358947, 4136.66666646, 4193.97435884,8.57
4115.38461511, 4120.51282024, 4117.69230742, 4118.97435870, 4120.38461511, 4086.41025607, 4077.30769196, 4065.38461497, 4075.89743555, 4128.58974332, 4114.48717921, 4123.84615357, 4133.07692280, 4190.76923063,8.57
4125.76923050, 4125.51282024, 4129.35897408, 4125.51282024, 4123.58974332, 4083.84615350, 4071.66666632, 4056.15384574, 4064.99999959, 4125.64102537, 4117.56410229, 4136.28205108, 4136.66666646, 4201.15384609,8.57
4119.74358947, 4123.07692280, 4124.48717921, 4121.28205101, 4123.71794844, 4073.58974325, 4061.15384574, 4053.58974318, 4065.51282010, 4125.12820485, 4118.84615357, 4128.58974332, 4134.87179460, 4197.05128192,8.57
4117.17948691, 4121.92307665, 4119.61538434, 4116.53846126, 4123.71794844, 4071.53846119, 4065.12820472, 4060.38461497, 4071.28205094, 4127.43589716, 4116.15384588, 4118.33333306, 4131.15384588, 4193.58974345,8.57
4122.94871767, 4127.17948691, 4123.71794844, 4125.51282024, 4124.10256383, 4068.58974318, 4063.71794830, 4053.58974318, 4064.23076882, 4128.07692280, 4117.43589716, 4134.23076896, 4134.99999973, 4195.89743576,8.57
4113.07692280, 4118.33333306, 4112.82051255, 4120.12820485, 4121.41025614, 4065.38461497, 4058.97435856, 4051.02564061, 4065.51282010, 4126.15384588, 4113.97435870, 4123.33333306, 4129.99999973, 4195.12820499,8.57
4122.43589716, 4123.71794844, 4124.23076896, 4123.71794844, 4125.38461511, 4076.79487145, 4074.99999966, 4072.43589709, 4089.10256376, 4127.82051255, 4116.92307665, 4125.12820485, 4132.56410229, 4197.17948704,8.57
4117.17948691, 4125.25640998, 4123.71794844, 4125.51282024, 4126.79487152, 4089.48717914, 4088.20512786, 4086.53846119, 4103.71794844, 4128.84615357, 4117.82051255, 4122.43589716, 4130.64102537, 4187.56410243,8.57
4116.41025614, 4121.92307665, 4123.33333306, 4121.79487152, 4123.58974332, 4086.28205094, 4078.33333299, 4081.15384581, 4096.41025607, 4124.87179460, 4115.76923050, 4118.20512793, 4125.64102537, 4188.58974345,8.57
4127.30769203, 4127.69230742, 4133.97435870, 4128.33333306, 4124.87179460, 4073.07692273, 4061.41025600, 4064.35897395, 4077.17948684, 4123.71794844, 4120.12820485, 4132.94871767, 4132.17948691, 4195.89743576,8.57
4116.02564075, 4121.41025614, 4120.38461511, 4120.64102537, 4125.89743562, 4058.58974318, 4048.33333292, 4048.58974318, 4065.25640984, 4127.69230742, 4115.76923050, 4119.10256383, 4128.97435870, 4190.12820499,8.57
4127.94871767, 4127.69230742, 4129.35897408, 4125.25640998, 4125.76923050, 4053.84615343, 4044.23076882, 4047.94871754, 4067.30769189, 4128.33333306, 4114.61538434, 4127.69230742, 4131.15384588, 4193.20512807,8.57
4127.56410229, 4132.56410229, 4128.97435870, 4130.25640998, 4122.56410229, 4061.02564061, 4051.28205087, 4054.35897395, 4070.25640991, 4126.79487152, 4117.05128178, 4134.10256383, 4132.30769203, 4193.46153833,8.57
4117.43589716, 4125.12820485, 4118.46153819, 4121.53846126, 4123.07692280, 4067.30769189, 4057.82051241, 4051.79487138, 4062.94871754, 4129.10256383, 4116.02564075, 4122.05128178, 4128.46153819, 4194.10256397,8.57
4128.84615357, 4126.92307665, 4130.76923050, 4126.92307665, 4125.76923050, 4070.51282017, 4064.35897395, 4055.89743548, 4066.28205087, 4129.87179460, 4118.84615357, 4138.46153826, 4136.41025621, 4197.56410243,8.57
4119.61538434, 4122.56410229, 4121.15384588, 4124.23076896, 4122.30769203, 4076.02564068, 4073.46153812, 4068.20512779, 4077.30769196, 4130.25640998, 4114.61538434, 4130.38461511, 4134.74358947, 4193.84615371,8.57
4122.94871767, 4125.51282024, 4124.87179460, 4125.38461511, 4123.33333306, 4079.61538427, 4072.05128171, 4064.23076882, 4069.35897395, 4129.87179460, 4114.35897408, 4129.10256383, 4134.74358947, 4200.51282038,8.57
4125.64102537, 4126.41025614, 4130.38461511, 4126.92307665, 4123.97435870, 4078.97435863, 4070.89743555, 4066.28205087, 4073.33333299, 4126.92307665, 4120.25640998, 4134.35897408, 4135.89743569, 4198.71794858,8.57
4116.28205101, 4119.87179460, 4118.71794844, 4119.23076896, 4122.43589716, 4071.92307658, 4073.07692273, 4079.74358940, 4092.56410222, 4128.20512793, 4119.61538434, 4119.74358947, 4129.99999973, 4193.20512807,8.57
4123.71794844, 4124.87179460, 4121.41025614, 4125.12820485, 4124.35897408, 4066.15384574, 4064.87179446, 4070.38461504, 4085.89743555, 4131.02564075, 4119.35897408, 4131.92307665, 4135.51282031, 4197.94871781,8.57
4115.12820485, 4119.87179460, 4113.33333306, 4121.02564075, 4122.56410229, 4075.12820478, 4064.48717907, 4058.97435856, 4069.23076882, 4127.56410229, 4114.35897408, 4126.28205101, 4133.71794844, 4194.10256397,8.57
4118.46153819, 4120.38461511, 4117.43589716, 4121.92307665, 4122.56410229, 4080.64102530, 4072.69230735, 4072.05128171, 4080.89743555, 4124.87179460, 4115.51282024, 4122.17948691, 4130.64102537, 4194.61538448,8.57
4121.66666639, 4125.76923050, 4122.17948691, 4129.10256383, 4124.35897408, 4072.17948684, 4066.66666625, 4075.12820478, 4087.56410222, 4126.41025614, 4121.28205101, 4127.30769203, 4132.56410229, 4192.17948704,8.57
4112.43589716, 4117.82051255, 4114.35897408, 4121.02564075, 4123.46153819, 4067.94871754, 4058.84615343, 4058.58974318, 4061.92307651, 4125.51282024, 4112.17948691, 4113.46153819, 4127.17948691, 4188.84615371,8.57
4112.43589716, 4117.82051255, 4114.35897408, 4121.02564075, 4123.46153819, 4067.94871754, 4058.84615343, 4058.58974318, 4061.92307651, 4125.51282024, 4112.17948691, 4113.46153819, 4127.17948691, 4188.84615371,8.57
4112.43589716, 4117.82051255, 4114.35897408, 4121.02564075, 4123.46153819, 4067.94871754, 4058.84615343, 4058.58974318, 4061.92307651, 4125.51282024, 4112.17948691, 4113.46153819, 4127.17948691, 4188.84615371,8.57
4124.99999973, 4122.82051255, 4127.30769203, 4125.89743562, 4124.99999973, 4067.94871754, 4060.25640984, 4054.87179446, 4053.84615343, 4126.28205101, 4109.61538434, 4126.53846126, 4131.41025614, 4194.61538448,8.57
4116.41025614, 4123.58974332, 4122.17948691, 4125.89743562, 4124.35897408, 4066.79487138, 4059.87179446, 4059.48717907, 4068.71794830, 4127.30769203, 4115.76923050, 4124.99999973, 4131.92307665, 4189.99999986,8.57
4118.07692280, 4123.58974332, 4123.71794844, 4126.41025614, 4125.64102537, 4071.28205094, 4059.61538420, 4059.10256369, 4073.46153812, 4127.69230742, 4115.76923050, 4122.05128178, 4132.17948691, 4191.15384602,8.57
4127.05128178, 4127.69230742, 4131.41025614, 4132.17948691, 4125.64102537, 4079.23076889, 4069.87179453, 4065.25640984, 4074.48717914, 4130.89743562, 4113.20512793, 4132.43589716, 4135.64102544, 4193.58974345,8.57
4112.17948691, 4118.84615357, 4115.38461511, 4119.48717921, 4119.87179460, 4081.15384581, 4077.17948684, 4072.94871761, 4081.15384581, 4128.97435870, 4111.02564075, 4118.20512793, 4128.33333306, 4191.79487166,8.57
4125.89743562, 4126.79487152, 4128.71794844, 4125.51282024, 4121.15384588, 4079.74358940, 4080.38461504, 4076.53846119, 4086.53846119, 4125.89743562, 4116.02564075, 4131.53846126, 4135.25640998, 4197.94871781,8.57
4127.82051255, 4127.82051255, 4129.23076896, 4129.99999973, 4123.58974332, 4084.48717914, 4085.38461504, 4079.87179453, 4085.76923043, 4126.66666639, 4114.35897408, 4135.12820485, 4137.94871774, 4193.33333320,8.57
4123.07692280, 4119.74358947, 4117.69230742, 4119.23076896, 4124.10256383, 4088.71794837, 4079.23076889, 4071.41025607, 4074.23076889, 4126.79487152, 4111.79487152, 4126.66666639, 4130.76923050, 4195.89743576,8.57
4130.89743562, 4125.89743562, 4127.94871767, 4123.71794844, 4125.38461511, 4075.64102530, 4065.12820472, 4057.30769189, 4060.12820472, 4125.51282024, 4118.46153819, 4140.76923056, 4134.87179460, 4201.79487173,8.57
4117.82051255, 4122.30769203, 4121.66666639, 4122.43589716, 4123.33333306, 4065.25640984, 4065.38461497, 4064.10256369, 4071.15384581, 4127.43589716, 4113.07692280, 4126.92307665, 4133.46153819, 4192.94871781,8.57
4122.69230742, 4125.89743562, 4125.12820485, 4122.30769203, 4122.69230742, 4074.10256376, 4072.17948684, 4072.43589709, 4076.79487145, 4131.15384588, 4112.30769203, 4129.23076896, 4134.23076896, 4194.74358961,8.57
4121.79487152, 4127.17948691, 4124.99999973, 4121.02564075, 4121.92307665, 4082.05128171, 4073.33333299, 4069.10256369, 4064.48717907, 4130.12820485, 4116.02564075, 4134.61538434, 4132.82051255, 4195.64102551,8.57
4115.51282024, 4123.07692280, 4120.89743562, 4122.30769203, 4124.23076896, 4081.79487145, 4078.07692273, 4070.64102530, 4064.74358933, 4127.94871767, 4112.56410229, 4123.84615357, 4129.35897408, 4195.76923063,8.57
4123.71794844, 4125.76923050, 4123.20512793, 4129.10256383, 4126.02564075, 4079.35897402, 4079.10256376, 4067.30769189, 4067.05128164, 4130.76923050, 4114.10256383, 4130.51282024, 4134.61538434, 4197.69230756,8.57
4116.15384588, 4117.94871767, 4110.64102537, 4118.07692280, 4121.02564075, 4078.20512786, 4075.76923043, 4067.56410215, 4070.38461504, 4129.48717921, 4112.82051255, 4117.69230742, 4130.12820485, 4191.92307679,8.57
4122.82051255, 4122.17948691, 4123.84615357, 4123.20512793, 4121.28205101, 4080.76923043, 4080.64102530, 4077.43589709, 4078.07692273, 4125.12820485, 4115.76923050, 4121.92307665, 4129.48717921, 4196.41025628,8.57
4120.51282024, 4124.10256383, 4128.46153819, 4132.69230742, 4124.61538434, 4078.07692273, 4080.38461504, 4072.82051248, 4080.25640991, 4127.30769203, 4119.23076896, 4129.48717921, 4131.02564075, 4194.48717935,8.57
4114.61538434, 4118.58974332, 4119.23076896, 4123.71794844, 4125.64102537, 4073.20512786, 4076.92307658, 4072.82051248, 4088.71794837, 4128.33333306, 4114.35897408, 4114.99999973, 4127.05128178, 4193.07692294,8.57
4129.10256383, 4126.15384588, 4129.35897408, 4125.89743562, 4124.10256383, 4084.74358940, 4087.43589709, 4091.53846119, 4103.33333306, 4126.15384588, 4116.53846126, 4127.82051255, 4133.20512793, 4198.33333320,8.57
4117.69230742, 4121.53846126, 4118.71794844, 4122.43589716, 4120.25640998, 4095.25640991, 4097.17948684, 4091.28205094, 4096.41025607, 4128.07692280, 4118.46153819, 4123.33333306, 4130.38461511, 4189.87179474,8.57
4120.64102537, 4123.97435870, 4121.92307665, 4127.30769203, 4124.35897408, 4081.28205094, 4085.76923043, 4074.74358940, 4081.92307658, 4130.12820485, 4119.35897408, 4121.15384588, 4131.92307665, 4191.92307679,8.57
4126.79487152, 4131.28205101, 4128.84615357, 4134.10256383, 4128.33333306, 4076.41025607, 4078.33333299, 4081.53846119, 4094.87179453, 4127.82051255, 4121.15384588, 4132.43589716, 4137.43589723, 4195.12820499,8.57
4117.56410229, 4121.92307665, 4118.46153819, 4121.92307665, 4124.61538434, 4089.35897402, 4088.33333299, 4089.61538427, 4097.43589709, 4126.79487152, 4120.89743562, 4123.97435870, 4129.87179460, 4194.35897422,8.57
4129.61538434, 4124.48717921, 4129.87179460, 4125.12820485, 4123.58974332, 4090.64102530, 4093.97435863, 4087.17948684, 4086.41025607, 4129.99999973, 4125.38461511, 4134.74358947, 4133.84615357, 4199.87179474,8.57
4121.15384588, 4124.74358947, 4121.79487152, 4125.76923050, 4123.07692280, 4089.74358940, 4091.79487145, 4091.15384581, 4091.79487145, 4130.38461511, 4118.58974332, 4130.25640998, 4133.33333306, 4194.23076910,8.57
4119.10256383, 4124.87179460, 4117.56410229, 4123.20512793, 4122.17948691, 4088.71794837, 4081.15384581, 4076.41025607, 4082.17948684, 4127.82051255, 4112.82051255, 4126.79487152, 4130.38461511, 4195.51282038,8.57
4126.53846126, 4127.05128178, 4127.82051255, 4125.76923050, 4122.94871767, 4075.38461504, 4066.41025600, 4057.17948677, 4061.41025600, 4128.33333306, 4117.82051255, 4136.66666646, 4133.20512793, 4197.82051269,8.57
4114.61538434, 4119.35897408, 4118.97435870, 4117.43589716, 4123.07692280, 4074.35897402, 4072.30769196, 4073.97435863, 4078.58974325, 4128.33333306, 4116.66666639, 4120.25640998, 4127.94871767, 4192.43589730,8.57
4122.17948691, 4125.51282024, 4123.33333306, 4123.97435870, 4122.94871767, 4091.02564068, 4088.46153812, 4092.43589709, 4102.94871767, 4126.66666639, 4118.58974332, 4128.97435870, 4133.07692280, 4196.41025628,8.57
4120.25640998, 4123.71794844, 4116.53846126, 4122.69230742, 4120.64102537, 4095.12820478, 4085.25640991, 4081.15384581, 4086.15384581, 4126.53846126, 4116.15384588, 4125.89743562, 4133.07692280, 4195.64102551,8.57
4119.61538434, 4119.74358947, 4114.87179460, 4117.17948691, 4121.79487152, 4081.15384581, 4077.43589709, 4077.82051248, 4071.79487145, 4126.15384588, 4112.56410229, 4116.02564075, 4127.43589716, 4195.51282038,8.57
4123.07692280, 4125.12820485, 4126.41025614, 4126.15384588, 4124.74358947, 4080.89743555, 4088.07692273, 4097.05128171, 4091.15384581, 4123.33333306, 4117.17948691, 4128.46153819, 4131.53846126, 4194.35897422,8.57
4111.15384588, 4118.46153819, 4118.07692280, 4124.23076896, 4123.33333306, 4100.89743555, 4102.94871767, 4108.33333306, 4111.28205101, 4123.07692280, 4114.61538434, 4111.92307665, 4128.20512793, 4189.99999986,8.57
4122.94871767, 4121.28205101, 4127.05128178, 4128.07692280, 4124.23076896, 4106.15384588, 4101.66666632, 4102.17948684, 4113.46153819, 4128.84615357, 4118.84615357, 4119.87179460, 4127.82051255, 4195.38461525,8.57
