AF3,F7,F3,FC5,T7,P7,O1,O2,P8,T8,FC6,F4,F8,AF4,Label
4114.74358947, 4118.84615357, 4115.12820485, 4121.53846126, 4120.64102537, 4125.38461511, 4129.10256383, 4127.82051255, 4105.38461511, 4130.25640998, 4122.69230742, 4118.46153819, 4132.94871767, 4197.17948704,8.57
4117.17948691, 4122.43589716, 4119.35897408, 4121.92307665, 4123.46153819, 4120.89743562, 4125.25640998, 4116.66666639, 4095.89743555, 4129.23076896, 4119.99999973, 4110.64102537, 4130.64102537, 4196.28205115,8.57
4122.69230742, 4124.35897408, 4125.12820485, 4122.30769203, 4123.84615357, 4109.74358947, 4114.35897408, 4100.25640991, 4090.25640991, 4128.97435870, 4121.92307665, 4110.64102537, 4131.41025614, 4192.94871781,8.57
4114.48717921, 4119.23076896, 4116.28205101, 4118.84615357, 4120.25640998, 4103.71794844, 4110.38461511, 4101.15384581, 4088.33333299, 4129.99999973, 4124.35897408, 4109.99999973, 4130.25640998, 4191.92307679,8.57
4126.66666639, 4124.23076896, 4122.43589716, 4122.69230742, 4124.74358947, 4106.15384588, 4108.58974332, 4100.76923043, 4082.82051248, 4128.33333306, 4123.33333306, 4112.30769203, 4130.38461511, 4196.66666653,8.57
4121.92307665, 4121.15384588, 4121.28205101, 4122.56410229, 4121.15384588, 4108.71794844, 4104.74358947, 4091.79487145, 4078.84615350, 4126.02564075, 4122.94871767, 4117.05128178, 4132.17948691, 4196.41025628,8.57
4120.51282024, 4121.15384588, 4122.69230742, 4120.51282024, 4120.76923050, 4107.82051255, 4109.61538434, 4098.46153812, 4089.10256376, 4125.76923050, 4120.25640998, 4111.79487152, 4127.94871767, 4194.99999986,8.57
4127.82051255, 4127.17948691, 4126.92307665, 4120.25640998, 4125.12820485, 4112.69230742, 4120.38461511, 4117.17948691, 4105.38461511, 4126.53846126, 4122.05128178, 4113.58974332, 4128.71794844, 4197.17948704,8.57
4116.15384588, 4123.46153819, 4113.97435870, 4118.07692280, 4121.66666639, 4119.61538434, 4121.92307665, 4118.71794844, 4100.76923043, 4125.64102537, 4125.25640998, 4116.53846126, 4131.92307665, 4196.79487166,8.57
4125.25640998, 4127.17948691, 4122.82051255, 4123.71794844, 4124.48717921, 4117.82051255, 4119.23076896, 4110.12820485, 4088.07692273, 4125.89743562, 4123.20512793, 4116.15384588, 4131.02564075, 4198.20512807,8.57
4120.51282024, 4124.10256383, 4126.28205101, 4120.51282024, 4124.74358947, 4112.56410229, 4120.25640998, 4111.28205101, 4095.12820478, 4128.84615357, 4121.92307665, 4117.05128178, 4130.76923050, 4197.30769217,8.57
4117.30769203, 4120.25640998, 4118.33333306, 4117.56410229, 4123.58974332, 4109.99999973, 4118.84615357, 4114.61538434, 4104.99999973, 4129.87179460, 4125.89743562, 4115.38461511, 4131.92307665, 4195.12820499,8.57
4131.15384588, 4126.79487152, 4122.43589716, 4125.51282024, 4123.33333306, 4111.53846126, 4118.33333306, 4112.82051255, 4095.51282017, 4127.17948691, 4127.94871767, 4120.76923050, 4133.71794844, 4195.51282038,8.57
4118.07692280, 4121.02564075, 4117.17948691, 4121.41025614, 4120.25640998, 4112.69230742, 4118.46153819, 4111.41025614, 4090.51282017, 4126.28205101, 4124.87179460, 4119.87179460, 4132.30769203, 4196.41025628,8.57
4122.69230742, 4119.23076896, 4123.33333306, 4119.74358947, 4125.38461511, 4108.33333306, 4116.92307665, 4115.89743562, 4105.64102537, 4127.82051255, 4124.99999973, 4114.10256383, 4133.46153819, 4201.28205122,8.57
4123.58974332, 4120.64102537, 4122.94871767, 4122.05128178, 4124.87179460, 4106.53846126, 4120.76923050, 4121.15384588, 4113.20512793, 4128.58974332, 4127.56410229, 4116.66666639, 4136.15384595, 4198.84615371,8.57
4125.76923050, 4123.71794844, 4128.07692280, 4125.25640998, 4123.46153819, 4099.74358940, 4104.74358947, 4093.20512786, 4081.53846119, 4129.61538434, 4122.69230742, 4114.10256383, 4130.38461511, 4201.53846147,8.57
4120.51282024, 4122.94871767, 4123.07692280, 4120.64102537, 4123.33333306, 4097.05128171, 4105.64102537, 4089.10256376, 4076.28205094, 4131.41025614, 4125.25640998, 4121.79487152, 4129.87179460, 4198.71794858,8.57
4122.56410229, 4125.25640998, 4121.53846126, 4118.97435870, 4123.58974332, 4096.66666632, 4106.66666639, 4091.66666632, 4077.94871761, 4128.71794844, 4122.56410229, 4117.69230742, 4129.35897408, 4193.97435884,8.57
4126.15384588, 4127.56410229, 4126.66666639, 4123.07692280, 4124.35897408, 4100.38461504, 4107.17948691, 4096.02564068, 4085.12820478, 4126.79487152, 4122.82051255, 4118.20512793, 4131.15384588, 4196.28205115,8.57
4115.51282024, 4122.05128178, 4119.99999973, 4121.92307665, 4121.92307665, 4102.05128171, 4108.71794844, 4100.25640991, 4089.48717914, 4128.71794844, 4124.35897408, 4116.53846126, 4127.69230742, 4196.92307679,8.57
4127.43589716, 4127.17948691, 4128.84615357, 4123.20512793, 4126.66666639, 4097.30769196, 4109.35897408, 4098.97435863, 4084.10256376, 4129.35897408, 4123.97435870, 4119.61538434, 4128.07692280, 4198.71794858,8.57
4121.53846126, 4123.84615357, 4124.99999973, 4121.66666639, 4123.07692280, 4089.87179453, 4096.15384581, 4089.61538427, 4075.89743555, 4128.07692280, 4123.07692280, 4123.84615357, 4131.15384588, 4198.58974345,8.57
4117.82051255, 4122.69230742, 4119.99999973, 4122.17948691, 4122.69230742, 4089.99999966, 4085.89743555, 4086.92307658, 4073.33333299, 4128.33333306, 4121.92307665, 4117.56410229, 4128.84615357, 4200.12820499,8.57
4127.69230742, 4127.17948691, 4127.82051255, 4125.25640998, 4127.05128178, 4098.46153812, 4096.28205094, 4096.79487145, 4080.12820478, 4128.46153819, 4123.84615357, 4120.76923050, 4131.66666639, 4199.48717935,8.57
4118.58974332, 4118.97435870, 4121.66666639, 4122.69230742, 4122.82051255, 4105.76923050, 4105.51282024, 4104.35897408, 4090.89743555, 4128.20512793, 4125.25640998, 4122.82051255, 4132.05128178, 4196.02564089,8.57
4125.64102537, 4123.46153819, 4126.15384588, 4125.51282024, 4125.38461511, 4103.71794844, 4101.28205094, 4099.74358940, 4087.05128171, 4130.25640998, 4124.23076896, 4118.84615357, 4130.12820485, 4198.84615371,8.57
4119.10256383, 4124.99999973, 4123.58974332, 4123.97435870, 4127.30769203, 4100.25640991, 4098.58974325, 4097.69230735, 4079.61538427, 4129.35897408, 4123.07692280, 4117.94871767, 4132.43589716, 4197.82051269,8.57
4114.87179460, 4121.53846126, 4119.10256383, 4119.61538434, 4123.71794844, 4099.35897402, 4097.82051248, 4098.58974325, 4087.17948684, 4125.64102537, 4122.17948691, 4115.51282024, 4130.89743562, 4196.79487166,8.57
4127.56410229, 4126.15384588, 4126.79487152, 4123.71794844, 4122.17948691, 4093.97435863, 4089.10256376, 4089.99999966, 4088.07692273, 4126.79487152, 4124.74358947, 4118.97435870, 4130.76923050, 4199.74358961,8.57
4116.92307665, 4122.82051255, 4118.33333306, 4119.99999973, 4121.15384588, 4093.20512786, 4083.20512786, 4082.43589709, 4077.94871761, 4129.99999973, 4125.12820485, 4115.38461511, 4129.87179460, 4195.25641012,8.57
4123.20512793, 4123.71794844, 4123.97435870, 4120.51282024, 4125.64102537, 4093.07692273, 4084.48717914, 4080.64102530, 4076.53846119, 4128.20512793, 4122.43589716, 4115.12820485, 4129.10256383, 4194.48717935,8.57
4123.07692280, 4120.25640998, 4123.46153819, 4124.10256383, 4122.05128178, 4089.61538427, 4081.66666632, 4079.35897402, 4081.28205094, 4126.53846126, 4123.33333306, 4121.41025614, 4132.05128178, 4194.99999986,8.57
4116.53846126, 4118.58974332, 4116.15384588, 4122.05128178, 4120.38461511, 4093.97435863, 4082.69230735, 4079.10256376, 4079.74358940, 4129.23076896, 4124.74358947, 4111.79487152, 4132.05128178, 4191.92307679,8.57
4127.94871767, 4125.64102537, 4128.84615357, 4124.99999973, 4128.84615357, 4098.71794837, 4084.87179453, 4078.58974325, 4071.66666632, 4129.48717921, 4126.28205101, 4112.17948691, 4130.51282024, 4196.02564089,8.57
4118.20512793, 4120.38461511, 4121.28205101, 4122.94871767, 4123.07692280, 4098.33333299, 4083.84615350, 4078.33333299, 4067.56410215, 4127.17948691, 4124.99999973, 4118.58974332, 4130.12820485, 4197.05128192,8.57
4122.69230742, 4123.07692280, 4118.84615357, 4123.20512793, 4120.51282024, 4099.99999966, 4091.92307658, 4086.28205094, 4071.66666632, 4128.20512793, 4123.20512793, 4116.28205101, 4130.12820485, 4195.64102551,8.57
4122.94871767, 4123.58974332, 4123.20512793, 4122.94871767, 4125.51282024, 4104.87179460, 4102.94871767, 4094.23076889, 4081.53846119, 4128.07692280, 4126.53846126, 4117.69230742, 4130.89743562, 4197.05128192,8.57
4114.23076896, 4119.10256383, 4115.64102537, 4120.38461511, 4123.58974332, 4103.46153819, 4101.02564068, 4090.51282017, 4086.92307658, 4124.74358947, 4126.92307665, 4115.38461511, 4130.38461511, 4196.92307679,8.57
4131.15384588, 4126.41025614, 4121.66666639, 4124.61538434, 4121.92307665, 4092.82051248, 4088.97435863, 4081.02564068, 4077.82051248, 4126.02564075, 4125.76923050, 4120.12820485, 4133.58974332, 4197.30769217,8.57
4121.92307665, 4120.38461511, 4119.35897408, 4119.74358947, 4118.58974332, 4086.02564068, 4081.02564068, 4072.05128171, 4067.94871754, 4129.48717921, 4125.12820485, 4122.30769203, 4135.12820485, 4196.15384602,8.57
4118.07692280, 4119.48717921, 4121.15384588, 4119.74358947, 4121.41025614, 4086.41025607, 4080.25640991, 4066.66666625, 4064.87179446, 4128.20512793, 4121.79487152, 4114.61538434, 4132.43589716, 4197.43589730,8.57
4122.56410229, 4124.87179460, 4124.23076896, 4124.35897408, 4122.82051255, 4087.69230735, 4082.05128171, 4067.05128164, 4061.66666625, 4126.53846126, 4123.07692280, 4116.79487152, 4133.46153819, 4196.41025628,8.57
4112.17948691, 4119.48717921, 4116.53846126, 4120.51282024, 4119.48717921, 4083.84615350, 4080.64102530, 4067.05128164, 4058.20512779, 4125.89743562, 4124.23076896, 4117.69230742, 4131.02564075, 4194.74358961,8.57
4122.56410229, 4123.84615357, 4127.56410229, 4124.48717921, 4125.64102537, 4077.05128171, 4077.30769196, 4064.48717907, 4058.58974318, 4127.30769203, 4121.41025614, 4119.10256383, 4129.99999973, 4198.33333320,8.57
4116.53846126, 4123.46153819, 4123.84615357, 4123.71794844, 4126.28205101, 4082.17948684, 4085.12820478, 4073.20512786, 4067.69230728, 4130.51282024, 4122.17948691, 4119.10256383, 4131.02564075, 4196.28205115,8.57
4116.79487152, 4121.53846126, 4119.35897408, 4121.28205101, 4124.61538434, 4094.23076889, 4098.33333299, 4087.17948684, 4075.38461504, 4129.48717921, 4122.69230742, 4114.48717921, 4128.20512793, 4196.41025628,8.57
4125.89743562, 4123.97435870, 4126.79487152, 4124.48717921, 4125.51282024, 4094.87179453, 4100.38461504, 4086.15384581, 4074.35897402, 4127.56410229, 4122.82051255, 4116.92307665, 4130.89743562, 4200.25641012,8.57
4113.84615357, 4119.87179460, 4118.20512793, 4120.89743562, 4122.30769203, 4090.12820478, 4093.07692273, 4081.28205094, 4077.17948684, 4126.15384588, 4121.15384588, 4112.17948691, 4132.05128178, 4194.87179474,8.57
4126.53846126, 4123.97435870, 4124.48717921, 4122.43589716, 4126.66666639, 4090.89743555, 4085.76923043, 4079.35897402, 4078.46153812, 4124.35897408, 4119.74358947, 4112.17948691, 4130.76923050, 4191.53846140,8.57
4126.41025614, 4122.17948691, 4123.33333306, 4121.92307665, 4123.58974332, 4092.94871761, 4083.46153812, 4077.17948684, 4074.23076889, 4125.12820485, 4122.94871767, 4122.30769203, 4131.53846126, 4192.82051269,8.57
4118.20512793, 4120.25640998, 4118.71794844, 4119.10256383, 4121.02564075, 4093.58974325, 4086.28205094, 4074.87179453, 4071.41025607, 4127.82051255, 4123.84615357, 4119.74358947, 4129.48717921, 4195.25641012,8.57
4127.05128178, 4124.87179460, 4130.12820485, 4122.05128178, 4127.82051255, 4088.46153812, 4083.07692273, 4071.66666632, 4071.15384581, 4127.43589716, 4123.46153819, 4118.20512793, 4130.25640998, 4197.69230756,8.57
4119.61538434, 4121.53846126, 4124.35897408, 4120.89743562, 4123.33333306, 4078.46153812, 4077.17948684, 4072.82051248, 4074.74358940, 4127.43589716, 4123.20512793, 4117.94871767, 4131.66666639, 4195.76923063,8.57
4127.30769203, 4129.87179460, 4128.07692280, 4123.58974332, 4121.79487152, 4080.64102530, 4082.82051248, 4079.10256376, 4079.48717914, 4130.38461511, 4122.82051255, 4118.71794844, 4130.76923050, 4197.17948704,8.57
4123.84615357, 4129.10256383, 4129.35897408, 4124.61538434, 4122.69230742, 4088.84615350, 4090.76923043, 4083.07692273, 4077.69230735, 4130.51282024, 4123.84615357, 4123.84615357, 4130.25640998, 4197.17948704,8.57
4116.53846126, 4121.53846126, 4122.43589716, 4121.28205101, 4123.58974332, 4088.46153812, 4091.66666632, 4082.43589709, 4072.94871761, 4128.71794844, 4122.82051255, 4121.28205101, 4130.38461511, 4197.30769217,8.57
4129.99999973, 4128.58974332, 4130.89743562, 4122.94871767, 4126.15384588, 4090.38461504, 4096.66666632, 4086.15384581, 4077.43589709, 4129.35897408, 4122.30769203, 4124.23076896, 4132.43589716, 4200.76923063,8.57
4121.28205101, 4124.23076896, 4123.58974332, 4119.99999973, 4122.30769203, 4094.23076889, 4102.05128171, 4094.74358940, 4087.82051248, 4127.82051255, 4122.17948691, 4122.94871767, 4132.56410229, 4197.05128192,8.57
4127.94871767, 4123.20512793, 4123.58974332, 4120.38461511, 4124.74358947, 4094.74358940, 4100.12820478, 4098.84615350, 4091.66666632, 4123.84615357, 4124.23076896, 4118.97435870, 4133.20512793, 4197.05128192,8.57
4128.84615357, 4124.99999973, 4125.89743562, 4120.76923050, 4122.94871767, 4098.33333299, 4102.17948684, 4098.07692273, 4088.07692273, 4126.79487152, 4127.69230742, 4126.79487152, 4134.74358947, 4198.46153833,8.57
4112.94871767, 4121.28205101, 4119.74358947, 4116.92307665, 4119.48717921, 4099.23076889, 4107.17948691, 4101.79487145, 4087.94871761, 4129.99999973, 4124.61538434, 4120.89743562, 4130.38461511, 4195.51282038,8.57
4122.05128178, 4123.84615357, 4128.71794844, 4120.89743562, 4124.35897408, 4096.66666632, 4105.89743562, 4109.87179460, 4098.46153812, 4128.20512793, 4122.82051255, 4115.76923050, 4129.74358947, 4198.84615371,8.57
4116.53846126, 4119.99999973, 4121.79487152, 4119.10256383, 4121.28205101, 4098.46153812, 4103.84615357, 4105.89743562, 4101.02564068, 4127.82051255, 4123.46153819, 4120.64102537, 4130.64102537, 4197.17948704,8.57
4118.46153819, 4123.58974332, 4120.12820485, 4120.12820485, 4121.66666639, 4099.10256376, 4098.97435863, 4091.41025607, 4088.71794837, 4129.10256383, 4120.76923050, 4119.74358947, 4128.20512793, 4194.23076910,8.57
4123.58974332, 4126.02564075, 4127.94871767, 4123.07692280, 4123.33333306, 4094.87179453, 4089.74358940, 4082.17948684, 4081.53846119, 4129.61538434, 4122.69230742, 4118.46153819, 4130.12820485, 4197.30769217,8.57
4115.51282024, 4119.74358947, 4121.28205101, 4117.82051255, 4119.99999973, 4088.71794837, 4082.05128171, 4073.20512786, 4081.28205094, 4128.71794844, 4124.35897408, 4115.64102537, 4128.84615357, 4195.25641012,8.57
4125.51282024, 4125.89743562, 4124.99999973, 4122.69230742, 4126.02564075, 4080.25640991, 4075.76923043, 4063.33333292, 4077.05128171, 4128.07692280, 4124.74358947, 4120.25640998, 4128.97435870, 4192.05128192,8.57
4119.87179460, 4124.10256383, 4123.33333306, 4123.58974332, 4125.12820485, 4080.38461504, 4074.74358940, 4063.84615343, 4074.23076889, 4128.84615357, 4125.51282024, 4121.66666639, 4132.17948691, 4192.56410243,8.57
4119.61538434, 4121.79487152, 4123.33333306, 4120.76923050, 4121.15384588, 4086.92307658, 4082.56410222, 4066.79487138, 4069.35897395, 4128.58974332, 4123.84615357, 4114.87179460, 4130.51282024, 4195.76923063,8.57
4124.35897408, 4123.07692280, 4125.51282024, 4122.43589716, 4124.23076896, 4086.15384581, 4085.89743555, 4067.82051241, 4066.66666625, 4128.71794844, 4124.87179460, 4121.02564075, 4130.89743562, 4197.56410243,8.57
4114.48717921, 4118.20512793, 4114.61538434, 4120.64102537, 4123.20512793, 4088.33333299, 4086.53846119, 4072.17948684, 4075.25640991, 4129.87179460, 4124.74358947, 4121.28205101, 4131.92307665, 4193.97435884,8.57
4125.89743562, 4123.71794844, 4121.79487152, 4122.56410229, 4123.33333306, 4092.69230735, 4089.99999966, 4075.25640991, 4080.25640991, 4128.97435870, 4124.61538434, 4117.30769203, 4132.17948691, 4194.23076910,8.57
4121.28205101, 4123.84615357, 4122.94871767, 4122.94871767, 4121.02564075, 4088.33333299, 4085.25640991, 4073.20512786, 4077.82051248, 4127.69230742, 4126.92307665, 4121.66666639, 4131.53846126, 4195.38461525,8.57
4115.25640998, 4122.30769203, 4118.33333306, 4120.76923050, 4122.17948691, 4087.30769196, 4081.02564068, 4071.66666632, 4075.89743555, 4129.10256383, 4125.89743562, 4117.69230742, 4130.64102537, 4195.89743576,8.57
4122.30769203, 4124.23076896, 4124.23076896, 4119.61538434, 4123.84615357, 4094.48717914, 4087.69230735, 4075.51282017, 4076.02564068, 4129.74358947, 4125.25640998, 4119.10256383, 4134.10256383, 4196.41025628,8.57
4114.87179460, 4119.87179460, 4118.71794844, 4118.58974332, 4116.53846126, 4092.30769196, 4088.97435863, 4080.38461504, 4081.79487145, 4128.46153819, 4125.12820485, 4124.87179460, 4133.97435870, 4197.56410243,8.57
4120.38461511, 4123.07692280, 4121.41025614, 4122.05128178, 4119.99999973, 4081.66666632, 4082.30769196, 4079.74358940, 4090.51282017, 4128.71794844, 4124.87179460, 4121.02564075, 4130.51282024, 4201.66666660,8.57
4120.51282024, 4121.02564075, 4123.71794844, 4121.79487152, 4122.94871767, 4083.97435863, 4085.38461504, 4081.28205094, 4092.69230735, 4129.23076896, 4126.79487152, 4119.61538434, 4129.74358947, 4200.38461525,8.57
4119.61538434, 4117.69230742, 4119.23076896, 4121.66666639, 4118.97435870, 4093.07692273, 4092.82051248, 4084.61538427, 4086.15384581, 4127.17948691, 4124.87179460, 4117.30769203, 4127.69230742, 4195.64102551,8.57
4124.99999973, 4122.43589716, 4121.28205101, 4124.61538434, 4121.02564075, 4092.94871761, 4092.30769196, 4081.15384581, 4081.92307658, 4126.41025614, 4120.89743562, 4116.92307665, 4130.64102537, 4195.38461525,8.57
4116.92307665, 4122.05128178, 4121.79487152, 4121.66666639, 4123.33333306, 4090.51282017, 4090.25640991, 4083.58974325, 4089.99999966, 4126.92307665, 4121.79487152, 4121.41025614, 4133.58974332, 4195.12820499,8.57
4122.56410229, 4123.07692280, 4124.87179460, 4122.43589716, 4126.79487152, 4091.92307658, 4089.87179453, 4086.53846119, 4094.10256376, 4127.05128178, 4122.56410229, 4116.53846126, 4128.97435870, 4194.10256397,8.57
4125.12820485, 4123.58974332, 4122.82051255, 4124.23076896, 4123.71794844, 4096.41025607, 4092.69230735, 4079.99999966, 4083.84615350, 4127.56410229, 4122.82051255, 4115.25640998, 4129.35897408, 4194.48717935,8.57
4119.35897408, 4124.48717921, 4122.56410229, 4122.94871767, 4120.89743562, 4098.97435863, 4096.92307658, 4079.35897402, 4079.87179453, 4126.53846126, 4121.92307665, 4118.07692280, 4131.66666639, 4193.07692294,8.57
4118.97435870, 4125.76923050, 4124.74358947, 4120.38461511, 4125.64102537, 4096.79487145, 4097.94871761, 4087.05128171, 4088.46153812, 4126.28205101, 4122.30769203, 4117.94871767, 4129.99999973, 4193.20512807,8.57
4118.97435870, 4124.10256383, 4122.94871767, 4119.87179460, 4123.97435870, 4092.05128171, 4093.97435863, 4086.28205094, 4086.66666632, 4127.69230742, 4125.89743562, 4123.33333306, 4130.64102537, 4196.66666653,8.57
4125.64102537, 4127.17948691, 4127.30769203, 4123.84615357, 4124.61538434, 4088.33333299, 4094.61538427, 4088.07692273, 4080.64102530, 4128.20512793, 4124.61538434, 4119.35897408, 4130.38461511, 4194.23076910,8.57
4121.66666639, 4122.94871767, 4126.66666639, 4123.71794844, 4123.58974332, 4093.33333299, 4105.25640998, 4104.99999973, 4094.48717914, 4128.33333306, 4124.23076896, 4120.25640998, 4129.99999973, 4193.58974345,8.57
4120.51282024, 4122.43589716, 4121.66666639, 4121.92307665, 4120.51282024, 4095.51282017, 4103.97435870, 4104.99999973, 4100.76923043, 4127.17948691, 4126.15384588, 4128.58974332, 4131.15384588, 4196.28205115,8.57
4123.97435870, 4129.10256383, 4122.17948691, 4119.48717921, 4125.12820485, 4082.56410222, 4083.97435863, 4081.53846119, 4082.56410222, 4126.92307665, 4124.61538434, 4122.69230742, 4131.79487152, 4196.28205115,8.57
4118.58974332, 4125.12820485, 4122.56410229, 4120.51282024, 4125.12820485, 4071.79487145, 4070.89743555, 4066.53846113, 4070.76923043, 4128.20512793, 4123.58974332, 4123.46153819, 4133.07692280, 4197.56410243,8.57
4122.69230742, 4122.30769203, 4122.94871767, 4122.43589716, 4124.99999973, 4078.84615350, 4076.02564068, 4064.48717907, 4067.82051241, 4127.56410229, 4123.20512793, 4123.84615357, 4132.30769203, 4196.66666653,8.57
4119.48717921, 4121.02564075, 4119.99999973, 4118.46153819, 4124.35897408, 4085.64102530, 4078.71794837, 4065.12820472, 4065.12820472, 4126.28205101, 4124.99999973, 4121.79487152, 4131.02564075, 4194.87179474,8.57
4119.23076896, 4123.33333306, 4120.89743562, 4120.25640998, 4120.64102537, 4079.99999966, 4076.41025607, 4074.99999966, 4079.48717914, 4127.30769203, 4125.38461511, 4124.10256383, 4130.64102537, 4195.51282038,8.57
4124.74358947, 4124.61538434, 4123.46153819, 4121.02564075, 4122.94871767, 4081.28205094, 4082.94871761, 4084.61538427, 4092.30769196, 4128.33333306, 4121.79487152, 4119.23076896, 4130.12820485, 4194.99999986,8.57
4117.05128178, 4118.97435870, 4121.28205101, 4117.05128178, 4122.69230742, 4090.76923043, 4091.41025607, 4082.82051248, 4083.58974325, 4128.20512793, 4121.28205101, 4119.48717921, 4132.56410229, 4196.53846140,8.57
4118.07692280, 4122.94871767, 4122.69230742, 4123.46153819, 4123.71794844, 4086.92307658, 4089.23076889, 4080.51282017, 4074.99999966, 4128.33333306, 4123.07692280, 4117.30769203, 4130.64102537, 4196.92307679,8.57
4120.64102537, 4124.35897408, 4123.46153819, 4124.99999973, 4123.71794844, 4077.94871761, 4083.97435863, 4078.84615350, 4076.02564068, 4128.71794844, 4125.51282024, 4117.17948691, 4128.46153819, 4195.38461525,8.57
4121.28205101, 4120.76923050, 4123.84615357, 4118.20512793, 4117.94871767, 4083.84615350, 4088.46153812, 4080.38461504, 4080.38461504, 4128.07692280, 4126.92307665, 4121.53846126, 4130.51282024, 4195.25641012,8.57
4123.97435870, 4122.30769203, 4124.10256383, 4122.56410229, 4121.66666639, 4087.56410222, 4092.05128171, 4083.84615350, 4082.94871761, 4127.05128178, 4126.02564075, 4116.15384588, 4129.74358947, 4193.97435884,8.57
4119.10256383, 4121.53846126, 4121.79487152, 4127.17948691, 4123.07692280, 4080.51282017, 4085.64102530, 4084.61538427, 4082.17948684, 4127.56410229, 4126.02564075, 4118.71794844, 4128.46153819, 4194.23076910,8.57
4122.82051255, 4124.35897408, 4125.25640998, 4123.20512793, 4123.20512793, 4081.53846119, 4086.02564068, 4088.58974325, 4083.46153812, 4126.92307665, 4124.48717921, 4118.46153819, 4128.33333306, 4196.66666653,8.57
4124.74358947, 4125.76923050, 4126.28205101, 4121.79487152, 4126.79487152, 4084.61538427, 4088.84615350, 4097.69230735, 4091.02564068, 4126.53846126, 4123.58974332, 4114.87179460, 4129.87179460, 4199.10256397,8.57
4119.61538434, 4122.17948691, 4122.69230742, 4124.23076896, 4122.69230742, 4078.71794837, 4082.82051248, 4095.38461504, 4094.35897402, 4126.92307665, 4124.87179460, 4120.51282024, 4129.87179460, 4196.53846140,8.57
4126.92307665, 4126.15384588, 4127.43589716, 4125.12820485, 4124.10256383, 4074.48717914, 4075.51282017, 4076.28205094, 4082.82051248, 4126.79487152, 4124.10256383, 4118.20512793, 4129.48717921, 4195.76923063,8.57
4125.25640998, 4127.30769203, 4126.79487152, 4126.02564075, 4126.02564075, 4070.51282017, 4065.89743548, 4058.84615343, 4066.41025600, 4127.43589716, 4124.99999973, 4118.20512793, 4133.07692280, 4200.51282038,8.57
4120.89743562, 4123.97435870, 4120.64102537, 4126.02564075, 4123.33333306, 4063.58974318, 4056.41025600, 4050.89743548, 4058.97435856, 4126.66666639, 4124.99999973, 4119.87179460, 4131.28205101, 4197.94871781,8.57
4129.10256383, 4122.69230742, 4125.12820485, 4122.69230742, 4123.97435870, 4064.10256369, 4054.23076882, 4046.66666625, 4055.51282010, 4124.99999973, 4124.99999973, 4121.41025614, 4129.87179460, 4195.51282038,8.57
4126.66666639, 4121.02564075, 4124.74358947, 4124.61538434, 4120.51282024, 4068.71794830, 4056.02564061, 4045.89743548, 4050.25640984, 4125.25640998, 4126.28205101, 4128.07692280, 4132.69230742, 4200.25641012,8.57
4123.71794844, 4125.76923050, 4121.79487152, 4129.48717921, 4122.69230742, 4066.28205087, 4055.51282010, 4049.23076882, 4053.97435856, 4126.02564075, 4124.87179460, 4121.79487152, 4129.10256383, 4201.15384609,8.57
4123.33333306, 4128.20512793, 4124.35897408, 4126.02564075, 4126.41025614, 4061.41025600, 4054.48717907, 4049.87179446, 4058.84615343, 4127.17948691, 4126.15384588, 4119.61538434, 4127.82051255, 4196.79487166,8.57
4120.89743562, 4124.35897408, 4122.17948691, 4121.15384588, 4122.56410229, 4056.41025600, 4053.97435856, 4046.53846113, 4053.33333292, 4128.84615357, 4127.82051255, 4119.74358947, 4131.41025614, 4193.71794858,8.57
4125.25640998, 4122.94871767, 4121.53846126, 4123.07692280, 4123.20512793, 4053.33333292, 4053.71794830, 4048.71794830, 4050.25640984, 4128.97435870, 4126.28205101, 4115.12820485, 4131.28205101, 4194.87179474,8.57
4124.61538434, 4121.53846126, 4123.46153819, 4123.84615357, 4125.12820485, 4057.56410215, 4057.05128164, 4053.71794830, 4053.58974318, 4128.97435870, 4125.76923050, 4120.89743562, 4130.38461511, 4196.28205115,8.57
4123.33333306, 4122.05128178, 4121.53846126, 4122.17948691, 4126.92307665, 4059.48717907, 4059.99999959, 4052.56410215, 4053.58974318, 4130.64102537, 4124.99999973, 4117.56410229, 4129.10256383, 4194.99999986,8.57
4123.71794844, 4121.66666639, 4122.17948691, 4125.12820485, 4125.51282024, 4059.74358933, 4061.02564061, 4052.69230728, 4057.82051241, 4128.84615357, 4127.05128178, 4114.87179460, 4131.28205101, 4196.41025628,8.57
4123.20512793, 4123.46153819, 4123.84615357, 4126.15384588, 4123.07692280, 4063.71794830, 4062.69230728, 4054.61538420, 4066.41025600, 4125.76923050, 4126.92307665, 4116.28205101, 4131.41025614, 4196.53846140,8.57
4125.38461511, 4125.51282024, 4123.20512793, 4122.43589716, 4127.05128178, 4070.25640991, 4066.79487138, 4053.97435856, 4065.25640984, 4127.05128178, 4122.82051255, 4112.05128178, 4128.07692280, 4193.20512807,8.57
4125.12820485, 4124.99999973, 4126.15384588, 4125.12820485, 4122.17948691, 4076.66666632, 4071.79487145, 4060.12820472, 4066.02564061, 4128.33333306, 4124.48717921, 4119.35897408, 4131.02564075, 4191.79487166,8.57
4124.74358947, 4127.69230742, 4127.05128178, 4127.82051255, 4120.12820485, 4075.12820478, 4075.25640991, 4069.87179453, 4076.02564068, 4126.15384588, 4128.33333306, 4117.82051255, 4131.41025614, 4189.35897422,8.57
4121.92307665, 4125.64102537, 4125.25640998, 4124.35897408, 4125.89743562, 4066.02564061, 4070.76923043, 4071.92307658, 4081.02564068, 4126.28205101, 4128.58974332, 4115.38461511, 4129.23076896, 4193.46153833,8.57
4121.66666639, 4120.38461511, 4126.53846126, 4125.51282024, 4123.20512793, 4061.79487138, 4059.99999959, 4065.51282010, 4074.99999966, 4128.97435870, 4126.41025614, 4121.53846126, 4131.53846126, 4196.79487166,8.57
4122.05128178, 4120.38461511, 4124.10256383, 4125.76923050, 4122.56410229, 4062.05128164, 4060.64102523, 4059.74358933, 4067.43589702, 4129.61538434, 4126.66666639, 4114.61538434, 4131.28205101, 4192.56410243,8.57
4122.05128178, 4123.97435870, 4122.05128178, 4123.33333306, 4123.46153819, 4059.23076882, 4064.23076882, 4053.46153805, 4061.79487138, 4128.58974332, 4128.20512793, 4120.25640998, 4130.89743562, 4196.92307679,8.57
4124.87179460, 4126.02564075, 4122.05128178, 4125.51282024, 4125.25640998, 4060.76923036, 4060.12820472, 4048.33333292, 4057.56410215, 4127.30769203, 4124.10256383, 4124.99999973, 4131.41025614, 4198.97435884,8.57
4122.94871767, 4122.30769203, 4120.38461511, 4124.48717921, 4125.89743562, 4066.53846113, 4065.12820472, 4056.28205087, 4071.28205094, 4127.30769203, 4123.58974332, 4118.71794844, 4133.07692280, 4196.41025628,8.57
4124.10256383, 4124.74358947, 4122.56410229, 4125.89743562, 4119.35897408, 4066.53846113, 4074.23076889, 4066.41025600, 4084.99999966, 4127.56410229, 4128.33333306, 4124.99999973, 4134.23076896, 4198.97435884,8.57
4118.46153819, 4126.53846126, 4119.10256383, 4124.23076896, 4119.87179460, 4071.41025607, 4072.69230735, 4068.71794830, 4077.43589709, 4126.79487152, 4128.33333306, 4119.23076896, 4130.64102537, 4198.58974345,8.57
4117.05128178, 4120.76923050, 4120.64102537, 4120.89743562, 4124.35897408, 4079.99999966, 4070.89743555, 4067.43589702, 4071.66666632, 4127.69230742, 4127.17948691, 4120.38461511, 4132.17948691, 4200.25641012,8.57
4126.28205101, 4120.25640998, 4122.30769203, 4123.84615357, 4123.71794844, 4074.35897402, 4073.97435863, 4067.05128164, 4077.82051248, 4130.12820485, 4126.28205101, 4122.05128178, 4131.92307665, 4197.56410243,8.57
4116.02564075, 4121.28205101, 4113.07692280, 4119.61538434, 4124.35897408, 4066.02564061, 4073.07692273, 4070.12820478, 4081.66666632, 4129.99999973, 4123.71794844, 4109.61538434, 4129.23076896, 4194.74358961,8.57
4117.43589716, 4126.28205101, 4122.43589716, 4121.79487152, 4126.02564075, 4068.84615343, 4070.51282017, 4070.12820478, 4076.79487145, 4127.69230742, 4122.82051255, 4119.99999973, 4134.23076896, 4200.38461525,8.57
4121.66666639, 4123.46153819, 4121.66666639, 4122.82051255, 4125.12820485, 4063.20512779, 4067.69230728, 4060.51282010, 4068.58974318, 4127.69230742, 4124.48717921, 4114.35897408, 4132.30769203, 4192.94871781,8.57
4115.25640998, 4115.38461511, 4115.38461511, 4117.94871767, 4120.89743562, 4054.10256369, 4062.94871754, 4050.25640984, 4062.56410215, 4127.43589716, 4127.94871767, 4105.89743562, 4127.43589716, 4189.87179474,8.57
4122.17948691, 4122.82051255, 4124.99999973, 4121.79487152, 4121.92307665, 4061.41025600, 4062.69230728, 4053.71794830, 4066.15384574, 4126.02564075, 4126.79487152, 4115.89743562, 4128.46153819, 4197.30769217,8.57
4116.66666639, 4119.48717921, 4117.05128178, 4121.28205101, 4124.10256383, 4069.87179453, 4066.79487138, 4060.38461497, 4071.53846119, 4126.66666639, 4121.92307665, 4109.48717921, 4129.23076896, 4193.71794858,8.57
4122.05128178, 4116.02564075, 4119.23076896, 4126.79487152, 4119.35897408, 4070.64102530, 4070.51282017, 4061.66666625, 4073.46153812, 4127.05128178, 4124.48717921, 4114.23076896, 4133.20512793, 4194.61538448,8.57
4124.87179460, 4122.69230742, 4123.84615357, 4127.43589716, 4120.51282024, 4073.97435863, 4072.69230735, 4060.51282010, 4073.20512786, 4125.76923050, 4127.17948691, 4113.58974332, 4132.30769203, 4195.76923063,8.57
4111.53846126, 4120.76923050, 4117.94871767, 4120.51282024, 4121.41025614, 4076.66666632, 4070.89743555, 4057.05128164, 4068.20512779, 4125.76923050, 4125.76923050, 4109.35897408, 4129.10256383, 4196.28205115,8.57
4121.92307665, 4125.25640998, 4126.02564075, 4125.38461511, 4119.87179460, 4072.82051248, 4066.53846113, 4059.35897395, 4067.05128164, 4126.53846126, 4125.38461511, 4116.66666639, 4132.43589716, 4196.53846140,8.57
4121.15384588, 4122.30769203, 4120.38461511, 4123.84615357, 4121.79487152, 4062.82051241, 4056.66666625, 4054.35897395, 4062.56410215, 4126.28205101, 4124.35897408, 4110.64102537, 4132.69230742, 4191.53846140,8.57
4121.15384588, 4120.64102537, 4119.10256383, 4122.30769203, 4119.87179460, 4050.51282010, 4042.17948677, 4034.74358926, 4045.12820472, 4127.30769203, 4125.38461511, 4119.48717921, 4133.07692280, 4200.25641012,8.57
4127.56410229, 4127.43589716, 4124.10256383, 4124.23076896, 4121.66666639, 4053.58974318, 4041.28205087, 4026.28205080, 4031.41025593, 4128.84615357, 4125.12820485, 4123.07692280, 4132.17948691, 4202.56410250,8.57
4115.76923050, 4120.51282024, 4118.97435870, 4118.84615357, 4121.41025614, 4064.74358933, 4051.53846113, 4035.12820465, 4034.74358926, 4128.07692280, 4125.51282024, 4115.38461511, 4134.74358947, 4196.66666653,8.57
4119.61538434, 4121.66666639, 4123.46153819, 4123.97435870, 4117.94871767, 4057.94871754, 4051.15384574, 4038.97435856, 4042.82051241, 4129.10256383, 4126.92307665, 4118.84615357, 4139.10256390, 4198.58974345,8.57
4121.79487152, 4124.87179460, 4118.33333306, 4125.64102537, 4119.87179460, 4049.61538420, 4044.10256369, 4034.10256362, 4041.66666625, 4131.15384588, 4124.74358947, 4111.53846126, 4133.71794844, 4198.97435884,8.57
4115.76923050, 4120.12820485, 4115.89743562, 4121.02564075, 4119.99999973, 4053.46153805, 4045.64102523, 4029.23076875, 4031.92307644, 4128.46153819, 4124.35897408, 4115.12820485, 4131.92307665, 4202.05128199,8.57
4117.30769203, 4121.92307665, 4120.38461511, 4121.92307665, 4122.30769203, 4047.82051241, 4042.56410215, 4020.38461490, 4023.07692259, 4126.53846126, 4123.58974332, 4113.84615357, 4133.20512793, 4197.69230756,8.57
4115.25640998, 4122.69230742, 4116.79487152, 4121.66666639, 4123.20512793, 4040.64102523, 4034.61538413, 4019.61538413, 4024.87179439, 4127.56410229, 4127.05128178, 4107.30769203, 4133.33333306, 4192.43589730,8.57
4119.99999973, 4121.28205101, 4120.38461511, 4125.25640998, 4121.02564075, 4050.76923036, 4041.53846113, 4031.79487131, 4031.15384567, 4125.38461511, 4132.17948691, 4113.84615357, 4135.64102544, 4196.15384602,8.57
4122.30769203, 4121.53846126, 4121.53846126, 4124.61538434, 4124.74358947, 4059.10256369, 4053.20512779, 4037.05128164, 4029.48717900, 4123.97435870, 4128.46153819, 4104.99999973, 4133.58974332, 4194.74358961,8.57
4117.82051255, 4123.20512793, 4122.82051255, 4121.28205101, 4123.71794844, 4058.33333292, 4054.61538420, 4039.74358933, 4030.76923029, 4127.30769203, 4130.76923050, 4106.66666639, 4131.66666639, 4194.10256397,8.57
4119.74358947, 4123.33333306, 4124.48717921, 4124.61538434, 4122.05128178, 4062.30769189, 4056.92307651, 4051.02564061, 4042.17948677, 4129.74358947, 4134.10256383, 4110.89743562, 4129.35897408, 4191.53846140,8.57
4122.94871767, 4122.43589716, 4124.23076896, 4126.66666639, 4126.28205101, 4064.87179446, 4061.92307651, 4057.56410215, 4050.76923036, 4128.33333306, 4131.15384588, 4107.82051255, 4129.23076896, 4191.66666653,8.57
4122.94871767, 4125.89743562, 4125.64102537, 4123.84615357, 4123.97435870, 4059.10256369, 4060.51282010, 4051.41025600, 4048.58974318, 4127.05128178, 4131.02564075, 4113.84615357, 4132.43589716, 4196.66666653,8.57
4124.61538434, 4127.17948691, 4126.66666639, 4122.82051255, 4123.58974332, 4053.58974318, 4054.61538420, 4048.33333292, 4046.53846113, 4126.53846126, 4132.05128178, 4109.23076896, 4131.53846126, 4197.05128192,8.57
4123.84615357, 4122.69230742, 4127.69230742, 4127.56410229, 4123.46153819, 4055.76923036, 4056.15384574, 4054.74358933, 4053.71794830, 4126.92307665, 4133.71794844, 4111.92307665, 4133.84615357, 4198.07692294,8.57
4119.48717921, 4122.17948691, 4121.15384588, 4124.35897408, 4119.74358947, 4057.56410215, 4061.53846113, 4056.41025600, 4056.66666625, 4126.66666639, 4133.71794844, 4112.17948691, 4136.02564082, 4195.51282038,8.57
4124.10256383, 4123.97435870, 4122.94871767, 4119.99999973, 4123.58974332, 4056.53846113, 4065.25640984, 4057.43589702, 4055.25640984, 4126.28205101, 4133.20512793, 4110.89743562, 4134.61538434, 4197.05128192,8.57
4124.74358947, 4119.10256383, 4123.97435870, 4123.84615357, 4122.30769203, 4062.17948677, 4068.71794830, 4064.74358933, 4059.23076882, 4127.94871767, 4133.46153819, 4118.97435870, 4134.35897408, 4200.89743576,8.57
4121.66666639, 4120.51282024, 4117.69230742, 4124.10256383, 4120.12820485, 4069.48717907, 4071.28205094, 4070.12820478, 4065.12820472, 4129.10256383, 4134.61538434, 4110.51282024, 4131.41025614, 4197.94871781,8.57
4122.30769203, 4125.25640998, 4120.12820485, 4123.07692280, 4123.84615357, 4067.05128164, 4071.28205094, 4071.28205094, 4068.07692266, 4127.69230742, 4141.28205108, 4112.43589716, 4132.94871767, 4199.61538448,8.57
4115.38461511, 4120.38461511, 4116.92307665, 4122.69230742, 4124.48717921, 4061.28205087, 4069.87179453, 4068.33333292, 4062.43589702, 4125.76923050, 4145.76923056, 4114.61538434, 4132.05128178, 4197.94871781,8.57
4121.79487152, 4123.20512793, 4122.17948691, 4124.23076896, 4124.74358947, 4059.87179446, 4065.51282010, 4063.33333292, 4057.69230728, 4126.66666639, 4146.66666646, 4109.99999973, 4129.61538434, 4196.92307679,8.57
4123.20512793, 4124.99999973, 4123.84615357, 4124.48717921, 4123.71794844, 4055.38461497, 4052.43589702, 4053.84615343, 4052.94871754, 4128.33333306, 4147.30769210, 4114.99999973, 4133.33333306, 4199.35897422,8.57
4114.35897408, 4120.64102537, 4115.12820485, 4121.28205101, 4125.76923050, 4049.35897395, 4037.17948677, 4035.12820465, 4039.35897395, 4128.84615357, 4144.99999980, 4106.15384588, 4129.99999973, 4194.48717935,8.57
4120.38461511, 4123.07692280, 4122.05128178, 4122.94871767, 4125.51282024, 4050.25640984, 4036.28205080, 4024.74358926, 4030.12820465, 4130.25640998, 4147.69230749, 4105.64102537, 4128.84615357, 4194.99999986,8.57
4119.48717921, 4120.12820485, 4120.89743562, 4123.20512793, 4121.28205101, 4054.87179446, 4042.69230728, 4032.05128157, 4032.30769183, 4129.48717921, 4148.58974339, 4106.53846126, 4129.87179460, 4195.51282038,8.57
4123.84615357, 4119.99999973, 4120.64102537, 4123.33333306, 4124.23076896, 4058.97435856, 4047.69230728, 4041.92307651, 4038.20512779, 4127.17948691, 4144.61538441, 4102.30769196, 4126.28205101, 4194.99999986,8.57
4124.23076896, 4124.61538434, 4124.10256383, 4123.84615357, 4123.58974332, 4068.20512779, 4063.20512779, 4058.20512779, 4059.74358933, 4126.92307665, 4147.82051262, 4112.17948691, 4127.56410229, 4194.10256397,8.57
4117.69230742, 4123.71794844, 4119.87179460, 4121.79487152, 4123.46153819, 4077.05128171, 4081.15384581, 4076.66666632, 4081.02564068, 4126.92307665, 4148.33333313, 4107.82051255, 4130.25640998, 4190.89743576,8.57
4129.10256383, 4125.12820485, 4127.56410229, 4126.53846126, 4127.05128178, 4070.12820478, 4074.87179453, 4070.76923043, 4070.64102530, 4127.56410229, 4145.51282031, 4109.74358947, 4134.35897408, 4195.38461525,8.57
4123.97435870, 4123.33333306, 4123.84615357, 4124.61538434, 4121.79487152, 4069.35897395, 4066.53846113, 4056.79487138, 4053.46153805, 4129.48717921, 4145.64102544, 4113.97435870, 4134.61538434, 4196.15384602,8.57
4122.05128178, 4124.48717921, 4122.69230742, 4121.66666639, 4123.97435870, 4083.33333299, 4076.02564068, 4056.41025600, 4051.92307651, 4127.43589716, 4143.33333313, 4107.82051255, 4129.10256383, 4197.05128192,8.57
4126.53846126, 4125.89743562, 4130.38461511, 4127.82051255, 4125.89743562, 4078.33333299, 4073.33333299, 4062.56410215, 4061.15384574, 4124.99999973, 4143.97435877, 4116.53846126, 4131.02564075, 4201.28205122,8.57
4122.05128178, 4122.17948691, 4121.02564075, 4124.35897408, 4119.74358947, 4060.89743548, 4058.07692266, 4066.79487138, 4072.30769196, 4126.79487152, 4146.41025621, 4114.10256383, 4133.97435870, 4198.58974345,8.57
4132.43589716, 4125.89743562, 4124.35897408, 4122.43589716, 4121.02564075, 4059.35897395, 4053.07692266, 4057.56410215, 4067.69230728, 4129.35897408, 4145.51282031, 4114.74358947, 4134.87179460, 4200.12820499,8.57
4124.99999973, 4123.71794844, 4123.97435870, 4124.74358947, 4121.66666639, 4061.66666625, 4051.28205087, 4041.28205087, 4049.48717907, 4129.35897408, 4141.79487159, 4119.74358947, 4132.82051255, 4198.46153833,8.57
4118.97435870, 4120.51282024, 4118.58974332, 4124.35897408, 4123.33333306, 4055.64102523, 4052.05128164, 4042.17948677, 4044.61538420, 4126.92307665, 4141.41025621, 4109.23076896, 4131.92307665, 4197.69230756,8.57
4124.48717921, 4123.97435870, 4122.30769203, 4124.87179460, 4122.56410229, 4059.99999959, 4059.74358933, 4054.48717907, 4052.43589702, 4126.66666639, 4145.76923056, 4114.48717921, 4135.38461518, 4202.05128199,8.57
4113.20512793, 4121.41025614, 4115.25640998, 4121.66666639, 4118.97435870, 4067.17948677, 4061.41025600, 4055.89743548, 4055.64102523, 4128.33333306, 4143.07692287, 4112.17948691, 4132.69230742, 4196.66666653,8.57
4118.97435870, 4124.10256383, 4121.79487152, 4123.84615357, 4121.92307665, 4066.41025600, 4059.99999959, 4047.82051241, 4051.02564061, 4129.74358947, 4140.12820492, 4105.25640998, 4131.66666639, 4196.53846140,8.57
4123.84615357, 4124.10256383, 4123.97435870, 4124.10256383, 4121.66666639, 4072.43589709, 4067.43589702, 4049.35897395, 4049.74358933, 4128.84615357, 4142.43589723, 4108.97435870, 4134.23076896, 4199.23076910,8.57
4118.84615357, 4122.82051255, 4116.79487152, 4119.74358947, 4123.33333306, 4069.74358940, 4068.97435856, 4057.17948677, 4059.10256369, 4126.79487152, 4141.53846133, 4103.46153819, 4132.94871767, 4194.10256397,8.57
4119.74358947, 4124.87179460, 4124.48717921, 4125.25640998, 4124.23076896, 4055.25640984, 4054.99999959, 4049.35897395, 4057.82051241, 4130.38461511, 4140.76923056, 4107.69230742, 4136.53846133, 4194.61538448,8.57
4113.33333306, 4120.76923050, 4122.30769203, 4127.30769203, 4121.28205101, 4054.48717907, 4046.92307651, 4038.20512779, 4045.12820472, 4130.12820485, 4139.10256390, 4106.15384588, 4133.33333306, 4194.61538448,8.57
4123.20512793, 4124.99999973, 4123.58974332, 4124.74358947, 4123.97435870, 4065.89743548, 4056.53846113, 4049.99999959, 4051.92307651, 4126.53846126, 4140.76923056, 4100.89743555, 4127.43589716, 4194.23076910,8.57
4125.38461511, 4128.33333306, 4123.58974332, 4123.20512793, 4123.20512793, 4072.17948684, 4067.82051241, 4067.56410215, 4070.89743555, 4129.10256383, 4145.25641005, 4107.30769203, 4131.28205101, 4192.94871781,8.57
4117.56410229, 4126.15384588, 4120.25640998, 4122.30769203, 4124.87179460, 4074.23076889, 4072.56410222, 4071.66666632, 4071.92307658, 4130.38461511, 4143.07692287, 4104.74358947, 4131.02564075, 4189.48717935,8.57
4125.51282024, 4127.56410229, 4130.12820485, 4125.12820485, 4126.41025614, 4072.82051248, 4070.89743555, 4069.61538420, 4066.02564061, 4128.33333306, 4142.30769210, 4111.02564075, 4132.43589716, 4193.07692294,8.57
4119.23076896, 4122.56410229, 4124.35897408, 4123.46153819, 4121.28205101, 4075.64102530, 4071.15384581, 4063.07692266, 4061.92307651, 4126.66666639, 4140.76923056, 4110.51282024, 4133.71794844, 4194.74358961,8.57
4123.97435870, 4123.97435870, 4124.99999973, 4124.35897408, 4125.25640998, 4081.92307658, 4072.94871761, 4053.58974318, 4051.41025600, 4126.79487152, 4136.79487159, 4107.82051255, 4130.76923050, 4197.17948704,8.57
4129.87179460, 4126.79487152, 4127.94871767, 4126.79487152, 4125.38461511, 4071.92307658, 4060.76923036, 4049.48717907, 4052.94871754, 4127.82051255, 4139.74358954, 4118.71794844, 4132.56410229, 4198.46153833,8.57
4120.89743562, 4123.20512793, 4118.07692280, 4122.17948691, 4121.79487152, 4060.76923036, 4048.84615343, 4049.48717907, 4062.69230728, 4128.97435870, 4138.71794851, 4113.58974332, 4133.71794844, 4197.05128192,8.57
4127.17948691, 4125.12820485, 4124.35897408, 4125.25640998, 4123.33333306, 4067.05128164, 4052.05128164, 4047.30769189, 4061.02564061, 4126.92307665, 4135.64102544, 4117.94871767, 4136.66666646, 4202.30769224,8.57
4121.28205101, 4122.69230742, 4119.23076896, 4125.51282024, 4119.23076896, 4072.30769196, 4055.12820472, 4046.15384574, 4058.84615343, 4126.15384588, 4138.58974339, 4118.20512793, 4134.48717921, 4199.87179474,8.57
4122.69230742, 4122.30769203, 4116.28205101, 4122.43589716, 4121.15384588, 4069.35897395, 4052.94871754, 4051.28205087, 4063.97435856, 4129.99999973, 4139.87179467, 4105.76923050, 4131.28205101, 4197.56410243,8.57
4122.69230742, 4124.99999973, 4122.94871767, 4123.71794844, 4124.61538434, 4075.51282017, 4058.97435856, 4058.84615343, 4064.87179446, 4130.89743562, 4137.05128185, 4113.46153819, 4136.28205108, 4198.33333320,8.57
4111.66666639, 4122.69230742, 4115.89743562, 4120.51282024, 4123.33333306, 4081.28205094, 4061.28205087, 4055.25640984, 4064.10256369, 4128.33333306, 4132.69230742, 4110.64102537, 4132.94871767, 4194.48717935,8.57
4124.87179460, 4126.28205101, 4122.05128178, 4123.46153819, 4123.71794844, 4075.25640991, 4053.07692266, 4042.05128164, 4062.82051241, 4127.30769203, 4135.12820485, 4110.76923050, 4131.15384588, 4199.61538448,8.57
4120.76923050, 4124.48717921, 4120.89743562, 4123.46153819, 4121.53846126, 4079.48717914, 4056.53846113, 4040.64102523, 4060.76923036, 4127.05128178, 4138.33333313, 4112.05128178, 4133.71794844, 4197.82051269,8.57
4117.82051255, 4124.87179460, 4122.05128178, 4123.46153819, 4123.07692280, 4084.99999966, 4060.25640984, 4046.28205087, 4061.66666625, 4126.41025614, 4135.51282031, 4101.02564068, 4130.38461511, 4190.76923063,8.57
4124.99999973, 4127.69230742, 4127.56410229, 4127.30769203, 4123.07692280, 4083.07692273, 4055.38461497, 4043.84615343, 4061.41025600, 4127.05128178, 4136.53846133, 4107.30769203, 4131.41025614, 4192.30769217,8.57
4116.79487152, 4123.46153819, 4114.35897408, 4121.79487152, 4123.71794844, 4094.61538427, 4064.23076882, 4046.92307651, 4062.17948677, 4127.56410229, 4136.15384595, 4105.89743562, 4129.35897408, 4191.02564089,8.57
4127.30769203, 4128.07692280, 4123.71794844, 4126.28205101, 4128.33333306, 4103.33333306, 4076.15384581, 4060.38461497, 4071.02564068, 4126.92307665, 4134.48717921, 4108.58974332, 4126.92307665, 4194.74358961,8.57
4125.38461511, 4124.87179460, 4126.41025614, 4129.74358947, 4122.82051255, 4085.76923043, 4067.69230728, 4067.82051241, 4086.41025607, 4125.64102537, 4134.87179460, 4117.56410229, 4128.71794844, 4195.89743576,8.57
4121.79487152, 4122.94871767, 4118.58974332, 4122.30769203, 4123.20512793, 4073.58974325, 4059.10256369, 4064.35897395, 4087.43589709, 4125.76923050, 4133.84615357, 4109.99999973, 4128.97435870, 4192.69230756,8.57
4129.74358947, 4130.51282024, 4126.66666639, 4123.20512793, 4125.25640998, 4087.94871761, 4068.58974318, 4066.02564061, 4078.07692273, 4126.53846126, 4135.64102544, 4114.99999973, 4132.69230742, 4197.43589730,8.57
4116.66666639, 4125.51282024, 4120.89743562, 4123.46153819, 4118.46153819, 4094.35897402, 4075.89743555, 4073.71794837, 4082.30769196, 4124.10256383, 4136.02564082, 4114.10256383, 4130.64102537, 4199.74358961,8.57
4126.92307665, 4127.94871767, 4126.15384588, 4123.20512793, 4122.69230742, 4084.35897402, 4070.51282017, 4070.25640991, 4084.87179453, 4123.71794844, 4137.05128185, 4114.87179460, 4129.74358947, 4204.23076917,8.57
4129.99999973, 4128.58974332, 4127.17948691, 4120.89743562, 4124.10256383, 4085.25640991, 4068.20512779, 4061.28205087, 4077.69230735, 4127.30769203, 4138.58974339, 4120.76923050, 4133.58974332, 4201.53846147,8.57
4117.69230742, 4122.05128178, 4119.87179460, 4118.58974332, 4121.92307665, 4094.48717914, 4073.58974325, 4064.99999959, 4080.25640991, 4128.58974332, 4134.48717921, 4110.64102537, 4133.46153819, 4197.69230756,8.57
4123.97435870, 4124.61538434, 4126.92307665, 4124.35897408, 4124.87179460, 4099.10256376, 4076.53846119, 4072.43589709, 4085.76923043, 4126.79487152, 4133.71794844, 4115.89743562, 4135.25640998, 4201.79487173,8.57
4116.66666639, 4121.41025614, 4116.92307665, 4121.41025614, 4122.17948691, 4101.15384581, 4075.89743555, 4070.38461504, 4080.12820478, 4126.66666639, 4134.35897408, 4113.84615357, 4132.30769203, 4196.92307679,8.57
4124.10256383, 4124.10256383, 4121.92307665, 4122.30769203, 4123.46153819, 4102.94871767, 4075.76923043, 4063.71794830, 4073.33333299, 4128.97435870, 4134.99999973, 4107.56410229, 4132.94871767, 4197.94871781,8.57
4124.61538434, 4125.25640998, 4126.02564075, 4124.23076896, 4123.20512793, 4102.56410229, 4076.79487145, 4065.12820472, 4075.76923043, 4129.48717921, 4136.66666646, 4115.76923050, 4138.20512800, 4197.05128192,8.57
4113.20512793, 4121.28205101, 4112.69230742, 4117.05128178, 4121.92307665, 4104.23076896, 4081.02564068, 4070.76923043, 4081.15384581, 4126.02564075, 4131.53846126, 4109.10256383, 4132.56410229, 4189.99999986,8.57
4125.64102537, 4127.69230742, 4125.12820485, 4123.97435870, 4124.99999973, 4105.76923050, 4080.38461504, 4070.76923043, 4083.33333299, 4125.25640998, 4127.82051255, 4111.28205101, 4130.89743562, 4197.17948704,8.57
4117.56410229, 4122.43589716, 4122.17948691, 4126.41025614, 4123.71794844, 4101.79487145, 4072.05128171, 4070.12820478, 4082.94871761, 4128.46153819, 4129.10256383, 4108.71794844, 4132.69230742, 4198.33333320,8.57
4119.48717921, 4123.58974332, 4119.74358947, 4122.56410229, 4124.61538434, 4098.84615350, 4067.94871754, 4065.64102523, 4077.30769196, 4128.58974332, 4130.64102537, 4101.79487145, 4132.43589716, 4193.33333320,8.57
4124.99999973, 4127.82051255, 4127.05128178, 4123.33333306, 4120.76923050, 4102.69230742, 4070.12820478, 4061.15384574, 4073.33333299, 4126.92307665, 4132.56410229, 4113.07692280, 4134.99999973, 4194.74358961,8.57
4115.25640998, 4120.25640998, 4119.48717921, 4122.94871767, 4121.41025614, 4105.38461511, 4070.89743555, 4064.23076882, 4077.30769196, 4126.66666639, 4130.25640998, 4105.76923050, 4131.02564075, 4193.07692294,8.57
4127.56410229, 4124.48717921, 4126.53846126, 4127.69230742, 4130.51282024, 4101.66666632, 4066.15384574, 4061.41025600, 4077.56410222, 4127.17948691, 4131.66666639, 4107.43589716, 4129.99999973, 4194.23076910,8.57
4121.79487152, 4121.79487152, 4122.69230742, 4122.05128178, 4125.51282024, 4097.05128171, 4057.17948677, 4049.23076882, 4065.12820472, 4127.82051255, 4133.84615357, 4118.07692280, 4133.71794844, 4196.41025628,8.57
4121.28205101, 4120.51282024, 4121.53846126, 4119.48717921, 4122.56410229, 4098.46153812, 4056.15384574, 4049.87179446, 4058.58974318, 4127.05128178, 4130.76923050, 4113.97435870, 4133.07692280, 4197.69230756,8.57
4130.89743562, 4127.05128178, 4130.25640998, 4126.92307665, 4125.38461511, 4100.76923043, 4063.84615343, 4064.23076882, 4075.12820478, 4125.76923050, 4131.53846126, 4119.35897408, 4134.61538434, 4196.41025628,8.57
4118.46153819, 4122.43589716, 4117.56410229, 4123.84615357, 4123.84615357, 4096.02564068, 4062.94871754, 4064.10256369, 4085.12820478, 4127.69230742, 4131.92307665, 4115.38461511, 4134.35897408, 4191.66666653,8.57
4126.02564075, 4123.07692280, 4121.92307665, 4128.33333306, 4124.87179460, 4098.46153812, 4067.82051241, 4064.10256369, 4078.46153812, 4129.35897408, 4131.92307665, 4116.15384588, 4134.35897408, 4198.33333320,8.57
4123.46153819, 4123.33333306, 4123.71794844, 4129.74358947, 4122.05128178, 4111.53846126, 4085.38461504, 4081.53846119, 4086.66666632, 4126.66666639, 4132.69230742, 4120.76923050, 4133.97435870, 4199.74358961,8.57
4118.71794844, 4121.79487152, 4120.38461511, 4121.15384588, 4122.05128178, 4107.94871767, 4081.79487145, 4084.87179453, 4098.46153812, 4126.66666639, 4129.99999973, 4112.56410229, 4132.17948691, 4196.28205115,8.57
4126.92307665, 4123.58974332, 4127.82051255, 4122.05128178, 4122.69230742, 4093.33333299, 4062.82051241, 4068.46153805, 4089.99999966, 4130.76923050, 4130.76923050, 4119.87179460, 4134.74358947, 4199.61538448,8.57
4115.51282024, 4122.56410229, 4116.66666639, 4121.79487152, 4120.76923050, 4104.61538434, 4070.38461504, 4063.33333292, 4078.97435863, 4128.58974332, 4128.84615357, 4116.02564075, 4131.28205101, 4195.51282038,8.57
4121.28205101, 4127.17948691, 4120.76923050, 4122.30769203, 4124.23076896, 4121.53846126, 4088.97435863, 4071.02564068, 4079.23076889, 4124.87179460, 4125.12820485, 4109.48717921, 4131.28205101, 4197.05128192,8.57
4122.82051255, 4124.10256383, 4123.46153819, 4122.69230742, 4123.20512793, 4112.94871767, 4081.28205094, 4067.94871754, 4083.33333299, 4125.51282024, 4127.94871767, 4115.12820485, 4136.15384595, 4198.20512807,8.57
4117.05128178, 4118.33333306, 4116.66666639, 4122.43589716, 4123.46153819, 4103.97435870, 4071.79487145, 4066.41025600, 4088.58974325, 4125.51282024, 4130.25640998, 4110.12820485, 4131.15384588, 4193.97435884,8.57
4123.84615357, 4123.46153819, 4125.76923050, 4126.79487152, 4125.51282024, 4113.07692280, 4083.07692273, 4081.41025607, 4098.20512786, 4126.15384588, 4132.43589716, 4114.35897408, 4130.89743562, 4197.43589730,8.57
4114.10256383, 4119.10256383, 4117.94871767, 4122.43589716, 4121.41025614, 4123.84615357, 4095.64102530, 4096.92307658, 4111.41025614, 4127.69230742, 4133.71794844, 4107.94871767, 4131.92307665, 4195.25641012,8.57
4122.82051255, 4119.48717921, 4119.74358947, 4121.92307665, 4124.61538434, 4126.28205101, 4099.35897402, 4104.48717921, 4119.87179460, 4126.53846126, 4133.33333306, 4104.87179460, 4130.51282024, 4192.94871781,8.57
4127.43589716, 4123.33333306, 4126.02564075, 4126.53846126, 4127.17948691, 4128.20512793, 4097.69230735, 4104.10256383, 4114.23076896, 4126.79487152, 4133.71794844, 4120.38461511, 4133.33333306, 4193.46153833,8.57
4117.43589716, 4123.07692280, 4118.97435870, 4125.38461511, 4125.64102537, 4126.66666639, 4093.84615350, 4095.25640991, 4101.66666632, 4128.46153819, 4131.02564075, 4113.07692280, 4131.41025614, 4191.79487166,8.57
4127.43589716, 4128.33333306, 4127.17948691, 4126.53846126, 4125.12820485, 4119.99999973, 4091.02564068, 4086.92307658, 4095.64102530, 4127.56410229, 4131.53846126, 4113.97435870, 4132.30769203, 4193.84615371,8.57
4124.23076896, 4124.10256383, 4124.35897408, 4121.79487152, 4120.89743562, 4118.20512793, 4092.30769196, 4088.84615350, 4100.76923043, 4127.17948691, 4131.66666639, 4119.74358947, 4132.56410229, 4191.41025628,8.57
4126.53846126, 4124.61538434, 4123.07692280, 4122.82051255, 4122.43589716, 4115.12820485, 4090.51282017, 4089.74358940, 4107.30769203, 4129.23076896, 4130.51282024, 4116.53846126, 4129.35897408, 4193.58974345,8.57
4127.82051255, 4126.02564075, 4126.28205101, 4127.56410229, 4122.30769203, 4107.43589716, 4082.17948684, 4079.35897402, 4097.43589709, 4130.51282024, 4132.30769203, 4122.94871767, 4131.53846126, 4198.46153833,8.57
4117.69230742, 4121.15384588, 4117.82051255, 4120.51282024, 4122.56410229, 4108.33333306, 4081.66666632, 4076.15384581, 4088.07692273, 4128.97435870, 4130.64102537, 4114.99999973, 4133.20512793, 4197.30769217,8.57
4127.82051255, 4126.92307665, 4124.87179460, 4121.15384588, 4126.66666639, 4122.56410229, 4096.02564068, 4097.05128171, 4106.79487152, 4128.46153819, 4131.02564075, 4118.07692280, 4136.79487159, 4201.66666660,8.57
4121.15384588, 4125.89743562, 4121.79487152, 4122.17948691, 4122.43589716, 4134.61538434, 4110.89743562, 4121.02564075, 4129.61538434, 4128.84615357, 4132.69230742, 4125.89743562, 4135.89743569, 4197.82051269,8.57
4118.46153819, 4124.74358947, 4117.17948691, 4120.51282024, 4121.66666639, 4133.20512793, 4112.94871767, 4123.84615357, 4129.74358947, 4127.94871767, 4129.61538434, 4115.25640998, 4131.92307665, 4195.64102551,8.57
4124.87179460, 4127.56410229, 4122.94871767, 4125.76923050, 4123.33333306, 4132.17948691, 4113.20512793, 4121.41025614, 4128.07692280, 4129.48717921, 4129.61538434, 4117.56410229, 4133.97435870, 4200.25641012,8.57
4114.87179460, 4122.56410229, 4116.66666639, 4123.58974332, 4123.07692280, 4138.84615364, 4117.17948691, 4119.61538434, 4127.17948691, 4129.23076896, 4129.61538434, 4115.76923050, 4131.66666639, 4194.48717935,8.57
4124.35897408, 4123.46153819, 4124.87179460, 4123.07692280, 4126.53846126, 4137.17948697, 4109.99999973, 4102.05128171, 4112.56410229, 4127.56410229, 4129.74358947, 4116.28205101, 4132.17948691, 4195.38461525,8.57
4122.82051255, 4122.05128178, 4123.46153819, 4123.33333306, 4123.46153819, 4126.02564075, 4100.64102530, 4093.71794837, 4110.51282024, 4126.92307665, 4130.12820485, 4116.92307665, 4134.74358947, 4195.89743576,8.57
4115.51282024, 4122.43589716, 4118.20512793, 4120.38461511, 4121.53846126, 4127.56410229, 4106.79487152, 4105.76923050, 4114.74358947, 4126.15384588, 4127.17948691, 4107.43589716, 4131.28205101, 4190.64102551,8.57
4123.84615357, 4126.15384588, 4128.33333306, 4123.33333306, 4123.71794844, 4138.33333313, 4112.56410229, 4106.53846126, 4107.82051255, 4126.41025614, 4128.20512793, 4117.30769203, 4132.82051255, 4193.58974345,8.57
4119.48717921, 4121.53846126, 4121.41025614, 4123.58974332, 4123.20512793, 4129.87179460, 4103.07692280, 4098.84615350, 4111.79487152, 4127.56410229, 4129.35897408, 4114.74358947, 4131.53846126, 4193.84615371,8.57
4127.17948691, 4127.69230742, 4124.35897408, 4126.02564075, 4124.74358947, 4115.64102537, 4097.30769196, 4100.64102530, 4118.46153819, 4128.71794844, 4129.35897408, 4110.89743562, 4130.51282024, 4196.02564089,8.57
4125.38461511, 4126.66666639, 4124.10256383, 4126.28205101, 4121.66666639, 4123.97435870, 4107.05128178, 4100.89743555, 4110.25640998, 4128.58974332, 4130.38461511, 4119.23076896, 4133.07692280, 4195.51282038,8.57
4119.99999973, 4119.74358947, 4119.74358947, 4123.07692280, 4123.58974332, 4132.30769203, 4113.58974332, 4098.71794837, 4111.92307665, 4128.33333306, 4131.41025614, 4114.61538434, 4131.41025614, 4192.17948704,8.57
4126.92307665, 4124.99999973, 4130.89743562, 4123.58974332, 4126.92307665, 4123.97435870, 4108.20512793, 4102.82051255, 4128.71794844, 4127.69230742, 4134.23076896, 4121.41025614, 4136.02564082, 4196.53846140,8.57
4117.30769203, 4122.05128178, 4122.56410229, 4118.33333306, 4121.41025614, 4120.38461511, 4102.30769196, 4100.12820478, 4122.94871767, 4127.05128178, 4129.61538434, 4119.23076896, 4135.38461518, 4196.53846140,8.57
4126.28205101, 4121.53846126, 4124.87179460, 4123.84615357, 4123.07692280, 4123.71794844, 4102.30769196, 4089.99999966, 4102.05128171, 4127.56410229, 4127.17948691, 4114.61538434, 4130.25640998, 4198.46153833,8.57
4127.17948691, 4124.61538434, 4127.94871767, 4127.82051255, 4122.17948691, 4120.12820485, 4099.61538427, 4088.46153812, 4099.61538427, 4129.23076896, 4132.05128178, 4123.07692280, 4133.97435870, 4200.38461525,8.57
4115.76923050, 4123.58974332, 4117.17948691, 4119.61538434, 4122.30769203, 4115.25640998, 4094.10256376, 4088.71794837, 4104.48717921, 4129.87179460, 4130.25640998, 4115.51282024, 4135.76923056, 4199.99999986,8.57
4124.87179460, 4122.94871767, 4124.61538434, 4122.30769203, 4126.28205101, 4117.56410229, 4096.28205094, 4086.15384581, 4099.99999966, 4128.71794844, 4128.33333306, 4121.92307665, 4136.53846133, 4203.97435891,8.57
4117.56410229, 4119.23076896, 4119.87179460, 4120.38461511, 4120.89743562, 4125.64102537, 4105.64102537, 4088.46153812, 4097.69230735, 4127.43589716, 4130.12820485, 4124.23076896, 4133.07692280, 4198.33333320,8.57
4120.89743562, 4124.48717921, 4120.38461511, 4118.07692280, 4122.17948691, 4126.92307665, 4108.71794844, 4092.17948684, 4106.92307665, 4126.92307665, 4129.48717921, 4112.30769203, 4131.28205101, 4197.30769217,8.57
4124.87179460, 4123.07692280, 4123.97435870, 4122.82051255, 4123.97435870, 4114.35897408, 4097.56410222, 4090.89743555, 4108.58974332, 4126.79487152, 4128.97435870, 4118.97435870, 4137.17948697, 4199.87179474,8.57
4113.07692280, 4115.64102537, 4116.02564075, 4120.12820485, 4121.92307665, 4109.48717921, 4092.17948684, 4094.74358940, 4103.71794844, 4125.89743562, 4127.94871767, 4116.02564075, 4133.58974332, 4193.58974345,8.57
4122.56410229, 4124.35897408, 4126.02564075, 4121.79487152, 4123.20512793, 4118.71794844, 4100.12820478, 4103.20512793, 4109.48717921, 4126.79487152, 4129.74358947, 4114.48717921, 4128.58974332, 4194.61538448,8.57
4118.33333306, 4122.05128178, 4121.92307665, 4123.97435870, 4121.92307665, 4117.43589716, 4099.48717914, 4099.99999966, 4114.74358947, 4128.07692280, 4130.76923050, 4115.89743562, 4131.15384588, 4194.23076910,8.57
4117.94871767, 4118.07692280, 4119.61538434, 4122.94871767, 4125.64102537, 4110.38461511, 4092.30769196, 4093.46153812, 4114.74358947, 4126.79487152, 4127.94871767, 4113.20512793, 4132.56410229, 4193.58974345,8.57
4123.97435870, 4123.33333306, 4128.20512793, 4124.10256383, 4124.48717921, 4118.20512793, 4093.71794837, 4099.23076889, 4122.17948691, 4126.53846126, 4129.48717921, 4121.15384588, 4132.94871767, 4196.66666653,8.57
4116.28205101, 4121.53846126, 4121.79487152, 4122.82051255, 4120.89743562, 4129.48717921, 4100.25640991, 4102.56410229, 4126.15384588, 4127.56410229, 4128.46153819, 4113.58974332, 4132.05128178, 4192.94871781,8.57
4128.46153819, 4124.48717921, 4128.58974332, 4127.17948691, 4125.89743562, 4126.66666639, 4098.20512786, 4088.84615350, 4110.89743562, 4128.84615357, 4128.33333306, 4115.51282024, 4135.25640998, 4195.51282038,8.57
4124.23076896, 4121.79487152, 4126.02564075, 4126.92307665, 4123.46153819, 4114.74358947, 4088.07692273, 4080.38461504, 4106.02564075, 4129.61538434, 4130.89743562, 4121.02564075, 4134.35897408, 4197.43589730,8.57
4120.76923050, 4120.76923050, 4122.30769203, 4124.10256383, 4123.07692280, 4117.82051255, 4089.48717914, 4086.53846119, 4112.69230742, 4130.25640998, 4129.74358947, 4112.69230742, 4129.35897408, 4196.53846140,8.57
4130.38461511, 4124.99999973, 4129.10256383, 4126.02564075, 4123.33333306, 4133.46153819, 4103.07692280, 4087.69230735, 4104.48717921, 4130.76923050, 4131.15384588, 4120.64102537, 4133.20512793, 4198.58974345,8.57
4119.10256383, 4120.12820485, 4117.05128178, 4121.02564075, 4120.38461511, 4128.71794844, 4102.69230742, 4084.74358940, 4101.66666632, 4127.43589716, 4130.12820485, 4117.05128178, 4132.43589716, 4195.76923063,8.57
4126.53846126, 4122.17948691, 4123.71794844, 4126.41025614, 4124.99999973, 4107.69230742, 4085.64102530, 4085.38461504, 4107.69230742, 4124.74358947, 4129.99999973, 4119.10256383, 4131.02564075, 4198.97435884,8.57
4125.64102537, 4121.02564075, 4126.02564075, 4127.69230742, 4123.20512793, 4108.20512793, 4085.25640991, 4088.33333299, 4106.15384588, 4127.69230742, 4132.94871767, 4129.10256383, 4132.56410229, 4198.97435884,8.57
4119.99999973, 4120.25640998, 4116.15384588, 4119.35897408, 4121.92307665, 4119.61538434, 4098.20512786, 4087.43589709, 4103.07692280, 4129.99999973, 4131.15384588, 4119.23076896, 4129.99999973, 4198.71794858,8.57
4128.20512793, 4125.51282024, 4124.35897408, 4124.23076896, 4124.87179460, 4120.25640998, 4099.35897402, 4084.61538427, 4105.12820485, 4128.33333306, 4131.28205101, 4125.12820485, 4133.97435870, 4202.94871788,8.57
4116.28205101, 4119.74358947, 4118.84615357, 4121.92307665, 4123.58974332, 4124.61538434, 4100.25640991, 4091.41025607, 4107.30769203, 4127.94871767, 4130.38461511, 4121.02564075, 4133.33333306, 4194.48717935,8.57
4123.20512793, 4123.84615357, 4122.56410229, 4119.35897408, 4126.79487152, 4126.53846126, 4103.84615357, 4100.89743555, 4111.66666639, 4127.94871767, 4128.58974332, 4111.02564075, 4130.38461511, 4194.35897422,8.57
4124.74358947, 4125.38461511, 4123.20512793, 4122.05128178, 4125.38461511, 4125.51282024, 4105.64102537, 4100.38461504, 4117.43589716, 4126.15384588, 4130.51282024, 4118.97435870, 4133.58974332, 4198.84615371,8.57
4114.10256383, 4116.15384588, 4114.48717921, 4120.89743562, 4122.17948691, 4134.48717921, 4111.15384588, 4097.43589709, 4113.71794844, 4126.79487152, 4129.74358947, 4114.23076896, 4130.25640998, 4193.58974345,8.57
4125.25640998, 4120.89743562, 4125.64102537, 4124.61538434, 4123.84615357, 4132.17948691, 4111.28205101, 4105.12820485, 4117.82051255, 4129.10256383, 4127.94871767, 4115.76923050, 4130.38461511, 4193.20512807,8.57
4118.84615357, 4121.02564075, 4120.76923050, 4123.46153819, 4122.69230742, 4123.20512793, 4107.69230742, 4110.64102537, 4126.28205101, 4126.92307665, 4129.10256383, 4116.41025614, 4132.05128178, 4191.41025628,8.57
4122.69230742, 4122.56410229, 4123.71794844, 4125.25640998, 4125.76923050, 4128.20512793, 4106.53846126, 4101.53846119, 4113.07692280, 4124.10256383, 4132.30769203, 4114.35897408, 4129.35897408, 4190.76923063,8.57
4126.66666639, 4125.76923050, 4129.48717921, 4127.30769203, 4123.46153819, 4126.66666639, 4099.87179453, 4092.43589709, 4101.15384581, 4126.92307665, 4131.41025614, 4119.74358947, 4130.12820485, 4192.17948704,8.57
4117.05128178, 4123.33333306, 4119.10256383, 4120.76923050, 4120.64102537, 4118.58974332, 4096.41025607, 4094.35897402, 4108.46153819, 4128.84615357, 4126.41025614, 4112.43589716, 4129.35897408, 4191.79487166,8.57
4127.94871767, 4127.05128178, 4128.20512793, 4123.97435870, 4124.61538434, 4127.82051255, 4106.66666639, 4101.79487145, 4117.56410229, 4127.56410229, 4130.76923050, 4117.94871767, 4130.89743562, 4197.17948704,8.57
4123.07692280, 4122.43589716, 4125.51282024, 4124.99999973, 4120.76923050, 4138.46153826, 4113.84615357, 4104.99999973, 4120.89743562, 4127.05128178, 4133.71794844, 4120.64102537, 4130.38461511, 4196.28205115,8.57
4124.48717921, 4120.25640998, 4124.10256383, 4122.30769203, 4121.41025614, 4130.51282024, 4109.48717921, 4096.79487145, 4116.15384588, 4128.46153819, 4130.12820485, 4114.74358947, 4129.87179460, 4195.51282038,8.57
4128.84615357, 4123.07692280, 4129.87179460, 4124.48717921, 4122.43589716, 4126.41025614, 4107.43589716, 4091.15384581, 4106.28205101, 4128.71794844, 4132.82051255, 4126.28205101, 4133.33333306, 4195.25641012,8.57
4117.17948691, 4122.05128178, 4118.97435870, 4121.02564075, 4120.64102537, 4134.23076896, 4113.46153819, 4098.84615350, 4105.89743562, 4126.53846126, 4132.43589716, 4121.28205101, 4130.12820485, 4192.43589730,8.57
4127.17948691, 4126.28205101, 4125.89743562, 4122.05128178, 4123.71794844, 4134.35897408, 4118.20512793, 4105.76923050, 4114.10256383, 4127.30769203, 4129.10256383, 4121.02564075, 4133.71794844, 4201.92307686,8.57
4122.69230742, 4124.23076896, 4124.74358947, 4123.33333306, 4122.17948691, 4128.46153819, 4116.41025614, 4109.35897408, 4125.12820485, 4126.92307665, 4130.51282024, 4124.48717921, 4135.38461518, 4201.15384609,8.57
4117.82051255, 4121.92307665, 4119.48717921, 4124.10256383, 4124.23076896, 4130.89743562, 4118.07692280, 4115.76923050, 4133.71794844, 4124.10256383, 4131.66666639, 4116.41025614, 4129.48717921, 4195.38461525,8.57
4123.58974332, 4124.35897408, 4124.87179460, 4127.17948691, 4125.12820485, 4138.71794851, 4125.64102537, 4114.99999973, 4127.30769203, 4127.30769203, 4132.56410229, 4122.94871767, 4132.56410229, 4201.15384609,8.57
4113.97435870, 4121.66666639, 4116.15384588, 4123.97435870, 4120.12820485, 4135.25640998, 4121.15384588, 4106.41025614, 4115.38461511, 4131.53846126, 4129.99999973, 4116.66666639, 4131.02564075, 4196.28205115,8.57
4122.43589716, 4123.20512793, 4122.69230742, 4125.12820485, 4122.94871767, 4124.87179460, 4110.25640998, 4099.23076889, 4111.79487152, 4128.58974332, 4130.51282024, 4113.71794844, 4128.46153819, 4193.46153833,8.57
4121.02564075, 4118.33333306, 4123.84615357, 4122.82051255, 4123.20512793, 4125.25640998, 4109.99999973, 4094.87179453, 4110.89743562, 4127.17948691, 4133.20512793, 4120.38461511, 4129.99999973, 4195.12820499,8.57
4116.53846126, 4116.15384588, 4116.41025614, 4120.12820485, 4123.97435870, 4131.02564075, 4112.94871767, 4095.12820478, 4110.89743562, 4130.51282024, 4129.74358947, 4114.10256383, 4127.94871767, 4193.33333320,8.57
4126.41025614, 4123.71794844, 4124.87179460, 4125.38461511, 4123.33333306, 4135.38461518, 4113.07692280, 4096.02564068, 4112.56410229, 4129.10256383, 4130.25640998, 4121.41025614, 4131.02564075, 4195.25641012,8.57
4118.07692280, 4122.05128178, 4121.28205101, 4122.69230742, 4121.41025614, 4142.30769210, 4120.12820485, 4096.41025607, 4111.79487152, 4127.17948691, 4133.20512793, 4118.33333306, 4130.89743562, 4193.71794858,8.57
4123.97435870, 4129.48717921, 4125.64102537, 4123.20512793, 4128.20512793, 4146.66666646, 4127.56410229, 4103.84615357, 4114.23076896, 4129.87179460, 4133.71794844, 4112.56410229, 4127.17948691, 4195.38461525,8.57
4125.64102537, 4132.17948691, 4125.64102537, 4125.38461511, 4125.25640998, 4146.02564082, 4132.05128178, 4117.43589716, 4123.97435870, 4129.23076896, 4133.58974332, 4120.64102537, 4130.12820485, 4197.43589730,8.57
4118.07692280, 4122.94871767, 4117.69230742, 4120.64102537, 4120.38461511, 4152.82051262, 4147.69230749, 4132.17948691, 4138.84615364, 4126.28205101, 4132.05128178, 4116.79487152, 4130.51282024, 4195.89743576,8.57
4125.64102537, 4123.97435870, 4128.58974332, 4122.82051255, 4122.56410229, 4157.56410236, 4159.61538441, 4150.64102544, 4152.30769210, 4127.30769203, 4135.51282031, 4124.23076896, 4131.02564075, 4199.23076910,8.57
4119.61538434, 4123.07692280, 4123.20512793, 4121.79487152, 4122.69230742, 4157.17948697, 4158.20512800, 4161.15384595, 4158.07692287, 4129.61538434, 4134.99999973, 4124.23076896, 4131.41025614, 4197.05128192,8.57
4126.02564075, 4124.74358947, 4123.97435870, 4122.56410229, 4127.05128178, 4167.69230749, 4162.05128185, 4156.15384595, 4157.43589723, 4128.84615357, 4130.64102537, 4114.35897408, 4131.02564075, 4195.76923063,8.57
4126.41025614, 4123.46153819, 4130.12820485, 4124.74358947, 4124.99999973, 4172.05128192, 4159.99999980, 4144.61538441, 4149.87179467, 4128.97435870, 4132.82051255, 4124.35897408, 4132.56410229, 4196.53846140,8.57
4114.61538434, 4118.97435870, 4120.38461511, 4121.02564075, 4121.15384588, 4152.94871774, 4140.25641005, 4131.41025614, 4135.38461518, 4129.35897408, 4131.15384588, 4121.79487152, 4131.02564075, 4198.20512807,8.57
4126.66666639, 4123.20512793, 4124.48717921, 4124.87179460, 4123.07692280, 4143.71794851, 4127.94871767, 4119.10256383, 4125.89743562, 4127.43589716, 4128.84615357, 4120.76923050, 4134.35897408, 4203.71794865,8.57
4121.66666639, 4123.20512793, 4121.15384588, 4120.64102537, 4121.92307665, 4156.66666646, 4132.56410229, 4115.38461511, 4133.07692280, 4126.53846126, 4130.12820485, 4120.51282024, 4134.10256383, 4197.56410243,8.57
4121.79487152, 4124.99999973, 4120.25640998, 4116.02564075, 4123.20512793, 4160.76923056, 4134.99999973, 4119.10256383, 4144.61538441, 4127.94871767, 4130.76923050, 4114.87179460, 4130.51282024, 4196.66666653,8.57
4125.12820485, 4123.97435870, 4120.51282024, 4123.46153819, 4121.92307665, 4152.56410236, 4129.61538434, 4119.48717921, 4142.69230749, 4130.12820485, 4133.46153819, 4121.79487152, 4132.94871767, 4199.87179474,8.57
4115.25640998, 4119.61538434, 4111.66666639, 4122.82051255, 4120.12820485, 4148.58974339, 4124.61538434, 4111.28205101, 4131.15384588, 4129.23076896, 4131.92307665, 4115.25640998, 4130.76923050, 4193.97435884,8.57
4126.15384588, 4125.38461511, 4124.61538434, 4121.15384588, 4125.38461511, 4147.69230749, 4120.89743562, 4107.05128178, 4122.94871767, 4127.30769203, 4131.15384588, 4114.48717921, 4130.64102537, 4198.07692294,8.57
4120.89743562, 4121.92307665, 4125.51282024, 4121.28205101, 4123.33333306, 4145.51282031, 4121.02564075, 4109.61538434, 4119.23076896, 4128.07692280, 4131.53846126, 4115.76923050, 4131.53846126, 4198.33333320,8.57
4118.97435870, 4121.92307665, 4121.02564075, 4124.23076896, 4121.92307665, 4145.64102544, 4127.30769203, 4111.28205101, 4118.71794844, 4129.10256383, 4127.94871767, 4109.10256383, 4128.97435870, 4192.94871781,8.57
4127.17948691, 4128.07692280, 4126.41025614, 4127.30769203, 4122.94871767, 4151.92307672, 4135.51282031, 4123.46153819, 4138.20512800, 4129.10256383, 4130.12820485, 4120.12820485, 4132.56410229, 4195.38461525,8.57
4116.41025614, 4120.64102537, 4117.56410229, 4122.94871767, 4122.56410229, 4152.82051262, 4137.69230749, 4139.87179467, 4159.10256390, 4128.84615357, 4133.71794844, 4117.30769203, 4130.25640998, 4194.74358961,8.57
4123.84615357, 4123.46153819, 4124.99999973, 4126.92307665, 4126.41025614, 4151.15384595, 4139.99999980, 4141.28205108, 4155.89743569, 4129.48717921, 4134.23076896, 4115.76923050, 4128.20512793, 4195.89743576,8.57
4125.38461511, 4125.89743562, 4127.17948691, 4128.58974332, 4121.02564075, 4158.20512800, 4147.05128185, 4138.97435877, 4152.82051262, 4129.61538434, 4134.87179460, 4123.58974332, 4133.84615357, 4197.05128192,8.57
4122.94871767, 4124.61538434, 4119.99999973, 4121.28205101, 4121.28205101, 4156.66666646, 4145.51282031, 4141.15384595, 4162.05128185, 4128.33333306, 4134.74358947, 4117.05128178, 4132.30769203, 4194.35897422,8.57
4128.58974332, 4128.84615357, 4125.89743562, 4123.58974332, 4125.51282024, 4148.20512800, 4139.23076903, 4136.66666646, 4157.17948697, 4127.82051255, 4133.71794844, 4122.82051255, 4130.51282024, 4195.51282038,8.57
4117.94871767, 4122.82051255, 4119.48717921, 4125.76923050, 4119.23076896, 4158.71794851, 4143.97435877, 4132.56410229, 4137.56410236, 4128.71794844, 4128.84615357, 4119.74358947, 4129.48717921, 4194.74358961,8.57
4124.23076896, 4122.17948691, 4124.61538434, 4125.25640998, 4121.28205101, 4166.92307672, 4145.76923056, 4134.23076896, 4134.74358947, 4129.87179460, 4128.97435870, 4116.53846126, 4130.51282024, 4197.56410243,8.57
4123.07692280, 4124.74358947, 4125.51282024, 4121.41025614, 4125.51282024, 4153.33333313, 4136.92307672, 4131.53846126, 4143.20512800, 4128.07692280, 4132.82051255, 4126.28205101, 4134.99999973, 4198.07692294,8.57
4114.87179460, 4121.02564075, 4115.76923050, 4119.48717921, 4123.07692280, 4147.30769210, 4136.79487159, 4127.17948691, 4136.02564082, 4126.41025614, 4129.61538434, 4116.79487152, 4132.43589716, 4197.17948704,8.57
4124.48717921, 4120.64102537, 4121.66666639, 4126.92307665, 4119.35897408, 4152.94871774, 4139.74358954, 4125.51282024, 4122.82051255, 4129.48717921, 4128.97435870, 4119.48717921, 4133.20512793, 4202.94871788,8.57
4116.66666639, 4120.12820485, 4115.89743562, 4123.33333306, 4119.74358947, 4152.17948697, 4133.58974332, 4125.64102537, 4130.76923050, 4128.97435870, 4130.76923050, 4122.17948691, 4132.17948691, 4195.76923063,8.57
4118.97435870, 4125.12820485, 4121.53846126, 4119.61538434, 4124.61538434, 4146.02564082, 4129.99999973, 4124.87179460, 4144.74358954, 4125.51282024, 4129.99999973, 4115.64102537, 4130.25640998, 4193.84615371,8.57
4121.53846126, 4124.99999973, 4127.17948691, 4124.48717921, 4121.53846126, 4144.10256390, 4128.07692280, 4118.20512793, 4137.82051262, 4126.79487152, 4130.64102537, 4117.17948691, 4133.71794844, 4198.46153833,8.57
4114.99999973, 4121.15384588, 4116.15384588, 4123.97435870, 4122.69230742, 4142.94871774, 4121.92307665, 4110.76923050, 4125.38461511, 4127.56410229, 4129.48717921, 4109.48717921, 4132.17948691, 4191.79487166,8.57
4124.99999973, 4126.79487152, 4122.69230742, 4124.61538434, 4125.89743562, 4138.84615364, 4118.20512793, 4105.51282024, 4121.53846126, 4125.12820485, 4129.61538434, 4117.05128178, 4132.94871767, 4191.92307679,8.57
4118.71794844, 4123.84615357, 4119.23076896, 4120.12820485, 4120.25640998, 4140.89743569, 4123.71794844, 4109.87179460, 4124.35897408, 4125.51282024, 4128.71794844, 4118.97435870, 4131.15384588, 4192.05128192,8.57
4121.66666639, 4122.94871767, 4119.61538434, 4119.10256383, 4124.10256383, 4151.92307672, 4136.02564082, 4124.10256383, 4133.07692280, 4127.69230742, 4126.79487152, 4111.66666639, 4128.07692280, 4190.51282038,8.57
4127.30769203, 4126.15384588, 4129.74358947, 4123.58974332, 4126.66666639, 4153.97435877, 4132.43589716, 4119.10256383, 4122.05128178, 4127.94871767, 4131.53846126, 4121.92307665, 4131.41025614, 4193.71794858,8.57
4117.56410229, 4124.10256383, 4123.97435870, 4121.02564075, 4120.76923050, 4150.64102544, 4127.43589716, 4111.41025614, 4112.17948691, 4127.17948691, 4133.07692280, 4118.20512793, 4129.23076896, 4193.71794858,8.57
4127.82051255, 4128.07692280, 4129.61538434, 4123.58974332, 4122.30769203, 4213.71794865, 4198.97435884, 4191.53846140, 4193.71794858, 4127.43589716, 4134.74358947, 4120.38461511, 4130.38461511, 4196.53846140,8.57
4122.56410229, 4123.84615357, 4126.28205101, 4123.07692280, 4123.71794844, 4313.97435912, 4300.25641040, 4306.92307707, 4312.94871809, 4128.84615357, 4139.48717928, 4125.51282024, 4132.43589716, 4196.92307679,8.57
4122.56410229, 4123.84615357, 4126.28205101, 4123.07692280, 4123.71794844, 4313.97435912, 4300.25641040, 4306.92307707, 4312.94871809, 4128.84615357, 4139.48717928, 4125.51282024, 4132.43589716, 4196.92307679,8.57
4119.74358947, 4123.71794844, 4122.56410229, 4122.05128178, 4126.28205101, 4320.00000014, 4295.89743597, 4305.89743604, 4317.94871809, 4129.61538434, 4139.74358954, 4119.74358947, 4131.41025614, 4197.69230756,8.57
4127.82051255, 4127.30769203, 4128.84615357, 4124.87179460, 4124.10256383, 4265.12820513, 4243.97435898, 4245.12820513, 4261.79487180, 4129.74358947, 4140.64102544, 4128.33333306, 4135.51282031, 4197.43589730,8.57
4119.23076896, 4120.38461511, 4118.84615357, 4118.33333306, 4119.48717921, 4258.46153847, 4250.12820513, 4242.43589744, 4257.82051282, 4129.23076896, 4136.15384595, 4122.30769203, 4131.79487152, 4192.82051269,8.57
4126.92307665, 4123.20512793, 4125.38461511, 4119.99999973, 4124.48717921, 4253.20512821, 4242.05128206, 4233.97435898, 4246.41025641, 4129.35897408, 4132.82051255, 4119.74358947, 4129.99999973, 4200.38461525,8.57
4124.23076896, 4124.10256383, 4125.25640998, 4124.48717921, 4124.35897408, 4214.61538455, 4200.51282038, 4192.56410243, 4207.69230763, 4129.10256383, 4134.61538434, 4124.61538434, 4136.15384595, 4202.17948711,8.57
4120.89743562, 4121.02564075, 4118.33333306, 4122.56410229, 4123.71794844, 4207.05128199, 4197.82051269, 4189.74358961, 4203.58974352, 4126.79487152, 4133.33333306, 4113.58974332, 4133.71794844, 4196.66666653,8.57
4125.12820485, 4123.84615357, 4123.97435870, 4124.99999973, 4122.69230742, 4207.30769224, 4195.89743576, 4192.30769217, 4200.12820499, 4126.15384588, 4131.79487152, 4119.61538434, 4130.89743562, 4197.05128192,8.57
4111.28205101, 4121.02564075, 4115.76923050, 4121.53846126, 4118.58974332, 4175.25641012, 4159.61538441, 4155.38461518, 4169.23076910, 4127.43589716, 4130.64102537, 4119.74358947, 4131.02564075, 4191.92307679,8.57
4122.43589716, 4122.17948691, 4122.69230742, 4121.79487152, 4124.48717921, 4156.79487159, 4140.25641005, 4128.33333306, 4147.17948697, 4129.74358947, 4131.41025614, 4114.23076896, 4132.17948691, 4196.02564089,8.57
4123.33333306, 4122.56410229, 4123.46153819, 4124.99999973, 4124.87179460, 4163.58974339, 4146.02564082, 4139.87179467, 4153.33333313, 4131.15384588, 4130.38461511, 4116.41025614, 4131.15384588, 4199.48717935,8.57
4113.07692280, 4122.69230742, 4115.64102537, 4122.43589716, 4122.17948691, 4160.38461518, 4148.71794851, 4153.71794851, 4172.56410243, 4129.23076896, 4128.58974332, 4110.51282024, 4128.33333306, 4194.99999986,8.57
4127.94871767, 4125.64102537, 4128.46153819, 4124.48717921, 4123.71794844, 4148.71794851, 4143.84615364, 4149.10256390, 4175.51282038, 4128.20512793, 4133.20512793, 4120.89743562, 4133.07692280, 4196.79487166,8.57
4123.33333306, 4119.48717921, 4122.82051255, 4122.05128178, 4123.58974332, 4154.99999980, 4150.89743569, 4153.97435877, 4172.17948704, 4128.20512793, 4134.87179460, 4119.48717921, 4131.41025614, 4192.56410243,8.57
4123.20512793, 4125.12820485, 4124.35897408, 4123.20512793, 4126.53846126, 4184.99999986, 4182.17948704, 4186.79487166, 4202.05128199, 4127.69230742, 4134.61538434, 4113.07692280, 4127.69230742, 4190.89743576,8.57
4126.92307665, 4129.10256383, 4129.74358947, 4125.76923050, 4121.28205101, 4206.92307686, 4203.46153840, 4207.43589737, 4225.51282045, 4128.46153819, 4135.38461518, 4122.94871767, 4132.43589716, 4196.15384602,8.57
4123.58974332, 4121.53846126, 4120.89743562, 4121.92307665, 4119.23076896, 4191.92307679, 4185.38461525, 4181.41025628, 4190.64102551, 4130.38461511, 4132.30769203, 4118.33333306, 4131.41025614, 4195.89743576,8.57
4129.10256383, 4124.35897408, 4128.33333306, 4126.41025614, 4124.10256383, 4170.51282038, 4161.53846133, 4152.30769210, 4159.61538441, 4128.71794844, 4131.92307665, 4123.07692280, 4131.02564075, 4197.17948704,8.57
4116.28205101, 4123.33333306, 4123.84615357, 4124.61538434, 4121.41025614, 4175.51282038, 4165.38461518, 4162.56410236, 4180.76923063, 4127.17948691, 4132.69230742, 4123.46153819, 4132.05128178, 4195.89743576,8.57
4121.66666639, 4126.02564075, 4123.33333306, 4122.17948691, 4123.97435870, 4193.46153833, 4185.38461525, 4186.15384602, 4207.94871788, 4128.71794844, 4132.56410229, 4118.33333306, 4132.56410229, 4197.82051269,8.57
4129.10256383, 4126.28205101, 4127.05128178, 4124.61538434, 4124.87179460, 4212.05128199, 4202.30769224, 4199.99999986, 4220.25641019, 4128.58974332, 4137.30769210, 4129.10256383, 4134.10256383, 4199.74358961,8.57
4118.71794844, 4118.71794844, 4116.79487152, 4122.30769203, 4121.28205101, 4226.41025634, 4212.69230763, 4213.33333327, 4233.97435898, 4127.05128178, 4136.66666646, 4121.66666639, 4131.41025614, 4197.82051269,8.57
4129.23076896, 4124.23076896, 4125.64102537, 4127.43589716, 4123.71794844, 4233.33333327, 4224.10256404, 4230.38461532, 4250.76923077, 4128.71794844, 4135.64102544, 4121.92307665, 4133.58974332, 4204.10256404,8.57
4122.43589716, 4123.71794844, 4121.66666639, 4124.61538434, 4121.28205101, 4236.53846154, 4231.66666660, 4238.71794872, 4258.46153847, 4130.38461511, 4138.20512800, 4125.38461511, 4133.71794844, 4198.33333320,8.57
4119.10256383, 4119.35897408, 4117.69230742, 4118.71794844, 4122.43589716, 4234.61538462, 4225.25641019, 4230.76923070, 4248.46153847, 4129.35897408, 4135.89743569, 4116.53846126, 4131.41025614, 4192.69230756,8.57
4124.61538434, 4123.46153819, 4125.51282024, 4122.56410229, 4124.10256383, 4229.74358968, 4220.12820506, 4220.38461532, 4237.82051282, 4129.10256383, 4135.64102544, 4122.69230742, 4136.02564082, 4197.82051269,8.57
4113.58974332, 4124.74358947, 4116.92307665, 4119.61538434, 4122.05128178, 4222.30769224, 4214.35897429, 4208.97435891, 4226.53846147, 4128.58974332, 4134.61538434, 4116.15384588, 4131.28205101, 4195.25641012,8.57
4123.07692280, 4126.92307665, 4123.97435870, 4121.02564075, 4125.38461511, 4207.56410250, 4196.66666653, 4189.23076910, 4202.94871788, 4128.20512793, 4132.30769203, 4114.48717921, 4128.07692280, 4197.17948704,8.57
4121.79487152, 4121.53846126, 4125.76923050, 4124.61538434, 4124.23076896, 4206.41025634, 4196.28205115, 4191.41025628, 4204.10256404, 4128.58974332, 4131.15384588, 4121.15384588, 4132.30769203, 4194.48717935,8.57
4118.07692280, 4122.82051255, 4120.38461511, 4122.30769203, 4123.97435870, 4225.76923070, 4219.10256404, 4219.99999993, 4233.71794865, 4127.56410229, 4131.28205101, 4113.20512793, 4131.92307665, 4191.66666653,8.57
4124.35897408, 4129.10256383, 4126.79487152, 4121.41025614, 4123.84615357, 4236.15384616, 4227.69230763, 4231.53846147, 4246.66666667, 4127.05128178, 4137.69230749, 4117.56410229, 4133.07692280, 4194.87179474,8.57
4115.89743562, 4120.76923050, 4121.41025614, 4119.23076896, 4121.66666639, 4232.43589737, 4223.84615378, 4227.94871788, 4249.35897436, 4126.02564075, 4137.82051262, 4116.41025614, 4129.87179460, 4190.12820499,8.57
4127.30769203, 4124.10256383, 4126.28205101, 4125.12820485, 4126.92307665, 4241.92307693, 4237.43589744, 4239.87179488, 4263.71794872, 4125.64102537, 4134.61538434, 4117.82051255, 4129.61538434, 4193.07692294,8.57
4125.38461511, 4127.30769203, 4124.35897408, 4125.25640998, 4125.89743562, 4260.51282052, 4250.25641026, 4247.17948718, 4266.79487187, 4127.69230742, 4136.79487159, 4124.87179460, 4134.23076896, 4197.43589730,8.57
4116.66666639, 4123.33333306, 4118.33333306, 4117.82051255, 4123.46153819, 4250.25641026, 4232.82051275, 4224.74358968, 4241.02564103, 4129.61538434, 4136.53846133, 4116.66666639, 4132.43589716, 4194.74358961,8.57
4130.12820485, 4128.07692280, 4127.69230742, 4122.82051255, 4123.20512793, 4224.10256404, 4215.64102558, 4209.87179481, 4226.53846147, 4127.43589716, 4136.92307672, 4123.46153819, 4133.71794844, 4197.69230756,8.57
4123.58974332, 4124.74358947, 4117.69230742, 4124.74358947, 4121.66666639, 4232.94871788, 4232.94871788, 4230.25641019, 4248.97435898, 4125.12820485, 4135.64102544, 4122.82051255, 4134.35897408, 4197.43589730,8.57
4124.87179460, 4123.33333306, 4120.51282024, 4123.58974332, 4126.92307665, 4250.64102564, 4243.97435898, 4237.43589744, 4254.61538462, 4127.17948691, 4135.64102544, 4118.58974332, 4134.23076896, 4197.69230756,8.57
4126.53846126, 4123.20512793, 4126.15384588, 4120.64102537, 4124.61538434, 4230.76923070, 4217.56410250, 4216.02564096, 4233.84615385, 4127.30769203, 4136.92307672, 4126.92307665, 4133.58974332, 4197.43589730,8.57
4121.41025614, 4121.02564075, 4115.89743562, 4119.61538434, 4121.79487152, 4209.35897429, 4200.76923063, 4213.84615378, 4242.94871795, 4125.12820485, 4133.46153819, 4117.56410229, 4128.46153819, 4197.94871781,8.57
4127.82051255, 4123.97435870, 4120.89743562, 4127.69230742, 4125.76923050, 4212.30769224, 4205.38461532, 4224.48717942, 4256.15384616, 4126.02564075, 4135.12820485, 4119.99999973, 4133.71794844, 4204.10256404,8.57
4113.58974332, 4119.87179460, 4115.64102537, 4121.79487152, 4124.10256383, 4208.33333327, 4196.92307679, 4207.05128199, 4229.99999993, 4127.30769203, 4137.05128185, 4120.12820485, 4134.61538434, 4196.28205115,8.57
4117.82051255, 4122.05128178, 4120.38461511, 4118.46153819, 4125.25640998, 4201.92307686, 4191.66666653, 4190.64102551, 4211.66666660, 4127.43589716, 4134.23076896, 4113.84615357, 4128.33333306, 4193.07692294,8.57
4125.38461511, 4122.94871767, 4127.17948691, 4125.25640998, 4123.58974332, 4213.84615378, 4204.87179481, 4202.94871788, 4220.64102558, 4127.43589716, 4132.69230742, 4121.92307665, 4131.28205101, 4199.35897422,8.57
4112.82051255, 4116.15384588, 4116.53846126, 4121.66666639, 4121.92307665, 4217.43589737, 4205.51282045, 4205.76923070, 4215.89743583, 4125.89743562, 4131.66666639, 4114.10256383, 4130.51282024, 4193.97435884,8.57
4120.51282024, 4121.79487152, 4124.10256383, 4121.79487152, 4124.35897408, 4198.46153833, 4192.82051269, 4192.43589730, 4207.17948711, 4124.99999973, 4133.84615357, 4116.41025614, 4130.64102537, 4191.79487166,8.57
4118.97435870, 4123.84615357, 4121.28205101, 4121.53846126, 4121.41025614, 4188.71794858, 4191.66666653, 4189.35897422, 4210.76923070, 4126.92307665, 4134.23076896, 4119.61538434, 4131.28205101, 4191.02564089,8.57
4121.41025614, 4127.56410229, 4121.15384588, 4120.89743562, 4125.38461511, 4197.43589730, 4193.84615371, 4189.61538448, 4208.33333327, 4127.82051255, 4130.38461511, 4112.17948691, 4126.79487152, 4191.53846140,8.57
4125.25640998, 4127.94871767, 4126.53846126, 4123.58974332, 4126.28205101, 4196.41025628, 4189.61538448, 4187.17948704, 4206.41025634, 4129.23076896, 4131.79487152, 4121.15384588, 4129.87179460, 4194.74358961,8.57
4116.41025614, 4117.82051255, 4115.89743562, 4121.41025614, 4123.07692280, 4187.43589730, 4189.61538448, 4192.43589730, 4216.02564096, 4128.20512793, 4134.23076896, 4118.20512793, 4131.66666639, 4192.69230756,8.57
4130.25640998, 4124.87179460, 4129.61538434, 4125.38461511, 4127.05128178, 4191.02564089, 4190.76923063, 4196.53846140, 4216.02564096, 4125.76923050, 4135.12820485, 4119.10256383, 4132.05128178, 4196.28205115,8.57
4125.12820485, 4128.20512793, 4129.74358947, 4124.99999973, 4123.46153819, 4196.02564089, 4188.07692294, 4189.10256397, 4205.25641019, 4126.53846126, 4132.82051255, 4125.12820485, 4132.17948691, 4197.05128192,8.57
4120.12820485, 4125.25640998, 4118.46153819, 4120.76923050, 4122.30769203, 4187.56410243, 4186.92307679, 4182.69230756, 4203.33333327, 4128.46153819, 4129.74358947, 4119.74358947, 4130.25640998, 4196.79487166,8.57
4128.84615357, 4125.89743562, 4125.12820485, 4122.82051255, 4122.94871767, 4179.23076910, 4184.74358961, 4182.82051269, 4207.94871788, 4129.23076896, 4134.23076896, 4127.56410229, 4133.20512793, 4199.74358961,8.57
4115.76923050, 4122.30769203, 4117.56410229, 4118.46153819, 4118.97435870, 4177.94871781, 4178.20512807, 4183.71794858, 4204.23076917, 4127.94871767, 4133.71794844, 4121.92307665, 4130.51282024, 4197.94871781,8.57
4122.17948691, 4126.66666639, 4120.89743562, 4120.64102537, 4123.33333306, 4168.33333320, 4167.69230749, 4179.10256397, 4192.94871781, 4127.17948691, 4131.53846126, 4119.61538434, 4131.92307665, 4203.20512814,8.57
4122.43589716, 4123.97435870, 4120.64102537, 4123.20512793, 4124.99999973, 4156.02564082, 4161.53846133, 4171.28205115, 4188.58974345, 4127.56410229, 4134.99999973, 4124.99999973, 4136.92307672, 4200.64102551,8.57
4117.94871767, 4118.97435870, 4116.02564075, 4119.87179460, 4125.38461511, 4161.92307672, 4170.12820499, 4173.07692294, 4199.61538448, 4126.41025614, 4132.56410229, 4115.76923050, 4133.84615357, 4195.12820499,8.57
4125.89743562, 4124.10256383, 4123.33333306, 4120.76923050, 4124.99999973, 4177.43589730, 4180.89743576, 4188.20512807, 4212.30769224, 4126.28205101, 4129.99999973, 4123.46153819, 4135.25640998, 4200.51282038,8.57
4114.35897408, 4119.87179460, 4114.99999973, 4116.92307665, 4121.02564075, 4179.23076910, 4178.20512807, 4187.69230756, 4202.17948711, 4128.97435870, 4130.12820485, 4120.38461511, 4133.84615357, 4195.51282038,8.57
4121.66666639, 4120.12820485, 4122.05128178, 4121.02564075, 4123.71794844, 4167.94871774, 4167.69230749, 4164.35897415, 4177.43589730, 4129.10256383, 4130.25640998, 4111.79487152, 4130.25640998, 4193.46153833,8.57
4122.56410229, 4123.07692280, 4126.41025614, 4125.25640998, 4123.07692280, 4163.46153826, 4160.51282031, 4154.35897415, 4170.38461525, 4126.41025614, 4131.02564075, 4118.46153819, 4130.76923050, 4194.10256397,8.57
4117.82051255, 4122.94871767, 4118.46153819, 4119.61538434, 4122.82051255, 4168.58974345, 4158.33333313, 4158.71794851, 4171.53846140, 4127.94871767, 4130.76923050, 4113.07692280, 4129.23076896, 4191.92307679,8.57
4131.41025614, 4126.92307665, 4127.94871767, 4122.94871767, 4124.99999973, 4163.84615364, 4156.66666646, 4155.64102544, 4167.17948697, 4128.46153819, 4132.69230742, 4118.58974332, 4131.02564075, 4194.99999986,8.57
4118.97435870, 4119.61538434, 4120.64102537, 4125.25640998, 4121.15384588, 4151.15384595, 4153.84615364, 4155.25641005, 4174.35897422, 4126.15384588, 4133.71794844, 4119.48717921, 4130.76923050, 4192.17948704,8.57
4121.41025614, 4121.28205101, 4121.28205101, 4123.20512793, 4123.97435870, 4150.38461518, 4157.56410236, 4164.87179467, 4188.97435884, 4127.56410229, 4133.20512793, 4113.46153819, 4128.97435870, 4194.48717935,8.57
4129.87179460, 4125.38461511, 4127.43589716, 4122.69230742, 4124.23076896, 4159.87179467, 4165.89743569, 4171.41025628, 4191.15384602, 4130.64102537, 4135.64102544, 4122.30769203, 4131.41025614, 4198.97435884,8.57
4120.25640998, 4118.58974332, 4117.94871767, 4122.94871767, 4121.79487152, 4163.33333313, 4170.76923063, 4173.46153833, 4182.43589730, 4129.48717921, 4135.89743569, 4118.07692280, 4130.51282024, 4193.20512807,8.57
4128.46153819, 4121.92307665, 4128.58974332, 4126.15384588, 4124.99999973, 4163.97435877, 4174.99999986, 4175.25641012, 4180.89743576, 4127.94871767, 4137.69230749, 4121.28205101, 4131.66666639, 4196.41025628,8.57
4124.23076896, 4123.33333306, 4126.28205101, 4121.28205101, 4122.56410229, 4175.76923063, 4180.38461525, 4180.64102551, 4193.33333320, 4129.23076896, 4138.58974339, 4126.15384588, 4132.17948691, 4199.61538448,8.57
4125.51282024, 4125.51282024, 4121.66666639, 4121.41025614, 4124.48717921, 4186.92307679, 4183.46153833, 4187.17948704, 4200.89743576, 4129.61538434, 4137.94871774, 4122.05128178, 4131.15384588, 4196.79487166,8.57
4128.20512793, 4126.66666639, 4127.05128178, 4127.05128178, 4124.10256383, 4181.79487166, 4174.99999986, 4176.66666653, 4185.51282038, 4128.84615357, 4138.71794851, 4128.07692280, 4132.82051255, 4196.79487166,8.57
4115.51282024, 4120.38461511, 4117.17948691, 4120.76923050, 4119.48717921, 4169.74358961, 4161.15384595, 4158.58974339, 4165.25641005, 4128.33333306, 4133.20512793, 4118.97435870, 4128.20512793, 4198.71794858,8.57
4126.79487152, 4125.12820485, 4123.97435870, 4123.58974332, 4124.10256383, 4160.89743569, 4156.02564082, 4155.51282031, 4162.69230749, 4129.99999973, 4130.76923050, 4121.41025614, 4131.15384588, 4204.61538455,8.57
4124.23076896, 4126.15384588, 4123.58974332, 4125.38461511, 4124.99999973, 4149.10256390, 4152.56410236, 4156.41025621, 4163.46153826, 4129.35897408, 4133.46153819, 4124.48717921, 4133.84615357, 4198.46153833,8.57
4118.07692280, 4122.69230742, 4117.56410229, 4120.89743562, 4123.97435870, 4134.23076896, 4140.12820492, 4147.82051262, 4157.43589723, 4124.74358947, 4131.02564075, 4108.97435870, 4127.05128178, 4194.48717935,8.57
4124.87179460, 4121.79487152, 4121.92307665, 4124.61538434, 4123.97435870, 4131.41025614, 4137.82051262, 4143.97435877, 4155.38461518, 4125.25640998, 4129.87179460, 4116.02564075, 4130.76923050, 4200.51282038,8.57
4114.87179460, 4118.07692280, 4115.64102537, 4122.05128178, 4122.30769203, 4142.82051262, 4154.10256390, 4154.23076903, 4162.94871774, 4128.33333306, 4131.02564075, 4116.66666639, 4132.05128178, 4194.61538448,8.57
4120.12820485, 4121.79487152, 4124.74358947, 4122.56410229, 4123.97435870, 4152.94871774, 4158.46153826, 4161.41025621, 4168.58974345, 4130.12820485, 4132.17948691, 4115.89743562, 4129.99999973, 4192.30769217,8.57
4122.82051255, 4119.74358947, 4125.51282024, 4121.53846126, 4123.46153819, 4156.02564082, 4152.69230749, 4158.58974339, 4168.46153833, 4130.38461511, 4130.76923050, 4119.61538434, 4132.05128178, 4193.33333320,8.57
4121.02564075, 4120.76923050, 4120.51282024, 4118.20512793, 4125.51282024, 4156.66666646, 4154.61538441, 4152.43589723, 4163.07692287, 4128.58974332, 4125.51282024, 4111.41025614, 4130.89743562, 4193.07692294,8.57
4125.64102537, 4128.33333306, 4129.23076896, 4125.89743562, 4124.74358947, 4155.76923056, 4153.58974339, 4150.64102544, 4156.02564082, 4127.82051255, 4128.71794844, 4120.25640998, 4132.17948691, 4194.35897422,8.57
4116.79487152, 4121.79487152, 4120.25640998, 4126.66666639, 4120.25640998, 4155.12820492, 4149.10256390, 4154.35897415, 4155.38461518, 4128.20512793, 4133.84615357, 4120.38461511, 4131.41025614, 4189.23076910,8.57
4127.17948691, 4122.82051255, 4123.71794844, 4125.89743562, 4125.89743562, 4160.25641005, 4157.56410236, 4158.07692287, 4160.64102544, 4127.56410229, 4132.30769203, 4115.25640998, 4131.53846126, 4191.41025628,8.57
4125.38461511, 4124.99999973, 4127.05128178, 4127.30769203, 4125.38461511, 4173.58974345, 4177.30769217, 4171.41025628, 4175.76923063, 4126.15384588, 4130.64102537, 4120.25640998, 4133.97435870, 4195.89743576,8.57
4116.02564075, 4123.20512793, 4118.58974332, 4122.30769203, 4124.10256383, 4183.07692294, 4188.07692294, 4190.12820499, 4195.89743576, 4126.28205101, 4130.51282024, 4115.64102537, 4130.89743562, 4194.87179474,8.57
4129.61538434, 4126.53846126, 4126.79487152, 4121.41025614, 4126.53846126, 4179.23076910, 4187.05128192, 4194.74358961, 4201.66666660, 4127.82051255, 4134.61538434, 4125.64102537, 4132.82051255, 4198.20512807,8.57
4122.56410229, 4122.82051255, 4121.28205101, 4118.84615357, 4122.17948691, 4173.84615371, 4183.33333320, 4182.56410243, 4188.71794858, 4127.94871767, 4133.46153819, 4124.74358947, 4133.20512793, 4198.07692294,8.57
4122.94871767, 4123.84615357, 4122.05128178, 4121.02564075, 4124.35897408, 4168.97435884, 4176.02564089, 4172.94871781, 4172.43589730, 4127.17948691, 4130.25640998, 4116.15384588, 4129.74358947, 4201.41025634,8.57
4123.07692280, 4122.30769203, 4125.12820485, 4123.71794844, 4124.48717921, 4155.12820492, 4161.02564082, 4172.30769217, 4171.28205115, 4126.02564075, 4132.56410229, 4125.12820485, 4132.30769203, 4201.53846147,8.57
4115.38461511, 4114.99999973, 4115.12820485, 4116.53846126, 4122.30769203, 4145.38461518, 4152.69230749, 4169.99999986, 4179.74358961, 4126.53846126, 4130.51282024, 4120.38461511, 4132.56410229, 4196.79487166,8.57
4128.97435870, 4120.76923050, 4123.71794844, 4116.92307665, 4124.48717921, 4150.25641005, 4155.51282031, 4164.61538441, 4175.12820499, 4127.94871767, 4130.38461511, 4124.10256383, 4132.43589716, 4202.56410250,8.57
4128.97435870, 4120.76923050, 4123.71794844, 4116.92307665, 4124.48717921, 4150.25641005, 4155.51282031, 4164.61538441, 4175.12820499, 4127.94871767, 4130.38461511, 4124.10256383, 4132.43589716, 4202.56410250,8.57
4120.64102537, 4122.05128178, 4122.30769203, 4118.20512793, 4121.41025614, 4155.38461518, 4154.35897415, 4159.61538441, 4162.43589723, 4127.94871767, 4131.02564075, 4123.71794844, 4132.05128178, 4198.71794858,8.57
4119.74358947, 4121.92307665, 4121.53846126, 4121.15384588, 4123.84615357, 4158.33333313, 4157.94871774, 4161.92307672, 4166.41025621, 4126.79487152, 4128.20512793, 4112.82051255, 4131.53846126, 4193.84615371,8.57
4126.15384588, 4122.82051255, 4127.30769203, 4124.74358947, 4125.38461511, 4165.51282031, 4169.61538448, 4172.56410243, 4180.51282038, 4128.46153819, 4128.71794844, 4119.74358947, 4133.46153819, 4196.28205115,8.57
4114.87179460, 4118.58974332, 4120.64102537, 4120.64102537, 4123.84615357, 4169.10256397, 4174.61538448, 4179.10256397, 4181.53846140, 4129.10256383, 4129.99999973, 4114.35897408, 4130.12820485, 4191.53846140,8.57
4124.23076896, 4122.94871767, 4128.07692280, 4125.12820485, 4126.15384588, 4167.17948697, 4174.23076910, 4176.02564089, 4174.74358961, 4126.66666639, 4132.30769203, 4115.89743562, 4131.28205101, 4193.33333320,8.57
4121.02564075, 4120.12820485, 4124.48717921, 4125.76923050, 4123.46153819, 4162.56410236, 4174.87179474, 4174.99999986, 4181.79487166, 4126.28205101, 4131.53846126, 4120.25640998, 4132.05128178, 4193.46153833,8.57
4119.10256383, 4119.35897408, 4122.05128178, 4120.38461511, 4123.71794844, 4154.87179467, 4159.99999980, 4171.28205115, 4188.58974345, 4128.58974332, 4128.20512793, 4112.05128178, 4127.94871767, 4191.41025628,8.57
4127.82051255, 4124.35897408, 4128.71794844, 4123.33333306, 4123.84615357, 4150.51282031, 4134.48717921, 4159.10256390, 4177.82051269, 4128.84615357, 4131.28205101, 4121.79487152, 4131.79487152, 4194.87179474,8.57
4119.99999973, 4120.38461511, 4118.33333306, 4123.84615357, 4121.41025614, 4154.48717928, 4133.46153819, 4157.82051262, 4168.46153833, 4126.02564075, 4132.82051255, 4120.25640998, 4130.89743562, 4193.46153833,8.57
4127.17948691, 4124.99999973, 4127.69230742, 4126.28205101, 4125.64102537, 4157.56410236, 4144.35897415, 4162.94871774, 4168.58974345, 4125.25640998, 4131.66666639, 4119.61538434, 4130.25640998, 4197.17948704,8.57
4123.20512793, 4124.87179460, 4130.38461511, 4126.15384588, 4125.25640998, 4157.05128185, 4139.99999980, 4157.69230749, 4164.10256390, 4129.74358947, 4130.25640998, 4126.53846126, 4132.30769203, 4197.30769217,8.57
4119.23076896, 4121.92307665, 4123.07692280, 4121.41025614, 4124.87179460, 4158.58974339, 4139.99999980, 4158.20512800, 4161.02564082, 4132.05128178, 4127.82051255, 4117.56410229, 4129.10256383, 4194.23076910,8.57
4127.94871767, 4124.61538434, 4129.35897408, 4122.30769203, 4125.89743562, 4160.25641005, 4152.05128185, 4167.56410236, 4172.69230756, 4127.82051255, 4131.41025614, 4123.20512793, 4132.30769203, 4199.87179474,8.57
4116.66666639, 4119.99999973, 4118.84615357, 4119.10256383, 4123.46153819, 4157.43589723, 4154.48717928, 4168.58974345, 4179.10256397, 4124.61538434, 4132.69230742, 4123.84615357, 4133.20512793, 4200.12820499,8.57
4122.17948691, 4122.69230742, 4122.43589716, 4123.71794844, 4126.15384588, 4152.82051262, 4151.28205108, 4170.64102551, 4177.17948704, 4126.79487152, 4131.02564075, 4122.30769203, 4133.20512793, 4201.92307686,8.57
4123.07692280, 4122.43589716, 4124.48717921, 4126.66666639, 4123.58974332, 4155.25641005, 4154.48717928, 4178.97435884, 4186.28205115, 4130.25640998, 4132.69230742, 4126.28205101, 4134.74358947, 4201.66666660,8.57
4115.51282024, 4120.25640998, 4116.79487152, 4119.48717921, 4122.82051255, 4158.46153826, 4153.07692287, 4174.23076910, 4184.48717935, 4130.89743562, 4129.99999973, 4114.10256383, 4130.25640998, 4198.46153833,8.57
4123.58974332, 4126.02564075, 4124.61538434, 4122.17948691, 4126.41025614, 4151.79487159, 4144.99999980, 4161.92307672, 4167.43589723, 4129.10256383, 4129.61538434, 4117.94871767, 4133.07692280, 4200.25641012,8.57
4115.25640998, 4121.66666639, 4115.38461511, 4120.76923050, 4121.66666639, 4144.23076903, 4141.53846133, 4156.15384595, 4158.58974339, 4128.33333306, 4131.15384588, 4117.56410229, 4131.66666639, 4194.87179474,8.57
4121.66666639, 4122.30769203, 4119.10256383, 4120.76923050, 4121.79487152, 4140.89743569, 4134.74358947, 4148.20512800, 4152.05128185, 4129.87179460, 4129.61538434, 4111.15384588, 4126.66666639, 4196.02564089,8.57
4124.99999973, 4122.94871767, 4128.07692280, 4124.23076896, 4121.28205101, 4135.38461518, 4121.15384588, 4134.23076896, 4139.35897415, 4129.35897408, 4129.74358947, 4117.94871767, 4130.89743562, 4197.94871781,8.57
4115.12820485, 4119.23076896, 4120.12820485, 4120.12820485, 4121.28205101, 4128.46153819, 4114.61538434, 4124.48717921, 4134.99999973, 4125.64102537, 4130.51282024, 4111.53846126, 4130.38461511, 4191.53846140,8.57
4124.99999973, 4126.92307665, 4128.33333306, 4122.17948691, 4124.74358947, 4128.33333306, 4119.23076896, 4131.79487152, 4143.97435877, 4126.53846126, 4134.35897408, 4114.48717921, 4128.97435870, 4194.61538448,8.57
4122.17948691, 4127.69230742, 4126.66666639, 4123.71794844, 4122.94871767, 4130.51282024, 4122.82051255, 4144.23076903, 4149.87179467, 4129.48717921, 4133.97435870, 4116.15384588, 4129.10256383, 4195.12820499,8.57
4126.28205101, 4127.30769203, 4126.02564075, 4126.15384588, 4125.51282024, 4124.10256383, 4118.33333306, 4137.17948697, 4143.33333313, 4127.56410229, 4130.89743562, 4112.43589716, 4128.46153819, 4194.10256397,8.57
4126.02564075, 4127.17948691, 4128.20512793, 4126.92307665, 4123.71794844, 4118.07692280, 4117.56410229, 4128.46153819, 4138.46153826, 4125.89743562, 4133.58974332, 4123.33333306, 4131.66666639, 4197.05128192,8.57
4113.84615357, 4121.28205101, 4118.71794844, 4121.53846126, 4123.07692280, 4120.89743562, 4124.35897408, 4135.38461518, 4140.64102544, 4126.92307665, 4131.02564075, 4118.97435870, 4130.64102537, 4194.23076910,8.57
4128.58974332, 4124.87179460, 4129.23076896, 4125.76923050, 4128.07692280, 4120.76923050, 4124.10256383, 4134.87179460, 4137.05128185, 4129.23076896, 4128.97435870, 4120.76923050, 4130.76923050, 4196.02564089,8.57
4125.89743562, 4123.20512793, 4126.41025614, 4124.61538434, 4122.56410229, 4117.94871767, 4115.89743562, 4122.56410229, 4129.61538434, 4128.97435870, 4131.15384588, 4127.05128178, 4131.02564075, 4196.66666653,8.57
4122.56410229, 4121.53846126, 4118.46153819, 4120.38461511, 4122.94871767, 4120.12820485, 4117.82051255, 4123.84615357, 4129.10256383, 4127.05128178, 4129.61538434, 4122.05128178, 4129.35897408, 4197.17948704,8.57
4127.56410229, 4124.99999973, 4125.76923050, 4123.46153819, 4124.48717921, 4122.94871767, 4123.97435870, 4134.48717921, 4131.92307665, 4127.94871767, 4130.51282024, 4127.94871767, 4132.05128178, 4199.99999986,8.57
4114.23076896, 4121.92307665, 4120.76923050, 4120.25640998, 4120.25640998, 4119.99999973, 4114.48717921, 4130.12820485, 4131.53846126, 4127.43589716, 4131.15384588, 4119.48717921, 4130.76923050, 4197.82051269,8.57
4120.64102537, 4122.56410229, 4126.02564075, 4123.71794844, 4122.82051255, 4114.10256383, 4106.79487152, 4120.38461511, 4129.61538434, 4126.15384588, 4128.58974332, 4119.35897408, 4133.33333306, 4203.58974352,8.57
4120.64102537, 4120.89743562, 4122.05128178, 4125.76923050, 4121.28205101, 4116.92307665, 4118.46153819, 4124.87179460, 4134.10256383, 4127.05128178, 4128.33333306, 4125.89743562, 4134.35897408, 4201.15384609,8.57
4118.20512793, 4123.97435870, 4117.94871767, 4122.56410229, 4121.15384588, 4125.76923050, 4127.30769203, 4131.15384588, 4135.38461518, 4126.66666639, 4129.99999973, 4114.35897408, 4127.82051255, 4194.10256397,8.57
4123.84615357, 4127.17948691, 4126.79487152, 4124.61538434, 4121.92307665, 4125.25640998, 4121.28205101, 4128.07692280, 4128.97435870, 4125.51282024, 4132.82051255, 4118.84615357, 4130.38461511, 4195.51282038,8.57
4123.97435870, 4123.84615357, 4123.46153819, 4122.69230742, 4124.23076896, 4129.10256383, 4126.92307665, 4124.35897408, 4130.25640998, 4127.05128178, 4133.07692280, 4116.41025614, 4131.28205101, 4194.35897422,8.57
4127.69230742, 4126.53846126, 4127.94871767, 4123.58974332, 4121.53846126, 4124.23076896, 4119.10256383, 4124.10256383, 4128.84615357, 4128.58974332, 4134.23076896, 4123.71794844, 4133.84615357, 4199.10256397,8.57
4119.74358947, 4122.30769203, 4119.48717921, 4121.28205101, 4121.15384588, 4128.46153819, 4124.87179460, 4145.51282031, 4157.43589723, 4128.84615357, 4130.38461511, 4116.79487152, 4129.10256383, 4199.35897422,8.57
4130.25640998, 4124.87179460, 4125.51282024, 4126.79487152, 4124.10256383, 4138.58974339, 4139.61538441, 4160.38461518, 4175.64102551, 4129.61538434, 4131.66666639, 4123.20512793, 4129.23076896, 4199.23076910,8.57
4122.56410229, 4122.69230742, 4120.38461511, 4124.35897408, 4121.02564075, 4137.82051262, 4138.33333313, 4155.12820492, 4164.10256390, 4129.10256383, 4133.84615357, 4124.87179460, 4131.66666639, 4194.35897422,8.57
4120.76923050, 4123.58974332, 4122.43589716, 4122.56410229, 4125.25640998, 4131.41025614, 4127.17948691, 4142.56410236, 4148.58974339, 4127.05128178, 4131.28205101, 4116.92307665, 4130.25640998, 4198.97435884,8.57
4123.07692280, 4125.64102537, 4125.38461511, 4125.76923050, 4125.51282024, 4130.64102537, 4121.02564075, 4131.15384588, 4137.94871774, 4127.30769203, 4132.05128178, 4125.38461511, 4130.25640998, 4202.69230763,8.57
4115.12820485, 4121.28205101, 4113.20512793, 4119.10256383, 4119.48717921, 4132.56410229, 4123.71794844, 4128.33333306, 4130.64102537, 4127.43589716, 4130.89743562, 4116.66666639, 4128.33333306, 4195.12820499,8.57
4115.12820485, 4121.28205101, 4113.20512793, 4119.10256383, 4119.48717921, 4132.56410229, 4123.71794844, 4128.33333306, 4130.64102537, 4127.43589716, 4130.89743562, 4116.66666639, 4128.33333306, 4195.12820499,8.57
4125.76923050, 4123.84615357, 4123.58974332, 4120.25640998, 4123.07692280, 4134.35897408, 4127.56410229, 4131.15384588, 4130.38461511, 4125.89743562, 4129.48717921, 4114.48717921, 4132.69230742, 4199.23076910,8.57
4119.61538434, 4123.07692280, 4122.94871767, 4122.56410229, 4124.99999973, 4133.58974332, 4124.61538434, 4127.82051255, 4132.05128178, 4125.12820485, 4131.15384588, 4118.97435870, 4132.56410229, 4197.43589730,8.57
4119.23076896, 4124.10256383, 4121.02564075, 4121.92307665, 4126.41025614, 4123.46153819, 4118.71794844, 4125.38461511, 4136.79487159, 4126.02564075, 4132.43589716, 4113.07692280, 4127.56410229, 4192.69230756,8.57
4124.87179460, 4125.12820485, 4128.46153819, 4123.33333306, 4124.74358947, 4117.94871767, 4118.33333306, 4138.97435877, 4151.66666646, 4127.05128178, 4132.69230742, 4117.43589716, 4131.28205101, 4196.66666653,8.57
4112.17948691, 4119.74358947, 4118.07692280, 4118.97435870, 4121.41025614, 4129.10256383, 4127.17948691, 4151.28205108, 4157.82051262, 4127.43589716, 4129.61538434, 4113.84615357, 4131.53846126, 4194.48717935,8.57
4123.71794844, 4127.30769203, 4124.23076896, 4121.79487152, 4123.58974332, 4136.28205108, 4134.87179460, 4144.99999980, 4144.35897415, 4127.56410229, 4132.17948691, 4116.79487152, 4131.28205101, 4194.48717935,8.57
4126.02564075, 4125.51282024, 4127.56410229, 4123.58974332, 4122.17948691, 4130.12820485, 4132.69230742, 4132.56410229, 4134.23076896, 4127.69230742, 4134.87179460, 4119.74358947, 4130.89743562, 4194.23076910,8.57
4122.69230742, 4120.64102537, 4125.38461511, 4120.64102537, 4126.02564075, 4123.97435870, 4124.87179460, 4122.94871767, 4125.64102537, 4126.15384588, 4128.33333306, 4114.35897408, 4127.17948691, 4196.02564089,8.57
4126.53846126, 4126.02564075, 4129.61538434, 4122.30769203, 4127.69230742, 4125.51282024, 4123.20512793, 4120.64102537, 4115.89743562, 4126.53846126, 4128.46153819, 4124.61538434, 4130.12820485, 4198.97435884,8.57
4115.89743562, 4122.69230742, 4117.56410229, 4119.48717921, 4122.94871767, 4126.41025614, 4128.20512793, 4122.05128178, 4121.79487152, 4130.12820485, 4130.76923050, 4119.35897408, 4129.10256383, 4191.15384602,8.57
4126.28205101, 4124.74358947, 4125.25640998, 4122.82051255, 4127.43589716, 4123.33333306, 4126.15384588, 4121.41025614, 4129.48717921, 4128.84615357, 4128.71794844, 4118.33333306, 4128.84615357, 4193.71794858,8.57
4123.97435870, 4124.48717921, 4129.48717921, 4123.71794844, 4126.79487152, 4123.33333306, 4120.89743562, 4123.33333306, 4129.74358947, 4124.23076896, 4129.99999973, 4126.79487152, 4130.64102537, 4199.99999986,8.57
4115.38461511, 4121.53846126, 4118.33333306, 4121.28205101, 4123.97435870, 4123.97435870, 4122.82051255, 4124.23076896, 4129.10256383, 4123.84615357, 4130.89743562, 4116.66666639, 4127.30769203, 4199.48717935,8.57
4126.79487152, 4125.76923050, 4124.87179460, 4126.28205101, 4123.84615357, 4121.92307665, 4123.20512793, 4120.51282024, 4127.05128178, 4127.17948691, 4131.66666639, 4123.58974332, 4131.28205101, 4201.66666660,8.57
4119.10256383, 4121.28205101, 4120.12820485, 4119.10256383, 4120.25640998, 4119.87179460, 4115.51282024, 4120.89743562, 4127.43589716, 4128.71794844, 4129.48717921, 4123.58974332, 4133.58974332, 4199.48717935,8.57
4123.07692280, 4120.64102537, 4121.66666639, 4117.30769203, 4123.97435870, 4119.35897408, 4114.74358947, 4130.51282024, 4133.97435870, 4129.87179460, 4131.15384588, 4117.05128178, 4132.82051255, 4200.89743576,8.57
4122.82051255, 4122.56410229, 4121.92307665, 4122.82051255, 4125.76923050, 4122.56410229, 4126.53846126, 4138.84615364, 4140.89743569, 4128.58974332, 4134.99999973, 4123.20512793, 4133.84615357, 4200.12820499,8.57
4113.84615357, 4121.41025614, 4115.76923050, 4118.46153819, 4124.48717921, 4129.61538434, 4135.25640998, 4148.07692287, 4149.48717928, 4125.12820485, 4129.74358947, 4114.61538434, 4130.25640998, 4195.64102551,8.57
4123.84615357, 4123.33333306, 4125.89743562, 4121.15384588, 4125.12820485, 4131.92307665, 4136.15384595, 4158.07692287, 4160.12820492, 4126.79487152, 4128.46153819, 4119.10256383, 4133.07692280, 4199.48717935,8.57
4116.28205101, 4120.25640998, 4118.97435870, 4120.51282024, 4122.05128178, 4133.46153819, 4140.38461518, 4160.89743569, 4165.38461518, 4129.74358947, 4131.66666639, 4119.10256383, 4133.20512793, 4195.25641012,8.57
4121.28205101, 4124.48717921, 4122.30769203, 4119.10256383, 4123.58974332, 4139.74358954, 4144.23076903, 4154.61538441, 4159.61538441, 4127.43589716, 4130.25640998, 4108.97435870, 4129.87179460, 4193.20512807,8.57
4127.05128178, 4125.25640998, 4128.71794844, 4122.94871767, 4121.92307665, 4138.46153826, 4139.61538441, 4141.92307672, 4142.82051262, 4125.38461511, 4128.33333306, 4116.28205101, 4133.20512793, 4195.76923063,8.57
4114.87179460, 4119.99999973, 4118.33333306, 4122.30769203, 4122.05128178, 4133.20512793, 4138.46153826, 4137.05128185, 4135.25640998, 4127.69230742, 4128.33333306, 4112.17948691, 4130.38461511, 4191.66666653,8.57
4123.71794844, 4126.15384588, 4128.20512793, 4123.46153819, 4127.05128178, 4137.94871774, 4147.17948697, 4147.30769210, 4151.92307672, 4129.99999973, 4132.05128178, 4115.89743562, 4131.02564075, 4194.35897422,8.57
4122.30769203, 4122.94871767, 4124.87179460, 4122.17948691, 4124.87179460, 4145.25641005, 4149.35897415, 4159.23076903, 4166.28205108, 4128.46153819, 4132.94871767, 4120.64102537, 4133.46153819, 4194.87179474,8.57
4125.38461511, 4124.48717921, 4122.43589716, 4123.71794844, 4127.94871767, 4139.61538441, 4142.43589723, 4152.82051262, 4155.25641005, 4128.07692280, 4131.53846126, 4115.12820485, 4128.07692280, 4194.10256397,8.57
4127.17948691, 4129.10256383, 4130.51282024, 4124.61538434, 4126.28205101, 4135.76923056, 4145.38461518, 4143.71794851, 4144.35897415, 4130.38461511, 4133.46153819, 4123.46153819, 4128.71794844, 4199.87179474,8.57
4116.02564075, 4118.97435870, 4121.79487152, 4119.10256383, 4121.28205101, 4147.94871774, 4157.05128185, 4156.41025621, 4157.17948697, 4127.94871767, 4132.82051255, 4117.43589716, 4130.38461511, 4198.20512807,8.57
4129.35897408, 4121.28205101, 4128.97435870, 4126.15384588, 4125.51282024, 4153.97435877, 4158.46153826, 4167.17948697, 4167.94871774, 4123.33333306, 4133.71794844, 4120.76923050, 4132.30769203, 4197.56410243,8.57
4122.30769203, 4125.51282024, 4126.02564075, 4127.05128178, 4122.17948691, 4145.89743569, 4155.12820492, 4162.94871774, 4165.89743569, 4125.12820485, 4132.82051255, 4127.17948691, 4131.92307665, 4196.92307679,8.57
4116.79487152, 4123.46153819, 4119.48717921, 4119.87179460, 4121.92307665, 4145.51282031, 4157.30769210, 4160.12820492, 4162.17948697, 4128.07692280, 4129.74358947, 4117.30769203, 4130.89743562, 4200.25641012,8.57
4128.58974332, 4120.64102537, 4127.05128178, 4123.71794844, 4124.99999973, 4149.10256390, 4153.33333313, 4158.84615364, 4157.82051262, 4128.07692280, 4133.71794844, 4125.38461511, 4134.99999973, 4202.94871788,8.57
4117.17948691, 4117.05128178, 4117.82051255, 4120.64102537, 4121.66666639, 4144.10256390, 4147.30769210, 4155.12820492, 4154.48717928, 4126.53846126, 4132.82051255, 4121.02564075, 4132.69230742, 4194.87179474,8.57
4122.56410229, 4125.25640998, 4121.92307665, 4119.74358947, 4122.69230742, 4141.53846133, 4151.15384595, 4156.15384595, 4152.43589723, 4126.53846126, 4128.84615357, 4116.53846126, 4134.10256383, 4198.58974345,8.57
4121.66666639, 4125.51282024, 4122.43589716, 4121.92307665, 4123.20512793, 4144.48717928, 4154.61538441, 4157.94871774, 4151.15384595, 4128.84615357, 4131.02564075, 4120.76923050, 4135.89743569, 4199.23076910,8.57
4116.41025614, 4120.76923050, 4119.35897408, 4119.48717921, 4125.38461511, 4143.71794851, 4154.35897415, 4158.20512800, 4154.10256390, 4130.38461511, 4129.23076896, 4111.53846126, 4127.05128178, 4193.20512807,8.57
4125.76923050, 4123.71794844, 4129.23076896, 4121.92307665, 4125.89743562, 4141.79487159, 4156.02564082, 4167.17948697, 4164.23076903, 4127.17948691, 4128.97435870, 4118.46153819, 4126.53846126, 4193.84615371,8.57
4114.87179460, 4118.97435870, 4117.82051255, 4119.23076896, 4122.69230742, 4144.61538441, 4158.58974339, 4173.71794858, 4170.64102551, 4123.97435870, 4130.89743562, 4117.30769203, 4129.23076896, 4189.87179474,8.57
4119.87179460, 4124.74358947, 4122.43589716, 4120.51282024, 4125.76923050, 4150.12820492, 4165.51282031, 4170.89743576, 4172.17948704, 4126.79487152, 4130.51282024, 4113.33333306, 4128.58974332, 4193.46153833,8.57
4122.94871767, 4127.30769203, 4131.53846126, 4123.07692280, 4124.35897408, 4155.64102544, 4175.12820499, 4180.12820499, 4183.20512807, 4129.61538434, 4129.87179460, 4119.99999973, 4130.38461511, 4195.64102551,8.57
4119.23076896, 4121.92307665, 4122.94871767, 4119.23076896, 4124.87179460, 4157.56410236, 4182.30769217, 4191.66666653, 4186.15384602, 4126.41025614, 4127.69230742, 4112.56410229, 4129.48717921, 4191.02564089,8.57
4130.25640998, 4128.58974332, 4126.66666639, 4122.30769203, 4127.30769203, 4154.23076903, 4180.89743576, 4179.99999986, 4168.58974345, 4125.64102537, 4129.23076896, 4118.71794844, 4131.66666639, 4195.12820499,8.57
4120.12820485, 4126.02564075, 4121.66666639, 4120.25640998, 4119.87179460, 4152.30769210, 4174.74358961, 4167.17948697, 4158.20512800, 4129.99999973, 4130.25640998, 4121.15384588, 4130.51282024, 4194.61538448,8.57
4124.74358947, 4124.87179460, 4124.87179460, 4120.51282024, 4121.15384588, 4152.43589723, 4172.05128192, 4174.10256397, 4171.79487166, 4129.99999973, 4129.74358947, 4116.41025614, 4127.17948691, 4195.76923063,8.57
4128.84615357, 4126.66666639, 4128.07692280, 4124.35897408, 4122.56410229, 4152.56410236, 4171.28205115, 4179.99999986, 4184.10256397, 4126.66666639, 4132.82051255, 4124.35897408, 4132.17948691, 4199.35897422,8.57
4117.56410229, 4121.92307665, 4117.69230742, 4120.25640998, 4119.87179460, 4152.43589723, 4170.89743576, 4176.79487166, 4172.30769217, 4126.41025614, 4131.15384588, 4118.33333306, 4132.69230742, 4197.94871781,8.57
4128.46153819, 4123.71794844, 4128.58974332, 4121.66666639, 4122.56410229, 4151.28205108, 4170.64102551, 4173.58974345, 4159.48717928, 4128.20512793, 4128.20512793, 4123.33333306, 4130.64102537, 4202.05128199,8.57
4121.41025614, 4122.30769203, 4125.64102537, 4120.64102537, 4120.64102537, 4148.97435877, 4169.35897422, 4172.94871781, 4167.05128185, 4128.33333306, 4128.20512793, 4126.79487152, 4130.64102537, 4198.46153833,8.57
4117.17948691, 4123.33333306, 4120.12820485, 4120.76923050, 4122.94871767, 4147.43589723, 4170.89743576, 4175.51282038, 4178.84615371, 4128.07692280, 4128.84615357, 4118.46153819, 4133.97435870, 4198.58974345,8.57
4121.66666639, 4124.99999973, 4125.38461511, 4123.97435870, 4124.10256383, 4154.10256390, 4179.35897422, 4183.97435884, 4182.17948704, 4129.10256383, 4129.74358947, 4125.25640998, 4137.69230749, 4203.07692301,8.57
4114.48717921, 4121.41025614, 4118.46153819, 4118.97435870, 4122.17948691, 4163.33333313, 4189.61538448, 4192.69230756, 4184.10256397, 4128.58974332, 4126.28205101, 4116.15384588, 4131.15384588, 4195.51282038,8.57
4123.20512793, 4125.64102537, 4123.58974332, 4121.41025614, 4126.41025614, 4163.58974339, 4195.76923063, 4196.28205115, 4190.64102551, 4127.82051255, 4128.33333306, 4113.71794844, 4133.07692280, 4195.38461525,8.57
4117.56410229, 4124.35897408, 4120.76923050, 4120.64102537, 4126.15384588, 4164.74358954, 4199.48717935, 4197.94871781, 4193.97435884, 4128.97435870, 4131.28205101, 4120.51282024, 4138.46153826, 4195.51282038,8.57
4115.64102537, 4123.33333306, 4120.12820485, 4117.69230742, 4125.64102537, 4167.82051262, 4200.51282038, 4197.56410243, 4192.82051269, 4129.48717921, 4126.41025614, 4113.97435870, 4132.17948691, 4193.33333320,8.57
4125.76923050, 4125.25640998, 4127.43589716, 4122.69230742, 4124.48717921, 4164.74358954, 4199.23076910, 4197.43589730, 4195.38461525, 4128.58974332, 4126.41025614, 4118.58974332, 4130.12820485, 4195.51282038,8.57
4120.12820485, 4120.76923050, 4115.76923050, 4120.64102537, 4123.33333306, 4162.30769210, 4193.33333320, 4192.82051269, 4196.66666653, 4128.58974332, 4128.20512793, 4112.30769203, 4129.23076896, 4194.10256397,8.57
4126.15384588, 4127.43589716, 4123.71794844, 4119.87179460, 4126.15384588, 4162.69230749, 4184.48717935, 4180.89743576, 4186.92307679, 4128.97435870, 4128.33333306, 4113.33333306, 4130.38461511, 4195.51282038,8.57
4120.64102537, 4125.38461511, 4130.38461511, 4121.28205101, 4123.46153819, 4161.79487159, 4185.38461525, 4178.20512807, 4181.92307679, 4126.79487152, 4126.28205101, 4124.10256383, 4133.20512793, 4193.20512807,8.57
4118.71794844, 4120.64102537, 4124.61538434, 4121.15384588, 4121.02564075, 4160.38461518, 4188.84615371, 4185.25641012, 4187.17948704, 4124.99999973, 4123.84615357, 4115.76923050, 4131.53846126, 4190.64102551,8.57
4131.66666639, 4126.66666639, 4126.79487152, 4124.99999973, 4120.64102537, 4161.15384595, 4184.99999986, 4178.46153833, 4177.17948704, 4126.02564075, 4129.61538434, 4120.12820485, 4134.87179460, 4195.64102551,8.57
4119.35897408, 4121.92307665, 4117.82051255, 4121.02564075, 4121.02564075, 4163.84615364, 4185.64102551, 4168.84615371, 4164.87179467, 4127.56410229, 4130.25640998, 4120.38461511, 4133.07692280, 4194.61538448,8.57
4122.43589716, 4123.84615357, 4125.12820485, 4120.51282024, 4127.43589716, 4162.05128185, 4188.07692294, 4180.89743576, 4178.58974345, 4128.33333306, 4129.10256383, 4122.05128178, 4130.51282024, 4195.76923063,8.57
4126.92307665, 4125.38461511, 4124.87179460, 4122.69230742, 4123.71794844, 4154.61538441, 4182.69230756, 4194.48717935, 4198.71794858, 4129.35897408, 4131.92307665, 4129.23076896, 4133.33333306, 4196.02564089,8.57
4120.89743562, 4119.48717921, 4111.66666639, 4118.71794844, 4122.82051255, 4157.05128185, 4183.97435884, 4194.99999986, 4199.74358961, 4128.84615357, 4127.69230742, 4118.07692280, 4130.12820485, 4197.05128192,8.57
4127.43589716, 4123.46153819, 4125.12820485, 4121.79487152, 4126.41025614, 4165.25641005, 4189.61538448, 4196.53846140, 4190.89743576, 4127.30769203, 4126.02564075, 4124.87179460, 4131.92307665, 4203.84615378,8.57
4116.79487152, 4123.71794844, 4122.43589716, 4119.87179460, 4117.56410229, 4160.51282031, 4184.23076910, 4191.15384602, 4183.84615371, 4126.66666639, 4127.05128178, 4125.64102537, 4131.41025614, 4198.46153833,8.57
4121.15384588, 4123.46153819, 4119.23076896, 4121.53846126, 4118.71794844, 4152.69230749, 4181.41025628, 4178.71794858, 4177.94871781, 4128.07692280, 4124.61538434, 4117.43589716, 4127.82051255, 4197.94871781,8.57
4122.05128178, 4121.79487152, 4121.53846126, 4124.35897408, 4124.23076896, 4158.97435877, 4188.46153833, 4182.43589730, 4178.46153833, 4129.61538434, 4125.51282024, 4122.30769203, 4129.23076896, 4200.64102551,8.57
4111.41025614, 4120.25640998, 4115.76923050, 4117.30769203, 4123.58974332, 4165.64102544, 4197.43589730, 4195.25641012, 4182.56410243, 4127.43589716, 4126.02564075, 4113.07692280, 4127.94871767, 4194.48717935,8.57
4125.38461511, 4126.66666639, 4124.35897408, 4120.76923050, 4122.56410229, 4165.89743569, 4208.20512814, 4203.46153840, 4191.53846140, 4126.02564075, 4126.28205101, 4117.17948691, 4129.61538434, 4196.53846140,8.57
4120.12820485, 4123.33333306, 4117.43589716, 4122.17948691, 4119.99999973, 4171.28205115, 4216.66666660, 4217.56410250, 4213.84615378, 4127.17948691, 4125.51282024, 4119.10256383, 4128.46153819, 4194.87179474,8.57
4118.58974332, 4123.71794844, 4119.87179460, 4121.15384588, 4124.74358947, 4182.69230756, 4222.30769224, 4228.58974352, 4224.35897429, 4128.07692280, 4124.48717921, 4111.66666639, 4127.69230742, 4191.15384602,8.57
4122.69230742, 4126.41025614, 4128.97435870, 4122.56410229, 4123.33333306, 4186.92307679, 4224.74358968, 4225.64102558, 4214.74358968, 4128.84615357, 4126.66666639, 4121.02564075, 4132.17948691, 4191.02564089,8.57
4117.43589716, 4122.94871767, 4118.71794844, 4120.25640998, 4121.28205101, 4181.41025628, 4217.43589737, 4217.69230763, 4212.05128199, 4128.33333306, 4125.51282024, 4115.89743562, 4128.97435870, 4188.07692294,8.57
4131.53846126, 4129.35897408, 4126.79487152, 4124.35897408, 4127.05128178, 4181.28205115, 4208.71794865, 4209.35897429, 4215.89743583, 4127.30769203, 4126.66666639, 4116.53846126, 4128.46153819, 4194.35897422,8.57
4122.43589716, 4126.53846126, 4124.35897408, 4124.10256383, 4123.84615357, 4190.89743576, 4212.82051275, 4208.84615378, 4216.79487173, 4126.53846126, 4129.87179460, 4122.69230742, 4131.15384588, 4194.99999986,8.57
4118.97435870, 4123.71794844, 4119.99999973, 4122.05128178, 4123.58974332, 4191.66666653, 4218.07692301, 4215.25641019, 4212.43589737, 4126.79487152, 4127.94871767, 4119.10256383, 4132.05128178, 4192.69230756,8.57
