AF3,F7,F3,FC5,T7,P7,O1,O2,P8,T8,FC6,F4,F8,AF4,Label
4122.94871767, 4125.25640998, 4121.02564075, 4124.10256383, 4121.53846126, 4119.10256383, 4169.87179474, 4150.38461518, 4149.23076903, 4131.66666639, 4132.69230742, 4126.02564075, 4132.17948691, 4195.38461525,8.57
4124.10256383, 4123.58974332, 4120.51282024, 4121.02564075, 4122.05128178, 4115.12820485, 4166.53846133, 4146.92307672, 4140.38461518, 4129.87179460, 4131.79487152, 4123.20512793, 4127.43589716, 4194.99999986,8.57
4125.64102537, 4126.79487152, 4127.43589716, 4124.87179460, 4123.46153819, 4106.79487152, 4162.05128185, 4148.97435877, 4144.35897415, 4128.84615357, 4136.66666646, 4129.48717921, 4131.28205101, 4196.28205115,8.57
4110.38461511, 4120.51282024, 4114.48717921, 4122.05128178, 4122.17948691, 4102.43589709, 4161.02564082, 4150.12820492, 4155.64102544, 4128.97435870, 4135.25640998, 4124.61538434, 4131.02564075, 4193.71794858,8.57
4128.07692280, 4125.25640998, 4123.20512793, 4127.43589716, 4127.94871767, 4108.71794844, 4165.64102544, 4149.35897415, 4156.66666646, 4128.07692280, 4129.87179460, 4127.43589716, 4129.87179460, 4198.58974345,8.57
4122.05128178, 4123.20512793, 4120.51282024, 4126.28205101, 4121.15384588, 4116.41025614, 4168.71794858, 4152.69230749, 4158.46153826, 4127.94871767, 4131.79487152, 4133.71794844, 4132.69230742, 4194.99999986,8.57
4117.94871767, 4124.87179460, 4118.07692280, 4123.33333306, 4119.87179460, 4112.30769203, 4165.64102544, 4145.51282031, 4156.15384595, 4128.97435870, 4133.07692280, 4125.51282024, 4131.92307665, 4193.33333320,8.57
4128.20512793, 4128.46153819, 4130.38461511, 4127.30769203, 4126.41025614, 4102.30769196, 4159.74358954, 4127.94871767, 4132.17948691, 4131.02564075, 4132.82051255, 4128.46153819, 4131.28205101, 4197.30769217,8.57
4114.35897408, 4119.87179460, 4118.07692280, 4123.20512793, 4123.07692280, 4102.17948684, 4158.97435877, 4124.99999973, 4116.66666639, 4128.84615357, 4127.94871767, 4123.07692280, 4128.33333306, 4191.92307679,8.57
4126.15384588, 4126.15384588, 4120.76923050, 4124.23076896, 4126.02564075, 4112.30769203, 4168.46153833, 4142.69230749, 4132.94871767, 4126.66666639, 4126.79487152, 4122.17948691, 4132.43589716, 4195.89743576,8.57
4123.33333306, 4124.10256383, 4124.61538434, 4124.48717921, 4123.71794844, 4112.17948691, 4170.76923063, 4152.30769210, 4144.10256390, 4128.97435870, 4131.66666639, 4129.10256383, 4135.38461518, 4197.94871781,8.57
4118.84615357, 4121.28205101, 4123.20512793, 4123.97435870, 4119.87179460, 4096.53846119, 4156.15384595, 4137.17948697, 4129.74358947, 4129.61538434, 4130.12820485, 4119.48717921, 4127.94871767, 4194.10256397,8.57
4130.51282024, 4130.12820485, 4129.10256383, 4127.05128178, 4122.94871767, 4096.15384581, 4152.69230749, 4134.87179460, 4136.92307672, 4128.84615357, 4131.53846126, 4127.43589716, 4132.69230742, 4198.71794858,8.57
4117.17948691, 4123.71794844, 4117.69230742, 4121.66666639, 4120.64102537, 4110.51282024, 4162.82051262, 4154.23076903, 4160.89743569, 4126.92307665, 4133.97435870, 4129.99999973, 4135.89743569, 4196.28205115,8.57
4128.84615357, 4124.87179460, 4127.56410229, 4124.74358947, 4124.23076896, 4111.02564075, 4159.99999980, 4154.74358954, 4149.87179467, 4126.79487152, 4132.56410229, 4122.94871767, 4129.74358947, 4196.15384602,8.57
4126.41025614, 4125.51282024, 4128.97435870, 4126.28205101, 4123.97435870, 4108.07692280, 4156.41025621, 4150.76923056, 4142.94871774, 4129.87179460, 4130.89743562, 4129.61538434, 4132.05128178, 4198.71794858,8.57
4114.48717921, 4124.61538434, 4116.92307665, 4121.02564075, 4122.30769203, 4115.64102537, 4166.92307672, 4163.97435877, 4167.17948697, 4129.23076896, 4129.35897408, 4126.28205101, 4133.97435870, 4196.41025628,8.57
4128.58974332, 4130.38461511, 4126.41025614, 4124.74358947, 4127.05128178, 4119.23076896, 4170.38461525, 4156.28205108, 4158.33333313, 4126.66666639, 4133.97435870, 4130.38461511, 4133.46153819, 4197.43589730,8.57
4117.17948691, 4121.92307665, 4119.99999973, 4121.28205101, 4123.46153819, 4116.28205101, 4162.69230749, 4132.69230742, 4120.38461511, 4126.66666639, 4134.87179460, 4131.41025614, 4130.76923050, 4194.23076910,8.57
4123.84615357, 4124.10256383, 4123.20512793, 4122.82051255, 4124.35897408, 4110.76923050, 4156.02564082, 4127.82051255, 4109.48717921, 4128.33333306, 4128.58974332, 4125.64102537, 4132.05128178, 4196.79487166,8.57
4124.48717921, 4125.12820485, 4123.84615357, 4124.87179460, 4124.23076896, 4106.02564075, 4151.92307672, 4128.07692280, 4117.30769203, 4129.35897408, 4129.10256383, 4130.64102537, 4133.97435870, 4198.71794858,8.57
4112.69230742, 4118.84615357, 4115.76923050, 4120.12820485, 4122.94871767, 4108.20512793, 4153.07692287, 4130.51282024, 4124.61538434, 4128.58974332, 4129.99999973, 4124.87179460, 4126.92307665, 4195.12820499,8.57
4129.35897408, 4129.35897408, 4131.53846126, 4126.02564075, 4126.66666639, 4112.94871767, 4158.71794851, 4155.12820492, 4142.69230749, 4127.17948691, 4131.53846126, 4125.76923050, 4129.35897408, 4198.33333320,8.57
4119.61538434, 4126.02564075, 4124.99999973, 4122.94871767, 4120.25640998, 4111.92307665, 4161.53846133, 4179.23076910, 4164.99999980, 4126.66666639, 4133.07692280, 4126.02564075, 4132.69230742, 4194.61538448,8.57
4123.07692280, 4123.46153819, 4122.43589716, 4121.66666639, 4123.33333306, 4102.82051255, 4155.64102544, 4175.76923063, 4173.97435884, 4127.69230742, 4130.12820485, 4121.53846126, 4127.56410229, 4193.71794858,8.57
4129.87179460, 4123.58974332, 4126.28205101, 4127.69230742, 4127.05128178, 4092.69230735, 4144.35897415, 4159.35897415, 4162.56410236, 4129.23076896, 4130.38461511, 4131.28205101, 4130.51282024, 4197.05128192,8.57
4118.07692280, 4117.30769203, 4118.20512793, 4121.79487152, 4118.71794844, 4091.28205094, 4135.38461518, 4143.07692287, 4133.33333306, 4129.87179460, 4129.10256383, 4124.87179460, 4129.61538434, 4193.46153833,8.57
4132.17948691, 4125.89743562, 4131.28205101, 4119.87179460, 4121.53846126, 4086.53846119, 4123.58974332, 4121.79487152, 4105.64102537, 4129.48717921, 4129.10256383, 4121.66666639, 4129.35897408, 4194.87179474,8.57
4121.79487152, 4124.48717921, 4125.51282024, 4119.99999973, 4123.20512793, 4077.69230735, 4114.61538434, 4108.71794844, 4098.84615350, 4129.35897408, 4130.64102537, 4129.61538434, 4133.46153819, 4193.33333320,8.57
4118.97435870, 4123.84615357, 4119.87179460, 4121.79487152, 4125.38461511, 4096.28205094, 4133.58974332, 4119.23076896, 4105.89743562, 4129.35897408, 4128.46153819, 4126.02564075, 4133.71794844, 4196.15384602,8.57
4126.41025614, 4124.74358947, 4125.38461511, 4122.43589716, 4125.89743562, 4128.07692280, 4156.92307672, 4132.05128178, 4112.30769203, 4128.46153819, 4133.07692280, 4129.99999973, 4134.61538434, 4202.43589737,8.57
4113.71794844, 4118.46153819, 4114.87179460, 4117.30769203, 4122.43589716, 4120.12820485, 4148.46153826, 4130.64102537, 4120.89743562, 4127.43589716, 4133.20512793, 4126.53846126, 4131.41025614, 4196.02564089,8.57
4128.58974332, 4127.43589716, 4127.30769203, 4124.48717921, 4127.94871767, 4098.71794837, 4138.97435877, 4134.23076896, 4132.82051255, 4128.84615357, 4129.61538434, 4126.15384588, 4131.79487152, 4196.15384602,8.57
4121.66666639, 4123.58974332, 4126.02564075, 4126.28205101, 4123.07692280, 4109.74358947, 4153.58974339, 4151.15384595, 4144.99999980, 4130.51282024, 4132.30769203, 4131.15384588, 4134.74358947, 4196.79487166,8.57
4114.48717921, 4121.28205101, 4116.28205101, 4123.07692280, 4120.89743562, 4115.12820485, 4152.43589723, 4154.10256390, 4144.35897415, 4129.35897408, 4131.92307665, 4123.97435870, 4130.51282024, 4193.20512807,8.57
4123.71794844, 4127.94871767, 4124.87179460, 4126.92307665, 4126.79487152, 4094.61538427, 4134.61538434, 4144.23076903, 4134.23076896, 4128.84615357, 4131.28205101, 4127.30769203, 4132.30769203, 4194.23076910,8.57
4112.82051255, 4120.25640998, 4119.23076896, 4124.35897408, 4120.89743562, 4087.30769196, 4134.23076896, 4147.17948697, 4136.92307672, 4128.84615357, 4131.15384588, 4124.48717921, 4132.56410229, 4192.30769217,8.57
4126.79487152, 4125.89743562, 4125.64102537, 4127.43589716, 4122.82051255, 4097.17948684, 4140.25641005, 4150.51282031, 4142.43589723, 4127.30769203, 4129.87179460, 4124.61538434, 4130.76923050, 4195.76923063,8.57
4123.58974332, 4127.94871767, 4124.99999973, 4127.94871767, 4126.41025614, 4103.58974332, 4138.07692287, 4147.30769210, 4137.94871774, 4126.92307665, 4131.15384588, 4130.38461511, 4131.66666639, 4195.76923063,8.57
4117.30769203, 4122.94871767, 4121.92307665, 4124.74358947, 4124.74358947, 4104.10256383, 4138.20512800, 4143.33333313, 4128.07692280, 4129.10256383, 4128.84615357, 4121.92307665, 4129.48717921, 4194.48717935,8.57
4129.35897408, 4126.53846126, 4131.41025614, 4127.30769203, 4122.82051255, 4105.38461511, 4143.84615364, 4142.17948697, 4128.07692280, 4129.48717921, 4130.25640998, 4128.33333306, 4132.69230742, 4199.87179474,8.57
4113.71794844, 4124.48717921, 4115.64102537, 4123.46153819, 4119.61538434, 4113.58974332, 4152.30769210, 4154.23076903, 4145.25641005, 4128.33333306, 4132.56410229, 4128.33333306, 4131.92307665, 4197.43589730,8.57
4123.33333306, 4129.23076896, 4120.51282024, 4125.89743562, 4124.99999973, 4117.56410229, 4151.53846133, 4158.07692287, 4139.99999980, 4130.25640998, 4130.38461511, 4125.38461511, 4129.99999973, 4197.17948704,8.57
4126.79487152, 4123.33333306, 4127.05128178, 4126.79487152, 4122.05128178, 4104.87179460, 4130.38461511, 4121.92307665, 4092.94871761, 4132.30769203, 4129.61538434, 4134.61538434, 4134.48717921, 4195.64102551,8.57
4117.30769203, 4117.43589716, 4116.66666639, 4121.15384588, 4119.99999973, 4096.66666632, 4120.64102537, 4097.82051248, 4073.33333299, 4128.71794844, 4128.46153819, 4124.10256383, 4132.43589716, 4193.33333320,8.57
4129.87179460, 4129.35897408, 4126.79487152, 4124.74358947, 4127.82051255, 4101.28205094, 4136.41025621, 4123.84615357, 4109.48717921, 4127.82051255, 4133.46153819, 4125.89743562, 4133.97435870, 4199.35897422,8.57
4116.79487152, 4125.38461511, 4122.17948691, 4122.56410229, 4121.15384588, 4092.56410222, 4129.99999973, 4127.56410229, 4115.38461511, 4130.76923050, 4134.10256383, 4130.64102537, 4133.33333306, 4195.38461525,8.57
4121.79487152, 4126.28205101, 4124.99999973, 4125.12820485, 4119.61538434, 4080.51282017, 4112.30769203, 4100.76923043, 4082.17948684, 4129.35897408, 4124.99999973, 4123.58974332, 4130.25640998, 4193.97435884,8.57
4124.61538434, 4128.46153819, 4128.07692280, 4126.92307665, 4123.33333306, 4098.07692273, 4133.07692280, 4121.66666639, 4100.38461504, 4129.10256383, 4125.64102537, 4128.84615357, 4134.10256383, 4193.71794858,8.57
4112.69230742, 4121.79487152, 4119.48717921, 4119.87179460, 4120.25640998, 4121.02564075, 4165.12820492, 4159.74358954, 4147.17948697, 4130.38461511, 4128.84615357, 4123.97435870, 4131.02564075, 4189.74358961,8.57
4130.51282024, 4128.33333306, 4131.02564075, 4125.51282024, 4123.33333306, 4121.66666639, 4163.46153826, 4157.94871774, 4148.33333313, 4128.97435870, 4127.30769203, 4126.53846126, 4130.12820485, 4196.66666653,8.57
4119.99999973, 4123.84615357, 4121.92307665, 4124.99999973, 4121.66666639, 4123.46153819, 4155.76923056, 4151.41025621, 4136.66666646, 4128.97435870, 4127.30769203, 4129.35897408, 4132.17948691, 4196.28205115,8.57
4121.41025614, 4122.69230742, 4120.64102537, 4122.82051255, 4121.53846126, 4124.10256383, 4158.71794851, 4156.02564082, 4143.33333313, 4131.02564075, 4130.25640998, 4122.82051255, 4131.53846126, 4195.25641012,8.57
4129.61538434, 4126.66666639, 4129.35897408, 4125.38461511, 4122.56410229, 4107.94871767, 4147.30769210, 4147.56410236, 4140.64102544, 4128.84615357, 4132.69230742, 4130.25640998, 4134.87179460, 4195.64102551,8.57
4112.82051255, 4122.30769203, 4115.76923050, 4121.28205101, 4120.12820485, 4095.89743555, 4132.30769203, 4137.30769210, 4124.61538434, 4125.38461511, 4127.05128178, 4128.20512793, 4132.82051255, 4192.82051269,8.57
4128.58974332, 4130.51282024, 4124.35897408, 4126.02564075, 4122.82051255, 4099.48717914, 4137.43589723, 4138.97435877, 4125.38461511, 4125.51282024, 4127.17948691, 4130.38461511, 4131.53846126, 4200.38461525,8.57
4122.94871767, 4126.15384588, 4121.15384588, 4124.10256383, 4119.48717921, 4112.82051255, 4154.99999980, 4151.41025621, 4144.87179467, 4126.15384588, 4131.15384588, 4128.33333306, 4132.94871767, 4197.43589730,8.57
4118.97435870, 4124.48717921, 4116.53846126, 4119.87179460, 4122.94871767, 4120.25640998, 4160.76923056, 4159.35897415, 4148.33333313, 4127.30769203, 4125.38461511, 4118.33333306, 4131.41025614, 4193.71794858,8.57
4128.20512793, 4130.12820485, 4125.38461511, 4123.84615357, 4127.05128178, 4112.69230742, 4152.56410236, 4151.15384595, 4141.28205108, 4127.30769203, 4125.51282024, 4130.38461511, 4133.84615357, 4198.97435884,8.57
4111.92307665, 4120.51282024, 4114.99999973, 4121.15384588, 4121.15384588, 4114.35897408, 4154.74358954, 4149.10256390, 4150.76923056, 4127.30769203, 4128.97435870, 4127.69230742, 4132.05128178, 4193.97435884,8.57
4125.76923050, 4126.15384588, 4123.71794844, 4124.23076896, 4125.89743562, 4119.87179460, 4158.46153826, 4150.64102544, 4148.46153826, 4128.20512793, 4128.97435870, 4126.41025614, 4131.79487152, 4193.84615371,8.57
4122.82051255, 4127.56410229, 4122.56410229, 4125.76923050, 4123.33333306, 4105.38461511, 4145.25641005, 4138.84615364, 4124.61538434, 4128.46153819, 4125.89743562, 4131.79487152, 4134.48717921, 4192.56410243,8.57
4117.30769203, 4123.33333306, 4119.87179460, 4125.38461511, 4118.84615357, 4093.46153812, 4135.89743569, 4134.35897408, 4120.51282024, 4127.30769203, 4121.41025614, 4120.76923050, 4131.02564075, 4192.94871781,8.57
4132.17948691, 4128.33333306, 4132.69230742, 4128.46153819, 4123.84615357, 4100.25640991, 4139.87179467, 4142.30769210, 4129.23076896, 4127.69230742, 4125.89743562, 4127.56410229, 4134.35897408, 4197.82051269,8.57
4119.23076896, 4125.25640998, 4117.69230742, 4122.56410229, 4122.43589716, 4105.25640998, 4141.41025621, 4141.15384595, 4122.69230742, 4128.84615357, 4126.66666639, 4128.20512793, 4132.94871767, 4191.28205115,8.57
4129.48717921, 4129.48717921, 4122.82051255, 4123.84615357, 4124.99999973, 4109.61538434, 4149.48717928, 4141.02564082, 4121.41025614, 4129.35897408, 4124.99999973, 4123.97435870, 4129.10256383, 4197.05128192,8.57
4124.48717921, 4124.99999973, 4125.12820485, 4122.69230742, 4123.97435870, 4123.71794844, 4164.87179467, 4157.43589723, 4138.71794851, 4130.51282024, 4129.35897408, 4129.10256383, 4131.53846126, 4200.38461525,8.57
4115.38461511, 4121.66666639, 4117.30769203, 4120.76923050, 4123.33333306, 4125.12820485, 4162.94871774, 4158.84615364, 4147.05128185, 4128.97435870, 4127.30769203, 4124.61538434, 4130.38461511, 4193.71794858,8.57
4132.94871767, 4131.53846126, 4129.48717921, 4128.84615357, 4126.79487152, 4119.10256383, 4152.05128185, 4148.84615364, 4144.61538441, 4127.43589716, 4128.20512793, 4132.82051255, 4133.46153819, 4196.02564089,8.57
4116.02564075, 4125.12820485, 4116.79487152, 4123.58974332, 4120.64102537, 4124.87179460, 4156.15384595, 4157.17948697, 4156.28205108, 4126.79487152, 4131.66666639, 4129.87179460, 4132.43589716, 4193.33333320,8.57
4120.51282024, 4127.17948691, 4119.74358947, 4124.61538434, 4123.71794844, 4125.25640998, 4159.61538441, 4166.79487159, 4168.33333320, 4125.51282024, 4128.33333306, 4121.53846126, 4131.66666639, 4196.66666653,8.57
4123.33333306, 4125.51282024, 4127.69230742, 4127.56410229, 4125.51282024, 4115.38461511, 4145.76923056, 4155.12820492, 4153.33333313, 4126.15384588, 4125.12820485, 4130.64102537, 4134.23076896, 4201.02564096,8.57
4110.38461511, 4117.82051255, 4117.30769203, 4119.87179460, 4122.05128178, 4107.94871767, 4133.46153819, 4138.46153826, 4133.20512793, 4127.17948691, 4124.99999973, 4125.76923050, 4127.94871767, 4197.56410243,8.57
4127.43589716, 4129.35897408, 4127.82051255, 4124.35897408, 4124.99999973, 4114.61538434, 4141.66666646, 4145.76923056, 4141.79487159, 4127.82051255, 4129.23076896, 4127.17948691, 4129.10256383, 4197.94871781,8.57
4118.71794844, 4123.58974332, 4121.66666639, 4124.61538434, 4120.38461511, 4128.07692280, 4157.69230749, 4161.66666646, 4154.23076903, 4128.84615357, 4129.74358947, 4126.53846126, 4130.89743562, 4193.84615371,8.57
4121.92307665, 4118.58974332, 4120.64102537, 4122.69230742, 4124.35897408, 4125.51282024, 4154.87179467, 4156.02564082, 4141.15384595, 4129.48717921, 4127.05128178, 4120.12820485, 4127.69230742, 4195.25641012,8.57
4127.30769203, 4124.35897408, 4124.87179460, 4124.99999973, 4126.79487152, 4113.58974332, 4142.43589723, 4141.28205108, 4129.87179460, 4127.43589716, 4128.58974332, 4129.10256383, 4133.07692280, 4195.64102551,8.57
4115.51282024, 4125.25640998, 4114.87179460, 4121.66666639, 4119.35897408, 4115.25640998, 4146.41025621, 4148.33333313, 4141.66666646, 4126.41025614, 4126.15384588, 4125.25640998, 4133.20512793, 4190.12820499,8.57
4130.38461511, 4131.02564075, 4126.92307665, 4123.58974332, 4122.05128178, 4121.79487152, 4153.84615364, 4163.58974339, 4148.97435877, 4128.84615357, 4126.41025614, 4127.17948691, 4130.76923050, 4197.05128192,8.57
4120.89743562, 4124.87179460, 4123.46153819, 4122.56410229, 4121.15384588, 4123.84615357, 4155.64102544, 4167.17948697, 4147.82051262, 4129.35897408, 4129.10256383, 4130.76923050, 4131.53846126, 4199.61538448,8.57
4120.25640998, 4126.66666639, 4121.28205101, 4125.51282024, 4122.05128178, 4129.35897408, 4163.84615364, 4173.84615371, 4159.74358954, 4126.41025614, 4124.74358947, 4124.87179460, 4130.51282024, 4198.20512807,8.57
4126.41025614, 4130.51282024, 4127.69230742, 4128.97435870, 4125.25640998, 4129.48717921, 4171.28205115, 4182.56410243, 4171.53846140, 4128.58974332, 4124.74358947, 4133.33333306, 4133.07692280, 4199.61538448,8.57
4111.02564075, 4121.53846126, 4117.56410229, 4121.79487152, 4121.02564075, 4131.66666639, 4173.71794858, 4186.02564089, 4175.38461525, 4130.64102537, 4126.53846126, 4129.23076896, 4131.02564075, 4195.64102551,8.57
4125.76923050, 4126.92307665, 4126.15384588, 4125.51282024, 4123.07692280, 4140.38461518, 4170.76923063, 4181.28205115, 4173.58974345, 4127.43589716, 4125.64102537, 4125.51282024, 4131.28205101, 4196.92307679,8.57
4120.64102537, 4124.74358947, 4122.43589716, 4126.15384588, 4119.74358947, 4139.23076903, 4163.71794851, 4169.35897422, 4168.71794858, 4127.43589716, 4124.87179460, 4130.25640998, 4134.87179460, 4197.43589730,8.57
4117.30769203, 4123.20512793, 4118.71794844, 4122.30769203, 4118.97435870, 4139.23076903, 4165.76923056, 4167.43589723, 4171.92307679, 4128.46153819, 4124.48717921, 4125.38461511, 4132.56410229, 4196.28205115,8.57
4129.61538434, 4129.74358947, 4128.20512793, 4124.61538434, 4124.35897408, 4148.07692287, 4166.79487159, 4180.25641012, 4183.84615371, 4128.46153819, 4127.43589716, 4128.84615357, 4133.71794844, 4193.71794858,8.57
4116.66666639, 4123.46153819, 4120.25640998, 4121.02564075, 4121.53846126, 4145.51282031, 4150.89743569, 4180.12820499, 4179.10256397, 4127.94871767, 4124.61538434, 4125.38461511, 4130.76923050, 4190.12820499,8.57
4125.51282024, 4124.74358947, 4126.41025614, 4125.12820485, 4125.12820485, 4132.69230742, 4139.87179467, 4161.53846133, 4152.82051262, 4128.46153819, 4123.33333306, 4124.48717921, 4129.99999973, 4196.92307679,8.57
4122.56410229, 4124.61538434, 4123.20512793, 4127.82051255, 4123.46153819, 4135.51282031, 4147.69230749, 4167.94871774, 4156.28205108, 4129.74358947, 4128.58974332, 4131.15384588, 4134.10256383, 4194.87179474,8.57
4117.05128178, 4125.25640998, 4118.97435870, 4123.71794844, 4121.28205101, 4140.51282031, 4148.07692287, 4184.23076910, 4173.58974345, 4127.43589716, 4126.28205101, 4122.30769203, 4130.51282024, 4190.89743576,8.57
4126.79487152, 4127.82051255, 4131.66666639, 4124.23076896, 4125.25640998, 4131.66666639, 4133.07692280, 4167.30769210, 4158.07692287, 4125.89743562, 4123.58974332, 4127.05128178, 4131.02564075, 4198.07692294,8.57
4116.15384588, 4119.99999973, 4120.76923050, 4122.30769203, 4120.64102537, 4127.82051255, 4126.92307665, 4155.76923056, 4150.51282031, 4126.41025614, 4124.61538434, 4129.61538434, 4130.38461511, 4195.76923063,8.57
4128.46153819, 4126.41025614, 4123.20512793, 4125.38461511, 4123.20512793, 4128.71794844, 4133.46153819, 4172.69230756, 4170.51282038, 4127.05128178, 4124.35897408, 4126.66666639, 4129.99999973, 4196.53846140,8.57
4124.74358947, 4123.84615357, 4126.66666639, 4124.61538434, 4123.58974332, 4134.74358947, 4141.66666646, 4184.23076910, 4182.30769217, 4128.58974332, 4123.71794844, 4130.51282024, 4135.89743569, 4198.33333320,8.57
4112.94871767, 4117.43589716, 4116.79487152, 4119.99999973, 4121.41025614, 4147.82051262, 4151.02564082, 4184.23076910, 4181.15384602, 4128.33333306, 4120.76923050, 4124.48717921, 4133.58974332, 4196.41025628,8.57
4126.92307665, 4128.20512793, 4125.51282024, 4124.23076896, 4124.99999973, 4145.89743569, 4151.02564082, 4184.35897422, 4175.89743576, 4129.35897408, 4122.30769203, 4129.74358947, 4131.92307665, 4198.46153833,8.57
4115.12820485, 4121.66666639, 4119.61538434, 4123.58974332, 4122.69230742, 4121.28205101, 4131.66666639, 4169.61538448, 4155.38461518, 4131.66666639, 4123.07692280, 4129.23076896, 4131.66666639, 4193.33333320,8.57
4123.46153819, 4119.48717921, 4121.79487152, 4126.15384588, 4126.79487152, 4107.56410229, 4113.20512793, 4147.43589723, 4130.89743562, 4130.38461511, 4119.48717921, 4123.46153819, 4130.76923050, 4194.99999986,8.57
4127.05128178, 4123.97435870, 4126.53846126, 4126.92307665, 4124.23076896, 4120.12820485, 4119.23076896, 4149.10256390, 4135.25640998, 4126.79487152, 4119.48717921, 4129.61538434, 4131.79487152, 4197.94871781,8.57
4113.33333306, 4123.20512793, 4118.84615357, 4119.35897408, 4118.46153819, 4130.89743562, 4130.76923050, 4165.38461518, 4150.76923056, 4127.82051255, 4117.05128178, 4123.33333306, 4128.07692280, 4193.97435884,8.57
4130.64102537, 4128.58974332, 4130.64102537, 4124.23076896, 4125.76923050, 4120.51282024, 4124.23076896, 4161.41025621, 4147.17948697, 4131.02564075, 4118.71794844, 4127.69230742, 4130.51282024, 4199.74358961,8.57
4122.82051255, 4122.17948691, 4127.05128178, 4126.15384588, 4122.43589716, 4112.17948691, 4114.48717921, 4144.87179467, 4137.05128185, 4128.84615357, 4122.17948691, 4128.07692280, 4131.79487152, 4198.07692294,8.57
4123.84615357, 4124.48717921, 4127.82051255, 4123.46153819, 4121.02564075, 4125.76923050, 4120.12820485, 4146.92307672, 4143.46153826, 4125.51282024, 4117.43589716, 4123.33333306, 4129.35897408, 4194.74358961,8.57
4128.71794844, 4128.97435870, 4131.02564075, 4125.25640998, 4123.46153819, 4127.56410229, 4123.46153819, 4156.66666646, 4148.46153826, 4126.53846126, 4118.84615357, 4133.07692280, 4132.17948691, 4196.79487166,8.57
4113.33333306, 4120.12820485, 4115.89743562, 4122.56410229, 4118.97435870, 4102.94871767, 4112.82051255, 4152.05128185, 4136.15384595, 4128.58974332, 4121.28205101, 4127.56410229, 4129.10256383, 4195.38461525,8.57
4127.82051255, 4122.82051255, 4125.89743562, 4124.23076896, 4122.30769203, 4087.94871761, 4104.87179460, 4141.15384595, 4126.66666639, 4128.46153819, 4121.53846126, 4130.76923050, 4129.87179460, 4198.20512807,8.57
4119.87179460, 4118.33333306, 4120.89743562, 4121.53846126, 4121.41025614, 4093.58974325, 4102.56410229, 4137.05128185, 4123.58974332, 4127.94871767, 4121.28205101, 4134.87179460, 4132.56410229, 4192.82051269,8.57
4118.71794844, 4119.10256383, 4116.41025614, 4123.46153819, 4124.35897408, 4094.23076889, 4095.12820478, 4134.48717921, 4117.43589716, 4127.82051255, 4118.84615357, 4123.71794844, 4130.12820485, 4193.20512807,8.57
4129.35897408, 4126.15384588, 4127.56410229, 4127.82051255, 4128.07692280, 4083.20512786, 4084.74358940, 4121.41025614, 4105.51282024, 4129.35897408, 4118.71794844, 4128.71794844, 4132.30769203, 4200.12820499,8.57
4111.41025614, 4120.76923050, 4117.30769203, 4120.38461511, 4120.51282024, 4083.84615350, 4089.10256376, 4116.66666639, 4103.84615357, 4128.46153819, 4117.05128178, 4122.69230742, 4128.07692280, 4193.84615371,8.57
4124.61538434, 4126.53846126, 4125.89743562, 4124.74358947, 4122.30769203, 4097.43589709, 4104.74358947, 4131.92307665, 4118.33333306, 4126.02564075, 4118.33333306, 4121.53846126, 4128.71794844, 4194.87179474,8.57
4122.69230742, 4125.25640998, 4125.25640998, 4125.76923050, 4124.10256383, 4106.41025614, 4111.66666639, 4146.02564082, 4128.46153819, 4127.05128178, 4119.23076896, 4130.38461511, 4133.07692280, 4195.64102551,8.57
4117.30769203, 4123.33333306, 4120.76923050, 4121.79487152, 4122.43589716, 4106.53846126, 4118.20512793, 4151.41025621, 4137.69230749, 4126.79487152, 4117.43589716, 4121.92307665, 4127.94871767, 4193.33333320,8.57
4130.38461511, 4128.97435870, 4131.02564075, 4126.41025614, 4122.17948691, 4103.84615357, 4121.02564075, 4156.15384595, 4142.30769210, 4127.82051255, 4121.66666639, 4123.58974332, 4130.25640998, 4193.58974345,8.57
4114.99999973, 4123.20512793, 4117.94871767, 4122.43589716, 4118.33333306, 4093.20512786, 4101.66666632, 4147.69230749, 4126.66666639, 4130.25640998, 4116.79487152, 4123.97435870, 4132.17948691, 4189.74358961,8.57
4124.10256383, 4129.48717921, 4122.82051255, 4123.33333306, 4122.69230742, 4079.48717914, 4076.28205094, 4120.38461511, 4100.76923043, 4129.74358947, 4109.35897408, 4124.87179460, 4130.25640998, 4195.64102551,8.57
4124.23076896, 4127.56410229, 4124.87179460, 4126.66666639, 4122.56410229, 4091.02564068, 4084.23076889, 4116.15384588, 4102.17948684, 4127.17948691, 4115.12820485, 4131.28205101, 4131.92307665, 4195.25641012,8.57
4115.64102537, 4119.74358947, 4116.15384588, 4124.61538434, 4120.64102537, 4103.58974332, 4103.71794844, 4130.51282024, 4110.51282024, 4125.76923050, 4117.05128178, 4124.99999973, 4131.53846126, 4189.99999986,8.57
4130.25640998, 4127.69230742, 4125.51282024, 4126.53846126, 4123.84615357, 4089.61538427, 4098.46153812, 4124.99999973, 4098.46153812, 4126.66666639, 4115.38461511, 4131.02564075, 4134.61538434, 4198.58974345,8.57
4117.17948691, 4123.46153819, 4118.97435870, 4123.84615357, 4119.61538434, 4081.41025607, 4090.76923043, 4117.43589716, 4096.28205094, 4127.17948691, 4115.89743562, 4131.28205101, 4133.97435870, 4199.10256397,8.57
4119.99999973, 4124.48717921, 4123.46153819, 4126.15384588, 4122.82051255, 4087.05128171, 4089.74358940, 4113.58974332, 4092.82051248, 4126.15384588, 4114.35897408, 4124.87179460, 4132.69230742, 4196.66666653,8.57
4120.25640998, 4126.79487152, 4124.35897408, 4127.17948691, 4124.74358947, 4092.56410222, 4094.48717914, 4119.35897408, 4099.74358940, 4126.41025614, 4113.71794844, 4129.99999973, 4134.48717921, 4198.46153833,8.57
4112.05128178, 4121.66666639, 4114.48717921, 4122.30769203, 4121.53846126, 4089.35897402, 4093.46153812, 4125.12820485, 4112.82051255, 4127.43589716, 4112.43589716, 4125.38461511, 4130.25640998, 4198.58974345,8.57
4128.20512793, 4128.84615357, 4127.69230742, 4125.89743562, 4124.23076896, 4069.61538420, 4070.76923043, 4106.66666639, 4089.48717914, 4127.82051255, 4113.58974332, 4125.89743562, 4131.66666639, 4195.76923063,8.57
4119.10256383, 4126.66666639, 4123.20512793, 4123.46153819, 4119.74358947, 4051.41025600, 4055.25640984, 4095.25640991, 4068.58974318, 4128.07692280, 4114.23076896, 4127.69230742, 4131.92307665, 4187.30769217,8.57
4124.35897408, 4125.38461511, 4124.10256383, 4123.84615357, 4124.10256383, 4056.53846113, 4069.87179453, 4112.05128178, 4087.30769196, 4127.82051255, 4113.20512793, 4126.53846126, 4128.07692280, 4193.20512807,8.57
4128.20512793, 4123.20512793, 4129.23076896, 4126.41025614, 4127.82051255, 4061.15384574, 4074.99999966, 4111.79487152, 4094.48717914, 4127.82051255, 4113.71794844, 4132.56410229, 4132.30769203, 4197.94871781,8.57
4112.69230742, 4118.20512793, 4118.07692280, 4119.74358947, 4121.02564075, 4052.05128164, 4058.33333292, 4089.74358940, 4075.38461504, 4129.10256383, 4111.41025614, 4125.89743562, 4131.66666639, 4190.64102551,8.57
4127.05128178, 4127.69230742, 4126.66666639, 4124.10256383, 4122.17948691, 4052.82051241, 4056.66666625, 4085.76923043, 4071.15384581, 4130.12820485, 4113.07692280, 4129.74358947, 4130.38461511, 4196.41025628,8.57
4121.02564075, 4123.07692280, 4121.79487152, 4126.15384588, 4121.92307665, 4051.41025600, 4056.66666625, 4081.28205094, 4064.35897395, 4129.35897408, 4115.64102537, 4135.12820485, 4131.92307665, 4199.99999986,8.57
4120.51282024, 4120.38461511, 4120.25640998, 4124.35897408, 4124.48717921, 4040.25640984, 4046.92307651, 4069.48717907, 4049.74358933, 4128.20512793, 4115.64102537, 4126.53846126, 4130.76923050, 4197.69230756,8.57
4127.82051255, 4125.25640998, 4126.66666639, 4127.17948691, 4124.10256383, 4033.46153798, 4043.97435856, 4070.64102530, 4047.30769189, 4129.74358947, 4119.74358947, 4132.56410229, 4133.84615357, 4196.41025628,8.57
4114.10256383, 4121.66666639, 4116.28205101, 4123.97435870, 4119.74358947, 4028.71794824, 4042.17948677, 4068.58974318, 4040.38461497, 4127.69230742, 4118.07692280, 4131.41025614, 4133.07692280, 4193.58974345,8.57
4123.20512793, 4127.30769203, 4126.41025614, 4125.38461511, 4127.05128178, 4020.76923029, 4034.48717900, 4065.38461497, 4034.99999952, 4125.51282024, 4115.12820485, 4128.33333306, 4131.41025614, 4196.15384602,8.57
4116.92307665, 4124.61538434, 4126.02564075, 4123.84615357, 4124.10256383, 4014.35897388, 4026.53846106, 4064.99999959, 4036.28205080, 4129.74358947, 4116.92307665, 4132.17948691, 4132.05128178, 4195.89743576,8.57
4116.53846126, 4122.17948691, 4122.05128178, 4123.07692280, 4119.48717921, 4013.20512772, 4027.69230721, 4059.48717907, 4032.43589695, 4131.66666639, 4114.35897408, 4126.53846126, 4129.61538434, 4194.10256397,8.57
4125.25640998, 4124.61538434, 4128.71794844, 4129.35897408, 4123.46153819, 4016.28205080, 4036.79487131, 4062.69230728, 4037.56410215, 4128.33333306, 4114.48717921, 4129.99999973, 4132.05128178, 4193.97435884,8.57
4114.10256383, 4122.94871767, 4118.71794844, 4126.02564075, 4121.79487152, 4021.53846106, 4040.89743548, 4067.82051241, 4045.64102523, 4125.25640998, 4116.15384588, 4130.12820485, 4131.66666639, 4191.15384602,8.57
4128.07692280, 4131.28205101, 4125.51282024, 4126.02564075, 4125.76923050, 4022.56410208, 4039.99999959, 4059.61538420, 4035.89743541, 4126.02564075, 4115.64102537, 4127.17948691, 4131.15384588, 4196.02564089,8.57
4122.69230742, 4124.99999973, 4123.58974332, 4125.76923050, 4124.23076896, 4016.15384567, 4039.35897395, 4055.38461497, 4033.20512772, 4128.07692280, 4115.64102537, 4130.38461511, 4134.99999973, 4195.64102551,8.57
4115.25640998, 4121.28205101, 4116.28205101, 4123.84615357, 4122.17948691, 4003.46153791, 4030.25640977, 4056.66666625, 4041.41025600, 4127.82051255, 4115.12820485, 4128.46153819, 4132.05128178, 4192.43589730,8.57
4127.82051255, 4133.20512793, 4128.33333306, 4127.17948691, 4125.89743562, 4000.25640970, 4024.48717900, 4053.33333292, 4034.99999952, 4128.97435870, 4117.30769203, 4135.76923056, 4131.79487152, 4196.28205115,8.57
4114.99999973, 4126.15384588, 4121.15384588, 4122.56410229, 4119.99999973, 4002.94871740, 4023.84615336, 4046.15384574, 4020.25640977, 4130.25640998, 4113.84615357, 4133.71794844, 4134.23076896, 4194.10256397,8.57
4124.35897408, 4122.30769203, 4121.02564075, 4123.71794844, 4122.30769203, 3982.43589688, 4004.74358926, 4030.76923029, 4007.56410208, 4127.94871767, 4108.58974332, 4127.82051255, 4133.84615357, 4193.33333320,8.57
4124.23076896, 4121.28205101, 4121.15384588, 4125.12820485, 4126.15384588, 3977.43589688, 3999.23076868, 4031.41025593, 4013.20512772, 4127.56410229, 4112.05128178, 4136.79487159, 4132.56410229, 4192.69230756,8.57
4112.43589716, 4119.48717921, 4116.28205101, 4119.74358947, 4122.43589716, 4003.58974304, 4026.41025593, 4054.74358933, 4033.07692259, 4128.84615357, 4111.66666639, 4131.28205101, 4131.41025614, 4191.53846140,8.57
4125.12820485, 4128.71794844, 4129.10256383, 4122.56410229, 4123.97435870, 3994.48717894, 4020.51282003, 4039.87179446, 4015.25640977, 4127.69230742, 4110.12820485, 4127.43589716, 4134.61538434, 4198.46153833,8.57
4118.20512793, 4124.35897408, 4121.79487152, 4122.43589716, 4122.30769203, 3966.28205066, 3989.23076868, 4003.07692252, 3982.56410201, 4127.30769203, 4111.66666639, 4128.07692280, 4133.33333306, 4197.94871781,8.57
4125.76923050, 4122.82051255, 4121.02564075, 4125.51282024, 4124.10256383, 3984.99999945, 4006.28205080, 4015.76923029, 3995.76923022, 4127.82051255, 4109.61538434, 4124.23076896, 4131.92307665, 4195.76923063,8.57
4127.17948691, 4125.38461511, 4126.15384588, 4128.07692280, 4123.84615357, 4007.56410208, 4029.87179439, 4037.56410215, 4015.64102516, 4127.05128178, 4108.46153819, 4128.46153819, 4135.38461518, 4193.71794858,8.57
4113.84615357, 4123.46153819, 4118.58974332, 4122.69230742, 4121.15384588, 3991.92307637, 4011.02564054, 4022.69230721, 4005.64102516, 4127.56410229, 4107.82051255, 4125.89743562, 4130.64102537, 4190.25641012,8.57
4129.35897408, 4127.17948691, 4127.17948691, 4126.15384588, 4126.15384588, 3985.25640970, 4007.69230721, 4026.53846106, 4009.48717900, 4129.48717921, 4111.79487152, 4128.71794844, 4127.82051255, 4196.79487166,8.57
4122.05128178, 4121.02564075, 4120.64102537, 4125.76923050, 4122.82051255, 4000.12820458, 4031.15384567, 4054.23076882, 4030.25640977, 4129.10256383, 4115.12820485, 4130.89743562, 4129.87179460, 4197.69230756,8.57
4122.56410229, 4123.97435870, 4120.38461511, 4124.35897408, 4121.41025614, 4002.05128150, 4031.79487131, 4054.10256369, 4026.28205080, 4127.69230742, 4110.25640998, 4127.05128178, 4129.48717921, 4193.84615371,8.57
4126.79487152, 4128.20512793, 4128.33333306, 4125.38461511, 4122.94871767, 3990.76923022, 4019.35897388, 4039.99999959, 4011.28205080, 4126.66666639, 4110.76923050, 4132.56410229, 4132.43589716, 4192.94871781,8.57
4115.76923050, 4122.05128178, 4116.79487152, 4120.25640998, 4121.79487152, 3988.58974304, 4024.74358926, 4037.43589702, 4007.05128157, 4125.89743562, 4113.84615357, 4126.28205101, 4131.79487152, 4193.46153833,8.57
4129.10256383, 4129.23076896, 4123.84615357, 4123.71794844, 4127.05128178, 4006.66666618, 4038.46153805, 4041.66666625, 4012.69230721, 4128.46153819, 4113.33333306, 4128.97435870, 4131.53846126, 4198.58974345,8.57
4117.05128178, 4122.94871767, 4121.28205101, 4122.30769203, 4122.69230742, 4015.12820465, 4038.97435856, 4041.66666625, 4017.30769183, 4129.99999973, 4110.76923050, 4136.41025621, 4133.58974332, 4194.99999986,8.57
4115.12820485, 4119.61538434, 4119.48717921, 4119.23076896, 4122.05128178, 3992.69230714, 4023.07692259, 4021.28205080, 3998.58974304, 4129.35897408, 4107.94871767, 4126.79487152, 4131.41025614, 4192.94871781,8.57
4130.89743562, 4129.35897408, 4126.79487152, 4123.20512793, 4127.69230742, 3979.87179432, 4012.69230721, 4004.48717900, 3981.53846099, 4130.51282024, 4111.02564075, 4128.71794844, 4131.66666639, 4195.25641012,8.57
4118.20512793, 4121.66666639, 4114.87179460, 4119.35897408, 4124.87179460, 3992.82051227, 4013.46153798, 4013.46153798, 3991.15384560, 4129.87179460, 4111.53846126, 4127.30769203, 4128.84615357, 4193.07692294,8.57
4125.25640998, 4122.30769203, 4123.33333306, 4122.30769203, 4124.87179460, 3994.35897381, 4013.71794824, 4021.66666618, 4000.38461483, 4126.28205101, 4108.84615357, 4124.74358947, 4128.84615357, 4196.53846140,8.57
4119.87179460, 4124.61538434, 4124.48717921, 4123.97435870, 4121.41025614, 3991.79487124, 4026.15384567, 4035.89743541, 4013.97435849, 4126.02564075, 4111.28205101, 4128.33333306, 4130.76923050, 4194.74358961,8.57
4117.30769203, 4124.99999973, 4118.84615357, 4121.41025614, 4123.84615357, 4012.69230721, 4056.66666625, 4070.64102530, 4046.79487138, 4128.46153819, 4114.48717921, 4126.92307665, 4127.17948691, 4191.53846140,8.57
4129.48717921, 4127.17948691, 4127.43589716, 4126.15384588, 4128.46153819, 4026.92307644, 4068.33333292, 4076.15384581, 4053.20512779, 4130.64102537, 4115.38461511, 4134.23076896, 4131.28205101, 4193.97435884,8.57
4115.25640998, 4118.84615357, 4119.35897408, 4123.20512793, 4120.89743562, 4019.99999952, 4054.48717907, 4047.56410215, 4023.84615336, 4130.51282024, 4112.30769203, 4130.89743562, 4132.69230742, 4192.43589730,8.57
4125.76923050, 4124.99999973, 4126.79487152, 4124.48717921, 4123.58974332, 4011.66666618, 4043.20512779, 4032.30769183, 4001.53846099, 4128.20512793, 4112.82051255, 4127.94871767, 4129.61538434, 4196.02564089,8.57
4126.28205101, 4126.79487152, 4124.87179460, 4124.87179460, 4125.89743562, 4007.94871747, 4041.79487138, 4029.61538413, 3997.17948663, 4127.82051255, 4116.41025614, 4134.99999973, 4130.51282024, 4193.97435884,8.57
4115.64102537, 4121.79487152, 4112.17948691, 4120.64102537, 4123.97435870, 4016.53846106, 4053.97435856, 4041.41025600, 4017.56410208, 4129.74358947, 4112.05128178, 4128.84615357, 4129.35897408, 4189.99999986,8.57
4128.07692280, 4126.66666639, 4124.99999973, 4125.12820485, 4127.43589716, 4024.48717900, 4060.64102523, 4062.05128164, 4038.97435856, 4130.51282024, 4113.71794844, 4133.58974332, 4132.82051255, 4195.89743576,8.57
4116.53846126, 4119.74358947, 4120.51282024, 4122.82051255, 4122.30769203, 4010.64102516, 4040.51282010, 4049.99999959, 4016.53846106, 4128.07692280, 4116.66666639, 4135.25640998, 4132.56410229, 4193.97435884,8.57
4121.92307665, 4121.41025614, 4120.89743562, 4122.94871767, 4123.97435870, 4003.46153791, 4035.38461490, 4036.53846106, 3999.23076868, 4125.89743562, 4112.94871767, 4126.66666639, 4129.61538434, 4195.38461525,8.57
4122.17948691, 4123.20512793, 4123.58974332, 4124.61538434, 4126.79487152, 4027.30769183, 4068.84615343, 4073.07692273, 4043.58974318, 4126.92307665, 4116.66666639, 4131.15384588, 4133.97435870, 4200.12820499,8.57
4113.46153819, 4120.38461511, 4116.15384588, 4121.92307665, 4123.58974332, 4045.12820472, 4086.15384581, 4097.69230735, 4073.84615350, 4127.56410229, 4117.30769203, 4127.69230742, 4133.58974332, 4197.56410243,8.57
4131.41025614, 4130.25640998, 4127.56410229, 4126.92307665, 4124.48717921, 4027.43589695, 4058.46153805, 4057.82051241, 4032.43589695, 4128.46153819, 4116.02564075, 4128.20512793, 4133.84615357, 4195.25641012,8.57
4118.46153819, 4125.89743562, 4121.53846126, 4124.48717921, 4119.61538434, 4020.76923029, 4053.07692266, 4040.89743548, 4017.05128157, 4128.20512793, 4119.10256383, 4129.61538434, 4133.71794844, 4189.61538448,8.57
4120.38461511, 4123.46153819, 4122.69230742, 4123.20512793, 4123.46153819, 4040.38461497, 4082.69230735, 4068.97435856, 4046.53846113, 4127.30769203, 4118.71794844, 4128.58974332, 4131.28205101, 4192.05128192,8.57
4131.41025614, 4126.92307665, 4129.99999973, 4125.76923050, 4128.46153819, 4041.15384574, 4081.28205094, 4066.28205087, 4040.51282010, 4127.94871767, 4117.82051255, 4135.51282031, 4133.84615357, 4195.38461525,8.57
4118.20512793, 4123.84615357, 4118.71794844, 4120.12820485, 4123.46153819, 4024.61538413, 4063.20512779, 4053.20512779, 4027.17948670, 4124.99999973, 4118.71794844, 4127.43589716, 4130.51282024, 4191.41025628,8.57
4125.76923050, 4129.10256383, 4126.02564075, 4122.94871767, 4125.51282024, 4032.69230721, 4078.97435863, 4075.64102530, 4050.38461497, 4123.71794844, 4122.05128178, 4129.10256383, 4129.10256383, 4197.94871781,8.57
4117.94871767, 4123.71794844, 4121.28205101, 4123.97435870, 4123.46153819, 4050.51282010, 4096.02564068, 4099.35897402, 4069.23076882, 4128.46153819, 4121.79487152, 4134.23076896, 4132.69230742, 4199.61538448,8.57
4119.48717921, 4123.58974332, 4119.10256383, 4123.97435870, 4124.48717921, 4041.28205087, 4081.92307658, 4090.51282017, 4056.53846113, 4129.61538434, 4116.79487152, 4126.79487152, 4131.28205101, 4196.66666653,8.57
4124.99999973, 4127.17948691, 4127.17948691, 4126.28205101, 4126.15384588, 4033.71794824, 4077.30769196, 4077.30769196, 4042.17948677, 4126.41025614, 4117.43589716, 4133.84615357, 4134.23076896, 4198.33333320,8.57
4111.28205101, 4117.56410229, 4117.17948691, 4119.87179460, 4121.41025614, 4047.56410215, 4092.69230735, 4085.89743555, 4048.97435856, 4126.28205101, 4118.71794844, 4132.56410229, 4132.82051255, 4196.15384602,8.57
4126.15384588, 4123.46153819, 4122.43589716, 4122.94871767, 4124.87179460, 4049.35897395, 4097.56410222, 4097.69230735, 4060.64102523, 4128.20512793, 4118.33333306, 4129.61538434, 4129.87179460, 4197.56410243,8.57
4120.89743562, 4124.99999973, 4121.28205101, 4124.35897408, 4123.20512793, 4049.23076882, 4103.33333306, 4094.10256376, 4059.48717907, 4127.43589716, 4117.82051255, 4133.58974332, 4131.66666639, 4195.89743576,8.57
4116.66666639, 4123.33333306, 4121.66666639, 4121.92307665, 4123.33333306, 4062.05128164, 4112.05128178, 4080.89743555, 4044.48717907, 4126.02564075, 4114.99999973, 4127.69230742, 4131.53846126, 4194.23076910,8.57
4128.84615357, 4128.71794844, 4129.10256383, 4125.64102537, 4126.79487152, 4062.30769189, 4108.33333306, 4077.69230735, 4040.25640984, 4127.56410229, 4116.53846126, 4131.28205101, 4132.56410229, 4196.66666653,8.57
4116.53846126, 4123.58974332, 4116.02564075, 4121.79487152, 4120.64102537, 4052.43589702, 4107.43589716, 4085.89743555, 4052.56410215, 4129.23076896, 4114.48717921, 4129.99999973, 4129.87179460, 4192.69230756,8.57
4125.51282024, 4127.30769203, 4124.10256383, 4123.71794844, 4123.71794844, 4055.64102523, 4115.89743562, 4094.74358940, 4061.28205087, 4128.07692280, 4111.28205101, 4127.05128178, 4129.35897408, 4195.76923063,8.57
4122.82051255, 4124.10256383, 4126.66666639, 4125.38461511, 4124.48717921, 4064.74358933, 4122.43589716, 4108.71794844, 4072.82051248, 4127.82051255, 4116.28205101, 4132.69230742, 4134.10256383, 4198.46153833,8.57
4117.30769203, 4119.10256383, 4117.17948691, 4122.82051255, 4121.41025614, 4067.30769189, 4129.35897408, 4123.33333306, 4086.66666632, 4128.20512793, 4117.82051255, 4127.17948691, 4132.30769203, 4193.46153833,8.57
4128.84615357, 4127.56410229, 4125.64102537, 4125.89743562, 4122.94871767, 4062.05128164, 4123.46153819, 4107.94871767, 4068.20512779, 4129.35897408, 4115.64102537, 4131.53846126, 4132.43589716, 4193.84615371,8.57
4116.41025614, 4123.84615357, 4120.38461511, 4122.43589716, 4119.48717921, 4057.17948677, 4108.84615357, 4081.66666632, 4036.02564054, 4129.74358947, 4113.84615357, 4134.23076896, 4132.17948691, 4194.48717935,8.57
4125.76923050, 4123.97435870, 4124.35897408, 4123.33333306, 4124.23076896, 4058.46153805, 4113.33333306, 4086.28205094, 4039.87179446, 4127.17948691, 4114.74358947, 4130.25640998, 4131.79487152, 4198.97435884,8.57
4124.35897408, 4122.17948691, 4122.17948691, 4127.43589716, 4123.97435870, 4058.97435856, 4119.61538434, 4096.53846119, 4054.48717907, 4126.41025614, 4118.20512793, 4134.35897408, 4134.10256383, 4200.12820499,8.57
4113.20512793, 4118.46153819, 4111.15384588, 4123.97435870, 4120.25640998, 4060.25640984, 4113.07692280, 4087.43589709, 4046.53846113, 4128.33333306, 4114.87179460, 4127.94871767, 4132.56410229, 4194.35897422,8.57
4131.15384588, 4128.07692280, 4126.15384588, 4125.25640998, 4126.92307665, 4067.17948677, 4114.48717921, 4091.02564068, 4051.41025600, 4128.71794844, 4112.43589716, 4129.87179460, 4133.97435870, 4195.64102551,8.57
4119.10256383, 4123.20512793, 4122.69230742, 4121.92307665, 4124.10256383, 4071.53846119, 4120.12820485, 4104.10256383, 4065.38461497, 4126.41025614, 4113.97435870, 4129.23076896, 4134.23076896, 4194.10256397,8.57
4118.97435870, 4123.58974332, 4120.89743562, 4121.15384588, 4122.82051255, 4069.74358940, 4116.79487152, 4097.94871761, 4056.66666625, 4126.66666639, 4115.12820485, 4122.94871767, 4131.66666639, 4195.51282038,8.57
4126.15384588, 4128.46153819, 4126.15384588, 4124.99999973, 4123.97435870, 4065.64102523, 4111.15384588, 4092.30769196, 4051.41025600, 4127.82051255, 4117.05128178, 4130.89743562, 4130.89743562, 4198.33333320,8.57
4116.15384588, 4122.56410229, 4118.20512793, 4121.66666639, 4122.30769203, 4058.58974318, 4107.43589716, 4095.12820478, 4059.48717907, 4125.12820485, 4114.35897408, 4125.89743562, 4127.56410229, 4193.33333320,8.57
4128.07692280, 4124.99999973, 4127.30769203, 4122.94871767, 4124.35897408, 4057.05128164, 4108.71794844, 4096.28205094, 4062.56410215, 4124.74358947, 4114.23076896, 4124.74358947, 4129.87179460, 4194.61538448,8.57
4121.66666639, 4122.43589716, 4121.79487152, 4120.89743562, 4119.35897408, 4065.51282010, 4118.71794844, 4103.84615357, 4068.20512779, 4127.82051255, 4118.20512793, 4131.53846126, 4131.79487152, 4195.89743576,8.57
4124.61538434, 4126.15384588, 4119.48717921, 4124.99999973, 4122.56410229, 4071.15384581, 4124.10256383, 4108.33333306, 4073.07692273, 4128.58974332, 4117.05128178, 4129.61538434, 4129.74358947, 4198.20512807,8.57
4127.69230742, 4126.92307665, 4125.51282024, 4129.87179460, 4126.15384588, 4073.20512786, 4124.74358947, 4109.61538434, 4072.17948684, 4127.17948691, 4116.66666639, 4133.84615357, 4131.79487152, 4197.56410243,8.57
4111.15384588, 4117.30769203, 4118.33333306, 4119.61538434, 4120.51282024, 4070.25640991, 4124.99999973, 4106.41025614, 4065.64102523, 4126.66666639, 4114.87179460, 4129.74358947, 4129.74358947, 4192.43589730,8.57
4127.05128178, 4123.07692280, 4129.48717921, 4123.33333306, 4125.25640998, 4066.02564061, 4124.74358947, 4107.94871767, 4070.51282017, 4128.33333306, 4116.02564075, 4129.87179460, 4130.51282024, 4197.05128192,8.57
4122.69230742, 4120.51282024, 4121.15384588, 4126.28205101, 4123.33333306, 4074.23076889, 4124.23076896, 4116.28205101, 4081.02564068, 4129.35897408, 4118.97435870, 4134.48717921, 4132.43589716, 4197.43589730,8.57
4118.33333306, 4120.51282024, 4115.38461511, 4122.30769203, 4121.41025614, 4067.94871754, 4106.41025614, 4096.02564068, 4055.12820472, 4126.28205101, 4113.58974332, 4125.89743562, 4128.71794844, 4196.79487166,8.57
4127.94871767, 4127.17948691, 4129.61538434, 4125.64102537, 4126.15384588, 4047.82051241, 4091.79487145, 4078.58974325, 4034.61538413, 4125.38461511, 4111.79487152, 4126.79487152, 4130.38461511, 4198.33333320,8.57
4115.76923050, 4120.25640998, 4118.46153819, 4122.56410229, 4122.82051255, 4062.69230728, 4117.30769203, 4114.48717921, 4076.53846119, 4128.33333306, 4115.38461511, 4125.51282024, 4129.74358947, 4192.17948704,8.57
4127.17948691, 4126.66666639, 4123.20512793, 4124.23076896, 4125.51282024, 4088.20512786, 4144.87179467, 4144.87179467, 4106.41025614, 4130.38461511, 4117.82051255, 4128.07692280, 4129.35897408, 4191.66666653,8.57
4121.15384588, 4125.38461511, 4124.61538434, 4122.17948691, 4122.30769203, 4079.23076889, 4136.79487159, 4126.79487152, 4085.38461504, 4130.64102537, 4117.05128178, 4132.56410229, 4131.79487152, 4191.66666653,8.57
4114.48717921, 4121.28205101, 4119.35897408, 4118.84615357, 4120.64102537, 4067.56410215, 4126.15384588, 4112.56410229, 4073.33333299, 4127.82051255, 4115.38461511, 4120.51282024, 4127.82051255, 4193.71794858,8.57
4128.84615357, 4129.35897408, 4130.12820485, 4127.30769203, 4128.46153819, 4066.02564061, 4122.05128178, 4104.35897408, 4062.69230728, 4126.41025614, 4118.97435870, 4124.87179460, 4128.58974332, 4197.05128192,8.57
4116.15384588, 4121.79487152, 4120.38461511, 4124.99999973, 4124.35897408, 4063.33333292, 4119.23076896, 4096.28205094, 4056.92307651, 4126.79487152, 4117.56410229, 4133.07692280, 4129.74358947, 4192.82051269,8.57
4126.28205101, 4123.97435870, 4122.05128178, 4125.12820485, 4123.97435870, 4073.20512786, 4129.74358947, 4112.17948691, 4076.02564068, 4126.53846126, 4114.23076896, 4132.82051255, 4129.48717921, 4196.53846140,8.57
4127.43589716, 4126.53846126, 4125.51282024, 4127.17948691, 4123.97435870, 4080.51282017, 4129.74358947, 4116.15384588, 4072.69230735, 4128.58974332, 4116.02564075, 4132.17948691, 4131.92307665, 4198.33333320,8.57
4117.05128178, 4119.48717921, 4122.30769203, 4121.53846126, 4121.15384588, 4075.12820478, 4122.82051255, 4108.84615357, 4063.97435856, 4130.38461511, 4114.99999973, 4127.56410229, 4131.28205101, 4195.38461525,8.57
4128.58974332, 4123.97435870, 4131.53846126, 4123.84615357, 4125.51282024, 4080.12820478, 4133.46153819, 4118.33333306, 4078.20512786, 4127.69230742, 4117.30769203, 4136.41025621, 4133.58974332, 4199.48717935,8.57
4114.10256383, 4122.82051255, 4118.58974332, 4121.79487152, 4121.28205101, 4085.76923043, 4131.79487152, 4118.07692280, 4072.43589709, 4125.64102537, 4117.30769203, 4132.69230742, 4132.05128178, 4195.76923063,8.57
4119.87179460, 4126.02564075, 4120.51282024, 4122.05128178, 4123.07692280, 4071.53846119, 4117.05128178, 4106.92307665, 4057.94871754, 4128.58974332, 4113.07692280, 4122.94871767, 4127.82051255, 4194.74358961,8.57
4125.64102537, 4123.58974332, 4126.53846126, 4124.23076896, 4124.74358947, 4071.66666632, 4125.12820485, 4118.07692280, 4078.84615350, 4127.69230742, 4116.92307665, 4130.38461511, 4129.74358947, 4197.43589730,8.57
4114.99999973, 4118.71794844, 4117.56410229, 4121.53846126, 4119.23076896, 4084.23076889, 4135.89743569, 4126.66666639, 4085.51282017, 4124.74358947, 4118.46153819, 4126.28205101, 4127.94871767, 4193.07692294,8.57
4127.56410229, 4128.58974332, 4128.58974332, 4125.38461511, 4123.84615357, 4072.82051248, 4122.69230742, 4106.15384588, 4054.10256369, 4125.89743562, 4115.89743562, 4128.71794844, 4129.48717921, 4192.30769217,8.57
4117.30769203, 4123.20512793, 4121.66666639, 4121.66666639, 4124.48717921, 4067.94871754, 4124.99999973, 4107.17948691, 4055.38461497, 4127.30769203, 4115.12820485, 4130.38461511, 4130.89743562, 4190.38461525,8.57
4123.20512793, 4122.17948691, 4120.89743562, 4121.28205101, 4125.51282024, 4083.07692273, 4145.64102544, 4132.43589716, 4082.56410222, 4126.53846126, 4116.66666639, 4122.82051255, 4129.61538434, 4194.61538448,8.57
4128.97435870, 4125.25640998, 4128.07692280, 4126.02564075, 4124.61538434, 4087.94871761, 4146.53846133, 4134.99999973, 4087.17948684, 4126.15384588, 4120.38461511, 4129.48717921, 4132.17948691, 4198.33333320,8.57
4114.48717921, 4118.58974332, 4116.28205101, 4122.43589716, 4122.82051255, 4086.79487145, 4141.15384595, 4128.20512793, 4084.35897402, 4127.43589716, 4117.94871767, 4126.92307665, 4129.10256383, 4193.84615371,8.57
4130.25640998, 4126.53846126, 4124.35897408, 4125.89743562, 4128.58974332, 4082.82051248, 4137.94871774, 4124.74358947, 4081.02564068, 4130.12820485, 4116.28205101, 4128.20512793, 4129.48717921, 4196.41025628,8.57
4121.53846126, 4124.74358947, 4121.28205101, 4124.87179460, 4122.43589716, 4077.69230735, 4132.05128178, 4122.69230742, 4079.23076889, 4127.82051255, 4119.23076896, 4132.82051255, 4131.28205101, 4195.89743576,8.57
4120.25640998, 4123.07692280, 4119.10256383, 4123.71794844, 4121.92307665, 4087.56410222, 4140.38461518, 4136.79487159, 4098.20512786, 4122.05128178, 4119.61538434, 4129.35897408, 4128.71794844, 4197.56410243,8.57
4129.99999973, 4127.17948691, 4127.05128178, 4127.05128178, 4124.35897408, 4096.79487145, 4151.41025621, 4149.74358954, 4110.89743562, 4124.23076896, 4120.51282024, 4135.89743569, 4132.56410229, 4200.64102551,8.57
4115.12820485, 4119.48717921, 4115.12820485, 4121.15384588, 4118.71794844, 4078.33333299, 4136.53846133, 4128.33333306, 4083.33333299, 4128.33333306, 4118.07692280, 4129.61538434, 4130.25640998, 4195.38461525,8.57
4128.97435870, 4124.61538434, 4122.94871767, 4124.74358947, 4124.10256383, 4061.53846113, 4112.94871767, 4104.87179460, 4064.74358933, 4126.28205101, 4116.66666639, 4126.66666639, 4128.97435870, 4196.41025628,8.57
4125.12820485, 4124.23076896, 4121.92307665, 4125.12820485, 4126.02564075, 4075.25640991, 4121.15384588, 4120.25640998, 4090.76923043, 4125.76923050, 4118.20512793, 4129.74358947, 4132.82051255, 4195.51282038,8.57
4117.30769203, 4123.20512793, 4118.33333306, 4120.51282024, 4124.10256383, 4092.30769196, 4142.43589723, 4148.07692287, 4113.33333306, 4128.07692280, 4116.92307665, 4123.33333306, 4130.89743562, 4194.61538448,8.57
4126.92307665, 4128.46153819, 4129.35897408, 4124.87179460, 4123.71794844, 4099.61538427, 4153.97435877, 4165.76923056, 4121.79487152, 4128.46153819, 4119.48717921, 4130.89743562, 4133.07692280, 4195.38461525,8.57
4115.64102537, 4120.64102537, 4118.20512793, 4122.17948691, 4120.76923050, 4102.30769196, 4154.87179467, 4166.28205108, 4119.87179460, 4126.66666639, 4118.58974332, 4127.56410229, 4132.94871767, 4189.87179474,8.57
4126.41025614, 4127.30769203, 4124.61538434, 4124.87179460, 4125.64102537, 4100.89743555, 4152.05128185, 4162.94871774, 4114.99999973, 4127.30769203, 4116.79487152, 4123.97435870, 4130.64102537, 4195.25641012,8.57
4123.84615357, 4126.92307665, 4126.79487152, 4124.99999973, 4123.07692280, 4103.97435870, 4155.76923056, 4170.51282038, 4124.10256383, 4129.23076896, 4119.74358947, 4132.69230742, 4131.15384588, 4197.82051269,8.57
4117.69230742, 4119.23076896, 4119.87179460, 4121.41025614, 4119.74358947, 4104.61538434, 4157.82051262, 4162.56410236, 4117.05128178, 4126.79487152, 4117.30769203, 4128.71794844, 4128.33333306, 4194.99999986,8.57
4130.76923050, 4126.15384588, 4128.84615357, 4127.94871767, 4123.97435870, 4098.58974325, 4156.15384595, 4150.38461518, 4102.05128171, 4126.79487152, 4118.07692280, 4130.12820485, 4130.76923050, 4197.17948704,8.57
4115.51282024, 4120.76923050, 4115.76923050, 4121.41025614, 4119.10256383, 4099.61538427, 4157.56410236, 4157.94871774, 4111.15384588, 4130.38461511, 4118.97435870, 4125.76923050, 4130.38461511, 4191.28205115,8.57
4124.74358947, 4122.30769203, 4121.53846126, 4120.25640998, 4122.69230742, 4109.74358947, 4164.99999980, 4162.94871774, 4120.89743562, 4129.35897408, 4116.41025614, 4126.28205101, 4129.74358947, 4194.23076910,8.57
4124.61538434, 4123.33333306, 4126.28205101, 4126.02564075, 4124.23076896, 4110.12820485, 4158.58974339, 4152.17948697, 4110.51282024, 4127.94871767, 4119.10256383, 4136.66666646, 4133.84615357, 4200.12820499,8.57
4111.53846126, 4120.12820485, 4113.71794844, 4121.41025614, 4120.25640998, 4105.76923050, 4146.41025621, 4147.17948697, 4106.02564075, 4129.10256383, 4119.23076896, 4126.28205101, 4130.76923050, 4196.66666653,8.57
4129.61538434, 4127.69230742, 4127.05128178, 4123.58974332, 4127.05128178, 4109.99999973, 4149.61538441, 4149.61538441, 4112.82051255, 4127.17948691, 4118.84615357, 4124.87179460, 4130.38461511, 4195.76923063,8.57
4118.58974332, 4121.79487152, 4119.23076896, 4122.82051255, 4123.84615357, 4115.51282024, 4157.82051262, 4154.87179467, 4124.87179460, 4126.15384588, 4118.97435870, 4125.38461511, 4131.41025614, 4192.30769217,8.57
4122.43589716, 4126.15384588, 4118.46153819, 4124.87179460, 4122.94871767, 4126.92307665, 4168.97435884, 4169.48717935, 4144.23076903, 4129.23076896, 4119.74358947, 4123.07692280, 4131.28205101, 4193.46153833,8.57
4126.53846126, 4128.33333306, 4126.15384588, 4124.48717921, 4123.84615357, 4133.33333306, 4169.23076910, 4164.48717928, 4131.41025614, 4129.87179460, 4122.17948691, 4130.25640998, 4133.07692280, 4193.33333320,8.57
4111.02564075, 4118.46153819, 4118.58974332, 4119.48717921, 4120.76923050, 4114.48717921, 4148.20512800, 4138.07692287, 4096.79487145, 4127.94871767, 4119.48717921, 4121.79487152, 4128.07692280, 4191.41025628,8.57
4127.82051255, 4127.30769203, 4130.38461511, 4128.33333306, 4125.64102537, 4100.38461504, 4133.07692280, 4128.07692280, 4090.64102530, 4128.58974332, 4119.23076896, 4123.20512793, 4128.71794844, 4197.30769217,8.57
4117.56410229, 4122.82051255, 4122.17948691, 4123.58974332, 4121.92307665, 4121.92307665, 4158.07692287, 4159.10256390, 4127.56410229, 4127.69230742, 4121.28205101, 4128.97435870, 4133.33333306, 4192.17948704,8.57
4120.64102537, 4121.53846126, 4122.82051255, 4121.15384588, 4123.84615357, 4147.56410236, 4188.97435884, 4189.74358961, 4162.05128185, 4125.38461511, 4119.10256383, 4128.58974332, 4133.71794844, 4193.97435884,8.57
4131.41025614, 4126.15384588, 4132.56410229, 4129.23076896, 4125.64102537, 4146.92307672, 4183.84615371, 4182.56410243, 4154.23076903, 4126.92307665, 4118.46153819, 4134.48717921, 4132.56410229, 4201.15384609,8.57
4113.97435870, 4116.41025614, 4116.28205101, 4122.56410229, 4119.35897408, 4139.23076903, 4169.10256397, 4171.02564089, 4139.10256390, 4126.92307665, 4116.66666639, 4125.89743562, 4128.71794844, 4194.87179474,8.57
4130.25640998, 4123.58974332, 4125.76923050, 4125.12820485, 4124.87179460, 4143.58974339, 4173.58974345, 4178.20512807, 4147.94871774, 4125.51282024, 4118.84615357, 4130.12820485, 4133.07692280, 4197.43589730,8.57
4122.30769203, 4123.46153819, 4121.02564075, 4125.12820485, 4123.71794844, 4158.07692287, 4191.28205115, 4196.28205115, 4168.33333320, 4127.43589716, 4123.07692280, 4133.20512793, 4133.84615357, 4198.84615371,8.57
4116.15384588, 4119.23076896, 4115.89743562, 4119.99999973, 4121.53846126, 4162.82051262, 4194.23076910, 4198.84615371, 4167.69230749, 4127.56410229, 4119.74358947, 4122.69230742, 4127.43589716, 4198.20512807,8.57
4129.35897408, 4124.87179460, 4128.46153819, 4122.56410229, 4122.43589716, 4152.82051262, 4180.64102551, 4186.53846140, 4157.30769210, 4126.92307665, 4117.82051255, 4131.53846126, 4131.79487152, 4198.33333320,8.57
4115.12820485, 4121.28205101, 4116.92307665, 4121.15384588, 4118.84615357, 4147.30769210, 4171.92307679, 4175.12820499, 4147.17948697, 4127.56410229, 4116.79487152, 4127.56410229, 4131.15384588, 4190.64102551,8.57
4127.94871767, 4128.71794844, 4124.74358947, 4127.56410229, 4123.46153819, 4144.99999980, 4167.69230749, 4164.87179467, 4126.79487152, 4129.87179460, 4117.17948691, 4125.25640998, 4129.23076896, 4194.48717935,8.57
4121.02564075, 4126.66666639, 4121.79487152, 4124.87179460, 4118.97435870, 4144.99999980, 4168.58974345, 4170.12820499, 4129.61538434, 4130.89743562, 4118.58974332, 4131.66666639, 4132.94871767, 4193.71794858,8.57
4115.38461511, 4122.05128178, 4116.79487152, 4118.97435870, 4117.43589716, 4149.74358954, 4178.46153833, 4183.33333320, 4149.61538441, 4127.05128178, 4115.51282024, 4125.89743562, 4130.12820485, 4191.15384602,8.57
4130.76923050, 4127.17948691, 4132.82051255, 4127.69230742, 4125.89743562, 4151.92307672, 4182.43589730, 4184.23076910, 4149.35897415, 4126.28205101, 4117.69230742, 4134.23076896, 4130.38461511, 4195.64102551,8.57
4111.66666639, 4118.71794844, 4118.20512793, 4123.20512793, 4120.51282024, 4157.05128185, 4182.69230756, 4182.69230756, 4147.94871774, 4130.25640998, 4119.23076896, 4131.53846126, 4129.99999973, 4192.56410243,8.57
4126.15384588, 4125.12820485, 4120.76923050, 4121.92307665, 4122.69230742, 4175.51282038, 4197.94871781, 4196.02564089, 4169.35897422, 4130.64102537, 4118.97435870, 4128.46153819, 4132.17948691, 4196.53846140,8.57
4128.46153819, 4125.76923050, 4122.82051255, 4123.58974332, 4124.74358947, 4188.20512807, 4204.74358968, 4205.12820506, 4177.82051269, 4127.94871767, 4121.41025614, 4136.66666646, 4135.64102544, 4196.15384602,8.57
4114.99999973, 4119.35897408, 4114.35897408, 4119.87179460, 4120.89743562, 4179.74358961, 4193.20512807, 4201.66666660, 4168.20512807, 4126.79487152, 4120.51282024, 4127.69230742, 4130.12820485, 4192.43589730,8.57
4131.02564075, 4127.05128178, 4126.79487152, 4126.53846126, 4123.07692280, 4163.71794851, 4185.38461525, 4197.69230756, 4159.61538441, 4129.35897408, 4121.53846126, 4130.38461511, 4131.41025614, 4199.74358961,8.57
4117.69230742, 4120.89743562, 4117.69230742, 4123.46153819, 4120.76923050, 4158.33333313, 4180.38461525, 4188.58974345, 4145.38461518, 4129.61538434, 4121.41025614, 4131.41025614, 4133.07692280, 4198.71794858,8.57
4123.20512793, 4123.97435870, 4121.02564075, 4122.82051255, 4123.97435870, 4164.48717928, 4178.20512807, 4186.66666653, 4144.61538441, 4129.99999973, 4120.76923050, 4125.12820485, 4131.53846126, 4196.79487166,8.57
4125.25640998, 4125.25640998, 4126.02564075, 4125.51282024, 4123.84615357, 4166.79487159, 4183.58974345, 4192.56410243, 4157.56410236, 4133.46153819, 4122.82051255, 4128.58974332, 4133.58974332, 4197.43589730,8.57
4112.43589716, 4118.71794844, 4116.28205101, 4122.69230742, 4121.15384588, 4165.64102544, 4185.89743576, 4189.87179474, 4149.35897415, 4131.79487152, 4117.94871767, 4125.12820485, 4131.02564075, 4196.15384602,8.57
4129.99999973, 4127.30769203, 4127.05128178, 4129.61538434, 4126.02564075, 4179.23076910, 4194.23076910, 4195.89743576, 4143.07692287, 4127.30769203, 4116.28205101, 4128.58974332, 4129.74358947, 4197.05128192,8.57
4120.51282024, 4124.23076896, 4122.05128178, 4126.02564075, 4122.43589716, 4204.61538455, 4217.05128199, 4225.51282045, 4178.46153833, 4127.56410229, 4121.41025614, 4129.35897408, 4130.25640998, 4192.17948704,8.57
4120.89743562, 4125.64102537, 4126.28205101, 4121.66666639, 4123.20512793, 4202.30769224, 4213.97435891, 4232.94871788, 4193.58974345, 4129.48717921, 4120.76923050, 4126.53846126, 4129.87179460, 4195.89743576,8.57
4123.84615357, 4127.17948691, 4130.64102537, 4124.23076896, 4123.46153819, 4186.02564089, 4195.89743576, 4218.58974352, 4174.48717935, 4129.87179460, 4119.10256383, 4133.07692280, 4131.41025614, 4197.56410243,8.57
4112.69230742, 4117.94871767, 4115.12820485, 4122.43589716, 4119.48717921, 4191.79487166, 4204.35897429, 4220.76923070, 4177.82051269, 4128.97435870, 4119.74358947, 4127.82051255, 4129.74358947, 4190.25641012,8.57
4130.51282024, 4122.56410229, 4125.38461511, 4127.30769203, 4122.56410229, 4186.66666653, 4199.87179474, 4203.84615378, 4163.84615364, 4126.92307665, 4120.25640998, 4129.99999973, 4131.53846126, 4196.28205115,8.57
4123.07692280, 4121.53846126, 4123.33333306, 4126.02564075, 4119.23076896, 4165.51282031, 4171.66666653, 4168.20512807, 4124.61538434, 4126.41025614, 4118.46153819, 4134.35897408, 4132.17948691, 4201.28205122,8.57
4121.28205101, 4122.69230742, 4118.58974332, 4123.58974332, 4121.92307665, 4175.38461525, 4179.99999986, 4178.84615371, 4137.43589723, 4128.46153819, 4117.56410229, 4126.66666639, 4128.71794844, 4199.99999986,8.57
4127.43589716, 4125.51282024, 4123.97435870, 4125.64102537, 4125.12820485, 4209.74358968, 4212.43589737, 4211.28205122, 4174.87179474, 4128.07692280, 4121.92307665, 4132.43589716, 4132.94871767, 4198.58974345,8.57
4113.97435870, 4118.33333306, 4117.94871767, 4122.17948691, 4118.33333306, 4212.05128199, 4211.53846147, 4205.51282045, 4170.12820499, 4126.15384588, 4119.48717921, 4131.79487152, 4132.17948691, 4195.38461525,8.57
4126.53846126, 4124.74358947, 4128.20512793, 4125.12820485, 4122.82051255, 4192.17948704, 4195.38461525, 4197.17948704, 4160.64102544, 4126.41025614, 4116.79487152, 4126.92307665, 4129.61538434, 4194.99999986,8.57
4117.82051255, 4122.94871767, 4122.94871767, 4122.82051255, 4124.23076896, 4195.76923063, 4199.35897422, 4218.07692301, 4178.46153833, 4128.46153819, 4122.56410229, 4129.74358947, 4131.79487152, 4191.92307679,8.57
4115.12820485, 4122.56410229, 4120.25640998, 4120.51282024, 4123.20512793, 4212.69230763, 4213.71794865, 4227.69230763, 4192.69230756, 4129.23076896, 4124.10256383, 4126.79487152, 4129.99999973, 4193.33333320,8.57
4115.12820485, 4122.56410229, 4120.25640998, 4120.51282024, 4123.20512793, 4212.69230763, 4213.71794865, 4227.69230763, 4192.69230756, 4129.23076896, 4124.10256383, 4126.79487152, 4129.99999973, 4193.33333320,8.57
4127.82051255, 4128.33333306, 4131.02564075, 4126.15384588, 4125.51282024, 4208.58974352, 4209.99999993, 4212.56410250, 4186.92307679, 4129.61538434, 4121.28205101, 4130.76923050, 4130.76923050, 4197.17948704,8.57
4114.10256383, 4119.99999973, 4118.58974332, 4122.43589716, 4122.17948691, 4198.20512807, 4200.89743576, 4206.92307686, 4183.97435884, 4128.33333306, 4119.99999973, 4128.97435870, 4130.38461511, 4191.92307679,8.57
4123.20512793, 4125.38461511, 4122.94871767, 4124.74358947, 4124.48717921, 4203.20512814, 4206.66666660, 4214.74358968, 4187.69230756, 4126.28205101, 4122.43589716, 4128.46153819, 4129.23076896, 4193.58974345,8.57
4119.23076896, 4126.15384588, 4124.23076896, 4125.12820485, 4121.02564075, 4208.33333327, 4209.87179481, 4218.20512814, 4186.79487166, 4126.15384588, 4124.35897408, 4134.35897408, 4131.92307665, 4197.82051269,8.57
4116.02564075, 4120.38461511, 4118.58974332, 4119.61538434, 4121.02564075, 4207.69230763, 4209.23076917, 4224.23076917, 4192.43589730, 4126.02564075, 4119.74358947, 4128.46153819, 4133.46153819, 4197.69230756,8.57
4132.56410229, 4126.02564075, 4127.30769203, 4124.23076896, 4126.53846126, 4208.84615378, 4215.51282045, 4229.99999993, 4197.94871781, 4126.41025614, 4120.38461511, 4131.79487152, 4135.38461518, 4198.46153833,8.57
4119.87179460, 4122.94871767, 4118.46153819, 4123.33333306, 4119.35897408, 4221.79487173, 4228.58974352, 4236.66666667, 4196.66666653, 4126.79487152, 4121.79487152, 4131.92307665, 4134.74358947, 4195.51282038,8.57
4124.74358947, 4123.58974332, 4122.56410229, 4122.82051255, 4122.43589716, 4220.64102558, 4221.53846147, 4227.69230763, 4181.41025628, 4126.53846126, 4119.23076896, 4126.92307665, 4134.10256383, 4196.92307679,8.57
4124.99999973, 4121.15384588, 4124.87179460, 4124.10256383, 4126.02564075, 4191.79487166, 4194.61538448, 4199.74358961, 4164.87179467, 4126.66666639, 4119.87179460, 4133.58974332, 4135.64102544, 4195.25641012,8.57
4116.28205101, 4121.15384588, 4114.87179460, 4122.56410229, 4124.10256383, 4193.58974345, 4205.12820506, 4211.28205122, 4188.46153833, 4128.58974332, 4119.61538434, 4128.33333306, 4132.82051255, 4192.82051269,8.57
4126.53846126, 4129.23076896, 4124.23076896, 4124.10256383, 4126.79487152, 4222.82051275, 4234.35897436, 4248.84615385, 4226.79487173, 4129.99999973, 4121.66666639, 4125.89743562, 4135.12820485, 4198.07692294,8.57
4119.99999973, 4123.58974332, 4123.46153819, 4121.41025614, 4121.41025614, 4207.94871788, 4211.53846147, 4226.92307686, 4199.23076910, 4128.46153819, 4122.69230742, 4128.46153819, 4134.23076896, 4194.99999986,8.57
4129.10256383, 4127.43589716, 4127.82051255, 4125.12820485, 4122.94871767, 4180.12820499, 4185.89743576, 4190.25641012, 4156.02564082, 4127.94871767, 4122.05128178, 4125.89743562, 4129.48717921, 4194.23076910,8.57
4128.33333306, 4127.30769203, 4127.05128178, 4125.64102537, 4124.74358947, 4196.15384602, 4208.46153840, 4210.89743583, 4178.07692294, 4129.35897408, 4124.10256383, 4131.28205101, 4131.92307665, 4198.20512807,8.57
4115.89743562, 4119.10256383, 4115.38461511, 4120.51282024, 4122.69230742, 4202.94871788, 4209.61538455, 4213.07692301, 4178.71794858, 4127.43589716, 4118.58974332, 4127.17948691, 4129.87179460, 4195.12820499,8.57
4130.12820485, 4127.05128178, 4126.28205101, 4126.79487152, 4126.79487152, 4189.74358961, 4192.69230756, 4192.69230756, 4153.58974339, 4126.02564075, 4117.69230742, 4126.15384588, 4129.10256383, 4196.41025628,8.57
4118.84615357, 4123.84615357, 4121.02564075, 4124.10256383, 4122.30769203, 4191.28205115, 4198.84615371, 4203.20512814, 4171.79487166, 4127.94871767, 4124.87179460, 4129.74358947, 4132.43589716, 4197.94871781,8.57
4120.76923050, 4120.38461511, 4118.97435870, 4121.79487152, 4123.20512793, 4185.12820499, 4194.99999986, 4201.41025634, 4174.48717935, 4128.71794844, 4121.66666639, 4126.66666639, 4130.12820485, 4195.64102551,8.57
4131.41025614, 4122.05128178, 4128.46153819, 4128.46153819, 4126.41025614, 4191.92307679, 4205.38461532, 4213.58974352, 4181.02564089, 4130.51282024, 4118.97435870, 4130.76923050, 4130.38461511, 4192.82051269,8.57
4118.71794844, 4117.82051255, 4119.61538434, 4123.07692280, 4120.25640998, 4214.48717942, 4233.46153840, 4251.92307693, 4221.66666660, 4130.25640998, 4122.17948691, 4126.02564075, 4130.38461511, 4192.69230756,8.57
4127.69230742, 4125.38461511, 4125.12820485, 4119.23076896, 4122.17948691, 4206.02564096, 4221.28205122, 4245.38461539, 4215.89743583, 4127.30769203, 4123.20512793, 4127.94871767, 4131.53846126, 4198.97435884,8.57
4122.30769203, 4124.48717921, 4123.20512793, 4120.76923050, 4123.71794844, 4193.97435884, 4207.56410250, 4225.64102558, 4191.66666653, 4127.69230742, 4122.17948691, 4135.51282031, 4131.02564075, 4198.07692294,8.57
4121.02564075, 4120.38461511, 4119.74358947, 4124.35897408, 4124.48717921, 4207.56410250, 4228.33333327, 4238.07692308, 4206.53846147, 4128.84615357, 4120.64102537, 4126.28205101, 4127.43589716, 4195.25641012,8.57
4127.69230742, 4123.20512793, 4126.92307665, 4127.69230742, 4123.97435870, 4212.69230763, 4231.41025634, 4231.92307686, 4203.20512814, 4128.20512793, 4123.07692280, 4126.92307665, 4130.76923050, 4195.12820499,8.57
4114.10256383, 4123.71794844, 4119.10256383, 4122.30769203, 4118.58974332, 4213.97435891, 4224.23076917, 4221.15384609, 4188.58974345, 4127.17948691, 4123.84615357, 4124.61538434, 4130.76923050, 4191.15384602,8.57
4122.82051255, 4131.15384588, 4122.82051255, 4123.46153819, 4121.53846126, 4235.76923077, 4247.82051282, 4249.23076923, 4216.28205122, 4127.56410229, 4121.53846126, 4121.66666639, 4129.35897408, 4193.71794858,8.57
4119.48717921, 4126.02564075, 4121.53846126, 4125.38461511, 4121.02564075, 4238.20512821, 4253.58974359, 4253.84615385, 4225.12820506, 4127.05128178, 4122.56410229, 4129.48717921, 4133.84615357, 4193.71794858,8.57
4119.74358947, 4121.66666639, 4120.89743562, 4125.76923050, 4123.84615357, 4227.05128199, 4239.74358975, 4236.15384616, 4209.61538455, 4125.51282024, 4123.46153819, 4125.64102537, 4131.92307665, 4193.07692294,8.57
4131.28205101, 4127.43589716, 4130.89743562, 4128.20512793, 4128.97435870, 4229.99999993, 4238.20512821, 4236.66666667, 4211.28205122, 4126.28205101, 4123.97435870, 4127.94871767, 4129.99999973, 4198.58974345,8.57
4117.94871767, 4121.53846126, 4120.64102537, 4121.41025614, 4122.43589716, 4222.05128199, 4233.97435898, 4238.07692308, 4216.79487173, 4127.94871767, 4125.51282024, 4130.51282024, 4129.74358947, 4193.71794858,8.57
4125.76923050, 4124.99999973, 4121.28205101, 4122.05128178, 4123.71794844, 4213.46153840, 4233.07692301, 4245.38461539, 4227.05128199, 4127.69230742, 4126.66666639, 4127.94871767, 4130.25640998, 4193.07692294,8.57
4127.82051255, 4126.66666639, 4121.53846126, 4124.23076896, 4122.82051255, 4216.53846147, 4237.17948718, 4246.41025641, 4221.66666660, 4127.94871767, 4124.48717921, 4132.30769203, 4132.56410229, 4198.20512807,8.57
4121.41025614, 4122.69230742, 4118.46153819, 4122.82051255, 4120.89743562, 4216.92307686, 4236.28205129, 4234.74358975, 4203.58974352, 4128.71794844, 4119.74358947, 4126.92307665, 4130.76923050, 4195.89743576,8.57
4124.48717921, 4123.97435870, 4128.58974332, 4126.53846126, 4124.61538434, 4214.74358968, 4238.07692308, 4235.76923077, 4210.76923070, 4128.46153819, 4122.30769203, 4127.69230742, 4132.94871767, 4196.79487166,8.57
4113.20512793, 4117.56410229, 4120.12820485, 4121.92307665, 4120.76923050, 4218.07692301, 4242.56410257, 4243.97435898, 4222.69230763, 4126.53846126, 4124.35897408, 4129.99999973, 4135.76923056, 4196.79487166,8.57
4126.41025614, 4122.69230742, 4120.38461511, 4120.51282024, 4123.84615357, 4225.12820506, 4248.71794872, 4244.61538462, 4218.07692301, 4126.28205101, 4123.46153819, 4122.82051255, 4131.28205101, 4195.76923063,8.57
4128.97435870, 4125.51282024, 4123.71794844, 4124.61538434, 4122.17948691, 4241.28205129, 4265.64102564, 4254.61538462, 4227.43589737, 4126.92307665, 4126.53846126, 4125.12820485, 4130.64102537, 4197.82051269,8.57
4115.76923050, 4120.25640998, 4118.84615357, 4123.33333306, 4119.10256383, 4249.74358975, 4269.10256418, 4258.46153847, 4232.05128199, 4126.02564075, 4124.99999973, 4123.33333306, 4131.41025614, 4195.38461525,8.57
4126.02564075, 4126.41025614, 4127.30769203, 4124.99999973, 4126.41025614, 4235.38461539, 4251.92307693, 4249.23076923, 4224.35897429, 4127.43589716, 4122.56410229, 4124.35897408, 4132.30769203, 4194.48717935,8.57
4121.66666639, 4126.15384588, 4123.58974332, 4124.48717921, 4123.07692280, 4235.76923077, 4260.64102564, 4272.56410264, 4258.20512821, 4128.46153819, 4124.35897408, 4128.46153819, 4132.82051255, 4193.97435884,8.57
4124.61538434, 4127.05128178, 4125.76923050, 4124.35897408, 4121.79487152, 4234.48717949, 4263.97435898, 4273.84615392, 4259.35897436, 4125.89743562, 4123.33333306, 4124.48717921, 4132.17948691, 4196.15384602,8.57
4127.30769203, 4125.38461511, 4127.69230742, 4127.56410229, 4124.10256383, 4226.02564096, 4247.30769231, 4241.02564103, 4212.43589737, 4126.66666639, 4124.61538434, 4129.99999973, 4136.28205108, 4199.35897422,8.57
4117.43589716, 4122.17948691, 4115.89743562, 4124.48717921, 4123.84615357, 4241.28205129, 4263.84615385, 4260.64102564, 4232.17948711, 4128.84615357, 4126.92307665, 4128.97435870, 4133.71794844, 4197.69230756,8.57
4125.38461511, 4127.56410229, 4123.71794844, 4120.76923050, 4125.38461511, 4247.56410257, 4280.89743597, 4286.41025648, 4265.38461539, 4127.82051255, 4128.46153819, 4129.23076896, 4132.56410229, 4199.99999986,8.57
4118.71794844, 4122.43589716, 4123.84615357, 4118.71794844, 4118.71794844, 4238.58974359, 4265.64102564, 4266.79487187, 4243.71794872, 4128.33333306, 4129.10256383, 4135.64102544, 4135.89743569, 4199.87179474,8.57
4119.48717921, 4121.79487152, 4118.84615357, 4118.71794844, 4119.74358947, 4229.74358968, 4245.38461539, 4242.56410257, 4222.05128199, 4130.12820485, 4123.46153819, 4127.05128178, 4132.05128178, 4198.71794858,8.57
4124.99999973, 4126.92307665, 4122.82051255, 4121.02564075, 4124.48717921, 4218.20512814, 4238.84615385, 4242.05128206, 4226.53846147, 4131.02564075, 4124.35897408, 4129.23076896, 4133.97435870, 4200.12820499,8.57
4114.87179460, 4123.84615357, 4118.97435870, 4122.05128178, 4122.56410229, 4226.02564096, 4259.23076923, 4266.15384616, 4246.28205129, 4130.76923050, 4129.10256383, 4131.41025614, 4135.38461518, 4193.46153833,8.57
4123.58974332, 4125.76923050, 4121.79487152, 4123.97435870, 4123.71794844, 4248.07692308, 4284.35897443, 4291.79487187, 4270.00000007, 4128.97435870, 4126.92307665, 4127.17948691, 4133.20512793, 4192.56410243,8.57
4121.92307665, 4125.38461511, 4122.56410229, 4121.66666639, 4121.66666639, 4237.05128206, 4266.41025641, 4273.20512828, 4255.12820513, 4127.43589716, 4124.61538434, 4130.12820485, 4135.64102544, 4196.28205115,8.57
4122.56410229, 4124.48717921, 4122.17948691, 4121.41025614, 4125.12820485, 4231.79487173, 4258.97435898, 4258.20512821, 4234.35897436, 4128.33333306, 4123.46153819, 4123.33333306, 4136.02564082, 4193.46153833,8.57
4128.07692280, 4123.20512793, 4122.30769203, 4124.35897408, 4128.46153819, 4258.33333334, 4291.66666674, 4293.33333341, 4263.84615385, 4127.69230742, 4127.94871767, 4126.15384588, 4137.05128185, 4192.43589730,8.57
4118.97435870, 4120.38461511, 4117.69230742, 4123.20512793, 4122.30769203, 4249.10256411, 4285.38461546, 4292.56410264, 4269.23076930, 4126.02564075, 4127.82051255, 4128.33333306, 4134.23076896, 4192.05128192,8.57
4126.79487152, 4125.89743562, 4127.30769203, 4126.92307665, 4124.35897408, 4226.53846147, 4255.76923077, 4260.12820513, 4236.66666667, 4127.05128178, 4121.92307665, 4122.17948691, 4131.15384588, 4194.35897422,8.57
4123.46153819, 4122.17948691, 4124.87179460, 4126.28205101, 4124.10256383, 4249.48717949, 4277.56410264, 4286.28205136, 4256.66666667, 4127.17948691, 4126.53846126, 4131.15384588, 4136.28205108, 4196.79487166,8.57
4122.05128178, 4122.82051255, 4120.12820485, 4121.66666639, 4123.84615357, 4261.41025641, 4296.79487187, 4313.58974373, 4286.79487187, 4126.28205101, 4128.33333306, 4129.99999973, 4137.05128185, 4194.74358961,8.57
4129.87179460, 4128.97435870, 4128.97435870, 4124.35897408, 4126.28205101, 4233.71794865, 4266.15384616, 4277.05128212, 4255.76923077, 4128.07692280, 4121.53846126, 4127.82051255, 4133.97435870, 4195.76923063,8.57
4119.23076896, 4121.28205101, 4120.76923050, 4124.87179460, 4121.15384588, 4233.71794865, 4261.92307693, 4264.23076923, 4245.51282052, 4129.87179460, 4119.87179460, 4132.30769203, 4132.30769203, 4195.25641012,8.57
4124.35897408, 4121.41025614, 4121.92307665, 4123.84615357, 4123.20512793, 4258.20512821, 4296.02564110, 4303.20512835, 4289.23076930, 4128.58974332, 4125.38461511, 4130.38461511, 4132.94871767, 4195.64102551,8.57
4121.41025614, 4122.56410229, 4124.99999973, 4124.23076896, 4125.25640998, 4250.25641026, 4288.20512828, 4294.61538469, 4282.94871802, 4128.07692280, 4127.43589716, 4132.94871767, 4134.61538434, 4195.76923063,8.57
4118.33333306, 4121.02564075, 4120.38461511, 4124.61538434, 4125.38461511, 4234.61538462, 4262.56410257, 4262.69230770, 4243.97435898, 4128.97435870, 4121.53846126, 4126.53846126, 4131.92307665, 4195.12820499,8.57
4130.38461511, 4124.61538434, 4128.33333306, 4125.12820485, 4126.28205101, 4246.28205129, 4282.56410264, 4283.97435905, 4262.56410257, 4127.43589716, 4122.43589716, 4127.82051255, 4134.10256383, 4199.35897422,8.57
4119.23076896, 4122.69230742, 4123.84615357, 4122.17948691, 4123.20512793, 4257.43589744, 4301.28205142, 4302.94871809, 4283.46153853, 4125.76923050, 4125.76923050, 4131.79487152, 4136.79487159, 4194.99999986,8.57
4119.61538434, 4124.23076896, 4123.84615357, 4125.51282024, 4128.71794844, 4238.58974359, 4269.48717956, 4266.53846154, 4247.43589744, 4126.41025614, 4120.89743562, 4123.46153819, 4130.76923050, 4191.28205115,8.57
4120.51282024, 4123.46153819, 4126.53846126, 4127.30769203, 4125.12820485, 4229.23076917, 4256.02564103, 4252.69230770, 4237.69230770, 4128.46153819, 4121.28205101, 4130.64102537, 4130.51282024, 4196.79487166,8.57
4115.12820485, 4120.25640998, 4119.23076896, 4122.30769203, 4117.17948691, 4245.64102564, 4282.17948725, 4280.12820520, 4267.82051289, 4128.46153819, 4121.15384588, 4129.35897408, 4132.43589716, 4195.64102551,8.57
4125.25640998, 4124.10256383, 4124.74358947, 4124.10256383, 4124.35897408, 4246.41025641, 4281.15384623, 4273.71794879, 4253.33333334, 4128.58974332, 4118.84615357, 4124.35897408, 4133.07692280, 4194.61538448,8.57
4117.05128178, 4119.61538434, 4123.46153819, 4122.82051255, 4124.87179460, 4236.28205129, 4268.07692315, 4259.61538462, 4232.30769224, 4128.58974332, 4120.89743562, 4130.38461511, 4135.51282031, 4195.89743576,8.57
4123.07692280, 4123.07692280, 4124.48717921, 4121.02564075, 4123.07692280, 4236.66666667, 4279.87179495, 4282.56410264, 4257.30769231, 4127.05128178, 4121.53846126, 4127.94871767, 4132.82051255, 4195.64102551,8.57
4129.74358947, 4128.33333306, 4127.17948691, 4123.33333306, 4123.58974332, 4234.35897436, 4277.69230777, 4286.66666674, 4262.69230770, 4126.15384588, 4121.53846126, 4133.46153819, 4132.94871767, 4195.64102551,8.57
4116.28205101, 4120.25640998, 4118.07692280, 4120.76923050, 4120.89743562, 4233.97435898, 4268.20512828, 4271.92307700, 4249.48717949, 4126.15384588, 4118.84615357, 4133.07692280, 4133.71794844, 4193.20512807,8.57
4123.58974332, 4123.84615357, 4123.33333306, 4125.51282024, 4123.84615357, 4243.46153847, 4282.69230777, 4286.92307700, 4268.71794879, 4126.53846126, 4117.94871767, 4125.89743562, 4134.23076896, 4195.89743576,8.57
4121.02564075, 4125.12820485, 4120.25640998, 4126.79487152, 4125.64102537, 4242.43589744, 4286.15384623, 4294.35897443, 4277.05128212, 4127.43589716, 4121.66666639, 4130.25640998, 4135.89743569, 4196.66666653,8.57
4121.92307665, 4124.35897408, 4116.28205101, 4123.07692280, 4127.94871767, 4234.61538462, 4275.76923084, 4275.12820520, 4255.51282052, 4127.05128178, 4119.23076896, 4125.51282024, 4129.74358947, 4194.10256397,8.57
4126.79487152, 4124.87179460, 4125.51282024, 4125.12820485, 4125.89743562, 4231.02564096, 4273.33333341, 4270.38461546, 4249.35897436, 4126.41025614, 4119.48717921, 4126.79487152, 4130.51282024, 4196.53846140,8.57
4114.61538434, 4116.66666639, 4120.25640998, 4123.33333306, 4119.74358947, 4223.97435891, 4266.41025641, 4268.07692315, 4243.58974359, 4127.05128178, 4122.56410229, 4127.94871767, 4134.61538434, 4195.25641012,8.57
4127.30769203, 4121.02564075, 4124.10256383, 4123.71794844, 4124.74358947, 4232.56410250, 4272.56410264, 4265.51282052, 4234.48717949, 4128.33333306, 4120.76923050, 4123.97435870, 4132.43589716, 4193.07692294,8.57
4128.46153819, 4124.99999973, 4127.56410229, 4124.10256383, 4125.12820485, 4237.30769231, 4281.66666674, 4270.64102571, 4240.76923077, 4128.97435870, 4119.61538434, 4131.66666639, 4132.94871767, 4192.17948704,8.57
4118.71794844, 4122.05128178, 4123.71794844, 4121.79487152, 4124.35897408, 4218.33333327, 4268.20512828, 4271.15384623, 4248.33333334, 4128.33333306, 4117.56410229, 4128.84615357, 4128.97435870, 4191.02564089,8.57
4125.25640998, 4124.10256383, 4127.82051255, 4125.51282024, 4127.05128178, 4224.61538455, 4271.53846161, 4280.12820520, 4258.07692308, 4127.05128178, 4120.64102537, 4132.30769203, 4127.69230742, 4195.51282038,8.57
4122.56410229, 4123.33333306, 4119.99999973, 4123.97435870, 4121.53846126, 4243.33333334, 4286.02564110, 4284.87179495, 4260.76923077, 4126.28205101, 4123.46153819, 4132.69230742, 4131.41025614, 4195.25641012,8.57
4128.33333306, 4125.76923050, 4122.30769203, 4120.76923050, 4123.46153819, 4225.89743583, 4267.56410264, 4261.15384616, 4237.94871795, 4127.82051255, 4117.56410229, 4123.46153819, 4131.79487152, 4194.35897422,8.57
4124.23076896, 4124.61538434, 4125.25640998, 4121.41025614, 4125.89743562, 4209.87179481, 4255.25641026, 4257.82051282, 4231.66666660, 4130.38461511, 4118.07692280, 4134.10256383, 4132.43589716, 4194.48717935,8.57
4117.94871767, 4121.41025614, 4117.30769203, 4121.92307665, 4124.35897408, 4223.84615378, 4271.41025648, 4282.94871802, 4253.58974359, 4127.30769203, 4119.48717921, 4131.92307665, 4130.89743562, 4192.56410243,8.57
4128.20512793, 4124.23076896, 4122.94871767, 4123.71794844, 4125.12820485, 4246.41025641, 4293.33333341, 4297.56410264, 4272.94871802, 4127.05128178, 4119.10256383, 4130.38461511, 4134.35897408, 4198.33333320,8.57
4119.48717921, 4122.94871767, 4121.92307665, 4121.79487152, 4122.82051255, 4257.43589744, 4303.20512835, 4302.30769245, 4277.56410264, 4130.38461511, 4119.99999973, 4133.20512793, 4134.10256383, 4199.10256397,8.57
4120.64102537, 4124.61538434, 4121.28205101, 4120.76923050, 4124.87179460, 4233.84615385, 4278.97435905, 4283.07692315, 4250.51282052, 4127.56410229, 4116.41025614, 4122.82051255, 4127.30769203, 4196.15384602,8.57
4124.10256383, 4123.97435870, 4123.07692280, 4123.97435870, 4122.69230742, 4205.38461532, 4252.69230770, 4255.76923077, 4219.35897429, 4126.28205101, 4117.17948691, 4127.43589716, 4131.66666639, 4198.33333320,8.57
4118.71794844, 4122.94871767, 4119.61538434, 4122.30769203, 4121.66666639, 4206.66666660, 4251.66666667, 4247.56410257, 4217.05128199, 4129.74358947, 4118.46153819, 4126.15384588, 4133.07692280, 4195.76923063,8.57
4126.28205101, 4128.58974332, 4126.02564075, 4121.92307665, 4128.07692280, 4194.99999986, 4236.28205129, 4232.56410250, 4209.61538455, 4131.79487152, 4118.46153819, 4125.25640998, 4130.12820485, 4195.38461525,8.57
4122.43589716, 4126.66666639, 4122.43589716, 4126.02564075, 4123.84615357, 4187.05128192, 4230.38461532, 4233.46153840, 4211.28205122, 4129.48717921, 4118.46153819, 4129.23076896, 4130.89743562, 4195.51282038,8.57
4125.38461511, 4126.15384588, 4121.15384588, 4127.43589716, 4122.82051255, 4220.89743583, 4264.74358975, 4273.07692315, 4249.23076923, 4126.28205101, 4117.94871767, 4122.30769203, 4132.05128178, 4196.15384602,8.57
4127.69230742, 4125.89743562, 4128.20512793, 4126.28205101, 4125.12820485, 4245.89743590, 4288.58974366, 4302.94871809, 4280.76923084, 4128.20512793, 4121.79487152, 4131.15384588, 4135.12820485, 4198.46153833,8.57
4117.94871767, 4123.33333306, 4123.07692280, 4123.97435870, 4123.33333306, 4218.33333327, 4264.35897436, 4275.51282059, 4255.64102564, 4129.61538434, 4119.48717921, 4130.89743562, 4130.89743562, 4193.71794858,8.57
4125.51282024, 4126.02564075, 4124.23076896, 4124.48717921, 4123.58974332, 4193.33333320, 4242.30769231, 4239.61538462, 4214.23076917, 4127.56410229, 4117.56410229, 4127.17948691, 4129.99999973, 4194.10256397,8.57
4124.23076896, 4125.12820485, 4123.97435870, 4126.53846126, 4121.66666639, 4215.38461532, 4264.61538462, 4262.43589744, 4230.38461532, 4127.30769203, 4123.46153819, 4135.64102544, 4133.07692280, 4195.76923063,8.57
4120.89743562, 4123.71794844, 4121.28205101, 4124.10256383, 4125.51282024, 4226.53846147, 4280.76923084, 4294.10256418, 4260.51282052, 4128.33333306, 4122.43589716, 4129.61538434, 4129.10256383, 4194.48717935,8.57
4122.43589716, 4121.02564075, 4122.69230742, 4122.17948691, 4125.51282024, 4208.07692301, 4263.71794872, 4282.69230777, 4249.61538462, 4126.92307665, 4119.35897408, 4130.89743562, 4131.28205101, 4198.58974345,8.57
4116.41025614, 4120.51282024, 4116.92307665, 4122.43589716, 4121.41025614, 4206.92307686, 4257.56410257, 4270.64102571, 4237.82051282, 4125.76923050, 4117.69230742, 4128.58974332, 4132.05128178, 4194.35897422,8.57
4123.84615357, 4125.12820485, 4120.76923050, 4122.94871767, 4126.15384588, 4214.10256404, 4267.05128212, 4277.94871802, 4245.12820513, 4128.46153819, 4116.02564075, 4124.23076896, 4129.87179460, 4193.20512807,8.57
4123.97435870, 4123.33333306, 4124.48717921, 4124.48717921, 4125.12820485, 4208.58974352, 4266.79487187, 4275.51282059, 4246.79487180, 4130.12820485, 4117.17948691, 4131.66666639, 4131.41025614, 4196.92307679,8.57
4119.23076896, 4124.10256383, 4120.64102537, 4124.99999973, 4124.87179460, 4203.33333327, 4263.71794872, 4264.61538462, 4236.02564103, 4128.58974332, 4114.99999973, 4123.58974332, 4127.94871767, 4194.99999986,8.57
4121.41025614, 4125.89743562, 4122.43589716, 4126.28205101, 4126.79487152, 4194.10256397, 4251.53846154, 4246.92307693, 4208.97435891, 4126.28205101, 4116.15384588, 4126.66666639, 4129.10256383, 4194.87179474,8.57
4119.48717921, 4123.58974332, 4119.99999973, 4125.25640998, 4123.46153819, 4177.05128192, 4227.94871788, 4225.76923070, 4183.46153833, 4124.48717921, 4117.56410229, 4130.89743562, 4131.41025614, 4190.64102551,8.57
4127.05128178, 4126.15384588, 4124.10256383, 4123.71794844, 4126.28205101, 4182.17948704, 4237.30769231, 4236.53846154, 4202.43589737, 4126.41025614, 4116.79487152, 4124.35897408, 4131.53846126, 4191.02564089,8.57
4123.20512793, 4124.87179460, 4126.28205101, 4123.71794844, 4124.61538434, 4192.56410243, 4255.51282052, 4253.58974359, 4219.99999993, 4128.84615357, 4119.87179460, 4132.94871767, 4133.07692280, 4194.87179474,8.57
4119.74358947, 4121.41025614, 4119.74358947, 4121.41025614, 4122.82051255, 4188.07692294, 4251.79487180, 4253.71794872, 4210.25641019, 4127.43589716, 4117.69230742, 4129.99999973, 4130.12820485, 4193.71794858,8.57
4130.89743562, 4124.35897408, 4125.76923050, 4123.46153819, 4125.38461511, 4198.71794858, 4258.07692308, 4262.94871795, 4221.53846147, 4127.94871767, 4118.20512793, 4130.51282024, 4132.56410229, 4197.69230756,8.57
4124.87179460, 4125.89743562, 4127.30769203, 4126.41025614, 4123.07692280, 4207.56410250, 4259.48717949, 4260.51282052, 4225.89743583, 4129.10256383, 4121.02564075, 4134.61538434, 4133.20512793, 4197.82051269,8.57
4123.84615357, 4124.48717921, 4125.25640998, 4124.61538434, 4123.58974332, 4185.89743576, 4234.48717949, 4235.51282052, 4200.38461525, 4126.66666639, 4116.79487152, 4126.15384588, 4131.41025614, 4197.94871781,8.57
4125.12820485, 4121.02564075, 4125.51282024, 4124.35897408, 4120.64102537, 4177.82051269, 4233.33333327, 4236.79487180, 4202.05128199, 4126.79487152, 4116.41025614, 4132.30769203, 4137.17948697, 4200.89743576,8.57
4121.28205101, 4121.02564075, 4121.02564075, 4122.56410229, 4121.41025614, 4202.43589737, 4264.23076923, 4268.07692315, 4232.43589737, 4129.74358947, 4118.20512793, 4128.33333306, 4132.94871767, 4194.74358961,8.57
4129.23076896, 4125.64102537, 4125.25640998, 4125.12820485, 4128.71794844, 4199.99999986, 4258.58974359, 4271.41025648, 4230.89743583, 4129.61538434, 4119.35897408, 4125.25640998, 4130.25640998, 4194.99999986,8.57
4122.30769203, 4122.82051255, 4124.23076896, 4127.69230742, 4126.41025614, 4173.71794858, 4231.28205122, 4250.12820513, 4209.10256404, 4128.33333306, 4117.17948691, 4129.35897408, 4132.82051255, 4196.02564089,8.57
4120.25640998, 4122.30769203, 4122.43589716, 4123.97435870, 4124.10256383, 4174.74358961, 4232.56410250, 4245.12820513, 4199.61538448, 4127.94871767, 4112.30769203, 4121.15384588, 4127.05128178, 4193.46153833,8.57
4124.87179460, 4125.89743562, 4123.58974332, 4124.10256383, 4123.07692280, 4175.89743576, 4231.28205122, 4244.48717949, 4189.10256397, 4127.94871767, 4116.53846126, 4131.15384588, 4128.97435870, 4197.17948704,8.57
4120.38461511, 4124.87179460, 4119.35897408, 4124.23076896, 4123.33333306, 4173.46153833, 4234.35897436, 4249.35897436, 4193.97435884, 4127.94871767, 4120.51282024, 4129.99999973, 4132.30769203, 4193.46153833,8.57
4125.51282024, 4128.07692280, 4128.20512793, 4125.76923050, 4128.07692280, 4194.10256397, 4259.35897436, 4266.92307700, 4218.33333327, 4128.07692280, 4119.87179460, 4122.56410229, 4129.35897408, 4192.56410243,8.57
4120.64102537, 4124.61538434, 4124.61538434, 4127.56410229, 4124.23076896, 4198.07692294, 4256.02564103, 4258.46153847, 4204.61538455, 4128.97435870, 4118.07692280, 4130.12820485, 4129.74358947, 4194.99999986,8.57
4122.30769203, 4122.17948691, 4118.46153819, 4125.38461511, 4122.94871767, 4171.79487166, 4231.02564096, 4226.92307686, 4166.28205108, 4129.87179460, 4115.38461511, 4124.99999973, 4129.99999973, 4193.97435884,8.57
4127.94871767, 4126.79487152, 4126.28205101, 4124.48717921, 4124.23076896, 4163.33333313, 4232.82051275, 4226.66666660, 4179.99999986, 4128.07692280, 4120.89743562, 4127.69230742, 4134.48717921, 4196.53846140,8.57
4118.46153819, 4122.56410229, 4119.10256383, 4121.28205101, 4122.05128178, 4179.61538448, 4243.84615385, 4242.94871795, 4209.87179481, 4126.66666639, 4121.79487152, 4126.28205101, 4134.35897408, 4192.82051269,8.57
4126.92307665, 4123.20512793, 4121.92307665, 4122.82051255, 4125.38461511, 4186.79487166, 4238.20512821, 4230.25641019, 4188.20512807, 4128.07692280, 4116.79487152, 4127.82051255, 4132.30769203, 4193.84615371,8.57
4121.79487152, 4122.43589716, 4123.07692280, 4123.07692280, 4122.82051255, 4168.33333320, 4220.76923070, 4202.94871788, 4155.38461518, 4129.48717921, 4118.07692280, 4140.38461518, 4134.99999973, 4197.05128192,8.57
4114.74358947, 4120.89743562, 4117.82051255, 4120.25640998, 4121.79487152, 4149.87179467, 4204.87179481, 4193.46153833, 4151.53846133, 4128.84615357, 4117.82051255, 4128.46153819, 4131.66666639, 4195.64102551,8.57
4127.30769203, 4127.43589716, 4126.53846126, 4124.87179460, 4127.17948691, 4148.84615364, 4196.79487166, 4188.71794858, 4145.12820492, 4129.74358947, 4119.87179460, 4127.69230742, 4133.58974332, 4198.20512807,8.57
4118.33333306, 4123.33333306, 4121.79487152, 4122.05128178, 4125.12820485, 4149.35897415, 4198.33333320, 4186.28205115, 4141.41025621, 4130.25640998, 4119.23076896, 4128.33333306, 4132.82051255, 4191.66666653,8.57
4121.66666639, 4121.53846126, 4125.64102537, 4123.46153819, 4124.35897408, 4151.79487159, 4209.23076917, 4199.74358961, 4160.76923056, 4128.71794844, 4115.51282024, 4123.07692280, 4126.28205101, 4190.38461525,8.57
4124.99999973, 4123.46153819, 4129.99999973, 4128.46153819, 4121.66666639, 4166.79487159, 4224.23076917, 4220.12820506, 4182.17948704, 4127.69230742, 4118.84615357, 4133.46153819, 4129.74358947, 4195.38461525,8.57
4119.10256383, 4122.05128178, 4121.41025614, 4123.84615357, 4121.41025614, 4169.35897422, 4226.92307686, 4221.15384609, 4183.97435884, 4127.56410229, 4116.53846126, 4124.61538434, 4130.25640998, 4192.17948704,8.57
4127.30769203, 4126.79487152, 4126.53846126, 4126.41025614, 4125.89743562, 4145.51282031, 4204.35897429, 4196.02564089, 4158.71794851, 4127.82051255, 4113.46153819, 4124.99999973, 4134.99999973, 4194.74358961,8.57
4120.12820485, 4125.51282024, 4121.02564075, 4124.99999973, 4124.35897408, 4145.12820492, 4200.76923063, 4195.51282038, 4154.61538441, 4126.28205101, 4115.12820485, 4131.66666639, 4138.33333313, 4194.61538448,8.57
4123.58974332, 4126.66666639, 4123.58974332, 4123.71794844, 4125.51282024, 4161.41025621, 4219.87179481, 4216.28205122, 4171.79487166, 4126.02564075, 4114.23076896, 4128.20512793, 4132.69230742, 4195.51282038,8.57
4124.10256383, 4124.61538434, 4131.02564075, 4126.41025614, 4125.25640998, 4152.56410236, 4215.64102558, 4207.69230763, 4162.17948697, 4129.99999973, 4116.41025614, 4132.94871767, 4133.71794844, 4197.43589730,8.57
4115.51282024, 4119.99999973, 4119.10256383, 4120.38461511, 4124.35897408, 4147.05128185, 4203.58974352, 4191.41025628, 4148.71794851, 4131.41025614, 4116.41025614, 4123.71794844, 4133.58974332, 4192.82051269,8.57
4127.94871767, 4128.20512793, 4121.92307665, 4122.82051255, 4126.92307665, 4156.41025621, 4210.89743583, 4199.48717935, 4159.35897415, 4128.71794844, 4114.99999973, 4129.61538434, 4135.38461518, 4198.20512807,8.57
4120.25640998, 4125.38461511, 4120.76923050, 4125.64102537, 4124.35897408, 4154.35897415, 4216.92307686, 4206.92307686, 4164.10256390, 4127.94871767, 4112.43589716, 4135.38461518, 4136.02564082, 4198.71794858,8.57
4118.46153819, 4123.84615357, 4120.89743562, 4123.20512793, 4126.28205101, 4137.82051262, 4201.28205122, 4191.66666653, 4146.15384595, 4129.23076896, 4110.12820485, 4122.05128178, 4129.35897408, 4194.10256397,8.57
4125.12820485, 4127.30769203, 4124.48717921, 4125.38461511, 4126.53846126, 4121.28205101, 4180.51282038, 4173.07692294, 4129.10256383, 4129.61538434, 4114.61538434, 4129.61538434, 4133.20512793, 4198.46153833,8.57
4119.48717921, 4120.89743562, 4115.38461511, 4122.43589716, 4124.10256383, 4119.48717921, 4181.02564089, 4172.56410243, 4127.56410229, 4128.71794844, 4113.71794844, 4126.02564075, 4134.87179460, 4197.05128192,8.57
4129.74358947, 4124.74358947, 4124.74358947, 4123.46153819, 4125.25640998, 4134.35897408, 4198.46153833, 4189.35897422, 4139.87179467, 4128.71794844, 4111.79487152, 4121.92307665, 4131.02564075, 4196.02564089,8.57
4125.89743562, 4125.25640998, 4125.25640998, 4124.87179460, 4121.53846126, 4130.51282024, 4194.61538448, 4189.10256397, 4141.53846133, 4129.35897408, 4113.46153819, 4129.10256383, 4132.69230742, 4196.02564089,8.57
4122.17948691, 4121.02564075, 4122.30769203, 4124.74358947, 4125.12820485, 4117.56410229, 4189.10256397, 4187.82051269, 4141.02564082, 4129.23076896, 4112.05128178, 4122.56410229, 4131.92307665, 4193.58974345,8.57
4125.89743562, 4124.23076896, 4131.02564075, 4127.69230742, 4128.58974332, 4137.94871774, 4212.56410250, 4212.82051275, 4159.74358954, 4129.10256383, 4114.48717921, 4128.84615357, 4133.46153819, 4195.12820499,8.57
4116.41025614, 4124.61538434, 4122.69230742, 4119.99999973, 4123.20512793, 4140.12820492, 4209.10256404, 4207.30769224, 4154.61538441, 4128.07692280, 4113.71794844, 4127.69230742, 4132.82051255, 4195.25641012,8.57
4125.51282024, 4127.94871767, 4125.51282024, 4122.05128178, 4122.69230742, 4112.30769203, 4179.35897422, 4171.41025628, 4122.43589716, 4127.82051255, 4111.53846126, 4127.17948691, 4131.92307665, 4199.87179474,8.57
4124.61538434, 4124.87179460, 4125.89743562, 4128.07692280, 4121.15384588, 4121.28205101, 4191.02564089, 4179.10256397, 4125.89743562, 4129.35897408, 4115.64102537, 4135.64102544, 4135.12820485, 4198.58974345,8.57
4117.94871767, 4119.99999973, 4117.17948691, 4123.33333306, 4120.38461511, 4139.87179467, 4216.92307686, 4203.71794865, 4149.10256390, 4128.46153819, 4112.82051255, 4124.61538434, 4130.76923050, 4194.10256397,8.57
4123.71794844, 4124.87179460, 4121.53846126, 4126.92307665, 4123.33333306, 4138.71794851, 4216.79487173, 4203.33333327, 4155.89743569, 4127.94871767, 4111.92307665, 4132.56410229, 4132.56410229, 4203.33333327,8.57
4117.43589716, 4124.23076896, 4116.15384588, 4125.12820485, 4124.10256383, 4141.79487159, 4211.02564096, 4195.51282038, 4151.79487159, 4127.82051255, 4113.20512793, 4131.41025614, 4135.51282031, 4197.56410243,8.57
4122.43589716, 4126.53846126, 4120.64102537, 4122.56410229, 4124.74358947, 4128.97435870, 4193.97435884, 4169.99999986, 4124.10256383, 4126.79487152, 4111.02564075, 4119.10256383, 4131.28205101, 4189.23076910,8.57
4122.43589716, 4123.84615357, 4125.89743562, 4125.25640998, 4122.56410229, 4120.76923050, 4191.79487166, 4165.12820492, 4122.56410229, 4127.30769203, 4113.71794844, 4130.12820485, 4132.17948691, 4197.56410243,8.57
4117.43589716, 4116.41025614, 4118.20512793, 4124.48717921, 4123.84615357, 4135.89743569, 4203.58974352, 4182.69230756, 4140.25641005, 4126.92307665, 4113.07692280, 4125.64102537, 4131.41025614, 4196.92307679,8.57
4123.97435870, 4123.33333306, 4125.25640998, 4125.64102537, 4126.41025614, 4128.46153819, 4183.33333320, 4160.38461518, 4114.61538434, 4127.05128178, 4113.20512793, 4127.17948691, 4133.20512793, 4192.82051269,8.57
4116.41025614, 4125.25640998, 4124.23076896, 4122.30769203, 4123.97435870, 4114.74358947, 4169.35897422, 4141.28205108, 4098.58974325, 4129.87179460, 4116.92307665, 4129.35897408, 4133.58974332, 4192.05128192,8.57
4123.07692280, 4125.51282024, 4124.10256383, 4125.64102537, 4123.84615357, 4136.02564082, 4196.15384602, 4175.51282038, 4133.58974332, 4130.64102537, 4115.89743562, 4122.05128178, 4130.12820485, 4198.58974345,8.57
4128.84615357, 4127.17948691, 4127.69230742, 4130.51282024, 4122.30769203, 4137.56410236, 4197.94871781, 4189.99999986, 4140.38461518, 4128.97435870, 4114.10256383, 4131.15384588, 4134.35897408, 4201.15384609,8.57
4120.76923050, 4123.97435870, 4121.53846126, 4123.07692280, 4122.56410229, 4124.23076896, 4184.23076910, 4176.15384602, 4128.97435870, 4128.71794844, 4112.69230742, 4127.43589716, 4131.92307665, 4191.15384602,8.57
4128.97435870, 4127.82051255, 4124.87179460, 4124.61538434, 4126.28205101, 4138.58974339, 4198.20512807, 4185.25641012, 4146.79487159, 4130.76923050, 4116.79487152, 4130.38461511, 4131.92307665, 4195.89743576,8.57
4124.99999973, 4124.35897408, 4121.41025614, 4128.07692280, 4124.99999973, 4133.84615357, 4190.89743576, 4181.28205115, 4135.76923056, 4129.10256383, 4117.17948691, 4135.51282031, 4134.99999973, 4197.82051269,8.57
4120.89743562, 4121.41025614, 4121.66666639, 4125.51282024, 4123.97435870, 4124.35897408, 4183.97435884, 4177.05128192, 4126.53846126, 4124.99999973, 4112.69230742, 4128.07692280, 4131.41025614, 4194.61538448,8.57
4124.48717921, 4124.87179460, 4127.82051255, 4123.33333306, 4124.35897408, 4142.17948697, 4207.56410250, 4195.12820499, 4152.82051262, 4125.89743562, 4116.79487152, 4136.79487159, 4136.15384595, 4202.69230763,8.57
4118.20512793, 4121.53846126, 4117.69230742, 4117.05128178, 4123.58974332, 4150.89743569, 4212.17948711, 4196.53846140, 4153.20512800, 4129.48717921, 4114.87179460, 4129.10256383, 4132.56410229, 4198.84615371,8.57
4123.71794844, 4124.23076896, 4120.12820485, 4122.05128178, 4124.35897408, 4145.25641005, 4202.94871788, 4194.35897422, 4143.97435877, 4128.97435870, 4111.02564075, 4125.12820485, 4129.23076896, 4194.35897422,8.57
4122.05128178, 4125.38461511, 4123.20512793, 4125.51282024, 4123.46153819, 4134.35897408, 4193.97435884, 4192.69230756, 4144.61538441, 4127.94871767, 4114.74358947, 4132.69230742, 4136.66666646, 4192.17948704,8.57
4117.82051255, 4122.43589716, 4121.41025614, 4122.17948691, 4121.92307665, 4118.46153819, 4176.41025628, 4165.76923056, 4122.94871767, 4129.10256383, 4112.05128178, 4121.66666639, 4134.99999973, 4191.53846140,8.57
4122.05128178, 4124.87179460, 4127.05128178, 4128.46153819, 4122.43589716, 4120.12820485, 4174.48717935, 4147.69230749, 4104.23076896, 4129.61538434, 4110.51282024, 4127.56410229, 4134.10256383, 4197.69230756,8.57
4118.71794844, 4122.82051255, 4121.79487152, 4125.76923050, 4123.84615357, 4123.46153819, 4177.43589730, 4155.64102544, 4106.28205101, 4129.10256383, 4109.23076896, 4127.05128178, 4131.79487152, 4191.28205115,8.57
4120.76923050, 4121.53846126, 4126.15384588, 4122.82051255, 4124.35897408, 4114.35897408, 4170.38461525, 4161.15384595, 4109.61538434, 4127.17948691, 4109.10256383, 4125.64102537, 4131.53846126, 4190.64102551,8.57
4119.99999973, 4119.61538434, 4128.46153819, 4125.64102537, 4125.12820485, 4132.30769203, 4191.79487166, 4183.07692294, 4135.51282031, 4127.30769203, 4111.66666639, 4135.89743569, 4135.76923056, 4196.28205115,8.57
4123.58974332, 4122.69230742, 4122.17948691, 4123.84615357, 4127.05128178, 4148.20512800, 4210.25641019, 4203.58974352, 4157.05128185, 4129.61538434, 4108.84615357, 4127.17948691, 4129.23076896, 4190.51282038,8.57
4129.87179460, 4130.12820485, 4127.05128178, 4126.66666639, 4124.99999973, 4125.12820485, 4187.56410243, 4188.84615371, 4140.51282031, 4128.97435870, 4112.56410229, 4132.05128178, 4130.89743562, 4191.15384602,8.57
4119.48717921, 4123.97435870, 4122.17948691, 4124.10256383, 4123.46153819, 4115.25640998, 4179.87179474, 4183.58974345, 4136.66666646, 4129.10256383, 4112.43589716, 4129.99999973, 4135.25640998, 4193.58974345,8.57
4123.07692280, 4123.07692280, 4121.02564075, 4119.35897408, 4124.74358947, 4125.89743562, 4192.30769217, 4197.30769217, 4152.30769210, 4129.23076896, 4108.46153819, 4125.89743562, 4133.84615357, 4198.58974345,8.57
4125.89743562, 4125.64102537, 4120.64102537, 4119.74358947, 4122.05128178, 4124.61538434, 4187.43589730, 4196.02564089, 4151.28205108, 4127.56410229, 4113.84615357, 4136.92307672, 4134.99999973, 4200.51282038,8.57
4117.94871767, 4123.20512793, 4115.25640998, 4120.38461511, 4122.82051255, 4122.30769203, 4183.33333320, 4181.79487166, 4136.41025621, 4128.07692280, 4112.82051255, 4125.51282024, 4130.51282024, 4195.12820499,8.57
4120.25640998, 4127.30769203, 4124.10256383, 4123.58974332, 4125.64102537, 4124.23076896, 4185.51282038, 4176.66666653, 4129.87179460, 4129.35897408, 4108.84615357, 4127.82051255, 4131.79487152, 4201.41025634,8.57
4116.66666639, 4124.61538434, 4121.02564075, 4119.35897408, 4123.84615357, 4112.30769203, 4165.89743569, 4166.79487159, 4117.56410229, 4128.07692280, 4105.89743562, 4130.25640998, 4131.92307665, 4197.69230756,8.57
4122.69230742, 4122.82051255, 4120.12820485, 4121.15384588, 4123.58974332, 4101.53846119, 4144.87179467, 4144.99999980, 4098.97435863, 4127.82051255, 4104.74358947, 4123.97435870, 4130.38461511, 4191.15384602,8.57
4128.33333306, 4126.02564075, 4125.25640998, 4128.33333306, 4125.38461511, 4103.46153819, 4144.87179467, 4132.05128178, 4095.38461504, 4128.46153819, 4109.35897408, 4132.56410229, 4134.99999973, 4195.38461525,8.57
4120.25640998, 4123.33333306, 4120.25640998, 4123.58974332, 4127.56410229, 4107.56410229, 4150.64102544, 4139.61538441, 4107.43589716, 4127.05128178, 4108.84615357, 4125.25640998, 4129.35897408, 4193.97435884,8.57
4123.20512793, 4124.35897408, 4127.30769203, 4127.05128178, 4127.05128178, 4137.69230749, 4180.76923063, 4177.82051269, 4141.92307672, 4130.25640998, 4111.79487152, 4131.02564075, 4130.89743562, 4195.89743576,8.57
4121.28205101, 4125.38461511, 4125.89743562, 4127.82051255, 4124.35897408, 4166.92307672, 4208.20512814, 4201.28205122, 4167.05128185, 4132.56410229, 4116.02564075, 4132.82051255, 4133.84615357, 4194.10256397,8.57
4123.46153819, 4125.64102537, 4123.07692280, 4121.79487152, 4124.61538434, 4141.41025621, 4176.53846140, 4167.94871774, 4137.30769210, 4128.58974332, 4114.10256383, 4121.02564075, 4129.74358947, 4193.97435884,8.57
4127.94871767, 4126.02564075, 4129.23076896, 4123.20512793, 4124.99999973, 4108.20512793, 4138.97435877, 4132.05128178, 4096.15384581, 4126.92307665, 4114.48717921, 4131.15384588, 4133.97435870, 4199.23076910,8.57
4122.43589716, 4122.94871767, 4121.02564075, 4121.15384588, 4124.99999973, 4122.94871767, 4161.15384595, 4148.33333313, 4107.30769203, 4126.02564075, 4110.64102537, 4128.07692280, 4134.10256383, 4195.89743576,8.57
4126.79487152, 4124.35897408, 4123.33333306, 4122.82051255, 4126.66666639, 4132.05128178, 4177.05128192, 4160.51282031, 4116.02564075, 4125.76923050, 4108.71794844, 4132.56410229, 4136.53846133, 4200.76923063,8.57
4122.94871767, 4123.46153819, 4123.33333306, 4123.20512793, 4124.48717921, 4111.92307665, 4151.28205108, 4138.84615364, 4089.87179453, 4127.69230742, 4110.89743562, 4136.53846133, 4138.33333313, 4200.38461525,8.57
4120.12820485, 4121.92307665, 4119.10256383, 4118.97435870, 4121.92307665, 4107.69230742, 4144.10256390, 4133.97435870, 4083.97435863, 4128.33333306, 4109.23076896, 4123.71794844, 4132.43589716, 4195.38461525,8.57
4122.43589716, 4124.61538434, 4125.25640998, 4122.43589716, 4123.97435870, 4119.99999973, 4158.46153826, 4144.61538441, 4095.76923043, 4128.20512793, 4110.64102537, 4132.56410229, 4136.15384595, 4198.33333320,8.57
4114.61538434, 4120.89743562, 4119.10256383, 4122.05128178, 4127.17948691, 4139.99999980, 4182.82051269, 4172.69230756, 4124.74358947, 4127.69230742, 4110.12820485, 4126.92307665, 4135.76923056, 4192.82051269,8.57
4122.05128178, 4121.79487152, 4121.02564075, 4123.07692280, 4128.71794844, 4142.17948697, 4185.89743576, 4186.66666653, 4141.41025621, 4128.07692280, 4111.41025614, 4123.97435870, 4133.20512793, 4191.79487166,8.57
4125.51282024, 4124.61538434, 4125.64102537, 4124.23076896, 4124.23076896, 4117.17948691, 4156.15384595, 4158.33333313, 4117.17948691, 4130.51282024, 4111.02564075, 4130.64102537, 4133.84615357, 4191.53846140,8.57
4120.38461511, 4123.97435870, 4122.17948691, 4122.30769203, 4123.07692280, 4112.17948691, 4149.35897415, 4143.20512800, 4104.74358947, 4130.89743562, 4104.87179460, 4120.38461511, 4131.15384588, 4191.02564089,8.57
4123.33333306, 4123.84615357, 4122.05128178, 4126.15384588, 4126.28205101, 4140.12820492, 4178.46153833, 4173.46153833, 4139.74358954, 4128.97435870, 4109.35897408, 4129.48717921, 4135.64102544, 4197.17948704,8.57
4122.17948691, 4121.41025614, 4116.79487152, 4124.23076896, 4124.23076896, 4150.89743569, 4185.25641012, 4185.12820499, 4155.12820492, 4127.69230742, 4113.07692280, 4130.12820485, 4134.48717921, 4192.05128192,8.57
4128.46153819, 4127.82051255, 4126.79487152, 4122.82051255, 4121.41025614, 4128.20512793, 4158.07692287, 4151.53846133, 4117.43589716, 4128.07692280, 4112.69230742, 4128.97435870, 4131.92307665, 4193.33333320,8.57
4125.64102537, 4128.33333306, 4130.76923050, 4124.87179460, 4122.56410229, 4116.66666639, 4147.43589723, 4137.43589723, 4096.92307658, 4129.10256383, 4112.82051255, 4134.74358947, 4134.99999973, 4195.89743576,8.57
4119.35897408, 4122.43589716, 4119.74358947, 4122.94871767, 4125.51282024, 4132.43589716, 4160.89743569, 4158.20512800, 4119.23076896, 4128.20512793, 4109.61538434, 4124.23076896, 4132.30769203, 4194.99999986,8.57
4126.92307665, 4125.89743562, 4122.82051255, 4125.38461511, 4126.28205101, 4135.51282031, 4167.17948697, 4173.07692294, 4137.56410236, 4126.53846126, 4114.23076896, 4133.97435870, 4135.89743569, 4198.58974345,8.57
4121.92307665, 4120.38461511, 4119.23076896, 4120.38461511, 4123.97435870, 4109.74358947, 4143.84615364, 4150.12820492, 4112.05128178, 4127.05128178, 4112.56410229, 4129.48717921, 4135.89743569, 4192.94871781,8.57
4121.41025614, 4120.12820485, 4120.64102537, 4116.79487152, 4121.79487152, 4102.69230742, 4127.30769203, 4124.48717921, 4087.56410222, 4129.23076896, 4105.51282024, 4121.02564075, 4133.33333306, 4198.07692294,8.57
4120.64102537, 4124.48717921, 4123.07692280, 4120.25640998, 4121.41025614, 4114.10256383, 4136.02564082, 4130.12820485, 4096.79487145, 4129.35897408, 4108.33333306, 4131.66666639, 4133.20512793, 4202.56410250,8.57
4117.82051255, 4120.76923050, 4114.61538434, 4119.35897408, 4124.74358947, 4122.17948691, 4153.33333313, 4151.53846133, 4116.28205101, 4127.30769203, 4109.23076896, 4122.17948691, 4129.87179460, 4194.10256397,8.57
4127.69230742, 4123.20512793, 4122.82051255, 4124.61538434, 4125.51282024, 4154.23076903, 4191.28205115, 4194.48717935, 4158.58974339, 4128.46153819, 4110.12820485, 4126.28205101, 4136.92307672, 4194.99999986,8.57
4119.48717921, 4121.66666639, 4123.20512793, 4123.84615357, 4122.69230742, 4173.33333320, 4205.76923070, 4211.15384609, 4177.30769217, 4130.76923050, 4111.79487152, 4127.30769203, 4131.92307665, 4190.51282038,8.57
4121.66666639, 4122.43589716, 4123.97435870, 4121.79487152, 4126.41025614, 4134.23076896, 4161.41025621, 4167.69230749, 4138.84615364, 4131.28205101, 4112.05128178, 4122.69230742, 4124.35897408, 4191.41025628,8.57
4126.02564075, 4125.38461511, 4128.58974332, 4125.38461511, 4125.25640998, 4107.56410229, 4134.23076896, 4139.10256390, 4119.61538434, 4130.12820485, 4112.05128178, 4133.97435870, 4134.87179460, 4197.30769217,8.57
4115.38461511, 4120.25640998, 4120.25640998, 4120.89743562, 4120.89743562, 4139.87179467, 4166.66666646, 4165.38461518, 4147.69230749, 4128.71794844, 4107.43589716, 4125.12820485, 4132.94871767, 4192.30769217,8.57
4127.82051255, 4122.43589716, 4126.53846126, 4124.61538434, 4125.76923050, 4148.46153826, 4168.71794858, 4163.84615364, 4136.92307672, 4129.74358947, 4109.10256383, 4130.89743562, 4128.97435870, 4196.02564089,8.57
4125.12820485, 4122.94871767, 4122.17948691, 4125.64102537, 4125.12820485, 4117.82051255, 4129.35897408, 4124.87179460, 4093.71794837, 4130.38461511, 4109.23076896, 4133.46153819, 4129.87179460, 4194.99999986,8.57
4122.17948691, 4125.51282024, 4121.66666639, 4121.53846126, 4120.51282024, 4111.15384588, 4125.51282024, 4120.76923050, 4094.35897402, 4127.43589716, 4106.79487152, 4123.07692280, 4129.74358947, 4195.64102551,8.57
4126.53846126, 4126.41025614, 4127.94871767, 4124.87179460, 4120.76923050, 4115.89743562, 4133.07692280, 4126.28205101, 4102.05128171, 4127.94871767, 4110.12820485, 4134.74358947, 4136.28205108, 4198.33333320,8.57
4117.30769203, 4116.92307665, 4113.71794844, 4119.99999973, 4123.33333306, 4117.69230742, 4132.05128178, 4122.05128178, 4096.79487145, 4130.38461511, 4104.87179460, 4127.56410229, 4134.99999973, 4192.69230756,8.57
4127.30769203, 4121.92307665, 4123.71794844, 4120.64102537, 4125.89743562, 4133.97435870, 4151.02564082, 4141.02564082, 4116.41025614, 4129.74358947, 4103.07692280, 4127.17948691, 4132.69230742, 4201.15384609,8.57
4119.87179460, 4124.23076896, 4125.25640998, 4122.43589716, 4122.17948691, 4149.61538441, 4166.92307672, 4158.71794851, 4139.48717928, 4128.20512793, 4106.02564075, 4129.35897408, 4132.30769203, 4198.84615371,8.57
4116.28205101, 4123.46153819, 4117.69230742, 4122.69230742, 4124.74358947, 4144.23076903, 4155.51282031, 4148.84615364, 4131.28205101, 4126.02564075, 4103.84615357, 4119.10256383, 4131.41025614, 4190.51282038,8.57
4125.51282024, 4126.79487152, 4126.02564075, 4128.33333306, 4128.20512793, 4132.30769203, 4147.43589723, 4145.64102544, 4123.97435870, 4127.05128178, 4106.53846126, 4128.20512793, 4136.79487159, 4192.69230756,8.57
4111.92307665, 4120.25640998, 4118.58974332, 4121.53846126, 4122.56410229, 4128.46153819, 4153.58974339, 4159.74358954, 4142.69230749, 4129.23076896, 4107.05128178, 4121.41025614, 4132.56410229, 4190.38461525,8.57
4123.84615357, 4124.87179460, 4125.38461511, 4123.33333306, 4124.48717921, 4125.89743562, 4146.15384595, 4153.71794851, 4147.17948697, 4128.84615357, 4107.94871767, 4124.35897408, 4133.71794844, 4198.33333320,8.57
4126.02564075, 4124.10256383, 4125.51282024, 4128.46153819, 4125.38461511, 4131.41025614, 4142.43589723, 4143.20512800, 4138.20512800, 4129.74358947, 4109.74358947, 4132.17948691, 4137.30769210, 4197.43589730,8.57
4119.48717921, 4119.99999973, 4120.64102537, 4125.89743562, 4125.76923050, 4137.69230749, 4151.41025621, 4143.46153826, 4129.23076896, 4131.41025614, 4106.02564075, 4122.94871767, 4129.87179460, 4191.79487166,8.57
4130.38461511, 4129.48717921, 4133.33333306, 4128.71794844, 4127.82051255, 4129.74358947, 4141.92307672, 4134.10256383, 4114.87179460, 4131.28205101, 4108.46153819, 4134.61538434, 4131.02564075, 4197.05128192,8.57
4117.94871767, 4124.61538434, 4122.43589716, 4120.51282024, 4123.20512793, 4133.58974332, 4140.25641005, 4135.38461518, 4120.25640998, 4129.23076896, 4108.97435870, 4128.58974332, 4131.53846126, 4192.30769217,8.57
4126.53846126, 4123.97435870, 4124.87179460, 4123.58974332, 4124.23076896, 4152.05128185, 4159.23076903, 4148.20512800, 4131.53846126, 4129.74358947, 4108.07692280, 4127.82051255, 4135.25640998, 4196.53846140,8.57
4126.92307665, 4126.02564075, 4129.10256383, 4129.23076896, 4124.23076896, 4141.41025621, 4144.48717928, 4134.74358947, 4112.05128178, 4130.25640998, 4108.71794844, 4137.30769210, 4137.30769210, 4198.33333320,8.57
4114.23076896, 4122.17948691, 4119.48717921, 4118.84615357, 4123.46153819, 4111.41025614, 4114.74358947, 4116.66666639, 4098.33333299, 4127.05128178, 4105.12820485, 4122.30769203, 4128.84615357, 4194.10256397,8.57
4125.89743562, 4126.79487152, 4128.20512793, 4120.51282024, 4126.15384588, 4129.23076896, 4142.43589723, 4149.48717928, 4138.97435877, 4128.20512793, 4109.23076896, 4128.33333306, 4134.35897408, 4198.97435884,8.57
4111.15384588, 4122.05128178, 4116.53846126, 4120.76923050, 4120.25640998, 4169.99999986, 4183.33333320, 4192.30769217, 4182.30769217, 4130.51282024, 4109.35897408, 4125.25640998, 4135.51282031, 4192.17948704,8.57
4116.02564075, 4125.38461511, 4118.71794844, 4123.58974332, 4120.25640998, 4153.07692287, 4159.87179467, 4169.35897422, 4155.76923056, 4130.38461511, 4105.51282024, 4120.76923050, 4131.15384588, 4193.20512807,8.57
4123.71794844, 4127.56410229, 4127.56410229, 4127.30769203, 4123.84615357, 4126.53846126, 4136.02564082, 4137.69230749, 4121.66666639, 4130.51282024, 4109.48717921, 4133.07692280, 4133.46153819, 4194.10256397,8.57
4111.02564075, 4119.74358947, 4115.51282024, 4121.66666639, 4124.23076896, 4154.87179467, 4166.79487159, 4167.94871774, 4152.05128185, 4130.38461511, 4108.84615357, 4118.71794844, 4129.61538434, 4187.69230756,8.57
4126.53846126, 4128.20512793, 4128.97435870, 4128.71794844, 4127.43589716, 4176.15384602, 4180.12820499, 4187.82051269, 4171.41025628, 4128.46153819, 4108.07692280, 4123.58974332, 4133.07692280, 4197.94871781,8.57
4120.76923050, 4125.76923050, 4123.84615357, 4126.92307665, 4126.28205101, 4163.97435877, 4161.92307672, 4164.23076903, 4144.10256390, 4126.53846126, 4107.43589716, 4131.41025614, 4135.38461518, 4196.53846140,8.57
4124.35897408, 4126.02564075, 4120.64102537, 4124.74358947, 4126.66666639, 4153.97435877, 4150.76923056, 4146.41025621, 4125.25640998, 4126.53846126, 4105.51282024, 4126.79487152, 4133.20512793, 4193.71794858,8.57
4130.51282024, 4131.41025614, 4130.12820485, 4129.74358947, 4124.74358947, 4146.66666646, 4141.02564082, 4140.76923056, 4125.51282024, 4127.30769203, 4106.92307665, 4132.69230742, 4136.79487159, 4196.66666653,8.57
4111.66666639, 4124.23076896, 4117.17948691, 4122.69230742, 4119.61538434, 4143.46153826, 4140.38461518, 4146.66666646, 4139.48717928, 4127.69230742, 4105.51282024, 4123.97435870, 4133.07692280, 4193.84615371,8.57
4127.82051255, 4128.58974332, 4127.30769203, 4124.87179460, 4125.64102537, 4142.30769210, 4140.12820492, 4148.58974339, 4143.07692287, 4127.56410229, 4108.84615357, 4135.76923056, 4136.28205108, 4199.99999986,8.57
4124.10256383, 4123.71794844, 4124.48717921, 4122.56410229, 4126.28205101, 4148.07692287, 4139.23076903, 4144.48717928, 4138.33333313, 4128.58974332, 4110.76923050, 4139.23076903, 4137.82051262, 4194.10256397,8.57
4117.17948691, 4120.76923050, 4117.43589716, 4117.82051255, 4124.99999973, 4170.76923063, 4162.69230749, 4171.28205115, 4168.84615371, 4129.99999973, 4106.53846126, 4124.10256383, 4133.07692280, 4194.10256397,8.57
4126.79487152, 4127.94871767, 4126.53846126, 4125.38461511, 4124.87179460, 4162.17948697, 4160.76923056, 4180.51282038, 4176.53846140, 4128.58974332, 4105.51282024, 4132.17948691, 4134.23076896, 4201.02564096,8.57
4112.94871767, 4119.10256383, 4114.35897408, 4122.56410229, 4116.66666639, 4138.07692287, 4133.71794844, 4147.30769210, 4134.99999973, 4128.46153819, 4101.92307658, 4122.43589716, 4128.20512793, 4190.89743576,8.57
4123.46153819, 4123.84615357, 4122.30769203, 4124.99999973, 4121.66666639, 4169.48717935, 4163.33333313, 4161.79487159, 4149.99999980, 4130.76923050, 4104.61538434, 4122.05128178, 4131.41025614, 4192.94871781,8.57
4121.02564075, 4126.92307665, 4124.61538434, 4125.51282024, 4126.41025614, 4185.51282038, 4181.15384602, 4186.92307679, 4182.82051269, 4129.74358947, 4106.15384588, 4127.17948691, 4138.33333313, 4192.94871781,8.57
4115.12820485, 4121.28205101, 4118.84615357, 4121.66666639, 4123.58974332, 4151.15384595, 4146.02564082, 4159.35897415, 4155.51282031, 4126.41025614, 4101.41025607, 4118.20512793, 4132.56410229, 4190.25641012,8.57
4128.07692280, 4125.12820485, 4130.89743562, 4126.66666639, 4124.99999973, 4156.15384595, 4153.71794851, 4159.74358954, 4152.69230749, 4128.46153819, 4109.23076896, 4130.89743562, 4132.30769203, 4196.41025628,8.57
4113.07692280, 4121.92307665, 4122.05128178, 4123.46153819, 4124.10256383, 4189.35897422, 4191.66666653, 4201.53846147, 4192.56410243, 4129.61538434, 4111.41025614, 4125.12820485, 4129.10256383, 4190.25641012,8.57
4122.30769203, 4128.20512793, 4129.74358947, 4128.71794844, 4127.94871767, 4184.10256397, 4186.15384602, 4207.82051275, 4196.53846140, 4128.07692280, 4105.25640998, 4121.92307665, 4131.15384588, 4194.10256397,8.57
4125.64102537, 4125.38461511, 4129.61538434, 4130.38461511, 4125.51282024, 4178.20512807, 4178.71794858, 4194.48717935, 4183.97435884, 4129.87179460, 4105.89743562, 4132.94871767, 4136.15384595, 4196.28205115,8.57
4117.69230742, 4119.10256383, 4115.25640998, 4120.38461511, 4122.17948691, 4189.23076910, 4185.64102551, 4191.66666653, 4183.58974345, 4130.64102537, 4104.23076896, 4126.15384588, 4128.33333306, 4192.43589730,8.57
4132.69230742, 4130.76923050, 4128.97435870, 4124.99999973, 4126.66666639, 4176.41025628, 4166.28205108, 4176.53846140, 4169.87179474, 4128.84615357, 4105.64102537, 4133.58974332, 4131.53846126, 4197.17948704,8.57
4117.69230742, 4121.53846126, 4119.10256383, 4119.74358947, 4123.20512793, 4167.56410236, 4150.76923056, 4162.94871774, 4159.99999980, 4127.43589716, 4107.43589716, 4128.97435870, 4135.64102544, 4193.71794858,8.57
4119.23076896, 4118.46153819, 4118.46153819, 4118.71794844, 4124.99999973, 4175.38461525, 4152.56410236, 4161.02564082, 4160.12820492, 4127.82051255, 4104.35897408, 4123.84615357, 4132.69230742, 4199.48717935,8.57
4121.15384588, 4124.48717921, 4124.61538434, 4127.43589716, 4125.51282024, 4175.38461525, 4151.53846133, 4157.56410236, 4153.33333313, 4129.10256383, 4102.43589709, 4133.20512793, 4132.69230742, 4201.41025634,8.57
4109.74358947, 4118.97435870, 4115.12820485, 4122.30769203, 4119.87179460, 4177.43589730, 4152.56410236, 4154.48717928, 4147.69230749, 4128.71794844, 4101.92307658, 4122.17948691, 4131.28205101, 4193.20512807,8.57
4126.53846126, 4124.61538434, 4127.82051255, 4123.97435870, 4124.23076896, 4190.12820499, 4165.25641005, 4164.74358954, 4158.20512800, 4128.33333306, 4106.28205101, 4126.53846126, 4133.84615357, 4197.43589730,8.57
4113.97435870, 4122.56410229, 4118.46153819, 4124.35897408, 4125.51282024, 4189.99999986, 4168.07692287, 4169.74358961, 4163.97435877, 4126.66666639, 4103.58974332, 4125.64102537, 4128.33333306, 4190.76923063,8.57
4115.64102537, 4124.23076896, 4117.30769203, 4124.10256383, 4126.02564075, 4172.56410243, 4151.53846133, 4152.69230749, 4146.53846133, 4125.38461511, 4098.46153812, 4121.66666639, 4127.30769203, 4190.64102551,8.57
4128.46153819, 4127.43589716, 4129.74358947, 4121.53846126, 4125.38461511, 4177.05128192, 4159.99999980, 4162.30769210, 4157.94871774, 4128.97435870, 4104.87179460, 4133.33333306, 4137.17948697, 4196.79487166,8.57
4114.61538434, 4124.35897408, 4121.79487152, 4115.76923050, 4122.17948691, 4184.48717935, 4173.71794858, 4182.69230756, 4186.15384602, 4129.99999973, 4106.92307665, 4122.05128178, 4132.82051255, 4192.43589730,8.57
4126.02564075, 4134.35897408, 4134.10256383, 4129.99999973, 4126.41025614, 4170.38461525, 4160.89743569, 4166.53846133, 4175.51282038, 4126.79487152, 4105.25640998, 4127.94871767, 4132.69230742, 4196.28205115,8.57
4122.56410229, 4127.69230742, 4127.69230742, 4127.43589716, 4125.25640998, 4171.41025628, 4158.07692287, 4161.53846133, 4170.25641012, 4127.94871767, 4101.15384581, 4132.30769203, 4133.97435870, 4194.87179474,8.57
4123.97435870, 4121.28205101, 4120.64102537, 4118.33333306, 4125.76923050, 4181.79487166, 4164.87179467, 4173.84615371, 4186.02564089, 4130.25640998, 4099.61538427, 4124.48717921, 4130.89743562, 4195.38461525,8.57
4130.25640998, 4128.20512793, 4127.30769203, 4126.53846126, 4124.87179460, 4180.76923063, 4154.99999980, 4159.23076903, 4174.35897422, 4129.87179460, 4106.66666639, 4135.64102544, 4136.02564082, 4196.53846140,8.57
4115.51282024, 4123.58974332, 4114.61538434, 4122.17948691, 4119.10256383, 4183.58974345, 4150.25641005, 4142.94871774, 4149.23076903, 4128.84615357, 4103.84615357, 4124.87179460, 4133.07692280, 4190.64102551,8.57
4129.23076896, 4127.05128178, 4123.71794844, 4120.51282024, 4124.87179460, 4186.92307679, 4160.51282031, 4150.89743569, 4150.51282031, 4129.35897408, 4100.64102530, 4126.02564075, 4132.30769203, 4196.41025628,8.57
4118.20512793, 4123.71794844, 4120.25640998, 4122.69230742, 4126.41025614, 4176.15384602, 4151.92307672, 4148.46153826, 4151.28205108, 4128.84615357, 4103.71794844, 4132.94871767, 4133.07692280, 4192.94871781,8.57
4111.41025614, 4121.41025614, 4116.15384588, 4124.23076896, 4124.87179460, 4168.20512807, 4141.41025621, 4136.28205108, 4141.92307672, 4127.17948691, 4103.07692280, 4122.43589716, 4128.71794844, 4192.17948704,8.57
4128.58974332, 4128.71794844, 4128.58974332, 4128.07692280, 4124.61538434, 4178.58974345, 4158.84615364, 4153.71794851, 4159.74358954, 4127.30769203, 4105.51282024, 4127.94871767, 4131.92307665, 4198.33333320,8.57
