AF3,F7,F3,FC5,T7,P7,O1,O2,P8,T8,FC6,F4,F8,AF4,Label
4070.64102530, 4108.97435870, 4123.97435870, 4013.07692259, 4122.05128178, 4140.76923056, 4132.17948691, 4095.89743555, 4167.56410236, 4130.12820485, 3779.99999903, 4122.17948691, 4121.41025614, 4151.92307672,12.0
4069.48717907, 4111.41025614, 4129.10256383, 4013.58974311, 4123.33333306, 4138.71794851, 4127.82051255, 4105.25640998, 4180.12820499, 4131.02564075, 3785.64102467, 4131.79487152, 4121.28205101, 4150.64102544,12.0
4073.07692273, 4101.02564068, 4124.48717921, 4005.38461490, 4122.94871767, 4135.89743569, 4118.58974332, 4102.56410229, 4178.33333320, 4130.89743562, 3780.51281954, 4128.97435870, 4121.41025614, 4149.35897415,12.0
4073.20512786, 4097.94871761, 4120.89743562, 4009.87179439, 4123.20512793, 4137.82051262, 4115.76923050, 4093.97435863, 4167.30769210, 4130.89743562, 3774.99999903, 4118.20512793, 4121.53846126, 4151.92307672,12.0
4071.02564068, 4096.28205094, 4113.97435870, 4008.20512772, 4122.94871767, 4132.43589716, 4111.15384588, 4081.02564068, 4149.23076903, 4131.02564075, 3770.25640922, 4103.84615357, 4120.64102537, 4149.48717928,12.0
4070.64102530, 4093.97435863, 4111.41025614, 3998.58974304, 4121.66666639, 4128.58974332, 4112.05128178, 4076.79487145, 4143.58974339, 4131.15384588, 3770.64102460, 4102.82051255, 4118.84615357, 4150.25641005,12.0
4071.66666632, 4099.99999966, 4123.07692280, 4004.74358926, 4121.41025614, 4133.46153819, 4121.92307665, 4086.66666632, 4150.89743569, 4131.53846126, 3778.46153749, 4120.64102537, 4119.35897408, 4151.92307672,12.0
4069.61538420, 4103.58974332, 4127.56410229, 4016.53846106, 4119.99999973, 4139.35897415, 4122.56410229, 4091.66666632, 4152.56410236, 4129.99999973, 3781.28205031, 4127.69230742, 4119.99999973, 4149.87179467,12.0
4067.82051241, 4096.28205094, 4116.15384588, 4009.87179439, 4122.82051255, 4142.30769210, 4119.74358947, 4094.99999966, 4156.92307672, 4130.51282024, 3778.46153749, 4111.02564075, 4119.48717921, 4150.25641005,12.0
4070.12820478, 4097.69230735, 4112.82051255, 4002.43589688, 4123.84615357, 4142.56410236, 4121.92307665, 4100.89743555, 4167.69230749, 4133.20512793, 3779.35897339, 4102.30769196, 4120.25640998, 4151.53846133,12.0
4071.53846119, 4107.30769203, 4122.82051255, 4013.71794824, 4120.76923050, 4141.15384595, 4116.15384588, 4098.20512786, 4162.43589723, 4125.12820485, 3778.46153749, 4110.51282024, 4121.02564075, 4141.02564082,12.0
4071.41025607, 4101.15384581, 4121.92307665, 4018.07692259, 4120.25640998, 4136.79487159, 4105.76923050, 4095.38461504, 4150.38461518, 4118.84615357, 3776.41025544, 4113.46153819, 4120.64102537, 4136.28205108,12.0
4070.89743555, 4098.07692273, 4121.15384588, 4014.74358926, 4120.38461511, 4137.69230749, 4108.97435870, 4104.74358947, 4161.79487159, 4130.64102537, 3786.92307595, 4121.66666639, 4119.99999973, 4150.64102544,12.0
4069.87179453, 4116.28205101, 4136.92307672, 4029.35897388, 4121.53846126, 4150.51282031, 4125.51282024, 4114.99999973, 4179.87179474, 4137.69230749, 3797.82051185, 4140.76923056, 4120.25640998, 4154.99999980,12.0
4070.89743555, 4127.43589716, 4145.51282031, 4049.23076882, 4121.79487152, 4163.07692287, 4136.92307672, 4121.15384588, 4187.82051269, 4129.87179460, 3803.71794775, 4149.61538441, 4120.51282024, 4143.58974339,12.0
4071.15384581, 4121.66666639, 4138.71794851, 4048.20512779, 4121.53846126, 4163.33333313, 4136.66666646, 4131.53846126, 4197.43589730, 4127.82051255, 3813.58974269, 4143.33333313, 4119.61538434, 4142.69230749,12.0
4072.05128171, 4121.28205101, 4137.69230749, 4042.05128164, 4122.94871767, 4166.41025621, 4141.92307672, 4137.05128185, 4203.20512814, 4131.15384588, 3826.02564013, 4141.53846133, 4120.89743562, 4149.35897415,12.0
4073.84615350, 4132.17948691, 4143.46153826, 4054.48717907, 4122.56410229, 4174.48717935, 4152.05128185, 4126.02564075, 4194.23076910, 4127.43589716, 3832.82051192, 4151.41025621, 4122.43589716, 4142.56410236,12.0
4073.07692273, 4141.02564082, 4149.99999980, 4068.58974318, 4122.17948691, 4173.07692294, 4151.15384595, 4115.64102537, 4180.12820499, 4125.64102537, 3831.66666577, 4157.69230749, 4121.66666639, 4138.58974339,12.0
4069.99999966, 4141.79487159, 4156.92307672, 4069.10256369, 4121.92307665, 4171.02564089, 4143.46153826, 4122.94871767, 4176.92307679, 4128.71794844, 3830.76922987, 4159.99999980, 4120.89743562, 4147.82051262,12.0
4070.89743555, 4136.15384595, 4153.58974339, 4064.74358933, 4120.38461511, 4165.38461518, 4133.84615357, 4123.46153819, 4172.94871781, 4124.99999973, 3830.64102474, 4156.41025621, 4121.79487152, 4146.15384595,12.0
4074.48717914, 4128.46153819, 4143.46153826, 4058.20512779, 4122.69230742, 4156.15384595, 4130.25640998, 4115.64102537, 4166.02564082, 4126.79487152, 3829.74358884, 4147.56410236, 4122.94871767, 4141.28205108,12.0
4074.10256376, 4121.53846126, 4140.12820492, 4050.51282010, 4123.84615357, 4156.02564082, 4132.94871767, 4121.02564075, 4168.46153833, 4135.89743569, 3824.74358884, 4142.69230749, 4122.17948691, 4146.79487159,12.0
4075.64102530, 4122.94871767, 4141.41025621, 4055.12820472, 4120.89743562, 4157.82051262, 4130.89743562, 4127.30769203, 4170.76923063, 4131.15384588, 3816.53846064, 4140.51282031, 4121.28205101, 4150.12820492,12.0
4079.10256376, 4133.84615357, 4140.64102544, 4068.33333292, 4121.66666639, 4153.07692287, 4120.12820485, 4120.12820485, 4169.74358961, 4124.48717921, 3814.99999910, 4142.82051262, 4120.38461511, 4150.64102544,12.0
4078.46153812, 4134.87179460, 4142.43589723, 4067.30769189, 4123.84615357, 4152.05128185, 4115.25640998, 4112.17948691, 4171.15384602, 4131.92307665, 3820.76922987, 4146.79487159, 4122.56410229, 4147.69230749,12.0
4076.15384581, 4127.82051255, 4150.89743569, 4053.58974318, 4122.94871767, 4159.23076903, 4124.99999973, 4114.48717921, 4176.66666653, 4134.99999973, 3829.10256320, 4152.30769210, 4123.58974332, 4141.28205108,12.0
4073.71794837, 4132.82051255, 4156.53846133, 4058.97435856, 4119.99999973, 4161.53846133, 4133.97435870, 4117.30769203, 4172.05128192, 4127.69230742, 3834.48717859, 4160.51282031, 4120.64102537, 4142.94871774,12.0
4074.10256376, 4136.28205108, 4151.41025621, 4073.97435863, 4121.53846126, 4156.92307672, 4129.87179460, 4110.51282024, 4155.64102544, 4127.05128178, 3830.89743500, 4157.05128185, 4125.25640998, 4149.48717928,12.0
4075.38461504, 4121.66666639, 4145.64102544, 4065.25640984, 4122.05128178, 4151.15384595, 4120.12820485, 4108.07692280, 4155.12820492, 4131.79487152, 3827.56410166, 4145.12820492, 4129.10256383, 4147.69230749,12.0
4074.74358940, 4122.69230742, 4148.46153826, 4058.58974318, 4115.76923050, 4155.25641005, 4125.25640998, 4117.43589716, 4171.92307679, 4127.56410229, 3840.38461455, 4146.66666646, 4125.64102537, 4146.79487159,12.0
4076.02564068, 4143.58974339, 4153.07692287, 4078.84615350, 4117.56410229, 4166.28205108, 4140.12820492, 4125.89743562, 4176.92307679, 4124.10256383, 3847.82051199, 4152.56410236, 4129.48717921, 4152.56410236,12.0
4076.66666632, 4137.30769210, 4149.35897415, 4080.38461504, 4123.84615357, 4163.46153826, 4141.79487159, 4125.76923050, 4162.30769210, 4129.23076896, 3834.74358884, 4143.33333313, 4135.51282031, 4148.20512800,12.0
4074.10256376, 4115.64102537, 4145.51282031, 4057.56410215, 4123.33333306, 4157.69230749, 4132.30769203, 4122.82051255, 4156.66666646, 4133.33333306, 3832.82051192, 4140.51282031, 4132.82051255, 4140.64102544,12.0
4075.64102530, 4124.23076896, 4154.35897415, 4069.87179453, 4121.28205101, 4160.12820492, 4130.89743562, 4122.30769203, 4165.25641005, 4132.56410229, 3849.61538379, 4154.87179467, 4130.12820485, 4143.33333313,12.0
4073.71794837, 4144.87179467, 4164.48717928, 4100.76923043, 4121.02564075, 4162.43589723, 4135.64102544, 4131.53846126, 4173.33333320, 4133.33333306, 3855.76922994, 4164.74358954, 4126.41025614, 4150.76923056,12.0
4070.89743555, 4141.15384595, 4164.48717928, 4095.51282017, 4121.53846126, 4156.28205108, 4127.56410229, 4136.92307672, 4170.64102551, 4136.15384595, 3847.94871712, 4162.30769210, 4124.10256383, 4152.56410236,12.0
4076.02564068, 4127.30769203, 4157.43589723, 4074.48717914, 4121.15384588, 4145.25641005, 4115.64102537, 4125.64102537, 4161.53846133, 4136.53846133, 3844.99999917, 4154.87179467, 4133.33333306, 4148.58974339,12.0
4076.79487145, 4127.94871767, 4157.56410236, 4076.79487145, 4120.51282024, 4147.17948697, 4120.12820485, 4121.66666639, 4164.10256390, 4133.58974332, 3852.94871712, 4155.89743569, 4139.99999980, 4149.48717928,12.0
4072.17948684, 4129.99999973, 4162.30769210, 4083.07692273, 4121.92307665, 4155.89743569, 4124.35897408, 4125.76923050, 4162.56410236, 4131.41025614, 3852.17948635, 4156.28205108, 4133.71794844, 4152.43589723,12.0
4072.82051248, 4114.87179460, 4151.92307672, 4065.64102523, 4121.92307665, 4148.07692287, 4104.74358947, 4105.76923050, 4144.10256390, 4130.51282024, 3836.15384525, 4138.84615364, 4134.99999973, 4150.12820492,12.0
4076.92307658, 4104.74358947, 4142.94871774, 4058.33333292, 4121.15384588, 4131.02564075, 4084.87179453, 4082.05128171, 4127.43589716, 4132.30769203, 3834.99999910, 4129.99999973, 4141.15384595, 4149.10256390,12.0
4076.92307658, 4113.07692280, 4149.87179467, 4079.48717914, 4121.15384588, 4132.69230742, 4088.97435863, 4085.64102530, 4119.61538434, 4136.15384595, 3844.99999917, 4140.38461518, 4130.76923050, 4151.15384595,12.0
4073.46153812, 4104.74358947, 4143.97435877, 4072.05128171, 4121.79487152, 4125.89743562, 4080.51282017, 4076.28205094, 4094.61538427, 4131.92307665, 3832.82051192, 4125.38461511, 4122.30769203, 4145.89743569,12.0
4072.56410222, 4093.71794837, 4133.84615357, 4051.15384574, 4123.58974332, 4111.92307665, 4065.51282010, 4058.84615343, 4080.25640991, 4124.74358947, 3825.38461449, 4107.69230742, 4129.23076896, 4141.15384595,12.0
4072.56410222, 4093.71794837, 4133.84615357, 4051.15384574, 4123.58974332, 4111.92307665, 4065.51282010, 4058.84615343, 4080.25640991, 4124.74358947, 3825.38461449, 4107.69230742, 4129.23076896, 4141.15384595,12.0
4073.84615350, 4103.71794844, 4141.28205108, 4063.07692266, 4122.56410229, 4121.28205101, 4078.33333299, 4069.74358940, 4100.51282017, 4126.53846126, 3840.76922994, 4125.76923050, 4131.92307665, 4146.66666646,12.0
4078.33333299, 4096.28205094, 4136.66666646, 4067.69230728, 4121.92307665, 4118.46153819, 4079.23076889, 4068.58974318, 4098.46153812, 4127.56410229, 3833.07692218, 4121.28205101, 4124.61538434, 4145.89743569,12.0
4078.46153812, 4092.69230735, 4131.92307665, 4068.97435856, 4123.07692280, 4113.33333306, 4075.64102530, 4066.02564061, 4093.58974325, 4127.82051255, 3824.61538372, 4106.02564075, 4121.15384588, 4142.56410236,12.0
4076.92307658, 4121.28205101, 4155.25641005, 4098.58974325, 4122.43589716, 4141.41025621, 4107.56410229, 4101.66666632, 4129.23076896, 4127.56410229, 3850.76922994, 4135.64102544, 4125.89743562, 4142.69230749,12.0
4080.12820478, 4120.89743562, 4157.17948697, 4098.46153812, 4122.69230742, 4147.43589723, 4116.92307665, 4111.15384588, 4134.23076896, 4125.51282024, 3848.33333250, 4139.87179467, 4127.17948691, 4143.84615364,12.0
4081.53846119, 4102.82051255, 4130.12820485, 4062.17948677, 4121.79487152, 4118.07692280, 4084.99999966, 4078.84615350, 4095.12820478, 4129.48717921, 3817.94871705, 4099.10256376, 4122.17948691, 4145.89743569,12.0
4082.05128171, 4136.15384595, 4137.05128185, 4065.25640984, 4121.79487152, 4126.15384588, 4094.74358940, 4093.07692273, 4110.76923050, 4132.56410229, 3834.48717859, 4110.51282024, 4121.79487152, 4146.79487159,12.0
4081.66666632, 4168.58974345, 4161.02564082, 4096.28205094, 4122.30769203, 4150.89743569, 4126.41025614, 4125.38461511, 4148.20512800, 4124.87179460, 3861.41025558, 4148.84615364, 4126.28205101, 4143.46153826,12.0
4083.46153812, 4145.76923056, 4150.12820492, 4087.05128171, 4121.15384588, 4131.79487152, 4108.84615357, 4105.25640998, 4125.38461511, 4126.15384588, 3838.71794782, 4131.92307665, 4127.30769203, 4146.79487159,12.0
4083.46153812, 4126.92307665, 4133.71794844, 4057.94871754, 4122.69230742, 4112.69230742, 4084.87179453, 4084.74358940, 4101.28205094, 4135.25640998, 3817.43589654, 4104.74358947, 4128.07692280, 4156.66666646,12.0
4077.17948684, 4142.69230749, 4143.71794851, 4066.66666625, 4122.82051255, 4123.07692280, 4096.28205094, 4094.23076889, 4113.97435870, 4130.89743562, 3832.05128115, 4118.97435870, 4132.94871767, 4149.48717928,12.0
4078.33333299, 4158.97435877, 4157.82051262, 4103.46153819, 4122.43589716, 4127.05128178, 4107.05128178, 4098.97435863, 4120.76923050, 4131.28205101, 3844.48717866, 4140.12820492, 4131.02564075, 4136.28205108,12.0
4079.48717914, 4151.41025621, 4148.33333313, 4111.02564075, 4124.23076896, 4117.94871767, 4094.35897402, 4090.38461504, 4106.15384588, 4138.84615364, 3838.33333243, 4132.94871767, 4127.82051255, 4142.17948697,12.0
4077.94871761, 4139.10256390, 4135.76923056, 4096.53846119, 4124.87179460, 4122.82051255, 4094.23076889, 4091.79487145, 4103.20512793, 4132.43589716, 3839.74358884, 4122.82051255, 4130.89743562, 4149.48717928,12.0
4081.79487145, 4141.02564082, 4141.66666646, 4095.76923043, 4125.25640998, 4125.89743562, 4102.82051255, 4097.17948684, 4111.41025614, 4127.82051255, 3844.74358891, 4124.87179460, 4130.64102537, 4145.38461518,12.0
4078.71794837, 4140.38461518, 4139.99999980, 4093.58974325, 4122.56410229, 4107.82051255, 4085.38461504, 4087.94871761, 4101.79487145, 4134.10256383, 3835.25640936, 4115.51282024, 4128.71794844, 4144.48717928,12.0
4079.87179453, 4134.48717921, 4131.41025614, 4082.69230735, 4120.38461511, 4105.25640998, 4078.84615350, 4084.61538427, 4092.05128171, 4134.23076896, 3829.35897346, 4104.48717921, 4127.43589716, 4151.53846133,12.0
4080.12820478, 4134.48717921, 4134.87179460, 4083.07692273, 4119.87179460, 4121.15384588, 4095.12820478, 4100.38461504, 4104.61538434, 4128.46153819, 3835.38461449, 4114.87179460, 4132.56410229, 4152.56410236,12.0
4076.02564068, 4142.69230749, 4141.66666646, 4100.25640991, 4119.48717921, 4126.02564075, 4093.71794837, 4105.64102537, 4111.66666639, 4129.48717921, 3837.56410166, 4127.56410229, 4133.71794844, 4148.84615364,12.0
4084.74358940, 4153.07692287, 4146.02564082, 4117.69230742, 4124.74358947, 4131.66666639, 4094.74358940, 4097.56410222, 4102.56410229, 4136.02564082, 3838.97435807, 4125.76923050, 4124.48717921, 4150.51282031,12.0
4078.97435863, 4153.71794851, 4146.15384595, 4115.89743562, 4123.07692280, 4139.23076903, 4109.74358947, 4100.38461504, 4105.38461511, 4136.53846133, 3843.71794789, 4124.23076896, 4128.07692280, 4152.43589723,12.0
4075.89743555, 4150.12820492, 4145.25641005, 4109.61538434, 4119.99999973, 4126.53846126, 4094.23076889, 4096.66666632, 4105.76923050, 4128.84615357, 3836.66666577, 4122.69230742, 4130.25640998, 4147.30769210,12.0
4083.84615350, 4151.79487159, 4144.87179467, 4117.82051255, 4122.82051255, 4114.10256383, 4072.56410222, 4083.71794837, 4091.15384581, 4123.46153819, 3827.94871705, 4118.84615357, 4121.28205101, 4145.38461518,12.0
4078.84615350, 4153.97435877, 4144.61538441, 4124.35897408, 4120.76923050, 4124.48717921, 4087.17948684, 4090.38461504, 4091.02564068, 4128.33333306, 3833.20512731, 4118.46153819, 4122.17948691, 4144.99999980,12.0
4083.07692273, 4152.05128185, 4148.07692287, 4120.25640998, 4120.64102537, 4128.33333306, 4089.61538427, 4098.20512786, 4098.20512786, 4136.53846133, 3839.61538372, 4118.58974332, 4125.38461511, 4143.07692287,12.0
4078.84615350, 4150.51282031, 4146.53846133, 4118.33333306, 4122.05128178, 4113.20512793, 4069.23076882, 4088.58974325, 4091.79487145, 4140.12820492, 3837.82051192, 4117.94871767, 4125.64102537, 4146.92307672,12.0
4079.10256376, 4150.89743569, 4144.23076903, 4123.46153819, 4123.20512793, 4115.12820485, 4076.53846119, 4089.48717914, 4094.87179453, 4132.43589716, 3838.71794782, 4119.48717921, 4124.61538434, 4146.53846133,12.0
4087.69230735, 4154.61538441, 4149.10256390, 4132.94871767, 4124.48717921, 4133.46153819, 4096.41025607, 4101.92307658, 4110.64102537, 4124.10256383, 3846.28205045, 4123.33333306, 4123.97435870, 4142.30769210,12.0
4078.33333299, 4162.17948697, 4153.71794851, 4141.53846133, 4120.12820485, 4132.69230742, 4092.43589709, 4096.66666632, 4108.07692280, 4129.23076896, 3849.48717866, 4127.17948691, 4128.20512793, 4142.43589723,12.0
4083.58974325, 4163.97435877, 4155.51282031, 4144.74358954, 4120.64102537, 4122.17948691, 4089.10256376, 4087.43589709, 4098.33333299, 4129.87179460, 3854.23076840, 4131.53846126, 4128.84615357, 4142.94871774,12.0
4081.92307658, 4161.53846133, 4156.79487159, 4150.12820492, 4121.79487152, 4126.92307665, 4098.97435863, 4098.07692273, 4107.43589716, 4123.84615357, 3865.25640943, 4136.66666646, 4127.69230742, 4144.35897415,12.0
4079.74358940, 4159.61538441, 4153.20512800, 4153.58974339, 4121.53846126, 4130.51282024, 4095.12820478, 4100.64102530, 4110.76923050, 4128.46153819, 3859.87179404, 4129.10256383, 4129.23076896, 4144.23076903,12.0
4088.97435863, 4155.64102544, 4147.82051262, 4149.61538441, 4125.12820485, 4128.20512793, 4092.69230735, 4089.48717914, 4099.48717914, 4136.53846133, 3848.07692225, 4115.12820485, 4128.84615357, 4145.12820492,12.0
4076.41025607, 4153.97435877, 4149.35897415, 4149.99999980, 4122.05128178, 4138.71794851, 4110.25640998, 4094.35897402, 4103.71794844, 4135.12820485, 3859.74358891, 4120.12820485, 4129.35897408, 4146.15384595,12.0
4082.30769196, 4159.61538441, 4156.28205108, 4155.51282031, 4121.92307665, 4144.35897415, 4114.87179460, 4101.41025607, 4112.43589716, 4127.56410229, 3869.48717866, 4131.53846126, 4128.97435870, 4145.64102544,12.0
4088.71794837, 4152.69230749, 4144.87179467, 4152.05128185, 4124.23076896, 4122.82051255, 4090.12820478, 4089.10256376, 4099.61538427, 4121.79487152, 3852.94871712, 4120.76923050, 4130.12820485, 4144.35897415,12.0
4081.41025607, 4137.17948697, 4131.28205101, 4140.76923056, 4123.07692280, 4110.12820485, 4076.66666632, 4079.87179453, 4087.94871761, 4124.99999973, 3837.05128115, 4100.89743555, 4129.61538434, 4143.33333313,12.0
4091.53846119, 4138.84615364, 4141.15384595, 4137.05128185, 4126.41025614, 4124.35897408, 4091.92307658, 4088.58974325, 4095.12820478, 4135.64102544, 3843.33333250, 4101.79487145, 4127.30769203, 4144.74358954,12.0
4086.02564068, 4151.66666646, 4147.94871774, 4154.10256390, 4122.94871767, 4130.12820485, 4107.69230742, 4098.33333299, 4104.48717921, 4137.05128185, 3850.89743507, 4118.07692280, 4127.69230742, 4144.74358954,12.0
4085.64102530, 4165.51282031, 4151.15384595, 4175.38461525, 4119.10256383, 4131.02564075, 4117.82051255, 4108.46153819, 4115.25640998, 4127.17948691, 3849.99999917, 4128.97435870, 4129.23076896, 4144.23076903,12.0
4086.92307658, 4162.82051262, 4156.41025621, 4169.35897422, 4120.51282024, 4139.23076903, 4120.38461511, 4118.71794844, 4128.07692280, 4126.02564075, 3858.07692225, 4129.61538434, 4132.05128178, 4144.99999980,12.0
4078.33333299, 4144.99999980, 4140.76923056, 4144.74358954, 4121.92307665, 4134.23076896, 4109.35897408, 4108.07692280, 4116.28205101, 4130.89743562, 3849.61538379, 4106.41025614, 4132.94871767, 4144.61538441,12.0
4089.48717914, 4142.56410236, 4124.61538434, 4132.43589716, 4125.25640998, 4124.23076896, 4102.56410229, 4094.61538427, 4095.64102530, 4131.79487152, 3820.64102474, 4080.12820478, 4130.12820485, 4143.71794851,12.0
4083.58974325, 4153.46153826, 4136.53846133, 4146.02564082, 4121.92307665, 4129.35897408, 4108.33333306, 4103.20512793, 4108.97435870, 4130.51282024, 3830.51281961, 4098.84615350, 4129.35897408, 4145.12820492,12.0
4082.43589709, 4151.15384595, 4153.46153826, 4159.74358954, 4121.66666639, 4132.30769203, 4105.25640998, 4104.87179460, 4118.71794844, 4130.51282024, 3860.51281968, 4127.17948691, 4130.38461511, 4146.79487159,12.0
4089.61538427, 4131.66666639, 4134.48717921, 4139.23076903, 4125.12820485, 4111.92307665, 4083.84615350, 4081.41025607, 4087.05128171, 4134.35897408, 3842.05128122, 4101.53846119, 4128.20512793, 4144.99999980,12.0
4078.97435863, 4121.66666639, 4110.38461511, 4115.38461511, 4121.28205101, 4095.64102530, 4074.99999966, 4070.89743555, 4068.46153805, 4132.17948691, 3811.66666577, 4069.74358940, 4125.51282024, 4143.33333313,12.0
4086.66666632, 4125.64102537, 4122.56410229, 4119.61538434, 4122.69230742, 4096.53846119, 4085.89743555, 4081.41025607, 4077.43589709, 4124.87179460, 3819.74358884, 4080.51282017, 4127.43589716, 4143.97435877,12.0
4083.20512786, 4122.94871767, 4129.61538434, 4119.48717921, 4123.33333306, 4090.51282017, 4083.20512786, 4079.10256376, 4074.23076889, 4127.30769203, 3831.28205038, 4089.10256376, 4129.74358947, 4146.02564082,12.0
4077.56410222, 4120.25640998, 4119.74358947, 4114.48717921, 4122.17948691, 4088.58974325, 4075.51282017, 4073.07692273, 4077.30769196, 4130.12820485, 3831.28205038, 4085.64102530, 4129.10256383, 4147.56410236,12.0
4084.61538427, 4119.99999973, 4123.84615357, 4116.66666639, 4125.89743562, 4101.66666632, 4088.46153812, 4080.64102530, 4090.51282017, 4126.41025614, 3833.33333243, 4086.53846119, 4129.10256383, 4146.53846133,12.0
4078.58974325, 4110.76923050, 4124.99999973, 4105.38461511, 4124.87179460, 4103.46153819, 4096.41025607, 4080.76923043, 4080.89743555, 4128.84615357, 3826.41025551, 4078.33333299, 4130.12820485, 4144.74358954,12.0
4086.41025607, 4109.10256383, 4113.97435870, 4099.48717914, 4125.38461511, 4082.30769196, 4071.92307658, 4060.76923036, 4056.02564061, 4131.79487152, 3814.99999910, 4065.89743548, 4128.58974332, 4144.48717928,12.0
4084.99999966, 4115.76923050, 4110.89743562, 4113.46153819, 4124.61538434, 4065.51282010, 4047.56410215, 4050.38461497, 4051.66666625, 4127.17948691, 3817.94871705, 4067.43589702, 4127.17948691, 4145.64102544,12.0
4079.74358940, 4118.97435870, 4122.30769203, 4120.64102537, 4122.05128178, 4077.17948684, 4064.10256369, 4069.87179453, 4072.69230735, 4129.10256383, 3830.12820423, 4082.30769196, 4129.61538434, 4145.89743569,12.0
4088.33333299, 4125.38461511, 4129.23076896, 4120.25640998, 4125.25640998, 4097.17948684, 4099.74358940, 4092.69230735, 4089.23076889, 4135.51282031, 3836.28205038, 4090.51282017, 4132.43589716, 4144.23076903,12.0
4081.66666632, 4125.76923050, 4122.30769203, 4120.76923050, 4125.64102537, 4092.69230735, 4098.46153812, 4080.25640991, 4072.82051248, 4133.07692280, 3829.99999910, 4080.12820478, 4129.99999973, 4142.69230749,12.0
4086.41025607, 4108.20512793, 4113.33333306, 4107.43589716, 4128.07692280, 4070.76923043, 4065.64102523, 4046.66666625, 4042.30769189, 4127.94871767, 3820.38461449, 4059.99999959, 4129.10256383, 4142.69230749,12.0
4082.56410222, 4096.79487145, 4106.28205101, 4102.43589709, 4124.99999973, 4061.02564061, 4058.58974318, 4039.23076882, 4039.74358933, 4126.41025614, 3821.66666577, 4056.02564061, 4130.12820485, 4142.94871774,12.0
4074.48717914, 4106.02564075, 4108.46153819, 4114.74358947, 4117.56410229, 4069.35897395, 4065.25640984, 4048.46153805, 4052.43589702, 4129.10256383, 3828.07692218, 4066.79487138, 4128.07692280, 4143.84615364,12.0
4090.51282017, 4108.84615357, 4120.25640998, 4110.51282024, 4121.66666639, 4081.28205094, 4063.33333292, 4057.82051241, 4063.07692266, 4134.10256383, 3825.38461449, 4071.66666632, 4127.30769203, 4145.25641005,12.0
4084.48717914, 4102.17948684, 4119.61538434, 4104.61538434, 4122.56410229, 4083.97435863, 4075.25640991, 4072.05128171, 4075.64102530, 4131.02564075, 3819.74358884, 4071.53846119, 4126.66666639, 4146.66666646,12.0
4084.61538427, 4099.61538427, 4101.28205094, 4108.58974332, 4122.05128178, 4073.46153812, 4073.20512786, 4062.43589702, 4064.35897395, 4123.46153819, 3818.58974269, 4062.17948677, 4126.15384588, 4147.05128185,12.0
4090.38461504, 4093.84615350, 4106.53846126, 4103.71794844, 4122.56410229, 4071.28205094, 4054.99999959, 4041.79487138, 4047.94871754, 4121.79487152, 3817.17948628, 4053.97435856, 4124.74358947, 4145.64102544,12.0
4080.89743555, 4097.69230735, 4158.71794851, 4107.17948691, 4119.10256383, 4090.38461504, 4076.79487145, 4064.48717907, 4068.33333292, 4127.82051255, 3819.35897346, 4064.74358933, 4124.87179460, 4145.89743569,12.0
4089.99999966, 4114.48717921, 4205.76923070, 4130.12820485, 4121.15384588, 4100.12820478, 4114.23076896, 4101.28205094, 4098.71794837, 4134.23076896, 3824.99999910, 4081.15384581, 4127.30769203, 4146.79487159,12.0
4085.51282017, 4119.35897408, 4206.92307686, 4141.02564082, 4121.92307665, 4091.53846119, 4111.02564075, 4100.38461504, 4097.69230735, 4132.17948691, 3833.46153756, 4092.69230735, 4122.17948691, 4145.64102544,12.0
4082.82051248, 4107.17948691, 4194.74358961, 4123.46153819, 4120.64102537, 4088.07692273, 4083.84615350, 4074.48717914, 4068.46153805, 4125.25640998, 3833.58974269, 4087.05128171, 4121.53846126, 4145.76923056,12.0
4091.15384581, 4094.48717914, 4191.15384602, 4112.56410229, 4122.82051255, 4086.28205094, 4064.35897395, 4058.33333292, 4051.92307651, 4124.10256383, 3818.07692218, 4068.58974318, 4126.02564075, 4147.17948697,12.0
4084.35897402, 4105.76923050, 4196.92307679, 4138.20512800, 4120.76923050, 4089.87179453, 4079.35897402, 4073.97435863, 4076.28205094, 4131.66666639, 3826.66666577, 4083.33333299, 4121.28205101, 4146.15384595,12.0
4087.69230735, 4128.84615357, 4216.92307686, 4167.82051262, 4120.25640998, 4107.69230742, 4112.69230742, 4098.46153812, 4096.53846119, 4130.12820485, 3853.71794789, 4117.94871767, 4118.84615357, 4142.94871774,12.0
4084.99999966, 4122.82051255, 4218.58974352, 4161.15384595, 4121.41025614, 4115.89743562, 4109.48717921, 4095.76923043, 4086.28205094, 4121.02564075, 3850.89743507, 4113.71794844, 4126.28205101, 4142.43589723,12.0
4086.15384581, 4102.17948684, 4201.79487173, 4143.58974339, 4120.38461511, 4101.92307658, 4081.41025607, 4073.58974325, 4079.35897402, 4127.56410229, 3834.23076833, 4092.43589709, 4128.58974332, 4145.12820492,12.0
4092.05128171, 4108.58974332, 4203.71794865, 4155.51282031, 4122.30769203, 4102.82051255, 4087.69230735, 4076.28205094, 4087.69230735, 4137.69230749, 3843.33333250, 4100.25640991, 4126.92307665, 4145.51282031,12.0
4085.64102530, 4130.25640998, 4218.07692301, 4179.74358961, 4121.41025614, 4133.58974332, 4124.61538434, 4106.92307665, 4102.05128171, 4133.71794844, 3859.23076840, 4120.64102537, 4127.82051255, 4144.99999980,12.0
4094.23076889, 4140.38461518, 4230.76923070, 4190.51282038, 4119.35897408, 4148.71794851, 4142.82051262, 4127.30769203, 4119.99999973, 4130.89743562, 3861.66666584, 4132.56410229, 4125.89743562, 4144.35897415,12.0
4089.74358940, 4144.74358954, 4234.23076923, 4195.38461525, 4120.38461511, 4142.17948697, 4141.28205108, 4127.82051255, 4126.28205101, 4134.61538434, 3865.89743507, 4141.92307672, 4125.25640998, 4141.53846133,12.0
4081.92307658, 4153.33333313, 4235.00000000, 4206.28205122, 4121.53846126, 4153.33333313, 4145.25641005, 4123.71794844, 4126.41025614, 4130.64102537, 3867.43589661, 4150.51282031, 4127.94871767, 4143.58974339,12.0
4089.87179453, 4155.89743569, 4238.71794872, 4213.20512814, 4122.05128178, 4171.02564089, 4153.20512800, 4130.38461511, 4134.10256383, 4129.23076896, 3865.51281968, 4153.97435877, 4129.23076896, 4148.97435877,12.0
4087.17948684, 4146.53846133, 4237.69230770, 4211.41025634, 4122.43589716, 4172.30769217, 4162.30769210, 4139.61538441, 4139.48717928, 4133.71794844, 3873.58974283, 4152.43589723, 4127.56410229, 4146.15384595,12.0
4090.38461504, 4139.35897415, 4237.43589744, 4216.92307686, 4124.74358947, 4169.74358961, 4164.10256390, 4142.30769210, 4146.41025621, 4131.53846126, 3880.89743514, 4157.30769210, 4125.76923050, 4139.99999980,12.0
4088.97435863, 4147.43589723, 4243.46153847, 4230.12820506, 4122.69230742, 4183.84615371, 4168.71794858, 4153.84615364, 4150.89743569, 4126.15384588, 3877.82051206, 4175.51282038, 4126.02564075, 4141.15384595,12.0
4086.53846119, 4168.97435884, 4257.43589744, 4243.07692308, 4118.84615357, 4202.94871788, 4196.53846140, 4178.46153833, 4167.30769210, 4129.74358947, 3879.10256334, 4190.76923063, 4126.79487152, 4146.02564082,12.0
4092.56410222, 4175.38461525, 4262.05128206, 4249.35897436, 4122.05128178, 4200.51282038, 4200.64102551, 4177.94871781, 4182.05128192, 4138.58974339, 3882.30769155, 4186.15384602, 4127.82051255, 4142.30769210,12.0
4083.71794837, 4167.56410236, 4252.43589744, 4248.97435898, 4124.10256383, 4191.53846140, 4178.33333320, 4156.15384595, 4161.79487159, 4136.15384595, 3875.51281975, 4176.92307679, 4126.15384588, 4138.97435877,12.0
4086.79487145, 4182.17948704, 4259.10256411, 4253.58974359, 4123.07692280, 4210.89743583, 4203.07692301, 4177.94871781, 4161.15384595, 4133.58974332, 3876.66666591, 4193.71794858, 4128.33333306, 4142.82051262,12.0
4092.17948684, 4189.10256397, 4266.53846154, 4252.69230770, 4121.41025614, 4209.99999993, 4210.12820506, 4195.12820499, 4186.66666653, 4137.94871774, 3877.43589668, 4203.58974352, 4124.35897408, 4143.58974339,12.0
4086.66666632, 4174.35897422, 4256.41025641, 4247.56410257, 4121.92307665, 4166.53846133, 4156.66666646, 4157.05128185, 4174.61538448, 4135.64102544, 3861.53846071, 4185.12820499, 4113.97435870, 4143.71794851,12.0
4093.71794837, 4195.51282038, 4265.76923077, 4271.15384623, 4124.99999973, 4188.71794858, 4178.97435884, 4157.30769210, 4168.84615371, 4133.33333306, 3866.41025558, 4201.66666660, 4119.74358947, 4144.99999980,12.0
4090.64102530, 4233.46153840, 4290.38461546, 4312.82051296, 4123.46153819, 4256.41025641, 4269.10256418, 4225.25641019, 4231.92307686, 4138.33333313, 3890.51281975, 4251.28205129, 4127.56410229, 4145.76923056,12.0
4088.58974325, 4229.10256404, 4291.15384623, 4322.43589758, 4121.66666639, 4249.61538462, 4273.33333341, 4251.28205129, 4270.25641033, 4133.20512793, 3889.99999924, 4257.43589744, 4124.74358947, 4147.17948697,12.0
4092.82051248, 4218.84615378, 4287.05128212, 4313.84615399, 4123.33333306, 4227.17948711, 4241.15384616, 4230.51282045, 4247.82051282, 4123.07692280, 3885.12820437, 4245.51282052, 4123.97435870, 4140.51282031,12.0
4090.38461504, 4238.20512821, 4298.20512828, 4327.56410271, 4123.46153819, 4255.12820513, 4263.07692308, 4241.15384616, 4250.00000000, 4129.74358947, 3896.92307616, 4267.94871802, 4125.12820485, 4138.97435877,12.0
4097.30769196, 4255.89743590, 4304.61538476, 4343.07692329, 4125.25640998, 4264.23076923, 4281.92307700, 4256.92307693, 4268.97435905, 4132.17948691, 3892.94871719, 4281.28205136, 4128.58974332, 4143.46153826,12.0
4095.51282017, 4251.28205129, 4299.10256418, 4338.46153867, 4125.76923050, 4238.33333334, 4267.05128212, 4249.35897436, 4261.79487180, 4123.07692280, 3874.48717873, 4269.87179495, 4128.97435870, 4140.12820492,12.0
4094.48717914, 4239.10256411, 4290.25641033, 4328.33333348, 4123.71794844, 4235.38461539, 4249.74358975, 4241.66666667, 4237.30769231, 4126.92307665, 3864.61538379, 4261.66666667, 4124.74358947, 4144.48717928,12.0
4096.92307658, 4237.30769231, 4278.33333341, 4325.25641040, 4125.89743562, 4241.15384616, 4242.56410257, 4226.28205122, 4219.48717942, 4136.53846133, 3849.35897353, 4247.56410257, 4124.74358947, 4148.97435877,12.0
4090.51282017, 4235.12820513, 4267.30769238, 4326.53846168, 4127.43589716, 4225.51282045, 4226.92307686, 4196.15384602, 4211.02564096, 4128.84615357, 3830.12820423, 4229.23076917, 4125.38461511, 4141.28205108,12.0
4095.89743555, 4224.99999993, 4267.05128212, 4328.58974373, 4126.92307665, 4211.53846147, 4211.02564096, 4183.07692294, 4204.99999993, 4121.02564075, 3829.10256320, 4228.33333327, 4126.28205101, 4142.56410236,12.0
4093.97435863, 4223.84615378, 4272.56410264, 4330.25641040, 4125.38461511, 4218.84615378, 4219.87179481, 4198.33333320, 4208.71794865, 4131.66666639, 3832.56410166, 4235.51282052, 4128.46153819, 4152.05128185,12.0
4091.28205094, 4226.15384609, 4266.66666674, 4323.97435912, 4123.07692280, 4220.25641019, 4214.74358968, 4198.07692294, 4206.28205122, 4132.56410229, 3817.94871705, 4221.41025634, 4131.02564075, 4150.76923056,12.0
4097.17948684, 4224.23076917, 4258.46153847, 4321.41025655, 4121.92307665, 4210.12820506, 4194.48717935, 4190.76923063, 4201.15384609, 4124.74358947, 3799.87179390, 4206.53846147, 4130.76923050, 4140.51282031,12.0
4091.66666632, 4230.38461532, 4264.61538462, 4329.35897450, 4121.41025614, 4210.38461532, 4205.51282045, 4206.66666660, 4211.53846147, 4128.58974332, 3798.46153749, 4224.48717942, 4131.66666639, 4142.69230749,12.0
4092.56410222, 4231.66666660, 4269.61538469, 4329.10256425, 4126.66666639, 4211.53846147, 4221.15384609, 4205.76923070, 4213.07692301, 4131.15384588, 3803.97435801, 4240.89743590, 4136.53846133, 4149.23076903,12.0
4089.99999966, 4221.53846147, 4260.89743590, 4326.53846168, 4130.25640998, 4209.61538455, 4213.20512814, 4192.56410243, 4212.82051275, 4125.25640998, 3798.46153749, 4231.41025634, 4133.71794844, 4144.48717928,12.0
4087.05128171, 4230.64102558, 4264.23076923, 4340.51282073, 4127.94871767, 4222.43589737, 4227.94871788, 4218.46153840, 4235.89743590, 4127.17948691, 3794.35897339, 4235.00000000, 4133.33333306, 4143.97435877,12.0
4090.51282017, 4239.35897436, 4278.07692315, 4348.71794893, 4126.79487152, 4234.35897436, 4246.66666667, 4239.48717949, 4245.64102564, 4139.23076903, 3799.23076826, 4256.66666667, 4136.41025621, 4147.43589723,12.0
4088.33333299, 4218.84615378, 4268.71794879, 4332.82051303, 4124.23076896, 4228.07692301, 4225.64102558, 4212.94871788, 4222.30769224, 4140.64102544, 3799.35897339, 4249.74358975, 4133.97435870, 4144.35897415,12.0
4096.53846119, 4206.53846147, 4252.17948718, 4327.17948732, 4126.15384588, 4220.25641019, 4209.61538455, 4196.15384602, 4207.69230763, 4127.94871767, 3784.23076826, 4220.51282045, 4134.99999973, 4143.58974339,12.0
4092.82051248, 4216.02564096, 4250.25641026, 4335.64102585, 4128.71794844, 4217.43589737, 4213.46153840, 4205.64102558, 4212.05128199, 4122.17948691, 3758.58974255, 4212.30769224, 4136.41025621, 4143.97435877,12.0
4082.82051248, 4213.71794865, 4249.61538462, 4322.69230784, 4123.33333306, 4206.41025634, 4198.20512807, 4193.84615371, 4200.89743576, 4129.74358947, 3734.35897325, 4214.87179481, 4135.89743569, 4142.69230749,12.0
4091.79487145, 4199.35897422, 4248.58974359, 4304.74358989, 4124.74358947, 4202.56410250, 4187.69230756, 4178.84615371, 4186.92307679, 4129.87179460, 3719.35897325, 4212.05128199, 4135.64102544, 4143.84615364,12.0
4092.94871761, 4195.38461525, 4252.43589744, 4311.79487194, 4130.12820485, 4209.10256404, 4200.12820499, 4192.30769217, 4189.35897422, 4122.82051255, 3709.61538351, 4219.48717942, 4133.97435870, 4145.38461518,12.0
4090.25640991, 4210.76923070, 4258.07692308, 4327.94871809, 4127.05128178, 4209.23076917, 4202.94871788, 4201.02564096, 4197.43589730, 4128.97435870, 3693.97435780, 4233.20512814, 4132.56410229, 4144.10256390,12.0
4090.12820478, 4213.58974352, 4262.17948718, 4323.33333348, 4125.51282024, 4203.33333327, 4200.89743576, 4190.38461525, 4203.46153840, 4137.82051262, 3672.94871670, 4236.79487180, 4129.23076896, 4144.10256390,12.0
4091.53846119, 4176.79487166, 4261.02564103, 4311.02564117, 4127.17948691, 4204.23076917, 4200.51282038, 4179.74358961, 4198.20512807, 4133.46153819, 3649.61538337, 4232.56410250, 4121.92307665, 4146.02564082,12.0
4093.97435863, 4147.17948697, 4257.69230770, 4313.97435912, 4127.43589716, 4209.74358968, 4191.53846140, 4192.17948704, 4196.79487166, 4123.71794844, 3612.17948586, 4229.87179481, 4122.43589716, 4145.51282031,12.0
4089.35897402, 4153.46153826, 4257.30769231, 4318.20512835, 4127.56410229, 4209.87179481, 4193.97435884, 4221.02564096, 4215.89743583, 4123.46153819, 3558.84615239, 4230.25641019, 4128.07692280, 4144.74358954,12.0
4093.58974325, 4165.38461518, 4260.76923077, 4314.61538476, 4127.82051255, 4211.66666660, 4209.10256404, 4218.33333327, 4226.02564096, 4127.94871767, 3505.76922917, 4233.20512814, 4123.58974332, 4146.53846133,12.0
4096.79487145, 4164.74358954, 4259.10256411, 4312.82051296, 4127.82051255, 4211.15384609, 4199.74358961, 4187.69230756, 4208.58974352, 4128.20512793, 3462.30769064, 4229.35897429, 4117.30769203, 4144.48717928,12.0
4091.28205094, 4166.53846133, 4250.76923077, 4314.23076937, 4126.66666639, 4206.66666660, 4180.38461525, 4183.58974345, 4195.76923063, 4126.41025614, 3417.05128032, 4218.71794865, 4120.38461511, 4139.74358954,12.0
4093.20512786, 4172.69230756, 4244.10256411, 4312.94871809, 4126.92307665, 4212.56410250, 4191.15384602, 4199.87179474, 4201.92307686, 4128.58974332, 3372.30769044, 4212.30769224, 4122.56410229, 4142.17948697,12.0
4093.84615350, 4171.66666653, 4241.66666667, 4311.79487194, 4128.07692280, 4215.76923070, 4206.02564096, 4200.38461525, 4205.89743583, 4130.12820485, 3334.23076729, 4209.99999993, 4119.61538434, 4144.99999980,12.0
4093.46153812, 4179.23076910, 4249.74358975, 4324.23076937, 4127.43589716, 4212.43589737, 4201.02564096, 4195.38461525, 4208.46153840, 4129.23076896, 3299.35897235, 4216.15384609, 4120.25640998, 4142.43589723,12.0
4094.10256376, 4198.71794858, 4265.76923077, 4344.61538483, 4125.25640998, 4218.84615378, 4201.28205122, 4201.28205122, 4220.25641019, 4132.43589716, 3283.07692107, 4236.41025641, 4119.99999973, 4142.56410236,12.0
4092.94871761, 4202.69230763, 4266.02564103, 4349.10256431, 4125.76923050, 4219.10256404, 4201.92307686, 4202.17948711, 4224.61538455, 4133.46153819, 3274.48717741, 4240.64102564, 4116.66666639, 4145.76923056,12.0
4093.46153812, 4181.15384602, 4253.58974359, 4337.82051303, 4129.61538434, 4205.76923070, 4186.53846140, 4198.71794858, 4209.74358968, 4127.17948691, 3247.17948503, 4220.89743583, 4118.46153819, 4146.41025621,12.0
4093.33333299, 4172.82051269, 4247.05128206, 4333.71794893, 4128.20512793, 4202.43589737, 4180.64102551, 4201.53846147, 4199.74358961, 4127.69230742, 3212.43589522, 4211.92307686, 4119.74358947, 4146.28205108,12.0
4095.64102530, 4184.10256397, 4247.05128206, 4334.23076944, 4124.99999973, 4208.46153840, 4185.89743576, 4200.76923063, 4206.79487173, 4131.79487152, 3191.15384393, 4219.10256404, 4116.02564075, 4147.05128185,12.0
4095.76923043, 4179.23076910, 4241.79487180, 4327.30769245, 4129.48717921, 4199.48717935, 4174.74358961, 4192.30769217, 4202.94871788, 4127.56410229, 3169.35897207, 4210.64102558, 4116.79487152, 4145.64102544,12.0
4091.53846119, 4174.35897422, 4237.69230770, 4332.05128219, 4131.53846126, 4197.43589730, 4173.20512807, 4188.07692294, 4190.25641012, 4122.82051255, 3141.28204892, 4200.51282038, 4118.20512793, 4146.02564082,12.0
4091.15384581, 4181.79487166, 4244.48717949, 4344.87179508, 4126.02564075, 4212.94871788, 4194.35897422, 4187.94871781, 4192.05128192, 4126.53846126, 3123.97435662, 4213.97435891, 4115.12820485, 4146.28205108,12.0
4088.84615350, 4177.69230756, 4241.28205129, 4341.41025662, 4125.25640998, 4211.66666660, 4193.33333320, 4187.69230756, 4198.46153833, 4131.53846126, 3096.92307449, 4216.53846147, 4116.02564075, 4145.12820492,12.0
4088.58974325, 4164.99999980, 4228.84615378, 4326.02564117, 4127.94871767, 4201.41025634, 4168.84615371, 4193.71794858, 4196.79487166, 4130.38461511, 3052.94871545, 4195.25641012, 4118.20512793, 4144.23076903,12.0
4087.69230735, 4163.97435877, 4231.53846147, 4317.69230784, 4126.02564075, 4202.69230763, 4166.66666646, 4201.79487173, 4203.46153840, 4126.28205101, 3019.74358718, 4195.76923063, 4116.02564075, 4142.82051262,12.0
4083.84615350, 4172.43589730, 4239.61538462, 4326.79487194, 4124.48717921, 4210.25641019, 4185.38461525, 4202.43589737, 4213.07692301, 4128.20512793, 3003.97435634, 4213.33333327, 4115.51282024, 4141.53846133,12.0
4085.89743555, 4175.25641012, 4236.41025641, 4332.94871816, 4128.71794844, 4208.46153840, 4183.46153833, 4198.20512807, 4213.20512814, 4129.48717921, 2987.30768967, 4209.10256404, 4116.28205101, 4143.07692287,12.0
4083.84615350, 4170.25641012, 4231.41025634, 4325.00000014, 4129.74358947, 4193.20512807, 4171.02564089, 4196.79487166, 4213.20512814, 4123.71794844, 2968.58974088, 4198.58974345, 4113.46153819, 4146.41025621,12.0
4084.35897402, 4176.41025628, 4239.74358975, 4336.28205149, 4126.92307665, 4190.89743576, 4184.99999986, 4202.05128199, 4213.07692301, 4125.76923050, 2966.28204858, 4213.71794865, 4112.17948691, 4145.25641005,12.0
4088.58974325, 4189.99999986, 4252.94871795, 4354.74358996, 4127.69230742, 4211.02564096, 4208.20512814, 4213.97435891, 4219.99999993, 4131.53846126, 2973.58974088, 4232.17948711, 4116.53846126, 4142.82051262,12.0
4086.79487145, 4178.71794858, 4247.30769231, 4330.51282066, 4129.10256383, 4215.38461532, 4197.05128192, 4214.87179481, 4221.02564096, 4128.71794844, 2975.51281781, 4222.69230763, 4118.20512793, 4144.10256390,12.0
4086.41025607, 4161.53846133, 4229.61538455, 4312.69230784, 4127.69230742, 4192.94871781, 4166.53846133, 4186.02564089, 4197.05128192, 4130.89743562, 2967.94871524, 4199.10256397, 4117.05128178, 4143.71794851,12.0
4085.51282017, 4171.53846140, 4227.94871788, 4341.15384637, 4126.79487152, 4195.51282038, 4174.10256397, 4172.05128192, 4189.10256397, 4135.12820485, 2972.17948447, 4197.69230756, 4117.30769203, 4140.12820492,12.0
4086.53846119, 4175.12820499, 4232.94871788, 4341.15384637, 4127.43589716, 4210.76923070, 4198.58974345, 4193.07692294, 4204.23076917, 4128.46153819, 2985.89743319, 4206.66666660, 4116.79487152, 4140.38461518,12.0
4086.66666632, 4158.46153826, 4226.66666660, 4313.71794886, 4129.35897408, 4199.99999986, 4193.58974345, 4203.33333327, 4209.35897429, 4132.30769203, 2997.43589480, 4200.76923063, 4116.15384588, 4143.58974339,12.0
4082.56410222, 4160.38461518, 4224.35897429, 4319.48717963, 4130.51282024, 4190.51282038, 4177.82051269, 4192.30769217, 4207.82051275, 4139.10256390, 3020.64102307, 4194.48717935, 4116.92307665, 4142.69230749,12.0
4084.74358940, 4177.30769217, 4231.66666660, 4331.28205142, 4129.48717921, 4194.87179474, 4171.92307679, 4184.23076910, 4209.10256404, 4132.05128178, 3053.33333084, 4203.07692301, 4117.69230742, 4142.69230749,12.0
4082.94871761, 4163.71794851, 4228.20512814, 4296.15384623, 4125.64102537, 4197.82051269, 4177.94871781, 4192.69230756, 4203.97435891, 4136.79487159, 3217.56410041, 4198.46153833, 4119.23076896, 4139.23076903,12.0
4086.66666632, 4174.87179474, 4229.61538455, 4296.28205136, 4126.53846126, 4197.17948704, 4173.71794858, 4186.15384602, 4198.71794858, 4133.97435870, 3236.28204913, 4204.23076917, 4120.76923050, 4147.43589723,12.0
4086.02564068, 4171.41025628, 4221.28205122, 4270.25641033, 4126.15384588, 4185.89743576, 4164.10256390, 4180.89743576, 4186.02564089, 4138.46153826, 3247.05127990, 4197.17948704, 4120.51282024, 4146.79487159,12.0
4084.99999966, 4170.25641012, 4223.84615378, 4259.48717949, 4126.15384588, 4184.74358961, 4161.79487159, 4184.61538448, 4187.82051269, 4138.84615364, 3258.07692100, 4192.17948704, 4121.28205101, 4143.20512800,12.0
4082.05128171, 4177.17948704, 4225.89743583, 4267.69230777, 4129.35897408, 4195.64102551, 4173.20512807, 4190.51282038, 4203.84615378, 4127.43589716, 3275.12820305, 4187.82051269, 4121.79487152, 4145.12820492,12.0
4082.05128171, 4175.38461525, 4221.41025634, 4263.33333334, 4130.51282024, 4193.84615371, 4176.41025628, 4189.48717935, 4205.51282045, 4124.99999973, 3287.30769030, 4185.38461525, 4120.64102537, 4144.87179467,12.0
4086.79487145, 4164.10256390, 4222.69230763, 4247.05128206, 4126.79487152, 4178.58974345, 4161.92307672, 4181.15384602, 4186.15384602, 4131.28205101, 3298.71794671, 4191.53846140, 4121.92307665, 4143.97435877,12.0
4082.05128171, 4160.51282031, 4225.64102558, 4242.05128206, 4128.33333306, 4176.79487166, 4159.48717928, 4180.51282038, 4180.51282038, 4129.61538434, 3320.25640831, 4193.46153833, 4126.79487152, 4143.97435877,12.0
4084.23076889, 4159.23076903, 4215.38461532, 4236.15384616, 4131.66666639, 4184.35897422, 4169.23076910, 4185.51282038, 4192.17948704, 4128.58974332, 3342.43589549, 4179.23076910, 4126.92307665, 4144.87179467,12.0
4087.82051248, 4150.64102544, 4198.07692294, 4221.02564096, 4128.97435870, 4183.84615371, 4171.79487166, 4180.38461525, 4178.84615371, 4134.99999973, 3353.20512633, 4159.74358954, 4122.56410229, 4145.38461518,12.0
4082.05128171, 4144.74358954, 4193.07692294, 4212.43589737, 4127.69230742, 4180.12820499, 4168.71794858, 4166.15384595, 4155.89743569, 4133.20512793, 3359.48717761, 4151.53846133, 4121.15384588, 4145.38461518,12.0
4082.30769196, 4151.41025621, 4198.46153833, 4216.15384609, 4128.97435870, 4179.35897422, 4160.76923056, 4157.82051262, 4158.58974339, 4127.69230742, 3377.43589556, 4157.30769210, 4123.58974332, 4145.25641005,12.0
4083.33333299, 4154.74358954, 4201.66666660, 4217.56410250, 4129.23076896, 4176.15384602, 4151.41025621, 4160.25641005, 4173.20512807, 4129.99999973, 3410.64102384, 4165.76923056, 4124.74358947, 4145.25641005,12.0
4082.69230735, 4150.12820492, 4203.07692301, 4216.28205122, 4127.69230742, 4169.99999986, 4150.12820492, 4163.46153826, 4178.97435884, 4129.10256383, 3440.64102391, 4172.56410243, 4122.30769203, 4144.87179467,12.0
4082.43589709, 4149.23076903, 4206.02564096, 4216.02564096, 4126.02564075, 4170.64102551, 4155.12820492, 4168.46153833, 4173.33333320, 4127.82051255, 3446.79487013, 4171.53846140, 4123.71794844, 4143.71794851,12.0
4083.46153812, 4146.66666646, 4202.56410250, 4205.25641019, 4127.69230742, 4173.97435884, 4156.02564082, 4179.23076910, 4168.84615371, 4132.05128178, 3447.94871628, 4162.05128185, 4126.02564075, 4144.74358954,12.0
4084.99999966, 4145.64102544, 4199.74358961, 4201.66666660, 4129.74358947, 4174.74358961, 4153.33333313, 4177.30769217, 4177.30769217, 4134.74358947, 3462.43589577, 4161.53846133, 4123.33333306, 4146.02564082,12.0
4082.69230735, 4151.66666646, 4207.43589737, 4213.97435891, 4127.94871767, 4176.79487166, 4156.15384595, 4162.30769210, 4184.99999986, 4135.64102544, 3476.79487013, 4176.66666653, 4121.79487152, 4143.84615364,12.0
4085.12820478, 4158.07692287, 4210.51282045, 4212.17948711, 4125.76923050, 4175.89743576, 4159.48717928, 4161.28205108, 4174.87179474, 4134.99999973, 3487.05128046, 4183.46153833, 4122.56410229, 4141.66666646,12.0
4083.84615350, 4151.66666646, 4197.82051269, 4192.56410243, 4127.17948691, 4163.97435877, 4147.17948697, 4170.38461525, 4169.23076910, 4134.48717921, 3494.35897276, 4170.64102551, 4125.64102537, 4143.46153826,12.0
4081.41025607, 4141.53846133, 4192.05128192, 4184.10256397, 4130.38461511, 4158.97435877, 4136.66666646, 4170.89743576, 4180.25641012, 4136.41025621, 3494.48717789, 4160.89743569, 4126.66666639, 4145.25641005,12.0
4088.20512786, 4152.69230749, 4205.25641019, 4197.17948704, 4131.15384588, 4176.02564089, 4147.56410236, 4170.25641012, 4182.82051269, 4135.25640998, 3503.20512661, 4169.99999986, 4123.07692280, 4145.38461518,12.0
4084.23076889, 4165.76923056, 4213.97435891, 4205.12820506, 4128.33333306, 4178.07692294, 4150.89743569, 4176.53846140, 4182.82051269, 4126.28205101, 3522.17948565, 4185.76923063, 4126.02564075, 4145.89743569,12.0
4080.12820478, 4162.17948697, 4209.87179481, 4195.25641012, 4127.30769203, 4158.97435877, 4143.07692287, 4176.92307679, 4188.97435884, 4126.53846126, 3530.12820360, 4189.23076910, 4130.38461511, 4145.51282031,12.0
4085.89743555, 4149.10256390, 4198.84615371, 4175.76923063, 4127.43589716, 4152.94871774, 4133.07692280, 4154.74358954, 4174.48717935, 4133.97435870, 3523.84615232, 4170.51282038, 4129.35897408, 4144.99999980,12.0
4086.66666632, 4140.89743569, 4189.61538448, 4163.71794851, 4127.30769203, 4158.71794851, 4120.89743562, 4138.46153826, 4147.17948697, 4133.46153819, 3520.38461386, 4151.92307672, 4125.38461511, 4146.66666646,12.0
4088.84615350, 4145.38461518, 4193.46153833, 4174.74358961, 4127.30769203, 4164.74358954, 4125.64102537, 4158.33333313, 4162.56410236, 4131.66666639, 3530.76922924, 4162.82051262, 4123.46153819, 4146.92307672,12.0
4089.48717914, 4157.56410236, 4199.99999986, 4189.87179474, 4127.56410229, 4171.92307679, 4145.38461518, 4184.48717935, 4196.92307679, 4133.20512793, 3546.41025495, 4182.17948704, 4127.69230742, 4146.02564082,12.0
4088.20512786, 4158.33333313, 4195.76923063, 4181.53846140, 4127.17948691, 4174.74358961, 4149.23076903, 4179.35897422, 4186.28205115, 4129.99999973, 3545.51281906, 4173.20512807, 4128.07692280, 4148.20512800,12.0
4088.71794837, 4142.05128185, 4182.82051269, 4167.05128185, 4126.15384588, 4161.02564082, 4134.23076896, 4156.15384595, 4158.84615364, 4128.20512793, 3538.84615232, 4151.41025621, 4124.48717921, 4148.07692287,12.0
4083.46153812, 4137.56410236, 4178.46153833, 4167.56410236, 4127.94871767, 4150.25641005, 4132.56410229, 4152.43589723, 4166.66666646, 4130.76923050, 3549.61538316, 4149.10256390, 4125.64102537, 4143.07692287,12.0
4087.30769196, 4148.20512800, 4186.28205115, 4172.05128192, 4129.10256383, 4166.02564082, 4144.48717928, 4164.10256390, 4184.61538448, 4128.71794844, 3559.23076778, 4155.38461518, 4127.43589716, 4142.43589723,12.0
4091.41025607, 4147.56410236, 4191.28205115, 4169.87179474, 4127.30769203, 4170.51282038, 4135.25640998, 4159.61538441, 4172.05128192, 4128.20512793, 3562.05128060, 4158.07692287, 4126.92307665, 4147.30769210,12.0
4083.97435863, 4141.66666646, 4187.69230756, 4164.10256390, 4128.46153819, 4143.97435877, 4106.15384588, 4140.76923056, 4153.07692287, 4130.25640998, 3572.94871649, 4161.79487159, 4128.20512793, 4149.10256390,12.0
4084.10256376, 4141.53846133, 4182.43589730, 4157.43589723, 4129.35897408, 4133.46153819, 4098.58974325, 4130.89743562, 4152.69230749, 4129.87179460, 3572.82051137, 4158.84615364, 4131.02564075, 4146.66666646,12.0
4086.02564068, 4133.46153819, 4178.46153833, 4149.99999980, 4127.94871767, 4146.53846133, 4109.23076896, 4132.94871767, 4153.46153826, 4130.38461511, 3569.87179342, 4149.87179467, 4128.46153819, 4145.51282031,12.0
4085.76923043, 4123.07692280, 4174.61538448, 4139.35897415, 4128.46153819, 4145.12820492, 4107.56410229, 4135.64102544, 4146.53846133, 4130.12820485, 3580.76922938, 4144.35897415, 4123.58974332, 4145.51282031,12.0
4085.51282017, 4124.10256383, 4170.38461525, 4132.30769203, 4129.35897408, 4143.20512800, 4111.28205101, 4136.15384595, 4144.23076903, 4130.25640998, 3585.51281913, 4144.23076903, 4125.51282024, 4144.87179467,12.0
4083.33333299, 4123.97435870, 4160.25641005, 4130.51282024, 4128.46153819, 4159.48717928, 4128.07692280, 4137.56410236, 4151.53846133, 4130.25640998, 3582.56410118, 4145.64102544, 4127.69230742, 4145.89743569,12.0
4084.10256376, 4123.07692280, 4153.07692287, 4131.92307665, 4127.30769203, 4164.10256390, 4123.33333306, 4136.92307672, 4150.38461518, 4129.99999973, 3587.30769092, 4146.15384595, 4124.74358947, 4147.43589723,12.0
4081.41025607, 4124.61538434, 4151.79487159, 4129.74358947, 4128.20512793, 4147.69230749, 4101.15384581, 4131.92307665, 4142.56410236, 4129.99999973, 3590.76922938, 4140.89743569, 4125.64102537, 4145.38461518,12.0
4081.66666632, 4128.46153819, 4140.51282031, 4126.92307665, 4128.97435870, 4143.46153826, 4114.23076896, 4140.76923056, 4153.84615364, 4130.76923050, 3595.51281913, 4142.30769210, 4131.15384588, 4144.10256390,12.0
4084.61538427, 4137.05128185, 4129.61538434, 4131.41025614, 4128.71794844, 4161.15384595, 4143.58974339, 4157.94871774, 4177.17948704, 4129.48717921, 3609.87179349, 4157.56410236, 4131.28205101, 4146.28205108,12.0
4082.56410222, 4129.48717921, 4124.87179460, 4128.97435870, 4127.94871767, 4162.17948697, 4123.20512793, 4144.10256390, 4160.89743569, 4130.76923050, 3611.79487048, 4153.97435877, 4126.92307665, 4147.56410236,12.0
4082.82051248, 4112.05128178, 4115.76923050, 4120.51282024, 4126.66666639, 4140.64102544, 4089.10256376, 4115.89743562, 4124.48717921, 4133.07692280, 3600.76922938, 4130.12820485, 4126.66666639, 4145.12820492,12.0
4082.56410222, 4110.76923050, 4109.35897408, 4117.69230742, 4129.23076896, 4131.92307665, 4093.46153812, 4118.07692280, 4131.41025614, 4131.79487152, 3601.79487041, 4123.84615357, 4128.33333306, 4142.94871774,12.0
4082.56410222, 4116.79487152, 4116.15384588, 4119.35897408, 4130.89743562, 4145.64102544, 4114.48717921, 4136.15384595, 4158.71794851, 4132.82051255, 3615.76922945, 4139.74358954, 4128.46153819, 4144.10256390,12.0
4084.48717914, 4123.07692280, 4123.71794844, 4123.20512793, 4126.02564075, 4158.58974339, 4122.30769203, 4147.69230749, 4161.15384595, 4128.97435870, 3625.51281920, 4149.74358954, 4129.35897408, 4144.35897415,12.0
4084.48717914, 4123.07692280, 4123.71794844, 4123.20512793, 4126.02564075, 4158.58974339, 4122.30769203, 4147.69230749, 4161.15384595, 4128.97435870, 3625.51281920, 4149.74358954, 4129.35897408, 4144.35897415,12.0
4082.69230735, 4124.99999973, 4116.02564075, 4122.30769203, 4125.76923050, 4140.25641005, 4101.92307658, 4135.38461518, 4140.25641005, 4122.56410229, 3619.61538330, 4136.02564082, 4127.94871767, 4142.43589723,12.0
4085.89743555, 4114.10256383, 4105.51282024, 4114.87179460, 4130.76923050, 4118.20512793, 4076.15384581, 4111.15384588, 4125.89743562, 4127.43589716, 3613.71794740, 4121.15384588, 4127.05128178, 4142.05128185,12.0
4087.30769196, 4106.53846126, 4106.92307665, 4113.71794844, 4128.97435870, 4129.61538434, 4090.51282017, 4117.43589716, 4132.82051255, 4134.87179460, 3626.15384484, 4124.99999973, 4129.48717921, 4144.61538441,12.0
4085.12820478, 4122.56410229, 4120.12820485, 4127.05128178, 4126.41025614, 4156.15384595, 4119.99999973, 4143.71794851, 4148.46153826, 4134.61538434, 3647.82051157, 4142.69230749, 4130.64102537, 4146.15384595,12.0
4088.84615350, 4138.71794851, 4127.94871767, 4132.30769203, 4129.99999973, 4159.61538441, 4116.28205101, 4144.99999980, 4154.35897415, 4128.71794844, 3656.41025516, 4152.69230749, 4127.94871767, 4146.02564082,12.0
4088.71794837, 4128.97435870, 4119.87179460, 4122.56410229, 4129.23076896, 4147.94871774, 4106.02564075, 4131.15384588, 4143.97435877, 4124.23076896, 3649.99999875, 4144.23076903, 4124.74358947, 4146.66666646,12.0
4088.58974325, 4113.97435870, 4113.07692280, 4113.71794844, 4125.25640998, 4144.61538441, 4106.66666639, 4122.69230742, 4130.76923050, 4126.66666639, 3649.48717824, 4133.58974332, 4125.12820485, 4143.84615364,12.0
4088.71794837, 4118.58974332, 4121.79487152, 4115.76923050, 4127.56410229, 4147.05128185, 4109.10256383, 4122.82051255, 4140.38461518, 4135.38461518, 3667.30769106, 4143.07692287, 4128.84615357, 4146.41025621,12.0
4086.15384581, 4126.66666639, 4132.43589716, 4126.79487152, 4130.76923050, 4150.25641005, 4111.66666639, 4132.56410229, 4154.74358954, 4140.51282031, 3679.35897318, 4160.76923056, 4131.15384588, 4153.97435877,12.0
4088.33333299, 4118.07692280, 4130.25640998, 4127.17948691, 4128.84615357, 4149.74358954, 4111.28205101, 4133.46153819, 4140.38461518, 4133.84615357, 3670.89743465, 4155.76923056, 4126.66666639, 4149.99999980,12.0
4087.69230735, 4107.17948691, 4126.41025614, 4117.30769203, 4127.43589716, 4149.99999980, 4109.99999973, 4133.07692280, 4130.76923050, 4125.89743562, 3668.33333209, 4149.10256390, 4123.33333306, 4147.56410236,12.0
4087.82051248, 4101.15384581, 4126.15384588, 4110.76923050, 4128.46153819, 4145.51282031, 4101.41025607, 4137.05128185, 4144.87179467, 4128.58974332, 3680.89743472, 4148.97435877, 4126.66666639, 4150.76923056,12.0
4087.56410222, 4092.30769196, 4118.07692280, 4107.05128178, 4129.23076896, 4134.87179460, 4089.61538427, 4126.02564075, 4141.92307672, 4135.51282031, 3682.43589626, 4134.99999973, 4129.23076896, 4149.61538441,12.0
4084.10256376, 4095.76923043, 4111.28205101, 4106.66666639, 4129.74358947, 4141.53846133, 4099.10256376, 4128.46153819, 4132.82051255, 4131.28205101, 3678.71794754, 4126.53846126, 4128.20512793, 4152.94871774,12.0
4086.66666632, 4104.23076896, 4114.74358947, 4106.53846126, 4127.17948691, 4154.61538441, 4119.87179460, 4150.25641005, 4144.99999980, 4126.28205101, 3690.12820395, 4134.74358947, 4129.99999973, 4154.99999980,12.0
4086.53846119, 4107.17948691, 4122.69230742, 4111.66666639, 4126.53846126, 4156.92307672, 4122.94871767, 4152.56410236, 4160.25641005, 4130.25640998, 3706.53846036, 4148.07692287, 4130.64102537, 4144.61538441,12.0
4083.97435863, 4122.30769203, 4138.20512800, 4127.69230742, 4129.23076896, 4162.43589723, 4118.97435870, 4146.41025621, 4170.76923063, 4129.74358947, 3721.28205017, 4167.05128185, 4127.05128178, 4140.89743569,12.0
4084.10256376, 4131.53846126, 4148.84615364, 4133.20512793, 4127.94871767, 4169.99999986, 4127.30769203, 4154.10256390, 4173.07692294, 4127.82051255, 3731.92307582, 4182.05128192, 4126.92307665, 4148.33333313,12.0
4081.92307658, 4119.48717921, 4138.46153826, 4124.10256383, 4124.99999973, 4163.97435877, 4128.58974332, 4147.30769210, 4158.20512800, 4129.61538434, 3726.28205017, 4170.12820499, 4127.69230742, 4147.17948697,12.0
4084.87179453, 4112.94871767, 4129.35897408, 4126.66666639, 4126.92307665, 4158.20512800, 4119.48717921, 4130.89743562, 4146.15384595, 4128.20512793, 3716.28205017, 4155.89743569, 4127.94871767, 4144.48717928,12.0
4084.61538427, 4120.25640998, 4136.92307672, 4137.69230749, 4131.41025614, 4166.66666646, 4125.12820485, 4144.99999980, 4154.35897415, 4127.30769203, 3724.87179376, 4164.61538441, 4128.07692280, 4146.28205108,12.0
4081.15384581, 4131.15384588, 4145.89743569, 4136.53846133, 4130.38461511, 4168.07692287, 4130.89743562, 4162.56410236, 4163.97435877, 4130.51282024, 3740.76922966, 4177.17948704, 4127.43589716, 4146.02564082,12.0
4085.25640991, 4128.84615357, 4142.05128185, 4130.12820485, 4127.43589716, 4152.05128185, 4108.71794844, 4142.69230749, 4149.23076903, 4127.94871767, 3741.28205017, 4175.12820499, 4125.25640998, 4145.89743569,12.0
4085.38461504, 4111.92307665, 4132.56410229, 4122.56410229, 4127.56410229, 4147.82051262, 4101.02564068, 4132.69230742, 4141.53846133, 4123.20512793, 3738.97435787, 4160.89743569, 4129.23076896, 4145.25641005,12.0
4083.71794837, 4105.76923050, 4131.41025614, 4114.35897408, 4128.33333306, 4158.71794851, 4128.84615357, 4158.46153826, 4159.35897415, 4129.10256383, 3745.64102460, 4158.71794851, 4137.17948697, 4145.25641005,12.0
4082.94871761, 4107.94871767, 4133.58974332, 4108.97435870, 4128.58974332, 4153.20512800, 4121.53846126, 4159.48717928, 4160.51282031, 4135.38461518, 3747.43589640, 4164.61538441, 4134.23076896, 4146.15384595,12.0
4082.43589709, 4101.41025607, 4131.02564075, 4105.64102537, 4127.43589716, 4138.97435877, 4087.05128171, 4126.02564075, 4139.87179467, 4132.30769203, 3746.15384512, 4159.61538441, 4128.58974332, 4149.23076903,12.0
4086.92307658, 4103.97435870, 4131.02564075, 4110.38461511, 4126.92307665, 4144.74358954, 4097.69230735, 4120.12820485, 4140.38461518, 4124.99999973, 3755.38461435, 4154.99999980, 4128.97435870, 4147.30769210,12.0
4086.53846119, 4115.51282024, 4136.28205108, 4119.10256383, 4128.84615357, 4162.30769210, 4125.38461511, 4142.56410236, 4156.92307672, 4122.82051255, 3766.53846050, 4163.84615364, 4130.51282024, 4141.92307672,12.0
4085.51282017, 4114.35897408, 4140.12820492, 4120.12820485, 4129.48717921, 4169.10256397, 4123.07692280, 4147.43589723, 4157.82051262, 4128.58974332, 3774.10256306, 4173.71794858, 4134.99999973, 4143.20512800,12.0
4087.30769196, 4108.97435870, 4143.46153826, 4118.20512793, 4127.82051255, 4165.38461518, 4114.87179460, 4132.56410229, 4144.61538441, 4136.28205108, 3777.05128108, 4169.99999986, 4135.76923056, 4145.89743569,12.0
4087.05128171, 4117.43589716, 4147.17948697, 4123.71794844, 4127.43589716, 4162.82051262, 4123.71794844, 4126.92307665, 4134.10256383, 4136.92307672, 3776.53846057, 4166.66666646, 4128.97435870, 4143.97435877,12.0
4090.76923043, 4129.99999973, 4150.12820492, 4127.17948691, 4126.15384588, 4170.12820499, 4139.48717928, 4147.56410236, 4143.58974339, 4132.82051255, 3787.05128108, 4179.23076910, 4127.05128178, 4143.46153826,12.0
4088.97435863, 4127.82051255, 4150.89743569, 4123.33333306, 4124.48717921, 4176.53846140, 4143.07692287, 4164.35897415, 4157.17948697, 4135.76923056, 3800.12820416, 4189.74358961, 4130.12820485, 4146.28205108,12.0
4087.69230735, 4118.33333306, 4144.48717928, 4125.38461511, 4125.25640998, 4169.48717935, 4128.20512793, 4148.20512800, 4141.28205108, 4139.61538441, 3794.35897339, 4173.97435884, 4127.43589716, 4146.92307672,12.0
4090.51282017, 4118.84615357, 4138.20512800, 4127.17948691, 4123.20512793, 4158.84615364, 4114.61538434, 4134.10256383, 4133.46153819, 4130.64102537, 3789.87179390, 4159.10256390, 4125.76923050, 4145.64102544,12.0
4088.97435863, 4128.46153819, 4143.46153826, 4124.10256383, 4123.58974332, 4162.05128185, 4122.56410229, 4152.56410236, 4151.92307672, 4123.07692280, 3805.38461442, 4174.10256397, 4129.35897408, 4147.17948697,12.0
4087.43589709, 4134.35897408, 4153.33333313, 4131.53846126, 4128.58974332, 4171.66666653, 4137.82051262, 4168.20512807, 4161.92307672, 4132.05128178, 3817.69230679, 4186.15384602, 4130.76923050, 4147.94871774,12.0
4086.53846119, 4128.71794844, 4149.48717928, 4137.17948697, 4128.97435870, 4167.82051262, 4132.43589716, 4154.10256390, 4153.97435877, 4132.30769203, 3814.74358884, 4172.17948704, 4129.87179460, 4144.23076903,12.0
4090.76923043, 4115.89743562, 4137.94871774, 4122.30769203, 4125.89743562, 4155.51282031, 4108.46153819, 4138.20512800, 4143.20512800, 4122.94871767, 3810.76922987, 4155.25641005, 4133.46153819, 4142.69230749,12.0
4090.64102530, 4118.20512793, 4142.05128185, 4119.61538434, 4125.89743562, 4157.43589723, 4106.02564075, 4137.43589723, 4137.43589723, 4130.25640998, 3821.41025551, 4163.84615364, 4134.10256383, 4146.41025621,12.0
4086.41025607, 4128.84615357, 4151.53846133, 4134.48717921, 4129.61538434, 4166.28205108, 4124.87179460, 4141.79487159, 4139.87179467, 4136.92307672, 3828.58974269, 4179.99999986, 4130.25640998, 4147.82051262,12.0
4091.53846119, 4118.97435870, 4144.61538441, 4129.23076896, 4128.07692280, 4166.28205108, 4124.35897408, 4137.94871774, 4145.64102544, 4128.20512793, 3820.38461449, 4171.79487166, 4132.17948691, 4145.76923056,12.0
4091.41025607, 4114.61538434, 4142.05128185, 4121.53846126, 4122.56410229, 4165.76923056, 4120.12820485, 4141.02564082, 4145.12820492, 4127.56410229, 3828.20512731, 4166.15384595, 4135.76923056, 4144.61538441,12.0
4089.74358940, 4131.92307665, 4157.43589723, 4136.79487159, 4123.84615357, 4175.76923063, 4137.30769210, 4162.82051262, 4145.12820492, 4132.82051255, 3852.05128122, 4184.99999986, 4131.02564075, 4145.12820492,12.0
4092.43589709, 4135.89743569, 4163.07692287, 4147.05128185, 4125.25640998, 4183.20512807, 4144.48717928, 4168.20512807, 4146.41025621, 4128.07692280, 3853.07692225, 4192.69230756, 4125.25640998, 4145.89743569,12.0
4087.17948684, 4128.20512793, 4156.79487159, 4142.94871774, 4123.33333306, 4174.35897422, 4128.07692280, 4157.82051262, 4145.25641005, 4128.07692280, 3841.15384532, 4179.48717935, 4129.48717921, 4144.87179467,12.0
4086.28205094, 4135.51282031, 4161.02564082, 4146.28205108, 4126.79487152, 4169.35897422, 4122.43589716, 4161.66666646, 4150.76923056, 4132.05128178, 3852.17948635, 4182.94871781, 4130.25640998, 4144.87179467,12.0
4086.79487145, 4146.02564082, 4171.66666653, 4153.84615364, 4131.02564075, 4179.74358961, 4143.46153826, 4172.56410243, 4162.05128185, 4124.48717921, 3872.69230686, 4198.71794858, 4121.79487152, 4146.66666646,12.0
4084.10256376, 4147.94871774, 4177.69230756, 4156.41025621, 4128.97435870, 4185.51282038, 4160.76923056, 4172.69230756, 4168.84615371, 4123.20512793, 3878.33333257, 4205.89743583, 4129.48717921, 4144.99999980,12.0
4085.12820478, 4143.71794851, 4177.43589730, 4158.07692287, 4124.99999973, 4183.33333320, 4148.97435877, 4164.61538441, 4164.61538441, 4132.17948691, 3879.35897360, 4204.61538455, 4139.61538441, 4141.92307672,12.0
4085.25640991, 4139.74358954, 4177.17948704, 4159.48717928, 4126.41025614, 4185.25641012, 4139.99999980, 4166.02564082, 4167.17948697, 4132.30769203, 3889.10256334, 4202.94871788, 4133.97435870, 4143.33333313,12.0
4088.71794837, 4141.66666646, 4179.99999986, 4161.53846133, 4128.71794844, 4177.30769217, 4141.66666646, 4171.66666653, 4168.07692287, 4129.87179460, 3898.07692232, 4207.17948711, 4133.20512793, 4144.61538441,12.0
4086.15384581, 4141.15384595, 4177.17948704, 4162.17948697, 4126.41025614, 4156.41025621, 4125.64102537, 4166.28205108, 4153.97435877, 4134.74358947, 3894.99999924, 4205.76923070, 4136.66666646, 4142.43589723,12.0
4085.38461504, 4146.15384595, 4173.07692294, 4158.71794851, 4126.41025614, 4158.84615364, 4121.02564075, 4161.92307672, 4148.71794851, 4134.99999973, 3893.97435821, 4196.92307679, 4135.25640998, 4140.38461518,12.0
4087.05128171, 4165.89743569, 4181.15384602, 4166.02564082, 4129.10256383, 4181.92307679, 4152.56410236, 4172.17948704, 4160.64102544, 4131.92307665, 3899.10256334, 4202.30769224, 4135.51282031, 4142.56410236,12.0
4082.30769196, 4164.35897415, 4180.38461525, 4172.94871781, 4129.99999973, 4189.48717935, 4162.43589723, 4177.17948704, 4159.23076903, 4134.87179460, 3897.69230693, 4205.38461532, 4135.64102544, 4148.33333313,12.0
4091.28205094, 4135.12820485, 4165.51282031, 4149.99999980, 4129.74358947, 4181.79487166, 4141.92307672, 4164.74358954, 4141.02564082, 4134.87179460, 3896.15384539, 4189.74358961, 4135.38461518, 4145.25641005,12.0
4092.05128171, 4130.64102537, 4159.48717928, 4133.84615357, 4123.84615357, 4179.74358961, 4142.05128185, 4155.89743569, 4133.46153819, 4133.46153819, 3903.20512744, 4187.82051269, 4135.51282031, 4143.84615364,12.0
4086.66666632, 4150.38461518, 4168.71794858, 4146.79487159, 4124.74358947, 4183.20512807, 4154.99999980, 4157.82051262, 4137.94871774, 4135.38461518, 3909.99999931, 4196.41025628, 4135.51282031, 4156.41025621,12.0
4092.56410222, 4147.94871774, 4171.79487166, 4144.61538441, 4130.51282024, 4179.61538448, 4149.23076903, 4158.84615364, 4140.25641005, 4132.56410229, 3912.69230700, 4192.56410243, 4135.51282031, 4156.79487159,12.0
4088.20512786, 4139.35897415, 4165.76923056, 4135.64102544, 4128.20512793, 4171.28205115, 4137.94871774, 4150.51282031, 4131.53846126, 4132.82051255, 3911.28205059, 4188.97435884, 4135.51282031, 4146.15384595,12.0
4091.28205094, 4146.66666646, 4167.17948697, 4146.28205108, 4127.56410229, 4172.30769217, 4142.69230749, 4148.20512800, 4124.99999973, 4135.76923056, 3909.87179418, 4190.64102551, 4135.51282031, 4144.99999980,12.0
4091.02564068, 4143.97435877, 4165.51282031, 4142.30769210, 4125.64102537, 4177.82051269, 4149.35897415, 4166.41025621, 4139.99999980, 4128.33333306, 3918.33333264, 4192.43589730, 4135.51282031, 4148.71794851,12.0
4089.35897402, 4139.74358954, 4166.79487159, 4134.23076896, 4124.74358947, 4175.38461525, 4143.20512800, 4184.87179474, 4159.35897415, 4122.69230742, 3931.66666598, 4201.02564096, 4135.51282031, 4151.02564082,12.0
4098.71794837, 4147.17948697, 4174.23076910, 4146.41025621, 4126.15384588, 4169.10256397, 4138.58974339, 4184.35897422, 4159.35897415, 4127.43589716, 3929.35897367, 4205.76923070, 4135.51282031, 4149.23076903,12.0
4090.89743555, 4146.28205108, 4171.15384602, 4147.30769210, 4124.23076896, 4173.97435884, 4150.64102544, 4179.10256397, 4151.28205108, 4126.28205101, 3926.66666598, 4201.15384609, 4135.51282031, 4150.64102544,12.0
4091.79487145, 4142.69230749, 4171.79487166, 4138.20512800, 4128.97435870, 4181.66666653, 4158.33333313, 4176.53846140, 4147.05128185, 4126.15384588, 3937.69230700, 4205.64102558, 4135.51282031, 4152.30769210,12.0
4094.99999966, 4145.38461518, 4173.33333320, 4137.17948697, 4129.10256383, 4173.58974345, 4139.35897415, 4167.43589723, 4140.25641005, 4133.46153819, 3936.15384546, 4207.69230763, 4135.51282031, 4150.25641005,12.0
4089.87179453, 4148.46153826, 4170.12820499, 4137.82051262, 4126.28205101, 4162.94871774, 4126.41025614, 4161.41025621, 4136.66666646, 4133.97435870, 3929.87179418, 4201.92307686, 4135.51282031, 4149.35897415,12.0
4097.17948684, 4151.15384595, 4170.89743576, 4140.12820492, 4129.23076896, 4166.92307672, 4131.28205101, 4162.43589723, 4142.30769210, 4129.48717921, 3941.28205066, 4202.56410250, 4135.51282031, 4147.05128185,12.0
4090.38461504, 4150.89743569, 4171.02564089, 4139.35897415, 4128.07692280, 4166.53846133, 4130.12820485, 4158.07692287, 4141.15384595, 4126.66666639, 3948.33333271, 4204.35897429, 4135.51282031, 4141.79487159,12.0
4088.20512786, 4147.30769210, 4165.12820492, 4130.64102537, 4126.41025614, 4159.23076903, 4122.30769203, 4151.79487159, 4127.94871767, 4126.66666639, 3940.12820451, 4197.82051269, 4135.51282031, 4141.28205108,12.0
4095.12820478, 4147.05128185, 4158.58974339, 4127.43589716, 4125.76923050, 4164.74358954, 4126.66666639, 4158.20512800, 4123.33333306, 4129.48717921, 3940.25640963, 4190.38461525, 4135.51282031, 4146.15384595,12.0
4090.12820478, 4149.10256390, 4155.76923056, 4127.56410229, 4127.82051255, 4161.53846133, 4127.17948691, 4162.56410236, 4128.33333306, 4134.61538434, 3943.84615322, 4186.28205115, 4135.51282031, 4151.66666646,12.0
4093.46153812, 4145.38461518, 4150.76923056, 4115.38461511, 4128.84615357, 4144.87179467, 4111.92307665, 4151.41025621, 4122.82051255, 4133.84615357, 3940.38461476, 4178.71794858, 4135.51282031, 4154.74358954,12.0
4093.07692273, 4140.25641005, 4144.99999980, 4109.10256383, 4123.46153819, 4143.07692287, 4109.61538434, 4147.69230749, 4115.89743562, 4127.56410229, 3950.51281989, 4174.61538448, 4135.64102544, 4148.58974339,12.0
4090.89743555, 4149.10256390, 4147.69230749, 4115.51282024, 4124.48717921, 4154.74358954, 4126.66666639, 4159.23076903, 4121.15384588, 4127.82051255, 3962.17948656, 4181.28205115, 4135.64102544, 4141.02564082,12.0
4091.15384581, 4160.64102544, 4154.99999980, 4116.15384588, 4128.20512793, 4159.99999980, 4138.33333313, 4162.17948697, 4124.48717921, 4129.74358947, 3962.56410194, 4191.41025628, 4134.99999973, 4144.99999980,12.0
4087.05128171, 4152.30769210, 4152.94871774, 4107.05128178, 4126.79487152, 4150.89743569, 4122.56410229, 4143.20512800, 4112.05128178, 4128.46153819, 3969.35897374, 4184.74358961, 4136.66666646, 4152.69230749,12.0
4094.74358940, 4141.66666646, 4143.33333313, 4101.28205094, 4126.79487152, 4139.23076903, 4097.82051248, 4127.94871767, 4099.48717914, 4131.28205101, 3987.43589688, 4170.25641012, 4135.76923056, 4151.66666646,12.0
4091.28205094, 4151.66666646, 4144.61538441, 4107.30769203, 4126.02564075, 4143.46153826, 4098.97435863, 4139.10256390, 4112.30769203, 4133.07692280, 4003.58974304, 4176.53846140, 4131.15384588, 4141.79487159,12.0
4086.53846119, 4156.15384595, 4151.28205108, 4108.71794844, 4126.92307665, 4148.46153826, 4107.05128178, 4145.89743569, 4127.56410229, 4128.71794844, 4009.74358926, 4182.69230756, 4134.99999973, 4141.79487159,12.0
4093.84615350, 4148.46153826, 4144.35897415, 4096.79487145, 4127.69230742, 4138.46153826, 4098.20512786, 4133.97435870, 4109.74358947, 4128.07692280, 4007.69230721, 4170.51282038, 4134.87179460, 4145.51282031,12.0
4089.99999966, 4153.84615364, 4138.20512800, 4093.97435863, 4126.41025614, 4139.23076903, 4098.58974325, 4140.76923056, 4097.82051248, 4136.53846133, 4007.05128157, 4165.25641005, 4125.89743562, 4142.30769210,12.0
4096.02564068, 4158.58974339, 4148.20512800, 4102.56410229, 4129.23076896, 4148.20512800, 4116.53846126, 4161.66666646, 4119.10256383, 4138.84615364, 4017.30769183, 4172.82051269, 4129.23076896, 4144.61538441,12.0
4097.05128171, 4150.38461518, 4148.33333313, 4103.71794844, 4126.92307665, 4142.56410236, 4119.99999973, 4156.28205108, 4124.99999973, 4129.35897408, 4025.38461490, 4175.64102551, 4134.87179460, 4148.46153826,12.0
4091.28205094, 4151.41025621, 4137.43589723, 4093.97435863, 4124.99999973, 4139.74358954, 4110.12820485, 4141.41025621, 4105.64102537, 4127.30769203, 4020.89743541, 4172.82051269, 4134.99999973, 4146.02564082,12.0
4098.97435863, 4156.41025621, 4136.92307672, 4089.23076889, 4128.71794844, 4142.30769210, 4105.12820485, 4138.84615364, 4101.53846119, 4133.07692280, 4016.79487131, 4169.48717935, 4133.20512793, 4144.48717928,12.0
4095.38461504, 4147.82051262, 4138.07692287, 4086.92307658, 4126.41025614, 4142.69230749, 4107.56410229, 4135.51282031, 4105.38461511, 4129.23076896, 4019.74358926, 4168.20512807, 4127.56410229, 4151.92307672,12.0
4094.61538427, 4143.71794851, 4138.33333313, 4083.58974325, 4123.71794844, 4150.25641005, 4111.41025614, 4136.28205108, 4098.84615350, 4125.12820485, 4024.10256362, 4165.89743569, 4129.10256383, 4153.84615364,12.0
4094.35897402, 4145.25641005, 4134.99999973, 4079.23076889, 4124.10256383, 4146.92307672, 4108.84615357, 4143.07692287, 4091.79487145, 4127.30769203, 4027.43589695, 4161.53846133, 4135.38461518, 4148.84615364,12.0
4092.17948684, 4136.92307672, 4130.64102537, 4068.58974318, 4126.92307665, 4129.10256383, 4106.28205101, 4139.48717928, 4091.66666632, 4125.76923050, 4033.97435849, 4165.38461518, 4136.02564082, 4149.74358954,12.0
4101.28205094, 4128.71794844, 4131.02564075, 4064.35897395, 4127.94871767, 4127.82051255, 4104.23076896, 4128.07692280, 4091.92307658, 4128.46153819, 4031.92307644, 4162.05128185, 4131.53846126, 4148.84615364,12.0
4095.25640991, 4129.87179460, 4120.64102537, 4062.94871754, 4125.51282024, 4128.58974332, 4093.58974325, 4123.20512793, 4088.33333299, 4132.17948691, 4020.25640977, 4139.35897415, 4127.05128178, 4149.48717928,12.0
4092.17948684, 4128.97435870, 4106.53846126, 4050.25640984, 4127.69230742, 4117.94871767, 4087.82051248, 4125.38461511, 4077.69230735, 4127.69230742, 4018.46153798, 4127.17948691, 4130.12820485, 4154.10256390,12.0
4099.35897402, 4124.10256383, 4113.71794844, 4047.69230728, 4127.56410229, 4124.87179460, 4097.30769196, 4127.43589716, 4073.07692273, 4127.94871767, 4028.84615336, 4139.23076903, 4130.25640998, 4149.23076903,12.0
4096.66666632, 4124.48717921, 4122.05128178, 4057.05128164, 4124.61538434, 4128.97435870, 4092.56410222, 4126.53846126, 4076.41025607, 4135.12820485, 4028.84615336, 4143.58974339, 4126.41025614, 4144.35897415,12.0
4098.97435863, 4127.30769203, 4109.99999973, 4053.84615343, 4124.61538434, 4113.20512793, 4077.56410222, 4123.20512793, 4071.15384581, 4132.69230742, 4020.25640977, 4128.71794844, 4129.87179460, 4148.20512800,12.0
4097.43589709, 4128.97435870, 4108.07692280, 4055.64102523, 4124.35897408, 4116.28205101, 4084.74358940, 4123.46153819, 4076.66666632, 4127.69230742, 4032.30769183, 4128.71794844, 4131.02564075, 4148.07692287,12.0
4094.23076889, 4133.97435870, 4123.84615357, 4072.69230735, 4124.48717921, 4124.87179460, 4088.58974325, 4127.69230742, 4095.64102530, 4126.02564075, 4049.87179446, 4146.92307672, 4129.61538434, 4147.05128185,12.0
4096.28205094, 4136.15384595, 4126.79487152, 4069.74358940, 4125.51282024, 4113.33333306, 4081.02564068, 4130.38461511, 4099.35897402, 4128.71794844, 4052.30769189, 4159.61538441, 4132.56410229, 4144.74358954,12.0
4094.35897402, 4136.79487159, 4121.02564075, 4056.92307651, 4125.89743562, 4114.61538434, 4096.92307658, 4132.56410229, 4091.15384581, 4138.58974339, 4053.84615343, 4159.35897415, 4133.33333306, 4143.97435877,12.0
4096.92307658, 4135.25640998, 4121.79487152, 4060.64102523, 4125.89743562, 4124.99999973, 4106.79487152, 4133.58974332, 4087.05128171, 4136.92307672, 4056.41025600, 4150.38461518, 4132.05128178, 4146.66666646,12.0
4093.46153812, 4128.46153819, 4119.35897408, 4064.99999959, 4124.87179460, 4119.23076896, 4089.48717914, 4134.48717921, 4090.89743555, 4130.76923050, 4049.99999959, 4144.23076903, 4131.66666639, 4143.20512800,12.0
4089.74358940, 4134.61538434, 4119.99999973, 4065.89743548, 4124.61538434, 4121.53846126, 4097.17948684, 4138.84615364, 4098.58974325, 4134.87179460, 4047.17948677, 4146.15384595, 4132.94871767, 4141.92307672,12.0
4095.12820478, 4139.35897415, 4118.58974332, 4062.05128164, 4126.15384588, 4124.35897408, 4103.97435870, 4130.38461511, 4083.20512786, 4133.71794844, 4043.07692266, 4140.38461518, 4132.43589716, 4143.46153826,12.0
4093.97435863, 4129.35897408, 4111.79487152, 4059.10256369, 4126.66666639, 4111.79487152, 4080.76923043, 4115.89743562, 4060.89743548, 4130.38461511, 4033.20512772, 4127.56410229, 4129.87179460, 4143.97435877,12.0
4093.58974325, 4133.33333306, 4120.64102537, 4070.51282017, 4125.76923050, 4123.20512793, 4090.25640991, 4127.17948691, 4082.82051248, 4133.84615357, 4042.17948677, 4138.71794851, 4129.74358947, 4143.58974339,12.0
4094.10256376, 4135.38461518, 4124.10256383, 4067.94871754, 4125.89743562, 4134.10256383, 4108.20512793, 4136.28205108, 4094.48717914, 4131.41025614, 4051.53846113, 4148.97435877, 4130.51282024, 4142.94871774,12.0
4094.87179453, 4115.64102537, 4108.07692280, 4043.07692266, 4125.38461511, 4102.17948684, 4072.05128171, 4107.82051255, 4051.92307651, 4127.82051255, 4037.94871754, 4126.66666639, 4130.38461511, 4144.99999980,12.0
4099.61538427, 4122.30769203, 4110.76923050, 4048.58974318, 4123.07692280, 4087.30769196, 4058.71794830, 4099.10256376, 4050.25640984, 4132.30769203, 4041.92307651, 4124.99999973, 4132.43589716, 4146.28205108,12.0
4096.15384581, 4149.23076903, 4131.79487152, 4078.20512786, 4123.58974332, 4115.64102537, 4101.15384581, 4130.38461511, 4096.15384581, 4134.48717921, 4064.48717907, 4156.15384595, 4133.84615357, 4144.87179467,12.0
4094.48717914, 4137.56410236, 4126.66666639, 4077.05128171, 4126.79487152, 4116.41025614, 4090.38461504, 4122.94871767, 4078.84615350, 4134.48717921, 4061.41025600, 4148.33333313, 4131.41025614, 4143.58974339,12.0
4101.41025607, 4124.61538434, 4113.58974332, 4074.61538427, 4126.02564075, 4102.05128171, 4050.51282010, 4092.43589709, 4041.79487138, 4133.33333306, 4052.56410215, 4124.87179460, 4128.84615357, 4144.10256390,12.0
4101.02564068, 4144.23076903, 4128.97435870, 4097.05128171, 4123.84615357, 4122.82051255, 4079.74358940, 4119.87179460, 4074.10256376, 4127.05128178, 4072.43589709, 4151.02564082, 4130.76923050, 4144.74358954,12.0
4095.51282017, 4147.94871774, 4134.23076896, 4093.97435863, 4124.23076896, 4136.02564082, 4114.48717921, 4151.15384595, 4099.87179453, 4127.43589716, 4084.74358940, 4162.69230749, 4132.05128178, 4143.84615364,12.0
4098.97435863, 4135.12820485, 4117.17948691, 4074.74358940, 4127.69230742, 4126.15384588, 4104.48717921, 4135.25640998, 4083.07692273, 4134.48717921, 4074.48717914, 4134.23076896, 4129.35897408, 4143.97435877,12.0
4104.48717921, 4136.15384595, 4116.66666639, 4081.02564068, 4128.33333306, 4126.15384588, 4104.23076896, 4126.92307665, 4080.76923043, 4135.12820485, 4077.05128171, 4134.99999973, 4128.07692280, 4144.87179467,12.0
4098.71794837, 4132.94871767, 4121.15384588, 4085.76923043, 4123.58974332, 4125.25640998, 4109.74358947, 4131.41025614, 4079.23076889, 4129.99999973, 4081.92307658, 4147.43589723, 4129.74358947, 4145.51282031,12.0
4095.64102530, 4120.76923050, 4110.38461511, 4068.71794830, 4125.89743562, 4113.20512793, 4096.15384581, 4119.87179460, 4062.69230728, 4125.12820485, 4071.41025607, 4133.71794844, 4131.28205101, 4147.43589723,12.0
4104.48717921, 4126.15384588, 4107.30769203, 4069.87179453, 4128.71794844, 4113.71794844, 4096.41025607, 4121.53846126, 4066.02564061, 4127.69230742, 4071.53846119, 4129.35897408, 4131.15384588, 4148.33333313,12.0
4103.33333306, 4127.17948691, 4107.69230742, 4082.05128171, 4121.92307665, 4113.46153819, 4096.28205094, 4126.79487152, 4071.79487145, 4136.41025621, 4080.25640991, 4129.61538434, 4128.84615357, 4145.51282031,12.0
4101.02564068, 4115.89743562, 4096.79487145, 4072.30769196, 4122.17948691, 4102.17948684, 4079.61538427, 4109.23076896, 4057.30769189, 4136.66666646, 4074.10256376, 4113.97435870, 4129.61538434, 4144.61538441,12.0
4104.74358947, 4116.02564075, 4099.23076889, 4064.23076882, 4126.92307665, 4105.64102537, 4081.66666632, 4106.15384588, 4057.94871754, 4126.28205101, 4069.10256369, 4123.97435870, 4132.56410229, 4146.66666646,12.0
4100.12820478, 4121.02564075, 4115.25640998, 4073.84615350, 4124.99999973, 4111.92307665, 4095.89743555, 4117.69230742, 4066.79487138, 4126.53846126, 4081.15384581, 4149.23076903, 4131.53846126, 4145.51282031,12.0
4100.76923043, 4127.56410229, 4121.66666639, 4091.28205094, 4123.84615357, 4115.25640998, 4099.48717914, 4120.51282024, 4064.10256369, 4133.71794844, 4082.82051248, 4150.51282031, 4129.23076896, 4144.10256390,12.0
4100.76923043, 4136.79487159, 4122.17948691, 4097.94871761, 4125.64102537, 4122.94871767, 4104.48717921, 4133.20512793, 4074.35897402, 4130.12820485, 4077.56410222, 4151.92307672, 4129.74358947, 4144.99999980,12.0
4096.41025607, 4143.97435877, 4126.15384588, 4097.56410222, 4126.92307665, 4124.23076896, 4115.89743562, 4157.05128185, 4093.33333299, 4128.33333306, 4087.94871761, 4165.38461518, 4132.56410229, 4145.64102544,12.0
4099.87179453, 4140.64102544, 4127.56410229, 4091.53846119, 4124.10256383, 4117.69230742, 4122.30769203, 4166.02564082, 4096.53846119, 4131.53846126, 4095.64102530, 4168.84615371, 4133.46153819, 4144.35897415,12.0
4097.56410222, 4126.15384588, 4118.07692280, 4073.20512786, 4121.92307665, 4109.23076896, 4111.15384588, 4151.02564082, 4088.58974325, 4130.38461511, 4085.64102530, 4155.38461518, 4131.79487152, 4142.17948697,12.0
4095.51282017, 4118.20512793, 4107.94871767, 4070.51282017, 4126.53846126, 4100.89743555, 4092.05128171, 4127.43589716, 4077.17948684, 4130.12820485, 4075.76923043, 4132.17948691, 4132.17948691, 4142.43589723,12.0
4097.43589709, 4115.12820485, 4101.28205094, 4076.41025607, 4125.38461511, 4096.79487145, 4089.23076889, 4107.69230742, 4059.99999959, 4127.94871767, 4069.48717907, 4112.94871767, 4133.20512793, 4144.48717928,12.0
4095.76923043, 4106.02564075, 4092.94871761, 4057.43589702, 4124.10256383, 4101.79487145, 4091.53846119, 4104.35897408, 4052.43589702, 4123.07692280, 4067.69230728, 4106.92307665, 4131.02564075, 4143.97435877,12.0
4096.66666632, 4100.51282017, 4091.28205094, 4044.48717907, 4126.02564075, 4104.35897408, 4084.23076889, 4122.69230742, 4061.15384574, 4126.66666639, 4075.51282017, 4112.56410229, 4129.61538434, 4140.89743569,12.0
4096.92307658, 4109.48717921, 4092.82051248, 4062.56410215, 4122.17948691, 4086.28205094, 4071.41025607, 4122.17948691, 4056.41025600, 4129.99999973, 4070.25640991, 4110.89743562, 4133.33333306, 4144.87179467,12.0
4094.99999966, 4120.12820485, 4096.53846119, 4078.84615350, 4121.41025614, 4086.28205094, 4077.69230735, 4103.84615357, 4047.05128164, 4125.38461511, 4062.05128164, 4113.46153819, 4132.94871767, 4147.69230749,12.0
4097.05128171, 4124.48717921, 4107.56410229, 4079.35897402, 4126.15384588, 4118.58974332, 4103.07692280, 4112.30769203, 4065.64102523, 4125.25640998, 4076.79487145, 4135.76923056, 4129.61538434, 4142.56410236,12.0
4098.07692273, 4120.76923050, 4115.89743562, 4072.43589709, 4127.43589716, 4116.53846126, 4093.46153812, 4128.33333306, 4080.89743555, 4128.20512793, 4079.74358940, 4146.41025621, 4131.79487152, 4141.92307672,12.0
4097.05128171, 4109.48717921, 4101.92307658, 4053.97435856, 4122.94871767, 4079.61538427, 4063.20512779, 4114.10256383, 4063.97435856, 4128.20512793, 4047.94871754, 4125.12820485, 4132.69230742, 4146.41025621,12.0
4099.74358940, 4107.94871767, 4091.66666632, 4056.41025600, 4123.20512793, 4089.87179453, 4080.38461504, 4110.76923050, 4055.12820472, 4129.74358947, 4034.99999952, 4114.48717921, 4131.53846126, 4146.66666646,12.0
4100.51282017, 4126.28205101, 4110.76923050, 4080.76923043, 4127.30769203, 4126.92307665, 4129.10256383, 4146.53846133, 4075.89743555, 4131.79487152, 4051.02564061, 4141.53846133, 4131.79487152, 4145.12820492,12.0
4099.48717914, 4136.53846133, 4116.53846126, 4082.82051248, 4123.20512793, 4118.71794844, 4127.17948691, 4149.35897415, 4084.10256376, 4128.71794844, 4034.61538413, 4146.02564082, 4131.02564075, 4145.89743569,12.0
4099.10256376, 4117.94871767, 4095.64102530, 4064.10256369, 4120.64102537, 4102.94871767, 4097.43589709, 4119.61538434, 4065.25640984, 4127.43589716, 4003.07692252, 4116.53846126, 4129.74358947, 4144.99999980,12.0
4099.48717914, 4102.30769196, 4088.46153812, 4049.99999959, 4123.97435870, 4114.48717921, 4101.53846119, 4119.61538434, 4057.17948677, 4130.51282024, 4004.61538413, 4114.35897408, 4130.51282024, 4143.97435877,12.0
4104.74358947, 4114.10256383, 4097.17948684, 4053.33333292, 4123.97435870, 4113.33333306, 4106.15384588, 4122.82051255, 4061.28205087, 4130.38461511, 4010.38461490, 4129.23076896, 4132.56410229, 4144.99999980,12.0
4105.51282024, 4118.71794844, 4094.87179453, 4055.76923036, 4122.56410229, 4094.48717914, 4092.17948684, 4111.79487152, 4054.10256369, 4128.97435870, 3999.35897381, 4123.46153819, 4131.66666639, 4143.20512800,12.0
4102.17948684, 4109.61538434, 4094.99999966, 4050.12820472, 4124.74358947, 4091.28205094, 4090.12820478, 4120.25640998, 4052.30769189, 4128.58974332, 4004.61538413, 4120.89743562, 4130.25640998, 4142.56410236,12.0
4103.46153819, 4116.15384588, 4107.69230742, 4053.71794830, 4126.92307665, 4102.17948684, 4110.64102537, 4142.17948697, 4069.48717907, 4126.28205101, 4018.33333285, 4139.23076903, 4132.17948691, 4146.53846133,12.0
4106.02564075, 4123.58974332, 4112.43589716, 4064.61538420, 4124.10256383, 4103.58974332, 4117.05128178, 4139.10256390, 4077.17948684, 4125.89743562, 4013.20512772, 4147.43589723, 4132.43589716, 4146.66666646,12.0
4106.66666639, 4114.74358947, 4105.51282024, 4061.79487138, 4120.51282024, 4097.30769196, 4096.79487145, 4123.20512793, 4067.82051241, 4131.02564075, 4005.12820465, 4138.07692287, 4130.38461511, 4142.94871774,12.0
4103.97435870, 4106.41025614, 4096.28205094, 4048.84615343, 4121.41025614, 4092.30769196, 4081.92307658, 4118.84615357, 4063.58974318, 4132.69230742, 4001.92307637, 4125.89743562, 4131.53846126, 4142.43589723,12.0
4104.74358947, 4116.53846126, 4099.23076889, 4056.28205087, 4122.56410229, 4105.25640998, 4094.48717914, 4126.28205101, 4073.97435863, 4125.51282024, 4004.10256362, 4129.87179460, 4133.20512793, 4145.64102544,12.0
4105.38461511, 4129.23076896, 4110.12820485, 4070.12820478, 4123.20512793, 4114.87179460, 4113.97435870, 4134.35897408, 4080.38461504, 4124.87179460, 4006.53846106, 4145.51282031, 4133.58974332, 4148.58974339,12.0
4099.48717914, 4122.30769203, 4106.79487152, 4058.84615343, 4124.10256383, 4094.10256376, 4103.97435870, 4120.64102537, 4060.76923036, 4131.28205101, 4000.76923022, 4137.56410236, 4133.97435870, 4148.20512800,12.0
4101.15384581, 4111.02564075, 4093.46153812, 4040.76923036, 4124.74358947, 4076.79487145, 4083.58974325, 4099.87179453, 4040.64102523, 4130.89743562, 3998.84615329, 4119.10256383, 4133.71794844, 4145.38461518,12.0
4102.30769196, 4116.92307665, 4096.41025607, 4049.99999959, 4124.48717921, 4092.94871761, 4092.30769196, 4106.28205101, 4054.23076882, 4128.71794844, 4003.33333278, 4126.02564075, 4132.43589716, 4143.97435877,12.0
4098.71794837, 4128.46153819, 4105.64102537, 4068.58974318, 4122.69230742, 4114.23076896, 4119.87179460, 4133.97435870, 4076.15384581, 4131.66666639, 4004.61538413, 4139.74358954, 4131.02564075, 4143.84615364,12.0
4102.82051255, 4126.79487152, 4106.15384588, 4059.99999959, 4124.61538434, 4115.64102537, 4132.82051255, 4161.41025621, 4083.97435863, 4130.76923050, 4008.20512772, 4138.07692287, 4133.71794844, 4142.69230749,12.0
4102.82051255, 4126.79487152, 4106.15384588, 4059.99999959, 4124.61538434, 4115.64102537, 4132.82051255, 4161.41025621, 4083.97435863, 4130.76923050, 4008.20512772, 4138.07692287, 4133.71794844, 4142.69230749,12.0
4101.92307658, 4118.20512793, 4103.33333306, 4042.17948677, 4125.12820485, 4099.74358940, 4109.23076896, 4160.25641005, 4088.58974325, 4125.51282024, 4014.10256362, 4133.58974332, 4134.87179460, 4142.69230749,12.0
4099.23076889, 4114.74358947, 4100.76923043, 4040.89743548, 4122.30769203, 4089.35897402, 4081.92307658, 4128.20512793, 4089.23076889, 4132.69230742, 4023.71794824, 4129.99999973, 4132.05128178, 4144.48717928,12.0
4097.56410222, 4127.30769203, 4106.02564075, 4047.56410215, 4123.71794844, 4102.94871767, 4101.02564068, 4126.66666639, 4089.48717914, 4136.92307672, 4043.46153805, 4137.43589723, 4131.02564075, 4145.38461518,12.0
4097.69230735, 4128.97435870, 4105.76923050, 4034.23076875, 4122.30769203, 4098.07692273, 4108.33333306, 4127.94871767, 4071.15384581, 4125.89743562, 4042.56410215, 4138.07692287, 4132.17948691, 4146.02564082,12.0
4104.10256383, 4103.71794844, 4091.92307658, 4013.71794824, 4122.17948691, 4079.99999966, 4076.02564068, 4092.82051248, 4047.05128164, 4126.28205101, 4019.23076875, 4111.15384588, 4133.46153819, 4146.92307672,12.0
4098.07692273, 4091.28205094, 4083.84615350, 4009.10256362, 4124.99999973, 4088.46153812, 4070.76923043, 4088.07692273, 4056.02564061, 4134.61538434, 4017.69230721, 4096.92307658, 4132.43589716, 4145.76923056,12.0
4096.92307658, 4099.61538427, 4088.33333299, 4011.53846106, 4124.23076896, 4091.28205094, 4087.43589709, 4105.89743562, 4060.89743548, 4128.33333306, 4032.69230721, 4108.71794844, 4132.05128178, 4142.82051262,12.0
4101.28205094, 4106.66666639, 4093.33333299, 4016.15384567, 4123.20512793, 4087.05128171, 4102.94871767, 4106.53846126, 4056.41025600, 4121.02564075, 4033.71794824, 4117.69230742, 4131.92307665, 4140.76923056,12.0
4093.71794837, 4102.94871767, 4089.87179453, 4018.84615336, 4122.82051255, 4092.94871761, 4105.51282024, 4112.69230742, 4065.76923036, 4128.71794844, 4025.89743541, 4114.35897408, 4131.15384588, 4144.61538441,12.0
4100.38461504, 4085.25640991, 4076.28205094, 4007.30769183, 4124.61538434, 4077.69230735, 4072.56410222, 4110.89743562, 4056.53846113, 4132.43589716, 4023.58974311, 4097.56410222, 4136.28205108, 4147.43589723,12.0
4101.02564068, 4061.02564061, 4055.12820472, 3983.33333278, 4124.99999973, 4060.51282010, 4045.25640984, 4089.99999966, 4036.02564054, 4128.20512793, 4019.87179439, 4069.10256369, 4136.41025621, 4143.97435877,12.0
4096.53846119, 4065.51282010, 4057.69230728, 3977.30769176, 4122.69230742, 4085.64102530, 4074.23076889, 4096.28205094, 4046.66666625, 4127.17948691, 4017.30769183, 4067.05128164, 4129.48717921, 4145.64102544,12.0
4104.35897408, 4089.10256376, 4079.10256376, 3995.76923022, 4121.66666639, 4091.41025607, 4089.35897402, 4111.02564075, 4050.64102523, 4127.05128178, 4021.66666618, 4088.84615350, 4128.58974332, 4146.02564082,12.0
4100.38461504, 4086.66666632, 4075.51282017, 4006.79487131, 4119.10256383, 4060.51282010, 4060.38461497, 4092.82051248, 4041.53846113, 4127.69230742, 4023.97435849, 4087.43589709, 4130.64102537, 4142.17948697,12.0
4104.35897408, 4083.33333299, 4069.35897395, 4005.64102516, 4121.28205101, 4074.99999966, 4073.46153812, 4088.20512786, 4053.33333292, 4126.92307665, 4029.87179439, 4083.33333299, 4136.92307672, 4148.84615364,12.0
4106.28205101, 4106.02564075, 4086.41025607, 4010.51282003, 4123.84615357, 4103.58974332, 4106.66666639, 4113.20512793, 4058.84615343, 4127.82051255, 4040.25640984, 4103.46153819, 4137.94871774, 4154.48717928,12.0
4101.41025607, 4112.17948691, 4092.43589709, 4014.10256362, 4121.41025614, 4082.94871761, 4083.46153812, 4109.74358947, 4051.28205087, 4129.61538434, 4039.48717907, 4109.35897408, 4134.48717921, 4148.20512800,12.0
4108.58974332, 4103.07692280, 4088.33333299, 4016.15384567, 4123.58974332, 4073.58974325, 4065.89743548, 4096.66666632, 4061.02564061, 4128.97435870, 4035.89743541, 4100.51282017, 4137.43589723, 4143.33333313,12.0
4103.58974332, 4116.41025614, 4098.71794837, 4027.69230721, 4124.48717921, 4105.38461511, 4105.51282024, 4112.43589716, 4078.20512786, 4128.07692280, 4047.56410215, 4111.53846126, 4135.76923056, 4145.89743569,12.0
4101.41025607, 4121.66666639, 4104.74358947, 4023.33333285, 4122.43589716, 4104.10256383, 4110.12820485, 4115.38461511, 4070.12820478, 4128.07692280, 4051.41025600, 4117.56410229, 4134.99999973, 4147.69230749,12.0
4102.30769196, 4101.53846119, 4091.53846119, 4008.58974311, 4121.53846126, 4080.64102530, 4071.66666632, 4110.12820485, 4056.02564061, 4129.48717921, 4038.84615343, 4104.10256383, 4137.69230749, 4142.94871774,12.0
4100.25640991, 4098.71794837, 4086.28205094, 4022.30769183, 4120.12820485, 4096.15384581, 4092.30769196, 4124.10256383, 4062.94871754, 4129.74358947, 4034.87179439, 4101.92307658, 4133.20512793, 4144.10256390,12.0
4107.17948691, 4103.71794844, 4090.12820478, 4032.56410208, 4122.82051255, 4108.07692280, 4118.20512793, 4118.07692280, 4064.35897395, 4127.05128178, 4033.84615336, 4095.38461504, 4129.74358947, 4154.10256390,12.0
4101.66666632, 4097.94871761, 4083.20512786, 4017.56410208, 4122.30769203, 4089.99999966, 4088.46153812, 4103.97435870, 4065.89743548, 4127.05128178, 4028.46153798, 4083.46153812, 4134.10256383, 4151.92307672,12.0
4102.82051255, 4111.15384588, 4090.64102530, 4024.61538413, 4123.07692280, 4092.82051248, 4085.12820478, 4129.23076896, 4087.56410222, 4131.41025614, 4031.66666618, 4104.74358947, 4135.25640998, 4147.17948697,12.0
4106.41025614, 4127.17948691, 4112.56410229, 4047.30769189, 4127.43589716, 4114.87179460, 4123.07692280, 4149.48717928, 4099.74358940, 4128.20512793, 4032.43589695, 4133.71794844, 4131.53846126, 4150.25641005,12.0
4099.23076889, 4127.56410229, 4120.38461511, 4055.12820472, 4122.94871767, 4113.58974332, 4128.97435870, 4133.20512793, 4091.15384581, 4124.35897408, 4015.76923029, 4133.20512793, 4132.17948691, 4153.58974339,12.0
4104.35897408, 4139.74358954, 4129.23076896, 4060.76923036, 4121.41025614, 4114.87179460, 4128.20512793, 4143.58974339, 4103.84615357, 4130.25640998, 4004.87179439, 4141.02564082, 4134.87179460, 4148.33333313,12.0
4101.92307658, 4142.17948697, 4140.64102544, 4068.07692266, 4124.35897408, 4133.97435870, 4143.07692287, 4172.05128192, 4125.12820485, 4132.56410229, 4005.38461490, 4163.71794851, 4132.94871767, 4142.43589723,12.0
4101.28205094, 4129.23076896, 4136.15384595, 4074.48717914, 4123.20512793, 4125.38461511, 4135.38461518, 4166.92307672, 4123.84615357, 4126.92307665, 3989.61538406, 4159.99999980, 4132.69230742, 4148.84615364,12.0
4101.28205094, 4129.23076896, 4136.15384595, 4074.48717914, 4123.20512793, 4125.38461511, 4135.38461518, 4166.92307672, 4123.84615357, 4126.92307665, 3989.61538406, 4159.99999980, 4132.69230742, 4148.84615364,12.0
4103.71794844, 4125.76923050, 4125.38461511, 4077.05128171, 4123.58974332, 4099.74358940, 4125.51282024, 4149.23076903, 4117.82051255, 4128.20512793, 3961.92307630, 4145.64102544, 4134.35897408, 4145.64102544,12.0
4098.58974325, 4127.17948691, 4123.58974332, 4068.84615343, 4122.82051255, 4104.61538434, 4135.89743569, 4142.30769210, 4105.51282024, 4130.76923050, 3942.17948656, 4146.92307672, 4132.43589716, 4140.25641005,12.0
4107.17948691, 4125.51282024, 4127.69230742, 4058.33333292, 4123.33333306, 4123.97435870, 4147.05128185, 4146.02564082, 4089.87179453, 4125.64102537, 3925.89743521, 4144.74358954, 4134.35897408, 4146.28205108,12.0
4105.64102537, 4118.20512793, 4124.35897408, 4060.89743548, 4124.99999973, 4119.74358947, 4137.43589723, 4151.66666646, 4093.07692273, 4125.38461511, 3902.05128129, 4137.43589723, 4137.17948697, 4145.89743569,12.0
4101.79487145, 4106.53846126, 4115.76923050, 4068.33333292, 4124.61538434, 4108.33333306, 4118.58974332, 4144.10256390, 4104.87179460, 4129.10256383, 3883.97435821, 4134.61538434, 4131.79487152, 4142.69230749,12.0
4108.20512793, 4103.46153819, 4114.23076896, 4074.23076889, 4124.61538434, 4114.87179460, 4126.02564075, 4139.10256390, 4108.97435870, 4128.71794844, 3873.33333257, 4131.92307665, 4131.15384588, 4144.61538441,12.0
4101.66666632, 4110.64102537, 4121.53846126, 4074.74358940, 4124.10256383, 4118.33333306, 4142.17948697, 4158.33333313, 4113.07692280, 4126.15384588, 3858.97435814, 4135.12820485, 4133.97435870, 4146.92307672,12.0
4101.66666632, 4110.64102537, 4121.53846126, 4074.74358940, 4124.10256383, 4118.33333306, 4142.17948697, 4158.33333313, 4113.07692280, 4126.15384588, 3858.97435814, 4135.12820485, 4133.97435870, 4146.92307672,12.0
4102.17948684, 4105.12820485, 4125.12820485, 4061.15384574, 4125.76923050, 4102.30769196, 4121.92307665, 4157.82051262, 4105.89743562, 4127.30769203, 3848.33333250, 4139.10256390, 4129.35897408, 4145.64102544,12.0
4107.30769203, 4100.25640991, 4122.56410229, 4060.64102523, 4127.17948691, 4097.05128171, 4101.66666632, 4130.38461511, 4089.74358940, 4129.74358947, 3855.38461455, 4137.94871774, 4126.02564075, 4148.07692287,12.0
4102.17948684, 4106.15384588, 4125.25640998, 4073.07692273, 4124.74358947, 4110.38461511, 4125.76923050, 4141.28205108, 4098.97435863, 4130.25640998, 3864.35897353, 4143.97435877, 4132.56410229, 4149.35897415,12.0
4100.64102530, 4098.58974325, 4125.12820485, 4066.79487138, 4123.71794844, 4103.58974332, 4134.23076896, 4164.87179467, 4107.30769203, 4133.33333306, 3855.76922994, 4142.94871774, 4136.92307672, 4141.79487159,12.0
4102.69230742, 4089.74358940, 4119.23076896, 4058.46153805, 4123.97435870, 4088.20512786, 4114.87179460, 4152.43589723, 4092.69230735, 4132.43589716, 3853.33333250, 4129.74358947, 4131.53846126, 4140.25641005,12.0
4106.66666639, 4098.97435863, 4123.46153819, 4066.92307651, 4123.07692280, 4099.35897402, 4122.69230742, 4144.99999980, 4092.17948684, 4127.56410229, 3865.25640943, 4134.87179460, 4131.92307665, 4146.92307672,12.0
4101.41025607, 4104.23076896, 4122.69230742, 4063.07692266, 4123.84615357, 4105.76923050, 4132.30769203, 4150.76923056, 4095.76923043, 4124.74358947, 3864.61538379, 4135.38461518, 4133.71794844, 4146.15384595,12.0
4096.79487145, 4095.64102530, 4110.76923050, 4046.02564061, 4123.71794844, 4088.58974325, 4113.58974332, 4140.89743569, 4088.20512786, 4129.10256383, 3859.87179404, 4116.28205101, 4126.79487152, 4143.58974339,12.0
4101.92307658, 4083.46153812, 4104.99999973, 4039.99999959, 4122.82051255, 4071.79487145, 4086.15384581, 4121.66666639, 4082.56410222, 4134.10256383, 3861.79487096, 4106.28205101, 4127.94871767, 4147.05128185,12.0
4099.74358940, 4079.10256376, 4102.05128171, 4035.12820465, 4123.20512793, 4069.23076882, 4079.87179453, 4107.43589716, 4070.12820478, 4131.92307665, 3862.69230686, 4106.66666639, 4129.61538434, 4147.17948697,12.0
4103.71794844, 4096.28205094, 4106.41025614, 4040.38461497, 4124.10256383, 4087.05128171, 4105.89743562, 4117.05128178, 4061.92307651, 4129.10256383, 3873.46153770, 4113.07692280, 4127.05128178, 4146.66666646,12.0
4104.48717921, 4103.07692280, 4112.30769203, 4051.28205087, 4124.10256383, 4097.05128171, 4118.71794844, 4134.61538434, 4079.87179453, 4128.33333306, 3881.66666591, 4117.82051255, 4130.51282024, 4147.69230749,12.0
4100.51282017, 4086.02564068, 4105.51282024, 4044.23076882, 4123.07692280, 4087.05128171, 4096.66666632, 4117.69230742, 4084.99999966, 4128.84615357, 3877.05128129, 4111.79487152, 4132.17948691, 4145.51282031,12.0
4106.53846126, 4092.05128171, 4104.74358947, 4042.69230728, 4123.71794844, 4086.15384581, 4086.53846119, 4098.46153812, 4063.07692266, 4133.07692280, 3884.61538385, 4114.23076896, 4128.97435870, 4143.84615364,12.0
4102.56410229, 4107.30769203, 4111.28205101, 4050.51282010, 4124.87179460, 4092.05128171, 4102.17948684, 4121.28205101, 4061.92307651, 4131.92307665, 3893.46153770, 4119.48717921, 4126.79487152, 4146.66666646,12.0
4101.02564068, 4091.79487145, 4103.58974332, 4035.64102516, 4123.84615357, 4083.97435863, 4108.33333306, 4139.87179467, 4079.48717914, 4130.12820485, 3881.79487103, 4100.76923043, 4127.56410229, 4148.07692287,12.0
4106.41025614, 4079.87179453, 4096.92307658, 4019.48717900, 4123.97435870, 4079.74358940, 4101.66666632, 4120.64102537, 4074.74358940, 4135.89743569, 3871.79487096, 4087.82051248, 4129.74358947, 4144.23076903,12.0
4104.23076896, 4100.89743555, 4108.71794844, 4036.28205080, 4124.99999973, 4092.56410222, 4108.84615357, 4118.46153819, 4063.20512779, 4136.15384595, 3881.41025565, 4108.33333306, 4134.87179460, 4141.53846133,12.0
4103.33333306, 4107.30769203, 4113.97435870, 4048.20512779, 4124.23076896, 4093.58974325, 4111.92307665, 4140.89743569, 4070.76923043, 4132.43589716, 3889.48717873, 4117.69230742, 4136.66666646, 4144.10256390,12.0
4102.30769196, 4089.87179453, 4103.97435870, 4038.20512779, 4122.05128178, 4077.94871761, 4093.46153812, 4138.07692287, 4080.38461504, 4132.82051255, 3889.99999924, 4104.87179460, 4132.56410229, 4143.07692287,12.0
4101.92307658, 4087.30769196, 4103.97435870, 4034.87179439, 4121.53846126, 4076.28205094, 4088.58974325, 4116.66666639, 4077.17948684, 4127.43589716, 3899.74358898, 4108.33333306, 4131.79487152, 4141.53846133,12.0
4101.41025607, 4101.92307658, 4117.30769203, 4044.87179446, 4125.51282024, 4095.64102530, 4114.35897408, 4122.30769203, 4079.99999966, 4122.30769203, 3912.82051213, 4127.30769203, 4132.56410229, 4145.89743569,12.0
4099.23076889, 4107.69230742, 4117.30769203, 4050.51282010, 4124.87179460, 4103.20512793, 4124.87179460, 4140.12820492, 4086.79487145, 4128.97435870, 3912.56410187, 4126.02564075, 4131.66666639, 4147.56410236,12.0
4098.71794837, 4097.69230735, 4102.56410229, 4036.02564054, 4121.28205101, 4091.79487145, 4107.43589716, 4126.79487152, 4075.25640991, 4135.25640998, 3905.51281975, 4104.35897408, 4127.94871767, 4144.48717928,12.0
4100.12820478, 4087.17948684, 4092.56410222, 4018.97435849, 4124.23076896, 4079.35897402, 4088.33333299, 4106.92307665, 4060.76923036, 4133.46153819, 3903.71794796, 4091.02564068, 4128.33333306, 4145.76923056,12.0
4104.48717921, 4091.66666632, 4097.05128171, 4031.92307644, 4125.89743562, 4077.17948684, 4083.33333299, 4114.99999973, 4067.43589702, 4129.99999973, 3909.23076854, 4100.76923043, 4137.43589723, 4147.43589723,12.0
4102.30769196, 4101.02564068, 4105.64102537, 4046.41025600, 4122.82051255, 4086.92307658, 4099.48717914, 4128.71794844, 4081.53846119, 4124.99999973, 3916.79487110, 4112.94871767, 4136.66666646, 4145.25641005,12.0
4099.99999966, 4096.41025607, 4102.05128171, 4031.02564054, 4120.12820485, 4087.17948684, 4106.15384588, 4122.05128178, 4073.84615350, 4124.61538434, 3918.20512751, 4106.41025614, 4133.84615357, 4145.64102544,12.0
4101.15384581, 4086.79487145, 4098.07692273, 4026.41025593, 4121.92307665, 4082.05128171, 4093.07692273, 4121.41025614, 4065.89743548, 4133.71794844, 3917.30769162, 4104.61538434, 4136.79487159, 4147.82051262,12.0
4099.87179453, 4079.61538427, 4097.30769196, 4034.23076875, 4124.48717921, 4078.20512786, 4087.05128171, 4126.79487152, 4071.79487145, 4135.12820485, 3923.07692239, 4103.07692280, 4135.76923056, 4150.76923056,12.0
4105.12820485, 4080.12820478, 4095.12820478, 4028.07692259, 4123.33333306, 4072.05128171, 4091.28205094, 4116.28205101, 4074.99999966, 4126.79487152, 3927.43589674, 4092.82051248, 4134.48717921, 4150.89743569,12.0
4105.64102537, 4092.82051248, 4098.20512786, 4031.02564054, 4122.43589716, 4072.56410222, 4093.20512786, 4111.79487152, 4077.94871761, 4127.82051255, 3925.51281982, 4103.46153819, 4135.76923056, 4146.53846133,12.0
4106.28205101, 4093.71794837, 4104.61538434, 4039.87179446, 4123.84615357, 4082.30769196, 4097.69230735, 4120.76923050, 4077.94871761, 4132.05128178, 3927.56410187, 4118.71794844, 4135.38461518, 4144.99999980,12.0
4108.20512793, 4084.48717914, 4097.43589709, 4033.84615336, 4122.94871767, 4081.53846119, 4102.43589709, 4128.58974332, 4078.58974325, 4127.43589716, 3929.48717880, 4105.64102537, 4134.23076896, 4147.05128185,12.0
4100.25640991, 4088.07692273, 4086.92307658, 4029.74358926, 4119.99999973, 4067.69230728, 4095.25640991, 4121.79487152, 4078.97435863, 4124.48717921, 3927.30769162, 4087.69230735, 4137.30769210, 4148.07692287,12.0
4103.07692280, 4090.12820478, 4092.17948684, 4033.46153798, 4118.84615357, 4068.20512779, 4083.20512786, 4097.17948684, 4063.71794830, 4128.84615357, 3927.05128136, 4094.35897402, 4134.48717921, 4143.20512800,12.0
4107.56410229, 4076.66666632, 4093.07692273, 4023.97435849, 4118.20512793, 4069.10256369, 4066.53846113, 4074.61538427, 4037.56410215, 4132.17948691, 3924.99999931, 4099.10256376, 4125.76923050, 4145.89743569,12.0
4104.35897408, 4084.74358940, 4094.48717914, 4023.46153798, 4120.38461511, 4069.23076882, 4072.30769196, 4088.71794837, 4037.17948677, 4133.71794844, 3930.38461469, 4100.64102530, 4127.82051255, 4156.79487159,12.0
4106.28205101, 4100.51282017, 4102.05128171, 4037.30769189, 4121.66666639, 4083.71794837, 4102.05128171, 4118.58974332, 4056.66666625, 4129.10256383, 3938.58974297, 4109.10256383, 4135.76923056, 4152.94871774,12.0
4104.87179460, 4090.25640991, 4098.46153812, 4039.23076882, 4120.64102537, 4091.02564068, 4104.99999973, 4117.82051255, 4064.61538420, 4123.58974332, 3943.33333271, 4110.12820485, 4136.15384595, 4140.76923056,12.0
4105.12820485, 4077.69230735, 4093.20512786, 4033.71794824, 4122.30769203, 4072.82051248, 4082.43589709, 4105.76923050, 4067.56410215, 4129.10256383, 3951.66666605, 4106.15384588, 4129.87179460, 4143.84615364,12.0
4103.33333306, 4073.97435863, 4091.02564068, 4028.07692259, 4123.33333306, 4060.38461497, 4072.17948684, 4104.99999973, 4061.02564061, 4130.25640998, 3958.46153784, 4099.35897402, 4129.10256383, 4149.74358954,12.0
4099.48717914, 4085.25640991, 4090.64102530, 4036.53846106, 4123.20512793, 4080.76923043, 4085.38461504, 4111.53846126, 4063.97435856, 4127.05128178, 3960.51281989, 4099.23076889, 4134.74358947, 4144.61538441,12.0
4102.05128171, 4106.53846126, 4099.74358940, 4055.76923036, 4121.79487152, 4096.53846119, 4105.64102537, 4122.56410229, 4089.99999966, 4128.07692280, 3970.76923015, 4115.89743562, 4134.61538434, 4142.82051262,12.0
4100.38461504, 4098.71794837, 4105.64102537, 4050.25640984, 4120.64102537, 4087.05128171, 4109.87179460, 4131.41025614, 4090.76923043, 4128.58974332, 3979.35897381, 4123.97435870, 4131.02564075, 4149.99999980,12.0
4099.87179453, 4072.30769196, 4095.25640991, 4022.69230721, 4122.69230742, 4074.61538427, 4091.02564068, 4127.30769203, 4066.02564061, 4127.69230742, 3966.28205066, 4105.76923050, 4131.79487152, 4152.17948697,12.0
4100.38461504, 4074.35897402, 4087.30769196, 4018.71794824, 4125.25640998, 4071.41025607, 4072.82051248, 4110.12820485, 4068.07692266, 4127.69230742, 3959.74358912, 4092.69230735, 4133.84615357, 4145.12820492,12.0
4099.10256376, 4092.05128171, 4092.05128171, 4041.41025600, 4123.71794844, 4077.17948684, 4084.23076889, 4105.64102537, 4079.35897402, 4128.71794844, 3973.58974304, 4102.05128171, 4134.87179460, 4140.38461518,12.0
4103.97435870, 4087.43589709, 4086.92307658, 4041.66666625, 4118.07692280, 4081.66666632, 4093.84615350, 4107.30769203, 4062.17948677, 4129.99999973, 3975.38461483, 4097.43589709, 4132.94871767, 4144.61538441,12.0
4102.82051255, 4071.02564068, 4072.94871761, 4016.41025593, 4118.20512793, 4076.28205094, 4081.66666632, 4100.25640991, 4051.28205087, 4133.46153819, 3964.87179425, 4073.07692273, 4129.35897408, 4149.10256390,12.0
4101.28205094, 4066.41025600, 4072.43589709, 4013.84615336, 4122.94871767, 4071.41025607, 4082.82051248, 4103.07692280, 4063.20512779, 4133.97435870, 3967.94871733, 4070.12820478, 4131.02564075, 4144.87179467,12.0
4102.05128171, 4075.64102530, 4080.89743555, 4037.94871754, 4122.17948691, 4073.71794837, 4088.71794837, 4103.07692280, 4064.35897395, 4129.74358947, 3978.58974304, 4086.41025607, 4133.46153819, 4142.43589723,12.0
4100.76923043, 4085.38461504, 4086.15384581, 4046.28205087, 4121.53846126, 4068.97435856, 4073.33333299, 4089.48717914, 4055.64102523, 4126.02564075, 3984.10256355, 4091.02564068, 4132.94871767, 4151.66666646,12.0
4104.99999973, 4091.79487145, 4093.07692273, 4041.41025600, 4122.94871767, 4066.28205087, 4067.69230728, 4089.35897402, 4063.07692266, 4126.15384588, 3993.20512765, 4096.02564068, 4132.69230742, 4155.64102544,12.0
4103.71794844, 4096.92307658, 4105.38461511, 4054.61538420, 4121.79487152, 4074.99999966, 4087.94871761, 4104.48717921, 4076.79487145, 4126.28205101, 4003.33333278, 4117.17948691, 4132.56410229, 4145.89743569,12.0
4103.97435870, 4097.05128171, 4107.17948691, 4061.53846113, 4121.79487152, 4078.46153812, 4096.66666632, 4109.74358947, 4074.10256376, 4126.79487152, 4004.35897388, 4123.97435870, 4131.41025614, 4142.05128185,12.0
4108.20512793, 4086.15384581, 4092.82051248, 4043.07692266, 4123.07692280, 4073.97435863, 4089.61538427, 4098.33333299, 4058.97435856, 4129.23076896, 3999.61538406, 4101.53846119, 4131.15384588, 4146.66666646,12.0
4104.48717921, 4076.28205094, 4085.38461504, 4037.05128164, 4124.35897408, 4075.51282017, 4090.76923043, 4102.05128171, 4062.05128164, 4130.12820485, 4001.92307637, 4091.92307658, 4133.58974332, 4144.87179467,12.0
4104.61538434, 4085.12820478, 4089.48717914, 4054.35897395, 4123.71794844, 4081.41025607, 4089.99999966, 4113.71794844, 4078.58974325, 4128.07692280, 4006.92307644, 4101.79487145, 4131.41025614, 4140.76923056,12.0
4105.38461511, 4092.05128171, 4085.25640991, 4056.79487138, 4120.12820485, 4082.30769196, 4092.43589709, 4108.97435870, 4075.51282017, 4126.79487152, 4005.12820465, 4095.51282017, 4127.30769203, 4148.97435877,12.0
4103.84615357, 4081.79487145, 4077.69230735, 4043.46153805, 4121.15384588, 4085.38461504, 4104.74358947, 4108.58974332, 4067.56410215, 4126.53846126, 4003.20512765, 4079.35897402, 4130.64102537, 4155.89743569,12.0
4107.82051255, 4078.97435863, 4081.79487145, 4046.66666625, 4121.79487152, 4085.38461504, 4097.43589709, 4112.82051255, 4072.30769196, 4132.69230742, 4002.82051227, 4079.61538427, 4137.05128185, 4149.48717928,12.0
4107.43589716, 4093.71794837, 4091.02564068, 4062.05128164, 4119.10256383, 4074.35897402, 4081.02564068, 4105.25640998, 4075.76923043, 4137.30769210, 4003.84615329, 4097.69230735, 4133.07692280, 4148.71794851,12.0
4105.64102537, 4101.66666632, 4097.56410222, 4071.53846119, 4119.87179460, 4076.66666632, 4088.20512786, 4104.23076896, 4072.94871761, 4129.48717921, 4014.99999952, 4113.58974332, 4127.05128178, 4155.12820492,12.0
4107.94871767, 4092.43589709, 4094.61538427, 4072.56410222, 4121.15384588, 4092.82051248, 4107.69230742, 4120.64102537, 4075.12820478, 4127.56410229, 4022.94871747, 4106.66666639, 4131.53846126, 4148.97435877,12.0
4107.94871767, 4084.35897402, 4088.33333299, 4066.28205087, 4120.12820485, 4100.89743555, 4120.12820485, 4123.84615357, 4080.38461504, 4133.97435870, 4018.07692259, 4092.30769196, 4134.10256383, 4141.15384595,12.0
4108.07692280, 4080.64102530, 4092.82051248, 4058.97435856, 4119.74358947, 4096.79487145, 4113.58974332, 4110.89743562, 4072.43589709, 4133.20512793, 4016.66666618, 4098.58974325, 4132.05128178, 4146.41025621,12.0
4104.10256383, 4069.99999966, 4089.48717914, 4049.23076882, 4122.69230742, 4076.53846119, 4079.48717914, 4101.53846119, 4050.51282010, 4135.38461518, 4014.10256362, 4095.76923043, 4133.84615357, 4149.61538441,12.0
4102.94871767, 4073.33333299, 4079.74358940, 4042.30769189, 4123.58974332, 4066.66666625, 4073.33333299, 4102.56410229, 4051.02564061, 4137.56410236, 4005.76923029, 4082.05128171, 4133.97435870, 4142.94871774,12.0
4107.30769203, 4090.76923043, 4086.02564068, 4046.66666625, 4121.02564075, 4084.35897402, 4109.10256383, 4114.35897408, 4084.61538427, 4128.97435870, 4014.35897388, 4093.58974325, 4129.61538434, 4143.97435877,12.0
4104.48717921, 4085.64102530, 4093.84615350, 4055.51282010, 4122.05128178, 4089.99999966, 4104.74358947, 4112.05128178, 4092.30769196, 4127.30769203, 4032.30769183, 4106.15384588, 4129.23076896, 4153.20512800,12.0
4104.87179460, 4073.71794837, 4089.99999966, 4067.69230728, 4122.43589716, 4079.61538427, 4088.20512786, 4107.05128178, 4077.17948684, 4133.46153819, 4038.58974318, 4104.61538434, 4132.82051255, 4153.20512800,12.0
4103.07692280, 4084.23076889, 4090.76923043, 4073.20512786, 4120.76923050, 4086.79487145, 4113.07692280, 4125.89743562, 4087.43589709, 4127.43589716, 4040.89743548, 4106.79487152, 4132.69230742, 4146.02564082,12.0
4097.30769196, 4088.58974325, 4093.58974325, 4063.58974318, 4120.89743562, 4096.02564068, 4115.25640998, 4130.12820485, 4100.51282017, 4124.61538434, 4046.15384574, 4106.15384588, 4132.69230742, 4145.38461518,12.0
4102.69230742, 4082.94871761, 4091.02564068, 4060.38461497, 4122.43589716, 4088.33333299, 4089.10256376, 4106.28205101, 4093.97435863, 4129.99999973, 4049.23076882, 4100.12820478, 4135.25640998, 4147.94871774,12.0
4105.38461511, 4089.61538427, 4093.84615350, 4073.71794837, 4122.56410229, 4081.79487145, 4092.05128171, 4105.51282024, 4086.02564068, 4130.38461511, 4048.58974318, 4106.02564075, 4136.92307672, 4150.51282031,12.0
4105.38461511, 4089.61538427, 4093.84615350, 4073.71794837, 4122.56410229, 4081.79487145, 4092.05128171, 4105.51282024, 4086.02564068, 4130.38461511, 4048.58974318, 4106.02564075, 4136.92307672, 4150.51282031,12.0
4103.20512793, 4096.28205094, 4095.38461504, 4079.87179453, 4122.17948691, 4082.82051248, 4105.51282024, 4126.66666639, 4085.25640991, 4128.71794844, 4049.35897395, 4114.10256383, 4134.23076896, 4151.15384595,12.0
4103.07692280, 4085.76923043, 4088.84615350, 4067.69230728, 4122.17948691, 4082.05128171, 4101.02564068, 4124.23076896, 4085.51282017, 4126.66666639, 4049.23076882, 4105.51282024, 4127.82051255, 4144.23076903,12.0
4104.74358947, 4072.43589709, 4086.92307658, 4055.64102523, 4120.12820485, 4080.12820478, 4097.69230735, 4108.58974332, 4084.10256376, 4125.89743562, 4044.10256369, 4096.66666632, 4126.92307665, 4141.28205108,12.0
4106.79487152, 4073.20512786, 4088.84615350, 4055.25640984, 4119.87179460, 4079.61538427, 4091.79487145, 4103.71794844, 4074.10256376, 4131.53846126, 4043.97435856, 4099.48717914, 4134.35897408, 4145.38461518,12.0
4104.35897408, 4078.58974325, 4089.87179453, 4063.97435856, 4124.23076896, 4077.17948684, 4086.53846119, 4109.35897408, 4073.20512786, 4136.15384595, 4056.66666625, 4107.30769203, 4138.07692287, 4144.61538441,12.0
4102.94871767, 4080.64102530, 4093.58974325, 4071.53846119, 4124.10256383, 4082.17948684, 4100.76923043, 4121.66666639, 4094.61538427, 4132.17948691, 4066.92307651, 4110.12820485, 4134.10256383, 4145.89743569,12.0
4105.89743562, 4078.58974325, 4090.38461504, 4063.84615343, 4121.15384588, 4089.87179453, 4108.33333306, 4124.23076896, 4098.20512786, 4127.56410229, 4056.02564061, 4098.97435863, 4129.61538434, 4148.58974339,12.0
4107.17948691, 4074.74358940, 4077.56410222, 4052.56410215, 4121.79487152, 4087.82051248, 4101.66666632, 4113.71794844, 4076.92307658, 4127.56410229, 4045.12820472, 4086.28205094, 4129.10256383, 4142.05128185,12.0
4107.05128178, 4082.05128171, 4080.25640991, 4065.25640984, 4123.58974332, 4089.74358940, 4107.94871767, 4112.82051255, 4079.48717914, 4128.58974332, 4056.02564061, 4094.99999966, 4134.23076896, 4142.69230749,12.0
4107.17948691, 4083.46153812, 4088.58974325, 4076.02564068, 4125.25640998, 4089.48717914, 4107.94871767, 4113.58974332, 4090.38461504, 4127.43589716, 4062.69230728, 4102.56410229, 4138.58974339, 4150.76923056,12.0
4110.38461511, 4067.69230728, 4078.20512786, 4056.92307651, 4122.56410229, 4074.23076889, 4086.28205094, 4097.69230735, 4066.15384574, 4126.28205101, 4051.41025600, 4082.94871761, 4132.17948691, 4146.92307672,12.0
4111.02564075, 4069.87179453, 4074.10256376, 4051.79487138, 4119.74358947, 4071.15384581, 4081.28205094, 4093.33333299, 4056.28205087, 4135.89743569, 4048.33333292, 4073.58974325, 4128.71794844, 4145.38461518,12.0
4107.30769203, 4082.17948684, 4080.51282017, 4068.71794830, 4123.71794844, 4085.25640991, 4093.07692273, 4107.05128178, 4077.30769196, 4140.12820492, 4055.25640984, 4082.05128171, 4133.20512793, 4152.17948697,12.0
4110.38461511, 4080.51282017, 4078.71794837, 4067.17948677, 4124.23076896, 4088.58974325, 4098.46153812, 4113.33333306, 4078.46153812, 4134.48717921, 4057.94871754, 4080.51282017, 4134.10256383, 4151.15384595,12.0
4110.89743562, 4087.69230735, 4081.92307658, 4064.35897395, 4119.99999973, 4088.58974325, 4103.97435870, 4122.69230742, 4072.17948684, 4136.66666646, 4064.99999959, 4083.71794837, 4134.61538434, 4150.12820492,12.0
4106.66666639, 4085.51282017, 4082.94871761, 4069.48717907, 4120.12820485, 4085.64102530, 4098.58974325, 4123.97435870, 4078.97435863, 4136.53846133, 4068.07692266, 4087.56410222, 4131.02564075, 4150.38461518,12.0
4110.64102537, 4064.35897395, 4073.20512786, 4065.64102523, 4122.94871767, 4079.61538427, 4088.46153812, 4111.66666639, 4076.15384581, 4133.97435870, 4063.33333292, 4079.48717914, 4127.43589716, 4148.71794851,12.0
4109.35897408, 4071.15384581, 4078.07692273, 4068.84615343, 4122.94871767, 4091.15384581, 4103.97435870, 4123.20512793, 4077.05128171, 4139.10256390, 4069.87179453, 4087.43589709, 4129.48717921, 4151.53846133,12.0
4105.89743562, 4090.76923043, 4089.99999966, 4074.10256376, 4121.66666639, 4096.92307658, 4115.51282024, 4132.17948691, 4091.92307658, 4134.35897408, 4078.97435863, 4102.82051255, 4132.69230742, 4154.74358954,12.0
4106.15384588, 4087.30769196, 4084.74358940, 4070.76923043, 4124.23076896, 4083.84615350, 4101.28205094, 4110.12820485, 4090.38461504, 4124.61538434, 4076.41025607, 4099.48717914, 4132.56410229, 4147.05128185,12.0
4105.89743562, 4074.87179453, 4073.58974325, 4066.15384574, 4124.61538434, 4077.56410222, 4087.94871761, 4092.05128171, 4068.20512779, 4130.25640998, 4072.17948684, 4087.17948684, 4132.56410229, 4141.41025621,12.0
4107.69230742, 4072.56410222, 4077.17948684, 4066.66666625, 4121.92307665, 4088.97435863, 4093.20512786, 4095.38461504, 4059.87179446, 4135.89743569, 4076.02564068, 4087.17948684, 4132.94871767, 4146.53846133,12.0
4105.12820485, 4078.71794837, 4084.87179453, 4071.02564068, 4122.69230742, 4095.51282017, 4108.20512793, 4108.46153819, 4075.64102530, 4125.89743562, 4079.87179453, 4098.46153812, 4129.10256383, 4147.05128185,12.0
4104.74358947, 4082.69230735, 4081.53846119, 4074.99999966, 4122.43589716, 4088.97435863, 4107.94871767, 4122.43589716, 4088.71794837, 4126.15384588, 4077.69230735, 4099.99999966, 4128.07692280, 4143.07692287,12.0
4105.38461511, 4078.97435863, 4077.30769196, 4075.76923043, 4121.28205101, 4091.15384581, 4102.30769196, 4131.15384588, 4094.74358940, 4138.71794851, 4078.46153812, 4088.07692273, 4131.66666639, 4144.23076903,12.0
4103.33333306, 4078.84615350, 4078.07692273, 4071.02564068, 4122.17948691, 4097.30769196, 4114.10256383, 4130.12820485, 4090.51282017, 4137.17948697, 4083.58974325, 4083.97435863, 4132.05128178, 4150.38461518,12.0
4105.12820485, 4084.48717914, 4079.61538427, 4072.94871761, 4120.38461511, 4094.87179453, 4115.12820485, 4122.56410229, 4073.71794837, 4132.43589716, 4085.38461504, 4096.92307658, 4131.02564075, 4150.25641005,12.0
4102.17948684, 4092.17948684, 4086.66666632, 4090.76923043, 4117.56410229, 4091.02564068, 4096.41025607, 4117.17948691, 4076.79487145, 4136.53846133, 4087.43589709, 4107.94871767, 4133.71794844, 4141.41025621,12.0
4103.71794844, 4098.84615350, 4091.15384581, 4102.94871767, 4119.35897408, 4088.71794837, 4092.30769196, 4121.66666639, 4093.71794837, 4136.02564082, 4093.20512786, 4104.48717921, 4132.43589716, 4141.66666646,12.0
4107.82051255, 4087.69230735, 4081.02564068, 4088.97435863, 4124.10256383, 4080.89743555, 4092.05128171, 4120.38461511, 4088.20512786, 4134.61538434, 4092.05128171, 4095.25640991, 4124.48717921, 4145.51282031,12.0
4105.51282024, 4075.76923043, 4080.12820478, 4080.38461504, 4123.84615357, 4083.97435863, 4089.10256376, 4114.61538434, 4077.05128171, 4136.15384595, 4092.82051248, 4098.33333299, 4126.79487152, 4143.20512800,12.0
4106.92307665, 4093.33333299, 4096.02564068, 4096.92307658, 4121.28205101, 4100.76923043, 4107.05128178, 4129.35897408, 4093.33333299, 4134.48717921, 4100.64102530, 4113.46153819, 4135.76923056, 4143.71794851,12.0
4109.10256383, 4096.92307658, 4093.84615350, 4095.64102530, 4123.07692280, 4099.48717914, 4118.71794844, 4138.33333313, 4105.38461511, 4135.38461518, 4101.41025607, 4112.69230742, 4135.89743569, 4147.56410236,12.0
4109.99999973, 4078.33333299, 4080.64102530, 4084.23076889, 4123.33333306, 4094.35897402, 4109.99999973, 4127.82051255, 4097.17948684, 4138.71794851, 4101.02564068, 4099.74358940, 4127.30769203, 4142.05128185,12.0
4109.10256383, 4086.15384581, 4086.92307658, 4093.97435863, 4119.74358947, 4095.51282017, 4104.48717921, 4122.05128178, 4091.79487145, 4127.82051255, 4108.20512793, 4101.66666632, 4126.53846126, 4142.69230749,12.0
4107.69230742, 4102.69230742, 4091.92307658, 4096.79487145, 4119.23076896, 4082.82051248, 4092.56410222, 4119.48717921, 4087.56410222, 4122.56410229, 4107.17948691, 4105.25640998, 4127.43589716, 4156.15384595,12.0
4107.82051255, 4096.53846119, 4086.28205094, 4093.71794837, 4121.15384588, 4085.64102530, 4093.58974325, 4124.48717921, 4095.25640991, 4131.15384588, 4099.23076889, 4104.74358947, 4125.89743562, 4153.71794851,12.0
4105.51282024, 4093.07692273, 4091.02564068, 4109.99999973, 4123.20512793, 4104.87179460, 4124.74358947, 4133.84615357, 4104.74358947, 4130.64102537, 4103.97435870, 4114.35897408, 4128.97435870, 4138.07692287,12.0
4106.41025614, 4101.41025607, 4092.17948684, 4100.89743555, 4122.17948691, 4090.12820478, 4117.69230742, 4120.89743562, 4083.33333299, 4128.07692280, 4105.76923050, 4111.92307665, 4132.69230742, 4138.97435877,12.0
4108.84615357, 4088.71794837, 4076.92307658, 4063.20512779, 4119.35897408, 4055.25640984, 4059.99999959, 4092.56410222, 4053.07692266, 4128.58974332, 4096.53846119, 4086.15384581, 4134.35897408, 4149.35897415,12.0
4109.10256383, 4077.56410222, 4078.46153812, 4079.61538427, 4120.89743562, 4066.28205087, 4062.30769189, 4098.20512786, 4070.64102530, 4128.84615357, 4098.46153812, 4087.69230735, 4133.20512793, 4147.17948697,12.0
4110.38461511, 4089.87179453, 4095.25640991, 4118.97435870, 4122.05128178, 4106.02564075, 4119.99999973, 4125.64102537, 4103.71794844, 4131.92307665, 4110.64102537, 4114.74358947, 4131.53846126, 4142.43589723,12.0
