AF3,F7,F3,FC5,T7,P7,O1,O2,P8,T8,FC6,F4,F8,AF4,Label
4121.66666639, 4088.07692273, 4106.53846126, 4112.56410229, 4123.97435870, 4094.10256376, 4104.74358947, 4104.10256383, 4109.48717921, 4124.35897408, 4120.76923050, 4104.74358947, 4125.51282024, 4143.84615364,12.0
4119.87179460, 4084.23076889, 4102.43589709, 4113.07692280, 4118.07692280, 4093.46153812, 4107.43589716, 4101.41025607, 4109.10256383, 4131.79487152, 4114.74358947, 4101.79487145, 4124.61538434, 4142.30769210,12.0
4123.07692280, 4075.76923043, 4097.17948684, 4105.89743562, 4122.43589716, 4093.33333299, 4108.97435870, 4102.05128171, 4111.79487152, 4135.89743569, 4112.43589716, 4095.12820478, 4123.07692280, 4144.74358954,12.0
4121.41025614, 4070.38461504, 4095.64102530, 4098.07692273, 4126.41025614, 4095.89743555, 4108.58974332, 4098.58974325, 4101.79487145, 4133.71794844, 4108.07692280, 4084.87179453, 4120.38461511, 4149.74358954,12.0
4118.97435870, 4073.33333299, 4095.25640991, 4099.35897402, 4120.38461511, 4099.74358940, 4110.25640998, 4095.25640991, 4095.64102530, 4132.82051255, 4102.56410229, 4080.76923043, 4119.61538434, 4148.33333313,12.0
4119.61538434, 4075.89743555, 4095.51282017, 4102.43589709, 4122.05128178, 4103.46153819, 4113.84615357, 4102.82051255, 4106.41025614, 4134.87179460, 4105.25640998, 4082.56410222, 4118.84615357, 4146.15384595,12.0
4120.89743562, 4068.33333292, 4090.38461504, 4097.05128171, 4127.30769203, 4101.28205094, 4109.35897408, 4102.17948684, 4109.61538434, 4133.33333306, 4105.38461511, 4076.41025607, 4113.84615357, 4145.76923056,12.0
4121.28205101, 4059.99999959, 4082.82051248, 4089.61538427, 4127.82051255, 4098.07692273, 4099.48717914, 4089.61538427, 4099.87179453, 4133.58974332, 4099.48717914, 4064.99999959, 4109.48717921, 4146.92307672,12.0
4116.79487152, 4067.69230728, 4086.15384581, 4095.25640991, 4124.48717921, 4102.17948684, 4101.53846119, 4093.46153812, 4100.76923043, 4135.12820485, 4101.79487145, 4068.71794830, 4116.02564075, 4147.69230749,12.0
4121.41025614, 4082.69230735, 4097.56410222, 4113.07692280, 4123.20512793, 4107.82051255, 4113.97435870, 4104.74358947, 4115.25640998, 4131.53846126, 4109.87179460, 4087.82051248, 4125.12820485, 4147.43589723,12.0
4125.64102537, 4082.94871761, 4102.43589709, 4115.25640998, 4126.28205101, 4111.28205101, 4124.74358947, 4112.30769203, 4124.61538434, 4130.89743562, 4117.30769203, 4097.17948684, 4125.38461511, 4146.66666646,12.0
4117.17948691, 4073.97435863, 4098.58974325, 4107.30769203, 4124.23076896, 4112.17948691, 4126.15384588, 4123.20512793, 4128.71794844, 4134.35897408, 4122.30769203, 4097.05128171, 4126.53846126, 4142.82051262,12.0
4120.25640998, 4081.92307658, 4105.25640998, 4120.51282024, 4122.69230742, 4112.56410229, 4122.43589716, 4127.94871767, 4140.25641005, 4131.15384588, 4124.35897408, 4108.33333306, 4136.15384595, 4144.35897415,12.0
4128.71794844, 4094.10256376, 4116.66666639, 4137.43589723, 4124.10256383, 4109.99999973, 4119.23076896, 4118.84615357, 4142.30769210, 4126.28205101, 4127.05128178, 4119.99999973, 4142.05128185, 4148.07692287,12.0
4124.61538434, 4084.35897402, 4113.33333306, 4129.61538434, 4121.79487152, 4102.30769196, 4112.69230742, 4106.66666639, 4125.12820485, 4130.51282024, 4124.61538434, 4111.92307665, 4134.61538434, 4143.33333313,12.0
4121.02564075, 4074.48717914, 4106.15384588, 4119.23076896, 4122.30769203, 4106.02564075, 4114.74358947, 4114.10256383, 4121.92307665, 4135.64102544, 4120.25640998, 4101.66666632, 4127.82051255, 4141.79487159,12.0
4123.71794844, 4078.97435863, 4103.46153819, 4118.97435870, 4121.66666639, 4115.38461511, 4120.25640998, 4121.66666639, 4128.71794844, 4134.10256383, 4118.84615357, 4097.69230735, 4129.10256383, 4148.46153826,12.0
4126.15384588, 4066.53846113, 4090.76923043, 4099.87179453, 4119.87179460, 4103.46153819, 4102.05128171, 4099.99999966, 4111.41025614, 4126.92307665, 4110.76923050, 4075.76923043, 4120.64102537, 4150.51282031,12.0
4124.61538434, 4046.79487138, 4076.92307658, 4079.35897402, 4123.07692280, 4093.97435863, 4089.23076889, 4084.74358940, 4092.43589709, 4124.10256383, 4099.48717914, 4054.87179446, 4106.41025614, 4146.53846133,12.0
4121.92307665, 4060.76923036, 4085.89743555, 4099.48717914, 4124.48717921, 4112.05128178, 4111.79487152, 4100.89743555, 4107.56410229, 4131.28205101, 4107.82051255, 4070.12820478, 4110.76923050, 4143.84615364,12.0
4119.35897408, 4080.89743555, 4098.97435863, 4120.25640998, 4124.74358947, 4126.79487152, 4132.17948691, 4117.82051255, 4125.64102537, 4134.87179460, 4120.76923050, 4091.28205094, 4124.35897408, 4146.53846133,12.0
4118.97435870, 4077.56410222, 4096.53846119, 4111.53846126, 4124.48717921, 4122.17948691, 4129.87179460, 4116.92307665, 4123.46153819, 4131.41025614, 4117.05128178, 4090.89743555, 4124.87179460, 4149.48717928,12.0
4119.23076896, 4075.76923043, 4099.23076889, 4111.41025614, 4124.35897408, 4118.71794844, 4129.74358947, 4117.17948691, 4129.87179460, 4131.41025614, 4116.28205101, 4094.99999966, 4120.64102537, 4148.46153826,12.0
4119.23076896, 4078.20512786, 4107.30769203, 4120.51282024, 4125.12820485, 4122.05128178, 4136.41025621, 4129.23076896, 4145.12820492, 4131.92307665, 4122.05128178, 4102.69230742, 4123.97435870, 4145.25641005,12.0
4121.02564075, 4063.97435856, 4096.79487145, 4104.48717921, 4123.20512793, 4113.71794844, 4124.61538434, 4120.89743562, 4134.74358947, 4131.53846126, 4115.12820485, 4084.61538427, 4124.48717921, 4143.07692287,12.0
4121.53846126, 4051.02564061, 4084.61538427, 4083.58974325, 4124.48717921, 4102.30769196, 4109.10256383, 4101.53846119, 4117.56410229, 4134.48717921, 4107.30769203, 4068.58974318, 4120.38461511, 4145.51282031,12.0
4120.12820485, 4057.82051241, 4090.64102530, 4089.48717914, 4123.97435870, 4106.53846126, 4114.48717921, 4113.84615357, 4128.84615357, 4131.28205101, 4116.66666639, 4084.87179453, 4122.94871767, 4146.66666646,12.0
4122.17948691, 4069.74358940, 4098.20512786, 4104.74358947, 4121.02564075, 4108.33333306, 4117.82051255, 4127.69230742, 4144.35897415, 4125.89743562, 4126.79487152, 4100.12820478, 4129.48717921, 4146.79487159,12.0
4124.87179460, 4068.33333292, 4097.17948684, 4102.94871767, 4124.48717921, 4103.07692280, 4111.15384588, 4119.10256383, 4138.46153826, 4130.38461511, 4123.20512793, 4092.30769196, 4127.69230742, 4146.41025621,12.0
4121.66666639, 4057.82051241, 4091.53846119, 4090.12820478, 4122.56410229, 4102.30769196, 4109.74358947, 4110.64102537, 4125.76923050, 4135.64102544, 4118.07692280, 4085.25640991, 4121.02564075, 4143.71794851,12.0
4120.12820485, 4058.58974318, 4088.71794837, 4089.61538427, 4121.41025614, 4105.89743562, 4110.38461511, 4102.05128171, 4116.79487152, 4134.35897408, 4118.84615357, 4085.51282017, 4121.41025614, 4145.51282031,12.0
4123.33333306, 4072.56410222, 4091.92307658, 4103.71794844, 4124.35897408, 4113.33333306, 4112.56410229, 4093.20512786, 4113.46153819, 4132.43589716, 4118.84615357, 4088.33333299, 4125.38461511, 4148.33333313,12.0
4122.56410229, 4069.35897395, 4091.92307658, 4098.97435863, 4122.30769203, 4108.58974332, 4108.46153819, 4086.15384581, 4108.71794844, 4132.56410229, 4114.35897408, 4087.43589709, 4122.82051255, 4145.25641005,12.0
4120.12820485, 4055.25640984, 4087.94871761, 4079.87179453, 4123.71794844, 4097.94871761, 4099.87179453, 4083.84615350, 4103.58974332, 4136.15384595, 4113.84615357, 4082.94871761, 4117.94871767, 4146.15384595,12.0
4121.15384588, 4067.82051241, 4093.71794837, 4092.82051248, 4123.97435870, 4108.71794844, 4107.69230742, 4098.33333299, 4116.66666639, 4135.89743569, 4121.79487152, 4095.89743555, 4124.48717921, 4149.61538441,12.0
4123.07692280, 4084.48717914, 4103.71794844, 4116.92307665, 4122.56410229, 4122.30769203, 4124.35897408, 4124.10256383, 4141.15384595, 4128.84615357, 4126.66666639, 4112.17948691, 4138.33333313, 4145.76923056,12.0
4122.43589716, 4076.15384581, 4097.69230735, 4107.94871767, 4122.69230742, 4115.51282024, 4120.51282024, 4125.76923050, 4144.61538441, 4129.99999973, 4123.71794844, 4104.61538434, 4137.05128185, 4142.17948697,12.0
4122.56410229, 4072.30769196, 4090.89743555, 4097.17948684, 4121.66666639, 4108.58974332, 4102.43589709, 4100.12820478, 4129.23076896, 4135.25640998, 4119.87179460, 4096.41025607, 4125.89743562, 4144.35897415,12.0
4121.66666639, 4082.56410222, 4099.23076889, 4108.07692280, 4124.35897408, 4117.69230742, 4109.10256383, 4100.25640991, 4128.46153819, 4129.87179460, 4121.66666639, 4103.20512793, 4125.51282024, 4146.53846133,12.0
4119.23076896, 4077.17948684, 4097.43589709, 4106.53846126, 4123.46153819, 4117.82051255, 4117.82051255, 4108.33333306, 4129.23076896, 4126.66666639, 4121.53846126, 4100.76923043, 4125.12820485, 4143.20512800,12.0
4122.43589716, 4057.30769189, 4082.94871761, 4085.12820478, 4121.79487152, 4093.33333299, 4090.89743555, 4077.82051248, 4106.28205101, 4133.84615357, 4109.74358947, 4084.10256376, 4114.87179460, 4140.64102544,12.0
4121.92307665, 4058.07692266, 4083.46153812, 4082.30769196, 4123.58974332, 4082.43589709, 4075.38461504, 4063.58974318, 4095.51282017, 4136.02564082, 4107.56410229, 4081.41025607, 4113.20512793, 4143.46153826,12.0
4120.38461511, 4074.23076889, 4096.53846119, 4099.35897402, 4124.10256383, 4095.76923043, 4099.48717914, 4086.41025607, 4113.33333306, 4131.41025614, 4121.79487152, 4100.89743555, 4125.25640998, 4144.10256390,12.0
4124.61538434, 4081.92307658, 4105.12820485, 4107.05128178, 4125.76923050, 4106.02564075, 4116.41025614, 4100.51282017, 4124.35897408, 4131.02564075, 4124.87179460, 4116.53846126, 4133.33333306, 4147.17948697,12.0
4123.07692280, 4088.84615350, 4109.10256383, 4114.48717921, 4123.33333306, 4107.05128178, 4112.30769203, 4101.66666632, 4125.51282024, 4130.89743562, 4123.07692280, 4120.12820485, 4138.97435877, 4149.99999980,12.0
4124.10256383, 4096.66666632, 4110.76923050, 4119.23076896, 4123.33333306, 4113.71794844, 4123.71794844, 4109.99999973, 4139.87179467, 4133.97435870, 4126.02564075, 4119.10256383, 4140.51282031, 4146.92307672,12.0
4122.56410229, 4092.56410222, 4108.71794844, 4107.94871767, 4126.66666639, 4130.64102537, 4145.76923056, 4128.97435870, 4158.58974339, 4138.20512800, 4119.87179460, 4118.07692280, 4136.02564082, 4144.74358954,12.0
4119.48717921, 4091.02564068, 4111.02564075, 4106.66666639, 4123.33333306, 4133.58974332, 4143.58974339, 4134.99999973, 4164.48717928, 4133.46153819, 4125.51282024, 4127.17948691, 4146.15384595, 4146.66666646,12.0
4123.84615357, 4094.23076889, 4112.69230742, 4114.35897408, 4123.71794844, 4121.15384588, 4129.35897408, 4125.76923050, 4159.10256390, 4129.87179460, 4144.35897415, 4129.99999973, 4156.41025621, 4146.92307672,12.0
4119.61538434, 4075.89743555, 4097.56410222, 4089.87179453, 4124.61538434, 4114.87179460, 4127.17948691, 4124.10256383, 4150.76923056, 4134.87179460, 4143.71794851, 4108.46153819, 4144.61538441, 4142.56410236,12.0
4119.23076896, 4050.76923036, 4080.76923043, 4049.35897395, 4123.07692280, 4112.43589716, 4124.99999973, 4125.76923050, 4148.58974339, 4135.64102544, 4134.61538434, 4086.53846119, 4132.94871767, 4143.33333313,12.0
4123.97435870, 4049.35897395, 4081.79487145, 4046.79487138, 4124.99999973, 4108.46153819, 4117.43589716, 4121.79487152, 4149.10256390, 4132.94871767, 4132.82051255, 4085.64102530, 4136.53846133, 4144.74358954,12.0
4121.79487152, 4059.23076882, 4087.82051248, 4063.58974318, 4122.05128178, 4108.58974332, 4115.12820485, 4115.89743562, 4142.30769210, 4132.17948691, 4128.20512793, 4089.35897402, 4136.92307672, 4142.43589723,12.0
4124.74358947, 4062.05128164, 4089.10256376, 4059.87179446, 4121.15384588, 4114.23076896, 4118.71794844, 4115.12820485, 4135.76923056, 4126.66666639, 4122.56410229, 4085.38461504, 4133.46153819, 4144.10256390,12.0
4122.69230742, 4068.58974318, 4090.76923043, 4057.94871754, 4122.94871767, 4120.12820485, 4128.07692280, 4121.41025614, 4144.23076903, 4126.53846126, 4123.07692280, 4088.97435863, 4137.05128185, 4144.35897415,12.0
4120.89743562, 4078.84615350, 4098.07692273, 4070.51282017, 4122.43589716, 4123.07692280, 4135.25640998, 4128.84615357, 4159.48717928, 4132.05128178, 4129.35897408, 4099.23076889, 4138.97435877, 4144.61538441,12.0
4122.17948691, 4080.12820478, 4105.25640998, 4078.84615350, 4124.10256383, 4124.74358947, 4137.17948697, 4136.79487159, 4164.10256390, 4127.82051255, 4134.87179460, 4103.84615357, 4140.64102544, 4147.17948697,12.0
4120.12820485, 4080.38461504, 4103.97435870, 4075.38461504, 4122.69230742, 4121.28205101, 4135.51282031, 4136.02564082, 4155.51282031, 4125.89743562, 4129.87179460, 4101.02564068, 4140.64102544, 4145.89743569,12.0
4123.46153819, 4089.35897402, 4101.15384581, 4072.56410222, 4121.53846126, 4114.74358947, 4130.76923050, 4126.28205101, 4145.25641005, 4135.12820485, 4122.17948691, 4097.69230735, 4133.97435870, 4144.99999980,12.0
4119.35897408, 4087.69230735, 4096.79487145, 4067.56410215, 4122.43589716, 4113.20512793, 4128.46153819, 4127.43589716, 4140.12820492, 4137.17948697, 4119.48717921, 4092.17948684, 4126.41025614, 4145.64102544,12.0
4117.69230742, 4076.66666632, 4090.89743555, 4058.20512779, 4124.23076896, 4112.05128178, 4130.76923050, 4128.20512793, 4139.23076903, 4131.15384588, 4115.12820485, 4086.28205094, 4122.69230742, 4142.05128185,12.0
4120.51282024, 4080.51282017, 4091.66666632, 4056.92307651, 4127.05128178, 4110.25640998, 4136.66666646, 4122.94871767, 4133.46153819, 4133.46153819, 4111.02564075, 4084.87179453, 4123.97435870, 4142.82051262,12.0
4117.56410229, 4084.61538427, 4092.17948684, 4058.33333292, 4123.71794844, 4108.20512793, 4136.79487159, 4120.76923050, 4124.48717921, 4135.64102544, 4109.48717921, 4080.76923043, 4122.43589716, 4145.64102544,12.0
4121.92307665, 4071.79487145, 4082.30769196, 4046.28205087, 4123.33333306, 4103.07692280, 4125.25640998, 4113.84615357, 4117.56410229, 4131.66666639, 4100.12820478, 4063.46153805, 4109.74358947, 4143.84615364,12.0
4121.92307665, 4064.99999959, 4073.71794837, 4035.38461490, 4123.97435870, 4099.35897402, 4115.89743562, 4108.07692280, 4115.89743562, 4130.51282024, 4092.56410222, 4052.69230728, 4103.84615357, 4148.07692287,12.0
4119.61538434, 4075.51282017, 4083.07692273, 4046.41025600, 4122.17948691, 4099.87179453, 4115.25640998, 4108.97435870, 4119.23076896, 4131.53846126, 4099.87179453, 4063.84615343, 4116.66666639, 4145.38461518,12.0
4120.25640998, 4080.64102530, 4094.10256376, 4058.58974318, 4124.87179460, 4100.25640991, 4113.46153819, 4109.35897408, 4120.12820485, 4133.20512793, 4104.35897408, 4073.97435863, 4125.89743562, 4142.43589723,12.0
4117.69230742, 4080.64102530, 4089.99999966, 4059.23076882, 4121.92307665, 4093.71794837, 4107.56410229, 4102.30769196, 4114.99999973, 4132.82051255, 4098.71794837, 4071.66666632, 4119.35897408, 4147.94871774,12.0
4123.84615357, 4088.20512786, 4093.07692273, 4066.66666625, 4119.23076896, 4094.23076889, 4108.84615357, 4094.35897402, 4115.89743562, 4133.20512793, 4100.12820478, 4077.30769196, 4117.05128178, 4142.69230749,12.0
4123.84615357, 4092.43589709, 4102.43589709, 4071.53846119, 4122.94871767, 4104.99999973, 4117.17948691, 4098.97435863, 4124.61538434, 4133.84615357, 4110.25640998, 4092.05128171, 4130.89743562, 4145.51282031,12.0
4121.41025614, 4098.33333299, 4103.33333306, 4079.10256376, 4123.46153819, 4104.99999973, 4115.64102537, 4101.41025607, 4123.33333306, 4132.17948691, 4112.05128178, 4099.74358940, 4137.82051262, 4148.58974339,12.0
4126.41025614, 4108.20512793, 4106.79487152, 4099.35897402, 4123.71794844, 4101.41025607, 4110.51282024, 4096.79487145, 4118.58974332, 4132.69230742, 4107.69230742, 4101.28205094, 4127.43589716, 4142.30769210,12.0
4121.28205101, 4103.71794844, 4108.46153819, 4096.28205094, 4121.53846126, 4103.46153819, 4110.89743562, 4099.87179453, 4120.89743562, 4132.56410229, 4102.05128171, 4095.89743555, 4119.23076896, 4146.02564082,12.0
4122.17948691, 4098.33333299, 4105.89743562, 4085.12820478, 4122.30769203, 4105.38461511, 4113.46153819, 4106.15384588, 4122.94871767, 4124.61538434, 4096.41025607, 4091.66666632, 4119.10256383, 4146.15384595,12.0
4122.30769203, 4114.99999973, 4113.71794844, 4111.15384588, 4124.61538434, 4118.97435870, 4131.41025614, 4117.82051255, 4130.76923050, 4122.69230742, 4107.82051255, 4107.69230742, 4126.53846126, 4146.92307672,12.0
4118.07692280, 4133.84615357, 4127.56410229, 4135.51282031, 4122.05128178, 4134.35897408, 4147.43589723, 4129.35897408, 4140.89743569, 4132.05128178, 4123.07692280, 4126.79487152, 4136.15384595, 4145.51282031,12.0
4122.43589716, 4134.23076896, 4130.76923050, 4129.61538434, 4123.84615357, 4126.28205101, 4133.20512793, 4129.23076896, 4140.25641005, 4129.35897408, 4119.74358947, 4129.10256383, 4138.07692287, 4142.30769210,12.0
4117.56410229, 4129.87179460, 4128.20512793, 4131.28205101, 4122.94871767, 4112.94871767, 4116.41025614, 4128.07692280, 4142.05128185, 4124.10256383, 4119.10256383, 4128.97435870, 4136.92307672, 4147.56410236,12.0
4120.51282024, 4127.30769203, 4129.61538434, 4137.94871774, 4121.28205101, 4117.69230742, 4122.05128178, 4129.61538434, 4150.76923056, 4134.48717921, 4122.30769203, 4129.99999973, 4139.61538441, 4143.46153826,12.0
4124.48717921, 4120.51282024, 4124.23076896, 4125.76923050, 4124.23076896, 4123.07692280, 4126.02564075, 4128.71794844, 4147.30769210, 4138.84615364, 4111.92307665, 4118.33333306, 4139.48717928, 4142.56410236,12.0
4117.82051255, 4118.58974332, 4117.82051255, 4121.92307665, 4122.69230742, 4116.02564075, 4115.12820485, 4121.92307665, 4138.07692287, 4131.92307665, 4106.66666639, 4111.15384588, 4133.71794844, 4146.02564082,12.0
4117.82051255, 4118.58974332, 4117.82051255, 4121.92307665, 4122.69230742, 4116.02564075, 4115.12820485, 4121.92307665, 4138.07692287, 4131.92307665, 4106.66666639, 4111.15384588, 4133.71794844, 4146.02564082,12.0
4123.97435870, 4125.64102537, 4129.99999973, 4138.58974339, 4124.10256383, 4122.56410229, 4122.43589716, 4126.79487152, 4147.43589723, 4131.79487152, 4119.23076896, 4128.46153819, 4139.23076903, 4143.20512800,12.0
4122.69230742, 4136.28205108, 4145.76923056, 4155.12820492, 4125.25640998, 4140.25641005, 4142.30769210, 4145.38461518, 4167.43589723, 4136.41025621, 4129.74358947, 4149.74358954, 4154.23076903, 4145.38461518,12.0
4120.38461511, 4141.53846133, 4143.58974339, 4157.69230749, 4123.07692280, 4141.02564082, 4144.10256390, 4144.61538441, 4166.28205108, 4129.35897408, 4123.71794844, 4147.05128185, 4151.53846133, 4145.64102544,12.0
4125.51282024, 4132.43589716, 4134.10256383, 4147.43589723, 4124.74358947, 4138.46153826, 4143.46153826, 4139.87179467, 4156.41025621, 4124.35897408, 4119.87179460, 4135.64102544, 4143.84615364, 4142.82051262,12.0
4122.30769203, 4120.38461511, 4132.94871767, 4143.84615364, 4122.43589716, 4138.07692287, 4139.61538441, 4146.28205108, 4164.23076903, 4130.89743562, 4125.76923050, 4134.74358947, 4148.33333313, 4142.94871774,12.0
4124.23076896, 4117.82051255, 4129.99999973, 4142.94871774, 4120.38461511, 4128.07692280, 4123.20512793, 4140.76923056, 4166.92307672, 4131.66666639, 4117.30769203, 4126.66666639, 4144.99999980, 4143.84615364,12.0
4122.43589716, 4119.10256383, 4122.17948691, 4137.05128185, 4122.82051255, 4124.61538434, 4118.46153819, 4130.51282024, 4154.10256390, 4128.58974332, 4107.30769203, 4114.87179460, 4135.51282031, 4145.64102544,12.0
4122.94871767, 4122.30769203, 4127.17948691, 4140.89743569, 4123.07692280, 4134.48717921, 4129.87179460, 4129.87179460, 4151.02564082, 4130.25640998, 4115.51282024, 4121.79487152, 4141.28205108, 4146.02564082,12.0
4126.53846126, 4127.56410229, 4136.15384595, 4152.69230749, 4123.46153819, 4137.43589723, 4131.41025614, 4136.02564082, 4160.38461518, 4132.43589716, 4122.43589716, 4131.28205101, 4147.05128185, 4145.64102544,12.0
4120.38461511, 4129.23076896, 4131.92307665, 4155.76923056, 4121.41025614, 4133.71794844, 4125.51282024, 4138.07692287, 4163.58974339, 4130.76923050, 4111.41025614, 4125.64102537, 4140.76923056, 4144.35897415,12.0
4121.28205101, 4132.82051255, 4136.02564082, 4153.07692287, 4123.07692280, 4136.15384595, 4128.46153819, 4134.23076896, 4162.30769210, 4132.56410229, 4105.76923050, 4128.71794844, 4138.71794851, 4146.15384595,12.0
4119.35897408, 4139.99999980, 4147.05128185, 4156.66666646, 4125.12820485, 4138.58974339, 4130.51282024, 4132.17948691, 4157.69230749, 4136.79487159, 4117.17948691, 4140.38461518, 4139.87179467, 4149.10256390,12.0
4119.48717921, 4138.84615364, 4140.38461518, 4156.92307672, 4124.35897408, 4132.17948691, 4118.46153819, 4127.43589716, 4150.51282031, 4131.15384588, 4117.05128178, 4135.25640998, 4140.12820492, 4145.12820492,12.0
4124.99999973, 4132.94871767, 4132.94871767, 4152.69230749, 4127.43589716, 4126.53846126, 4109.48717921, 4125.64102537, 4152.94871774, 4123.84615357, 4107.94871767, 4125.89743562, 4142.69230749, 4143.84615364,12.0
4118.46153819, 4126.28205101, 4133.84615357, 4146.15384595, 4125.25640998, 4123.33333306, 4109.35897408, 4118.33333306, 4149.87179467, 4127.43589716, 4109.10256383, 4123.46153819, 4140.38461518, 4145.76923056,12.0
4119.23076896, 4117.94871767, 4130.89743562, 4136.15384595, 4121.41025614, 4118.58974332, 4102.17948684, 4101.28205094, 4132.94871767, 4130.89743562, 4110.51282024, 4117.82051255, 4136.53846133, 4147.05128185,12.0
4124.74358947, 4120.38461511, 4126.53846126, 4138.07692287, 4123.71794844, 4119.48717921, 4100.89743555, 4106.79487152, 4127.94871767, 4128.07692280, 4110.51282024, 4113.20512793, 4136.66666646, 4148.71794851,12.0
4123.33333306, 4135.76923056, 4130.38461511, 4152.30769210, 4124.48717921, 4122.17948691, 4107.05128178, 4122.69230742, 4140.89743569, 4127.30769203, 4116.15384588, 4121.92307665, 4137.69230749, 4143.97435877,12.0
4122.56410229, 4146.92307672, 4141.53846133, 4160.76923056, 4124.48717921, 4130.38461511, 4114.10256383, 4123.33333306, 4155.51282031, 4130.12820485, 4121.15384588, 4137.05128185, 4139.87179467, 4143.20512800,12.0
4123.84615357, 4137.82051262, 4140.25641005, 4151.15384595, 4122.05128178, 4136.28205108, 4119.10256383, 4120.64102537, 4155.38461518, 4130.89743562, 4113.46153819, 4135.12820485, 4139.61538441, 4147.05128185,12.0
4127.17948691, 4121.02564075, 4128.58974332, 4135.64102544, 4122.30769203, 4125.76923050, 4115.64102537, 4120.25640998, 4144.74358954, 4127.69230742, 4104.74358947, 4116.15384588, 4135.12820485, 4145.25641005,12.0
4122.94871767, 4126.41025614, 4131.28205101, 4140.89743569, 4128.07692280, 4126.66666639, 4120.64102537, 4123.46153819, 4146.92307672, 4128.33333306, 4106.53846126, 4118.07692280, 4136.41025621, 4142.30769210,12.0
4118.07692280, 4146.15384595, 4143.20512800, 4158.71794851, 4125.12820485, 4135.51282031, 4126.28205101, 4121.66666639, 4155.89743569, 4133.20512793, 4110.12820485, 4137.56410236, 4140.51282031, 4142.69230749,12.0
4120.89743562, 4148.46153826, 4143.58974339, 4153.84615364, 4121.53846126, 4123.97435870, 4114.35897408, 4111.79487152, 4149.61538441, 4130.76923050, 4108.71794844, 4133.33333306, 4138.97435877, 4147.56410236,12.0
4121.53846126, 4136.15384595, 4134.74358947, 4134.61538434, 4124.61538434, 4115.64102537, 4106.41025614, 4114.35897408, 4143.20512800, 4125.38461511, 4108.84615357, 4119.35897408, 4138.20512800, 4148.84615364,12.0
4122.69230742, 4127.94871767, 4127.94871767, 4131.79487152, 4124.99999973, 4119.87179460, 4107.56410229, 4118.58974332, 4145.12820492, 4130.12820485, 4109.48717921, 4120.38461511, 4136.15384595, 4146.92307672,12.0
4123.97435870, 4128.33333306, 4128.58974332, 4137.43589723, 4123.33333306, 4117.43589716, 4102.05128171, 4113.07692280, 4142.94871774, 4136.79487159, 4108.58974332, 4124.87179460, 4133.46153819, 4148.71794851,12.0
4122.69230742, 4143.71794851, 4138.58974339, 4142.82051262, 4121.28205101, 4118.33333306, 4102.69230742, 4116.66666639, 4144.10256390, 4132.56410229, 4115.64102537, 4134.87179460, 4143.97435877, 4144.99999980,12.0
4121.41025614, 4159.35897415, 4146.02564082, 4150.38461518, 4123.20512793, 4126.79487152, 4112.69230742, 4123.07692280, 4154.23076903, 4127.82051255, 4124.48717921, 4143.71794851, 4151.41025621, 4141.66666646,12.0
4120.89743562, 4154.48717928, 4143.58974339, 4154.35897415, 4123.71794844, 4129.23076896, 4114.99999973, 4122.94871767, 4157.69230749, 4126.15384588, 4122.94871767, 4140.64102544, 4140.89743569, 4144.74358954,12.0
4123.97435870, 4147.69230749, 4146.53846133, 4153.46153826, 4119.99999973, 4127.17948691, 4118.97435870, 4117.43589716, 4153.84615364, 4129.61538434, 4119.23076896, 4144.48717928, 4136.66666646, 4144.87179467,12.0
4122.82051255, 4137.43589723, 4141.92307672, 4141.15384595, 4123.46153819, 4123.33333306, 4117.69230742, 4104.35897408, 4144.35897415, 4135.89743569, 4113.33333306, 4140.64102544, 4142.17948697, 4144.99999980,12.0
4119.61538434, 4125.76923050, 4127.43589716, 4128.07692280, 4124.48717921, 4118.71794844, 4107.43589716, 4101.15384581, 4135.89743569, 4133.58974332, 4103.97435870, 4122.56410229, 4138.07692287, 4145.38461518,12.0
4122.82051255, 4139.35897415, 4138.20512800, 4139.74358954, 4122.30769203, 4124.99999973, 4116.41025614, 4118.07692280, 4146.28205108, 4126.66666639, 4107.56410229, 4131.41025614, 4136.66666646, 4147.05128185,12.0
4123.33333306, 4159.99999980, 4156.41025621, 4156.28205108, 4123.97435870, 4142.43589723, 4137.30769210, 4134.10256383, 4164.10256390, 4127.94871767, 4119.74358947, 4156.92307672, 4145.12820492, 4149.35897415,12.0
4122.94871767, 4149.48717928, 4144.61538441, 4146.66666646, 4123.07692280, 4139.23076903, 4124.74358947, 4122.56410229, 4156.92307672, 4129.35897408, 4119.23076896, 4150.51282031, 4143.20512800, 4146.28205108,12.0
4123.71794844, 4130.51282024, 4127.69230742, 4128.84615357, 4124.99999973, 4117.17948691, 4098.97435863, 4104.99999973, 4133.71794844, 4126.53846126, 4107.69230742, 4126.41025614, 4134.23076896, 4146.53846133,12.0
4121.15384588, 4141.92307672, 4138.33333313, 4134.87179460, 4126.02564075, 4120.76923050, 4109.61538434, 4117.30769203, 4140.89743569, 4128.84615357, 4109.10256383, 4134.74358947, 4139.48717928, 4147.30769210,12.0
4120.25640998, 4159.74358954, 4153.97435877, 4154.74358954, 4123.07692280, 4139.48717928, 4127.30769203, 4134.10256383, 4166.79487159, 4129.99999973, 4120.89743562, 4161.53846133, 4148.58974339, 4144.35897415,12.0
4119.99999973, 4155.89743569, 4149.35897415, 4154.35897415, 4124.23076896, 4136.79487159, 4122.17948691, 4129.61538434, 4163.58974339, 4125.64102537, 4121.66666639, 4157.82051262, 4148.46153826, 4144.74358954,12.0
4121.02564075, 4152.30769210, 4142.05128185, 4141.66666646, 4124.23076896, 4127.69230742, 4115.51282024, 4113.20512793, 4146.53846133, 4127.17948691, 4117.17948691, 4141.41025621, 4146.15384595, 4143.33333313,12.0
4122.43589716, 4161.92307672, 4148.71794851, 4143.07692287, 4122.69230742, 4134.35897408, 4122.94871767, 4109.10256383, 4145.38461518, 4135.64102544, 4116.15384588, 4144.61538441, 4146.92307672, 4141.92307672,12.0
4120.76923050, 4162.17948697, 4148.71794851, 4148.33333313, 4122.43589716, 4141.15384595, 4127.56410229, 4112.94871767, 4144.10256390, 4136.15384595, 4112.30769203, 4144.74358954, 4145.25641005, 4142.56410236,12.0
4122.43589716, 4138.84615364, 4129.48717921, 4131.02564075, 4123.71794844, 4129.35897408, 4109.87179460, 4102.30769196, 4131.15384588, 4129.23076896, 4104.99999973, 4121.53846126, 4131.79487152, 4143.46153826,12.0
4121.79487152, 4128.33333306, 4120.64102537, 4116.28205101, 4124.61538434, 4119.48717921, 4097.05128171, 4101.92307658, 4132.94871767, 4131.41025614, 4104.10256383, 4111.28205101, 4123.58974332, 4145.76923056,12.0
4121.02564075, 4148.46153826, 4135.51282031, 4131.02564075, 4122.43589716, 4127.30769203, 4108.20512793, 4116.02564075, 4152.43589723, 4134.74358947, 4113.20512793, 4131.92307665, 4137.69230749, 4145.25641005,12.0
4124.61538434, 4162.56410236, 4148.46153826, 4144.87179467, 4124.61538434, 4138.07692287, 4121.41025614, 4121.02564075, 4160.76923056, 4129.99999973, 4121.41025614, 4145.89743569, 4151.15384595, 4145.64102544,12.0
4122.17948691, 4151.79487159, 4140.76923056, 4138.20512800, 4124.48717921, 4135.12820485, 4119.10256383, 4118.07692280, 4151.53846133, 4126.53846126, 4115.25640998, 4135.89743569, 4142.94871774, 4146.02564082,12.0
4124.74358947, 4145.25641005, 4131.79487152, 4130.64102537, 4121.53846126, 4126.92307665, 4113.84615357, 4115.12820485, 4143.33333313, 4130.76923050, 4103.58974332, 4129.35897408, 4133.07692280, 4142.69230749,12.0
4125.89743562, 4138.84615364, 4125.38461511, 4117.05128178, 4124.87179460, 4124.23076896, 4114.74358947, 4109.87179460, 4137.05128185, 4135.64102544, 4098.71794837, 4121.28205101, 4128.58974332, 4143.46153826,12.0
4120.76923050, 4124.74358947, 4115.76923050, 4101.79487145, 4124.61538434, 4117.82051255, 4114.48717921, 4098.71794837, 4126.66666639, 4132.05128178, 4095.64102530, 4104.61538434, 4119.10256383, 4144.23076903,12.0
4121.79487152, 4138.84615364, 4126.66666639, 4120.51282024, 4123.46153819, 4122.17948691, 4117.43589716, 4102.69230742, 4132.05128178, 4126.79487152, 4103.97435870, 4118.71794844, 4127.30769203, 4144.23076903,12.0
4122.05128178, 4166.02564082, 4146.53846133, 4145.38461518, 4123.46153819, 4138.97435877, 4128.97435870, 4120.64102537, 4148.84615364, 4129.23076896, 4117.94871767, 4151.53846133, 4144.74358954, 4144.23076903,12.0
4121.02564075, 4166.02564082, 4147.94871774, 4141.66666646, 4122.30769203, 4141.41025621, 4134.35897408, 4124.74358947, 4153.97435877, 4131.53846126, 4117.43589716, 4153.07692287, 4141.41025621, 4142.17948697,12.0
4120.38461511, 4161.53846133, 4146.41025621, 4141.41025621, 4124.61538434, 4138.84615364, 4134.87179460, 4122.05128178, 4154.74358954, 4127.56410229, 4114.61538434, 4145.64102544, 4141.02564082, 4144.23076903,12.0
4120.89743562, 4173.20512807, 4152.94871774, 4151.28205108, 4122.56410229, 4144.23076903, 4137.05128185, 4124.10256383, 4158.07692287, 4128.07692280, 4121.66666639, 4158.58974339, 4155.12820492, 4145.51282031,12.0
4122.56410229, 4177.82051269, 4154.99999980, 4149.61538441, 4121.15384588, 4140.89743569, 4131.79487152, 4122.82051255, 4154.48717928, 4131.66666639, 4122.56410229, 4163.97435877, 4155.51282031, 4145.51282031,12.0
4120.12820485, 4166.15384595, 4148.07692287, 4136.41025621, 4124.99999973, 4131.66666639, 4121.92307665, 4118.97435870, 4147.17948697, 4130.25640998, 4110.12820485, 4148.46153826, 4139.74358954, 4146.41025621,12.0
4122.43589716, 4157.17948697, 4142.17948697, 4127.69230742, 4125.12820485, 4131.79487152, 4117.82051255, 4112.82051255, 4147.30769210, 4128.07692280, 4103.58974332, 4140.38461518, 4134.35897408, 4144.74358954,12.0
4124.61538434, 4156.28205108, 4141.02564082, 4127.82051255, 4124.74358947, 4137.94871774, 4124.35897408, 4112.56410229, 4148.58974339, 4131.28205101, 4108.07692280, 4140.64102544, 4139.48717928, 4147.05128185,12.0
4120.89743562, 4156.79487159, 4140.64102544, 4130.64102537, 4124.74358947, 4143.07692287, 4135.89743569, 4122.56410229, 4143.46153826, 4131.92307665, 4106.41025614, 4136.53846133, 4136.79487159, 4146.92307672,12.0
4123.84615357, 4152.69230749, 4137.30769210, 4126.53846126, 4123.84615357, 4139.23076903, 4136.92307672, 4119.35897408, 4135.51282031, 4126.66666639, 4098.07692273, 4130.51282024, 4125.51282024, 4143.71794851,12.0
4126.28205101, 4147.82051262, 4131.79487152, 4118.97435870, 4122.43589716, 4131.02564075, 4126.15384588, 4106.79487152, 4129.48717921, 4126.53846126, 4097.30769196, 4126.02564075, 4120.51282024, 4145.51282031,12.0
4125.76923050, 4151.41025621, 4136.28205108, 4121.53846126, 4121.53846126, 4132.17948691, 4121.28205101, 4106.41025614, 4133.97435870, 4129.87179460, 4104.23076896, 4129.99999973, 4130.89743562, 4147.82051262,12.0
4126.15384588, 4161.92307672, 4147.69230749, 4133.07692280, 4125.76923050, 4136.92307672, 4126.92307665, 4116.79487152, 4151.41025621, 4131.28205101, 4108.84615357, 4144.23076903, 4141.79487159, 4148.71794851,12.0
4122.43589716, 4164.99999980, 4149.48717928, 4137.43589723, 4124.74358947, 4137.05128185, 4127.94871767, 4123.71794844, 4159.61538441, 4130.51282024, 4110.38461511, 4152.43589723, 4140.12820492, 4144.23076903,12.0
4120.89743562, 4159.35897415, 4143.20512800, 4127.82051255, 4121.66666639, 4133.46153819, 4121.92307665, 4114.74358947, 4146.92307672, 4129.87179460, 4108.84615357, 4143.58974339, 4136.53846133, 4141.66666646,12.0
4120.89743562, 4155.51282031, 4139.48717928, 4119.23076896, 4125.38461511, 4131.41025614, 4119.74358947, 4108.97435870, 4139.23076903, 4129.48717921, 4107.56410229, 4133.71794844, 4141.92307672, 4146.53846133,12.0
4121.53846126, 4151.28205108, 4134.48717921, 4114.99999973, 4123.71794844, 4129.35897408, 4117.56410229, 4114.23076896, 4140.25641005, 4128.46153819, 4104.61538434, 4126.53846126, 4138.71794851, 4145.89743569,12.0
4122.05128178, 4145.38461518, 4129.35897408, 4106.41025614, 4122.94871767, 4127.17948691, 4111.79487152, 4116.41025614, 4136.41025621, 4132.05128178, 4099.99999966, 4117.05128178, 4124.35897408, 4144.48717928,12.0
4119.99999973, 4149.23076903, 4131.92307665, 4106.15384588, 4123.97435870, 4127.56410229, 4111.66666639, 4114.99999973, 4134.99999973, 4135.89743569, 4101.66666632, 4120.51282024, 4127.30769203, 4146.92307672,12.0
4121.92307665, 4163.20512800, 4134.99999973, 4113.07692280, 4120.51282024, 4126.66666639, 4116.41025614, 4109.10256383, 4132.43589716, 4132.30769203, 4102.82051255, 4126.28205101, 4137.17948697, 4145.76923056,12.0
4122.94871767, 4164.35897415, 4135.76923056, 4109.99999973, 4121.28205101, 4123.46153819, 4118.46153819, 4109.87179460, 4125.89743562, 4127.05128178, 4094.23076889, 4120.25640998, 4130.51282024, 4141.66666646,12.0
4123.33333306, 4158.71794851, 4137.82051262, 4106.53846126, 4122.30769203, 4120.89743562, 4112.69230742, 4115.51282024, 4128.84615357, 4128.46153819, 4093.71794837, 4118.58974332, 4121.66666639, 4140.38461518,12.0
4126.02564075, 4158.07692287, 4141.53846133, 4111.02564075, 4122.94871767, 4123.07692280, 4107.05128178, 4116.41025614, 4139.99999980, 4130.51282024, 4102.30769196, 4125.89743562, 4127.17948691, 4145.51282031,12.0
4124.35897408, 4154.35897415, 4142.43589723, 4109.99999973, 4122.69230742, 4127.94871767, 4114.10256383, 4119.99999973, 4141.02564082, 4128.84615357, 4101.53846119, 4126.92307665, 4137.43589723, 4147.56410236,12.0
4123.20512793, 4149.74358954, 4137.69230749, 4102.69230742, 4121.66666639, 4127.94871767, 4120.51282024, 4115.51282024, 4130.25640998, 4130.51282024, 4096.02564068, 4120.51282024, 4137.43589723, 4144.74358954,12.0
4123.20512793, 4149.99999980, 4134.48717921, 4098.84615350, 4125.89743562, 4126.02564075, 4118.20512793, 4104.74358947, 4122.43589716, 4135.51282031, 4094.74358940, 4116.41025614, 4126.66666639, 4146.79487159,12.0
4123.58974332, 4156.41025621, 4138.84615364, 4104.35897408, 4126.28205101, 4124.35897408, 4111.53846126, 4101.66666632, 4120.76923050, 4133.20512793, 4095.51282017, 4120.64102537, 4122.82051255, 4146.02564082,12.0
4123.58974332, 4163.71794851, 4144.48717928, 4112.94871767, 4122.30769203, 4124.23076896, 4106.79487152, 4105.76923050, 4120.12820485, 4126.28205101, 4099.74358940, 4129.48717921, 4134.48717921, 4142.17948697,12.0
4120.64102537, 4171.79487166, 4147.43589723, 4117.82051255, 4121.53846126, 4133.07692280, 4117.94871767, 4114.87179460, 4124.61538434, 4126.28205101, 4105.12820485, 4136.28205108, 4142.17948697, 4143.33333313,12.0
4120.51282024, 4170.51282038, 4151.92307672, 4118.46153819, 4123.71794844, 4138.58974339, 4133.84615357, 4119.35897408, 4132.30769203, 4127.56410229, 4106.92307665, 4140.38461518, 4136.53846133, 4143.46153826,12.0
4119.61538434, 4159.99999980, 4153.84615364, 4114.10256383, 4126.28205101, 4137.05128185, 4133.46153819, 4119.35897408, 4133.33333306, 4127.69230742, 4106.92307665, 4141.79487159, 4133.97435870, 4145.25641005,12.0
4120.38461511, 4153.33333313, 4147.82051262, 4109.23076896, 4124.23076896, 4138.20512800, 4124.61538434, 4117.56410229, 4129.61538434, 4129.10256383, 4103.46153819, 4136.02564082, 4136.41025621, 4145.25641005,12.0
4124.74358947, 4148.46153826, 4140.89743569, 4105.76923050, 4124.87179460, 4138.46153826, 4123.33333306, 4115.25640998, 4128.71794844, 4129.48717921, 4098.07692273, 4126.66666639, 4134.10256383, 4143.58974339,12.0
4122.69230742, 4147.94871774, 4143.07692287, 4107.43589716, 4124.10256383, 4138.84615364, 4127.17948691, 4120.12820485, 4131.79487152, 4128.20512793, 4101.41025607, 4129.61538434, 4132.56410229, 4144.99999980,12.0
4121.02564075, 4153.20512800, 4149.35897415, 4111.02564075, 4118.46153819, 4133.07692280, 4118.84615357, 4118.84615357, 4132.43589716, 4125.51282024, 4104.99999973, 4140.51282031, 4134.61538434, 4143.58974339,12.0
4122.94871767, 4153.07692287, 4149.48717928, 4106.53846126, 4122.05128178, 4122.56410229, 4110.38461511, 4114.61538434, 4133.46153819, 4125.12820485, 4100.51282017, 4138.97435877, 4134.74358947, 4143.07692287,12.0
4122.56410229, 4149.87179467, 4148.46153826, 4104.10256383, 4124.23076896, 4122.82051255, 4117.56410229, 4127.94871767, 4142.94871774, 4127.69230742, 4100.25640991, 4135.64102544, 4135.76923056, 4142.69230749,12.0
4124.99999973, 4162.56410236, 4158.20512800, 4117.17948691, 4121.41025614, 4127.69230742, 4123.46153819, 4142.82051262, 4156.15384595, 4127.56410229, 4110.76923050, 4148.33333313, 4144.87179467, 4143.07692287,12.0
4124.87179460, 4179.35897422, 4166.28205108, 4130.38461511, 4121.79487152, 4129.23076896, 4124.99999973, 4145.76923056, 4162.94871774, 4128.58974332, 4115.51282024, 4159.61538441, 4154.23076903, 4146.02564082,12.0
4123.07692280, 4176.02564089, 4157.30769210, 4123.58974332, 4119.87179460, 4124.61538434, 4122.05128178, 4133.97435870, 4151.92307672, 4132.43589716, 4106.66666639, 4149.35897415, 4148.07692287, 4145.38461518,12.0
4122.56410229, 4166.41025621, 4151.92307672, 4117.69230742, 4122.43589716, 4123.20512793, 4116.66666639, 4119.23076896, 4134.35897408, 4131.41025614, 4102.82051255, 4137.05128185, 4136.92307672, 4146.92307672,12.0
4119.74358947, 4165.89743569, 4155.76923056, 4121.53846126, 4124.61538434, 4133.33333306, 4122.94871767, 4119.23076896, 4131.53846126, 4126.79487152, 4102.69230742, 4137.82051262, 4133.58974332, 4145.64102544,12.0
4121.92307665, 4162.43589723, 4152.56410236, 4118.46153819, 4122.05128178, 4140.89743569, 4131.41025614, 4119.87179460, 4134.48717921, 4127.56410229, 4099.48717914, 4140.64102544, 4135.38461518, 4142.69230749,12.0
4122.56410229, 4152.17948697, 4147.56410236, 4106.92307665, 4122.30769203, 4141.28205108, 4131.02564075, 4114.23076896, 4124.48717921, 4131.15384588, 4099.74358940, 4135.76923056, 4135.89743569, 4148.20512800,12.0
4118.97435870, 4151.41025621, 4153.33333313, 4105.25640998, 4122.05128178, 4144.87179467, 4133.33333306, 4115.51282024, 4120.89743562, 4130.64102537, 4104.35897408, 4136.28205108, 4137.82051262, 4148.20512800,12.0
4119.87179460, 4158.33333313, 4162.82051262, 4112.17948691, 4122.43589716, 4150.38461518, 4139.61538441, 4129.10256383, 4139.61538441, 4127.56410229, 4108.07692280, 4146.66666646, 4145.12820492, 4142.82051262,12.0
4120.89743562, 4152.17948697, 4157.94871774, 4104.23076896, 4123.07692280, 4143.71794851, 4129.87179460, 4135.64102544, 4147.17948697, 4124.74358947, 4107.94871767, 4144.61538441, 4145.64102544, 4142.69230749,12.0
4122.82051255, 4138.84615364, 4148.58974339, 4093.97435863, 4121.92307665, 4128.84615357, 4111.92307665, 4122.56410229, 4137.30769210, 4126.41025614, 4106.15384588, 4133.71794844, 4137.94871774, 4144.61538441,12.0
4123.33333306, 4143.07692287, 4152.43589723, 4105.89743562, 4123.71794844, 4127.69230742, 4114.35897408, 4117.69230742, 4137.05128185, 4127.94871767, 4109.23076896, 4140.38461518, 4140.38461518, 4146.15384595,12.0
4121.92307665, 4160.25641005, 4159.61538441, 4121.53846126, 4124.48717921, 4135.25640998, 4124.87179460, 4122.56410229, 4141.41025621, 4127.69230742, 4115.64102537, 4152.94871774, 4152.82051262, 4144.74358954,12.0
4122.30769203, 4171.79487166, 4163.20512800, 4123.97435870, 4126.53846126, 4136.92307672, 4127.43589716, 4120.25640998, 4137.05128185, 4133.58974332, 4117.56410229, 4156.53846133, 4154.35897415, 4145.12820492,12.0
4121.28205101, 4170.38461525, 4161.66666646, 4121.92307665, 4126.53846126, 4134.74358947, 4128.20512793, 4122.05128178, 4132.43589716, 4137.82051262, 4112.17948691, 4150.89743569, 4143.97435877, 4147.17948697,12.0
4122.56410229, 4157.94871774, 4153.20512800, 4113.07692280, 4120.64102537, 4128.07692280, 4123.33333306, 4125.76923050, 4130.51282024, 4131.28205101, 4104.23076896, 4137.43589723, 4135.64102544, 4145.89743569,12.0
4121.41025614, 4155.12820492, 4149.61538441, 4105.38461511, 4121.79487152, 4128.07692280, 4123.58974332, 4131.15384588, 4136.53846133, 4126.28205101, 4105.89743562, 4135.64102544, 4138.71794851, 4145.89743569,12.0
4117.43589716, 4168.33333320, 4157.69230749, 4117.82051255, 4123.97435870, 4138.33333313, 4137.05128185, 4137.17948697, 4151.15384595, 4129.61538434, 4118.58974332, 4152.56410236, 4149.61538441, 4146.02564082,12.0
4120.89743562, 4175.89743576, 4168.46153833, 4134.61538434, 4120.51282024, 4143.71794851, 4142.94871774, 4129.48717921, 4151.92307672, 4129.87179460, 4124.99999973, 4166.41025621, 4155.89743569, 4145.51282031,12.0
4121.28205101, 4171.53846140, 4168.20512807, 4130.89743562, 4119.99999973, 4141.92307672, 4135.89743569, 4124.23076896, 4138.84615364, 4128.46153819, 4120.51282024, 4162.05128185, 4154.10256390, 4147.17948697,12.0
4119.48717921, 4167.43589723, 4160.38461518, 4121.02564075, 4122.69230742, 4138.84615364, 4129.87179460, 4128.58974332, 4139.35897415, 4129.61538434, 4119.35897408, 4151.92307672, 4150.38461518, 4145.89743569,12.0
4118.84615357, 4166.66666646, 4161.92307672, 4120.38461511, 4124.74358947, 4137.43589723, 4133.20512793, 4135.76923056, 4152.82051262, 4131.02564075, 4122.56410229, 4152.56410236, 4152.17948697, 4144.99999980,12.0
4118.71794844, 4166.53846133, 4171.66666653, 4123.84615357, 4121.66666639, 4144.10256390, 4142.43589723, 4143.84615364, 4157.43589723, 4131.66666639, 4123.58974332, 4165.12820492, 4160.64102544, 4143.84615364,12.0
4124.35897408, 4172.82051269, 4179.61538448, 4130.12820485, 4121.41025614, 4149.61538441, 4148.84615364, 4148.33333313, 4154.10256390, 4131.28205101, 4125.89743562, 4179.48717935, 4166.66666646, 4143.84615364,12.0
4123.84615357, 4177.82051269, 4180.25641012, 4133.58974332, 4124.48717921, 4143.71794851, 4146.02564082, 4151.02564082, 4156.41025621, 4130.89743562, 4125.76923050, 4181.53846140, 4167.05128185, 4148.97435877,12.0
4121.66666639, 4170.12820499, 4175.25641012, 4129.99999973, 4121.53846126, 4133.97435870, 4136.15384595, 4149.23076903, 4159.99999980, 4127.82051255, 4123.07692280, 4177.69230756, 4164.87179467, 4146.66666646,12.0
4125.76923050, 4160.64102544, 4170.12820499, 4119.99999973, 4122.30769203, 4134.10256383, 4137.94871774, 4148.71794851, 4158.71794851, 4128.33333306, 4120.89743562, 4167.94871774, 4160.51282031, 4142.43589723,12.0
4124.48717921, 4163.07692287, 4167.56410236, 4116.02564075, 4123.84615357, 4140.12820492, 4148.07692287, 4151.15384595, 4157.43589723, 4131.66666639, 4119.99999973, 4157.69230749, 4156.15384595, 4143.20512800,12.0
4121.41025614, 4173.58974345, 4167.05128185, 4126.66666639, 4121.02564075, 4137.82051262, 4139.35897415, 4140.51282031, 4152.17948697, 4128.71794844, 4118.20512793, 4154.61538441, 4153.84615364, 4144.74358954,12.0
4120.76923050, 4173.20512807, 4161.41025621, 4132.05128178, 4121.66666639, 4134.48717921, 4126.15384588, 4128.20512793, 4138.97435877, 4125.51282024, 4112.94871767, 4148.71794851, 4149.87179467, 4147.05128185,12.0
4122.43589716, 4171.53846140, 4161.28205108, 4131.92307665, 4122.05128178, 4138.33333313, 4130.51282024, 4132.69230742, 4141.28205108, 4129.74358947, 4113.58974332, 4151.41025621, 4149.35897415, 4146.15384595,12.0
4123.58974332, 4179.35897422, 4171.92307679, 4136.28205108, 4122.30769203, 4138.71794851, 4129.74358947, 4137.30769210, 4154.10256390, 4132.69230742, 4121.28205101, 4166.02564082, 4157.17948697, 4145.51282031,12.0
4121.15384588, 4182.82051269, 4176.66666653, 4138.97435877, 4121.53846126, 4134.23076896, 4118.71794844, 4131.53846126, 4150.38461518, 4128.33333306, 4123.20512793, 4173.46153833, 4159.10256390, 4144.87179467,12.0
4123.07692280, 4176.79487166, 4175.38461525, 4137.17948697, 4122.17948691, 4134.61538434, 4118.33333306, 4127.82051255, 4138.84615364, 4126.92307665, 4117.17948691, 4165.76923056, 4153.46153826, 4144.48717928,12.0
4123.07692280, 4176.79487166, 4175.38461525, 4137.17948697, 4122.17948691, 4134.61538434, 4118.33333306, 4127.82051255, 4138.84615364, 4126.92307665, 4117.17948691, 4165.76923056, 4153.46153826, 4144.48717928,12.0
4121.02564075, 4169.10256397, 4168.84615371, 4132.56410229, 4125.76923050, 4142.43589723, 4126.28205101, 4131.02564075, 4137.05128185, 4131.92307665, 4116.53846126, 4154.48717928, 4149.74358954, 4147.82051262,12.0
4118.71794844, 4170.38461525, 4160.76923056, 4129.61538434, 4123.07692280, 4148.97435877, 4133.71794844, 4132.05128178, 4141.41025621, 4131.79487152, 4117.94871767, 4152.17948697, 4150.25641005, 4143.97435877,12.0
4123.58974332, 4174.61538448, 4164.61538441, 4133.84615357, 4123.07692280, 4152.56410236, 4144.48717928, 4137.69230749, 4146.66666646, 4126.41025614, 4117.56410229, 4157.43589723, 4153.71794851, 4141.92307672,12.0
4121.53846126, 4165.51282031, 4166.92307672, 4134.23076896, 4124.74358947, 4150.76923056, 4143.71794851, 4142.17948697, 4145.76923056, 4126.15384588, 4116.53846126, 4154.35897415, 4154.99999980, 4147.17948697,12.0
4121.02564075, 4151.28205108, 4155.25641005, 4121.92307665, 4123.07692280, 4139.23076903, 4123.33333306, 4122.82051255, 4126.41025614, 4130.12820485, 4108.58974332, 4141.41025621, 4147.56410236, 4146.53846133,12.0
4123.84615357, 4157.30769210, 4158.46153826, 4123.33333306, 4125.38461511, 4142.82051262, 4121.66666639, 4114.48717921, 4119.87179460, 4132.05128178, 4109.23076896, 4149.48717928, 4146.66666646, 4147.82051262,12.0
4121.28205101, 4173.97435884, 4177.05128192, 4143.97435877, 4123.58974332, 4158.20512800, 4140.12820492, 4136.92307672, 4143.46153826, 4130.64102537, 4121.28205101, 4172.82051269, 4158.58974339, 4146.53846133,12.0
4121.92307665, 4171.79487166, 4176.15384602, 4143.33333313, 4120.64102537, 4151.41025621, 4137.30769210, 4145.51282031, 4151.92307672, 4128.07692280, 4118.33333306, 4170.89743576, 4159.87179467, 4141.02564082,12.0
4122.30769203, 4170.51282038, 4169.35897422, 4132.94871767, 4122.69230742, 4141.92307672, 4127.17948691, 4142.17948697, 4142.05128185, 4128.33333306, 4110.76923050, 4161.66666646, 4157.05128185, 4145.38461518,12.0
4124.87179460, 4182.05128192, 4177.82051269, 4143.84615364, 4124.35897408, 4146.02564082, 4130.51282024, 4145.12820492, 4145.89743569, 4129.87179460, 4119.35897408, 4171.66666653, 4161.15384595, 4150.51282031,12.0
4124.61538434, 4184.35897422, 4183.46153833, 4155.51282031, 4124.99999973, 4147.69230749, 4136.15384595, 4151.41025621, 4159.23076903, 4130.12820485, 4125.64102537, 4179.10256397, 4163.46153826, 4146.15384595,12.0
4119.23076896, 4176.41025628, 4176.66666653, 4149.10256390, 4121.66666639, 4150.76923056, 4141.41025621, 4157.69230749, 4158.84615364, 4130.25640998, 4120.38461511, 4173.58974345, 4160.12820492, 4141.41025621,12.0
4121.92307665, 4171.53846140, 4172.43589730, 4143.58974339, 4123.58974332, 4156.28205108, 4148.71794851, 4152.82051262, 4148.84615364, 4129.23076896, 4116.92307665, 4168.20512807, 4158.07692287, 4145.25641005,12.0
4122.69230742, 4169.61538448, 4172.56410243, 4147.94871774, 4127.82051255, 4155.64102544, 4150.64102544, 4147.56410236, 4146.92307672, 4125.76923050, 4117.94871767, 4163.07692287, 4156.53846133, 4148.84615364,12.0
4122.05128178, 4170.25641012, 4170.25641012, 4147.69230749, 4125.25640998, 4155.12820492, 4145.51282031, 4152.05128185, 4152.30769210, 4124.10256383, 4115.38461511, 4159.61538441, 4152.43589723, 4140.38461518,12.0
4123.84615357, 4166.15384595, 4166.79487159, 4137.43589723, 4125.51282024, 4150.89743569, 4136.41025621, 4147.94871774, 4145.89743569, 4127.82051255, 4107.17948691, 4154.74358954, 4146.53846133, 4140.25641005,12.0
4123.20512793, 4147.69230749, 4156.66666646, 4124.48717921, 4124.10256383, 4134.23076896, 4122.05128178, 4128.46153819, 4127.05128178, 4130.25640998, 4101.66666632, 4140.51282031, 4135.25640998, 4148.58974339,12.0
4125.12820485, 4140.12820492, 4154.10256390, 4125.12820485, 4122.56410229, 4128.07692280, 4113.71794844, 4120.89743562, 4126.66666639, 4127.17948691, 4102.69230742, 4132.94871767, 4136.66666646, 4145.64102544,12.0
4121.53846126, 4158.20512800, 4168.07692287, 4143.07692287, 4124.61538434, 4141.41025621, 4123.71794844, 4138.33333313, 4144.74358954, 4126.28205101, 4108.97435870, 4148.84615364, 4155.12820492, 4143.84615364,12.0
4119.61538434, 4174.87179474, 4178.84615371, 4160.51282031, 4124.35897408, 4146.02564082, 4133.20512793, 4144.23076903, 4151.53846133, 4129.48717921, 4117.69230742, 4165.76923056, 4162.17948697, 4146.53846133,12.0
4125.38461511, 4172.43589730, 4179.23076910, 4163.46153826, 4125.64102537, 4137.05128185, 4126.79487152, 4133.07692280, 4152.69230749, 4130.12820485, 4123.46153819, 4169.35897422, 4157.17948697, 4147.94871774,12.0
4124.10256383, 4168.46153833, 4176.28205115, 4156.41025621, 4123.84615357, 4134.23076896, 4120.12820485, 4136.53846133, 4154.99999980, 4128.84615357, 4122.82051255, 4167.82051262, 4161.28205108, 4147.82051262,12.0
4123.97435870, 4172.30769217, 4173.97435884, 4154.10256390, 4122.43589716, 4137.82051262, 4122.69230742, 4146.66666646, 4155.64102544, 4128.58974332, 4119.23076896, 4162.69230749, 4167.05128185, 4144.48717928,12.0
4122.05128178, 4166.41025621, 4165.89743569, 4151.79487159, 4128.33333306, 4137.69230749, 4126.79487152, 4150.25641005, 4156.02564082, 4128.84615357, 4117.30769203, 4152.69230749, 4157.56410236, 4145.12820492,12.0
4118.97435870, 4154.74358954, 4159.87179467, 4144.10256390, 4127.56410229, 4138.97435877, 4133.84615357, 4149.99999980, 4158.58974339, 4129.48717921, 4115.76923050, 4148.07692287, 4150.12820492, 4145.76923056,12.0
4124.87179460, 4151.79487159, 4163.33333313, 4137.82051262, 4123.46153819, 4141.53846133, 4136.02564082, 4146.15384595, 4154.74358954, 4129.99999973, 4112.30769203, 4149.48717928, 4153.84615364, 4146.53846133,12.0
4124.61538434, 4153.20512800, 4161.92307672, 4137.05128185, 4124.61538434, 4134.10256383, 4122.94871767, 4136.53846133, 4137.17948697, 4129.35897408, 4106.92307665, 4145.76923056, 4153.46153826, 4147.56410236,12.0
4121.79487152, 4154.10256390, 4158.84615364, 4140.25641005, 4126.15384588, 4126.92307665, 4113.33333306, 4121.28205101, 4126.41025614, 4128.46153819, 4106.28205101, 4143.33333313, 4148.84615364, 4145.76923056,12.0
4122.69230742, 4160.89743569, 4167.56410236, 4147.94871774, 4127.05128178, 4142.43589723, 4132.82051255, 4128.71794844, 4138.84615364, 4129.61538434, 4114.61538434, 4150.89743569, 4151.53846133, 4147.30769210,12.0
4122.43589716, 4172.56410243, 4175.64102551, 4159.48717928, 4123.71794844, 4157.94871774, 4149.99999980, 4153.20512800, 4152.05128185, 4128.84615357, 4119.99999973, 4160.51282031, 4156.66666646, 4144.74358954,12.0
4122.82051255, 4173.07692294, 4167.17948697, 4154.87179467, 4123.20512793, 4146.66666646, 4136.15384595, 4151.41025621, 4139.61538441, 4126.79487152, 4114.48717921, 4153.84615364, 4151.66666646, 4143.97435877,12.0
4121.02564075, 4160.89743569, 4157.94871774, 4139.23076903, 4127.17948691, 4132.94871767, 4122.17948691, 4132.94871767, 4125.64102537, 4128.58974332, 4106.66666639, 4139.10256390, 4143.33333313, 4148.58974339,12.0
4123.20512793, 4156.92307672, 4161.41025621, 4138.84615364, 4126.02564075, 4137.82051262, 4129.10256383, 4133.07692280, 4133.20512793, 4129.99999973, 4104.23076896, 4139.74358954, 4143.97435877, 4145.25641005,12.0
4124.35897408, 4155.51282031, 4157.69230749, 4137.94871774, 4122.56410229, 4144.99999980, 4133.07692280, 4142.56410236, 4133.20512793, 4129.35897408, 4103.46153819, 4134.74358947, 4142.05128185, 4144.61538441,12.0
4121.92307665, 4142.43589723, 4141.92307672, 4122.82051255, 4120.76923050, 4135.51282031, 4119.10256383, 4132.82051255, 4117.69230742, 4127.94871767, 4099.74358940, 4118.97435870, 4134.35897408, 4147.30769210,12.0
4123.20512793, 4141.79487159, 4143.07692287, 4123.46153819, 4125.38461511, 4124.23076896, 4108.58974332, 4116.28205101, 4109.99999973, 4128.20512793, 4103.20512793, 4122.17948691, 4136.41025621, 4146.41025621,12.0
4124.35897408, 4156.15384595, 4155.25641005, 4135.64102544, 4126.79487152, 4125.12820485, 4110.64102537, 4114.87179460, 4110.64102537, 4129.74358947, 4107.43589716, 4133.20512793, 4141.53846133, 4145.25641005,12.0
4124.23076896, 4163.33333313, 4156.41025621, 4134.48717921, 4120.64102537, 4126.02564075, 4109.48717921, 4113.07692280, 4108.97435870, 4128.07692280, 4102.56410229, 4128.46153819, 4137.05128185, 4143.07692287,12.0
4121.92307665, 4161.92307672, 4156.15384595, 4130.25640998, 4122.56410229, 4120.51282024, 4101.79487145, 4105.38461511, 4108.58974332, 4127.56410229, 4099.99999966, 4126.02564075, 4134.87179460, 4146.15384595,12.0
4120.89743562, 4160.89743569, 4159.74358954, 4132.94871767, 4126.41025614, 4120.12820485, 4101.15384581, 4110.38461511, 4107.05128178, 4129.10256383, 4104.10256383, 4136.41025621, 4139.10256390, 4146.02564082,12.0
4123.97435870, 4165.51282031, 4163.46153826, 4137.30769210, 4124.61538434, 4123.58974332, 4105.89743562, 4118.58974332, 4104.61538434, 4129.74358947, 4107.82051255, 4143.07692287, 4140.38461518, 4144.48717928,12.0
4121.66666639, 4166.79487159, 4161.28205108, 4134.99999973, 4125.51282024, 4118.33333306, 4101.41025607, 4117.82051255, 4103.20512793, 4130.25640998, 4106.53846126, 4135.51282031, 4139.61538441, 4148.71794851,12.0
4119.35897408, 4162.69230749, 4153.71794851, 4128.58974332, 4125.76923050, 4113.58974332, 4098.97435863, 4120.12820485, 4103.84615357, 4130.38461511, 4103.33333306, 4125.12820485, 4138.20512800, 4145.76923056,12.0
4118.97435870, 4156.15384595, 4148.46153826, 4124.35897408, 4123.84615357, 4118.97435870, 4111.15384588, 4127.05128178, 4107.05128178, 4128.58974332, 4100.64102530, 4121.02564075, 4134.48717921, 4144.35897415,12.0
4118.71794844, 4147.17948697, 4144.74358954, 4116.92307665, 4120.76923050, 4126.41025614, 4121.28205101, 4128.71794844, 4108.97435870, 4126.92307665, 4099.48717914, 4115.25640998, 4131.15384588, 4147.30769210,12.0
4123.20512793, 4142.05128185, 4147.17948697, 4112.17948691, 4121.41025614, 4127.56410229, 4116.41025614, 4124.23076896, 4112.94871767, 4127.94871767, 4102.82051255, 4117.17948691, 4134.48717921, 4145.38461518,12.0
4124.23076896, 4149.48717928, 4159.23076903, 4123.46153819, 4125.12820485, 4131.92307665, 4117.05128178, 4130.38461511, 4123.71794844, 4128.46153819, 4107.17948691, 4133.84615357, 4141.02564082, 4146.41025621,12.0
4122.43589716, 4158.20512800, 4163.58974339, 4133.58974332, 4123.71794844, 4131.02564075, 4117.82051255, 4127.05128178, 4120.76923050, 4127.94871767, 4106.28205101, 4141.15384595, 4140.25641005, 4147.05128185,12.0
4124.23076896, 4153.33333313, 4157.43589723, 4125.12820485, 4124.87179460, 4117.82051255, 4103.33333306, 4106.28205101, 4101.53846119, 4132.17948691, 4100.38461504, 4134.48717921, 4135.12820485, 4145.89743569,12.0
4124.87179460, 4146.53846133, 4154.61538441, 4117.56410229, 4125.38461511, 4117.30769203, 4097.94871761, 4103.58974332, 4097.69230735, 4134.23076896, 4099.23076889, 4131.41025614, 4134.61538434, 4147.17948697,12.0
4126.66666639, 4144.74358954, 4153.46153826, 4119.74358947, 4121.66666639, 4120.25640998, 4101.41025607, 4110.25640998, 4104.87179460, 4130.12820485, 4100.25640991, 4129.48717921, 4135.89743569, 4146.66666646,12.0
4123.20512793, 4149.35897415, 4155.51282031, 4125.64102537, 4123.07692280, 4119.35897408, 4103.07692280, 4114.48717921, 4107.56410229, 4128.84615357, 4100.76923043, 4131.02564075, 4137.56410236, 4145.38461518,12.0
4119.61538434, 4156.79487159, 4162.56410236, 4132.56410229, 4123.46153819, 4122.69230742, 4105.64102537, 4119.10256383, 4112.05128178, 4129.48717921, 4103.07692280, 4136.15384595, 4139.10256390, 4142.69230749,12.0
4122.82051255, 4148.07692287, 4158.58974339, 4127.30769203, 4123.46153819, 4122.56410229, 4105.25640998, 4116.92307665, 4109.61538434, 4127.94871767, 4101.41025607, 4125.89743562, 4133.58974332, 4143.71794851,12.0
4120.64102537, 4132.17948691, 4145.25641005, 4112.30769203, 4124.61538434, 4121.28205101, 4108.84615357, 4116.53846126, 4101.92307658, 4128.20512793, 4098.07692273, 4114.23076896, 4129.48717921, 4147.05128185,12.0
4119.74358947, 4133.84615357, 4145.51282031, 4111.15384588, 4123.46153819, 4126.02564075, 4118.46153819, 4119.87179460, 4109.48717921, 4128.71794844, 4102.69230742, 4122.94871767, 4136.92307672, 4145.51282031,12.0
4121.28205101, 4141.79487159, 4152.82051262, 4119.61538434, 4123.71794844, 4131.41025614, 4123.46153819, 4124.35897408, 4120.64102537, 4128.84615357, 4107.94871767, 4129.87179460, 4142.43589723, 4145.51282031,12.0
4120.38461511, 4134.23076896, 4144.74358954, 4117.69230742, 4122.82051255, 4126.92307665, 4116.41025614, 4122.82051255, 4115.38461511, 4128.71794844, 4104.61538434, 4118.46153819, 4135.12820485, 4143.07692287,12.0
4122.56410229, 4130.76923050, 4139.48717928, 4112.56410229, 4123.07692280, 4125.25640998, 4111.28205101, 4116.79487152, 4112.69230742, 4129.74358947, 4103.33333306, 4113.20512793, 4130.76923050, 4142.69230749,12.0
4121.79487152, 4144.99999980, 4152.69230749, 4122.56410229, 4124.35897408, 4132.94871767, 4115.64102537, 4125.76923050, 4125.76923050, 4131.02564075, 4109.10256383, 4127.30769203, 4138.58974339, 4148.20512800,12.0
4121.15384588, 4152.56410236, 4161.41025621, 4132.69230742, 4122.94871767, 4132.69230742, 4112.69230742, 4136.53846133, 4131.53846126, 4127.69230742, 4109.74358947, 4134.87179460, 4140.12820492, 4146.41025621,12.0
4122.56410229, 4139.48717928, 4151.02564082, 4122.82051255, 4123.71794844, 4121.79487152, 4104.35897408, 4129.10256383, 4119.48717921, 4125.51282024, 4102.17948684, 4120.89743562, 4133.58974332, 4143.71794851,12.0
4121.66666639, 4129.48717921, 4144.61538441, 4113.58974332, 4122.56410229, 4117.43589716, 4103.97435870, 4117.82051255, 4113.71794844, 4129.87179460, 4101.02564068, 4115.12820485, 4134.48717921, 4143.58974339,12.0
4123.46153819, 4135.12820485, 4154.74358954, 4121.02564075, 4123.33333306, 4122.56410229, 4107.69230742, 4114.87179460, 4117.94871767, 4131.41025614, 4108.46153819, 4130.76923050, 4139.99999980, 4145.76923056,12.0
4123.46153819, 4138.71794851, 4157.94871774, 4124.87179460, 4127.82051255, 4125.89743562, 4113.84615357, 4117.56410229, 4115.64102537, 4128.84615357, 4110.25640998, 4137.82051262, 4142.56410236, 4149.74358954,12.0
4122.56410229, 4134.10256383, 4149.35897415, 4116.02564075, 4124.23076896, 4123.58974332, 4121.66666639, 4116.66666639, 4107.94871767, 4129.10256383, 4105.38461511, 4128.46153819, 4139.87179467, 4146.66666646,12.0
4121.41025614, 4132.82051255, 4146.02564082, 4114.61538434, 4122.30769203, 4122.82051255, 4122.94871767, 4118.20512793, 4110.76923050, 4131.41025614, 4105.38461511, 4121.53846126, 4139.48717928, 4146.66666646,12.0
4118.33333306, 4132.94871767, 4146.28205108, 4121.79487152, 4123.84615357, 4125.25640998, 4118.33333306, 4120.64102537, 4113.71794844, 4131.66666639, 4109.74358947, 4122.56410229, 4145.89743569, 4146.92307672,12.0
4120.38461511, 4133.33333306, 4146.92307672, 4122.43589716, 4123.46153819, 4127.05128178, 4120.38461511, 4120.38461511, 4107.94871767, 4130.38461511, 4111.02564075, 4128.46153819, 4148.20512800, 4143.84615364,12.0
4120.89743562, 4138.58974339, 4149.10256390, 4120.64102537, 4124.61538434, 4137.17948697, 4133.20512793, 4129.87179460, 4112.82051255, 4129.61538434, 4110.25640998, 4132.17948691, 4146.28205108, 4145.76923056,12.0
4121.15384588, 4139.74358954, 4148.71794851, 4119.74358947, 4123.20512793, 4144.99999980, 4137.69230749, 4136.66666646, 4123.58974332, 4129.48717921, 4108.58974332, 4128.84615357, 4146.53846133, 4143.58974339,12.0
4122.43589716, 4132.82051255, 4147.30769210, 4117.17948691, 4123.07692280, 4133.58974332, 4125.25640998, 4132.82051255, 4125.38461511, 4129.61538434, 4107.56410229, 4123.71794844, 4144.87179467, 4142.94871774,12.0
4119.74358947, 4132.43589716, 4146.41025621, 4114.99999973, 4123.71794844, 4127.30769203, 4117.30769203, 4135.38461518, 4122.05128178, 4129.87179460, 4105.25640998, 4121.53846126, 4140.51282031, 4145.12820492,12.0
4121.92307665, 4140.12820492, 4147.94871774, 4117.82051255, 4124.10256383, 4137.43589723, 4126.92307665, 4144.61538441, 4130.12820485, 4127.82051255, 4106.53846126, 4129.35897408, 4144.23076903, 4144.74358954,12.0
4124.10256383, 4140.89743569, 4152.30769210, 4120.38461511, 4126.41025614, 4141.53846133, 4135.12820485, 4149.10256390, 4141.02564082, 4126.28205101, 4113.71794844, 4139.35897415, 4153.46153826, 4145.64102544,12.0
4124.23076896, 4126.28205101, 4147.56410236, 4110.51282024, 4122.94871767, 4127.30769203, 4119.48717921, 4135.51282031, 4127.94871767, 4128.71794844, 4110.89743562, 4128.58974332, 4148.97435877, 4144.61538441,12.0
4125.51282024, 4106.28205101, 4135.64102544, 4091.15384581, 4123.33333306, 4112.82051255, 4100.76923043, 4115.64102537, 4108.46153819, 4130.51282024, 4098.97435863, 4108.33333306, 4139.10256390, 4147.17948697,12.0
4122.56410229, 4101.41025607, 4133.07692280, 4087.17948684, 4126.66666639, 4121.41025614, 4110.12820485, 4115.38461511, 4108.46153819, 4128.97435870, 4098.46153812, 4110.64102537, 4136.92307672, 4148.58974339,12.0
4123.46153819, 4111.41025614, 4138.71794851, 4101.53846119, 4124.61538434, 4135.12820485, 4123.84615357, 4119.99999973, 4113.20512793, 4128.46153819, 4109.48717921, 4120.64102537, 4141.53846133, 4145.51282031,12.0
4124.10256383, 4111.53846126, 4135.12820485, 4105.76923050, 4124.87179460, 4129.35897408, 4116.92307665, 4115.12820485, 4105.38461511, 4129.35897408, 4106.66666639, 4107.05128178, 4140.51282031, 4147.69230749,12.0
4120.64102537, 4105.64102537, 4126.92307665, 4098.71794837, 4124.87179460, 4115.64102537, 4098.58974325, 4110.51282024, 4098.84615350, 4129.99999973, 4094.48717914, 4095.25640991, 4131.66666639, 4144.99999980,12.0
4122.56410229, 4113.84615357, 4132.05128178, 4101.66666632, 4125.12820485, 4116.79487152, 4094.87179453, 4112.94871767, 4103.46153819, 4130.76923050, 4098.71794837, 4108.33333306, 4133.33333306, 4142.69230749,12.0
4121.15384588, 4118.33333306, 4136.53846133, 4103.71794844, 4125.12820485, 4124.61538434, 4110.25640998, 4122.43589716, 4114.10256383, 4129.99999973, 4107.82051255, 4115.38461511, 4139.48717928, 4148.46153826,12.0
4117.43589716, 4111.79487152, 4129.61538434, 4100.64102530, 4121.92307665, 4121.92307665, 4117.94871767, 4122.56410229, 4119.10256383, 4128.58974332, 4104.35897408, 4104.99999973, 4139.10256390, 4148.84615364,12.0
4118.58974332, 4117.30769203, 4129.35897408, 4107.94871767, 4125.12820485, 4124.99999973, 4119.10256383, 4124.87179460, 4120.12820485, 4129.23076896, 4103.33333306, 4103.20512793, 4138.84615364, 4146.53846133,12.0
4122.43589716, 4125.64102537, 4134.74358947, 4112.82051255, 4126.41025614, 4136.79487159, 4130.12820485, 4140.51282031, 4127.17948691, 4128.71794844, 4108.58974332, 4112.94871767, 4141.66666646, 4146.53846133,12.0
4123.97435870, 4114.23076896, 4131.28205101, 4104.87179460, 4124.23076896, 4133.58974332, 4128.07692280, 4136.79487159, 4126.28205101, 4128.46153819, 4104.87179460, 4111.28205101, 4140.12820492, 4147.30769210,12.0
4120.64102537, 4101.92307658, 4124.35897408, 4096.41025607, 4125.51282024, 4123.71794844, 4115.89743562, 4118.84615357, 4112.56410229, 4131.02564075, 4100.64102530, 4102.69230742, 4137.43589723, 4146.41025621,12.0
4124.23076896, 4102.56410229, 4123.84615357, 4096.02564068, 4124.23076896, 4121.28205101, 4118.33333306, 4113.33333306, 4106.66666639, 4130.64102537, 4104.48717921, 4103.33333306, 4136.66666646, 4145.12820492,12.0
4126.79487152, 4100.12820478, 4124.74358947, 4095.76923043, 4122.05128178, 4120.12820485, 4117.30769203, 4111.53846126, 4102.56410229, 4129.87179460, 4101.92307658, 4103.07692280, 4134.87179460, 4148.33333313,12.0
4121.28205101, 4095.89743555, 4122.94871767, 4092.43589709, 4122.30769203, 4118.07692280, 4102.17948684, 4109.10256383, 4098.58974325, 4130.25640998, 4096.53846119, 4101.15384581, 4133.97435870, 4146.15384595,12.0
4123.33333306, 4108.58974332, 4130.12820485, 4103.33333306, 4127.05128178, 4118.71794844, 4095.64102530, 4111.79487152, 4109.23076896, 4133.07692280, 4101.28205094, 4112.69230742, 4136.79487159, 4145.12820492,12.0
4124.74358947, 4119.74358947, 4140.76923056, 4115.64102537, 4127.56410229, 4122.43589716, 4102.69230742, 4122.69230742, 4116.28205101, 4135.89743569, 4110.51282024, 4127.17948691, 4144.74358954, 4151.28205108,12.0
4121.53846126, 4112.05128178, 4137.43589723, 4110.38461511, 4121.28205101, 4124.99999973, 4106.79487152, 4125.51282024, 4111.79487152, 4132.30769203, 4108.84615357, 4122.30769203, 4148.58974339, 4149.48717928,12.0
4122.17948691, 4102.69230742, 4128.20512793, 4099.61538427, 4124.10256383, 4120.89743562, 4102.30769196, 4113.46153819, 4103.97435870, 4127.82051255, 4101.92307658, 4105.76923050, 4140.89743569, 4146.66666646,12.0
4122.17948691, 4106.92307665, 4127.05128178, 4106.53846126, 4127.05128178, 4121.02564075, 4100.89743555, 4107.82051255, 4101.66666632, 4127.94871767, 4103.58974332, 4104.87179460, 4133.97435870, 4145.12820492,12.0
4123.46153819, 4113.58974332, 4129.48717921, 4112.05128178, 4123.71794844, 4122.82051255, 4105.51282024, 4113.46153819, 4106.41025614, 4132.82051255, 4108.84615357, 4114.87179460, 4137.82051262, 4143.33333313,12.0
4122.17948691, 4115.12820485, 4131.66666639, 4107.82051255, 4123.71794844, 4121.53846126, 4111.66666639, 4120.25640998, 4114.74358947, 4137.82051262, 4108.97435870, 4116.53846126, 4142.17948697, 4148.07692287,12.0
4120.38461511, 4116.53846126, 4133.07692280, 4110.51282024, 4122.69230742, 4127.82051255, 4113.07692280, 4115.76923050, 4117.69230742, 4132.05128178, 4106.92307665, 4113.07692280, 4139.48717928, 4148.33333313,12.0
4121.79487152, 4105.89743562, 4127.30769203, 4104.87179460, 4122.17948691, 4131.41025614, 4111.15384588, 4110.25640998, 4113.97435870, 4124.74358947, 4104.99999973, 4104.99999973, 4134.35897408, 4146.53846133,12.0
4120.89743562, 4097.05128171, 4123.58974332, 4100.12820478, 4123.58974332, 4128.33333306, 4114.99999973, 4118.97435870, 4115.76923050, 4129.10256383, 4102.69230742, 4101.02564068, 4133.97435870, 4147.94871774,12.0
4124.10256383, 4107.82051255, 4133.46153819, 4110.25640998, 4124.74358947, 4127.30769203, 4116.66666639, 4120.64102537, 4122.69230742, 4130.64102537, 4106.15384588, 4113.07692280, 4136.92307672, 4148.46153826,12.0
4124.61538434, 4112.05128178, 4139.10256390, 4108.46153819, 4124.74358947, 4126.02564075, 4110.38461511, 4115.51282024, 4125.51282024, 4125.38461511, 4110.38461511, 4119.10256383, 4136.41025621, 4148.20512800,12.0
4122.17948691, 4097.30769196, 4126.41025614, 4092.56410222, 4121.28205101, 4118.58974332, 4103.58974332, 4113.20512793, 4108.71794844, 4127.43589716, 4102.30769196, 4102.05128171, 4127.30769203, 4144.61538441,12.0
4124.74358947, 4085.76923043, 4115.25640998, 4086.02564068, 4123.71794844, 4116.66666639, 4102.94871767, 4107.05128178, 4092.30769196, 4131.02564075, 4096.92307658, 4086.15384581, 4122.43589716, 4144.99999980,12.0
4121.92307665, 4093.20512786, 4120.12820485, 4092.30769196, 4127.43589716, 4132.05128178, 4117.69230742, 4108.33333306, 4103.97435870, 4129.74358947, 4106.53846126, 4093.97435863, 4134.35897408, 4146.15384595,12.0
4120.51282024, 4097.43589709, 4126.28205101, 4092.17948684, 4122.94871767, 4136.79487159, 4128.58974332, 4112.82051255, 4109.99999973, 4129.10256383, 4107.94871767, 4100.64102530, 4138.20512800, 4144.23076903,12.0
4122.43589716, 4080.25640991, 4119.99999973, 4077.82051248, 4123.58974332, 4118.07692280, 4112.43589716, 4108.97435870, 4095.64102530, 4129.48717921, 4097.43589709, 4088.71794837, 4125.38461511, 4147.30769210,12.0
4119.74358947, 4069.10256369, 4111.79487152, 4071.53846119, 4126.66666639, 4105.76923050, 4092.82051248, 4102.69230742, 4095.76923043, 4128.46153819, 4098.58974325, 4082.05128171, 4121.41025614, 4147.43589723,12.0
4119.10256383, 4082.56410222, 4115.38461511, 4082.30769196, 4124.74358947, 4121.41025614, 4104.48717921, 4108.46153819, 4107.69230742, 4129.61538434, 4106.92307665, 4088.71794837, 4127.69230742, 4147.05128185,12.0
4120.25640998, 4090.76923043, 4121.15384588, 4083.07692273, 4123.84615357, 4138.33333313, 4126.92307665, 4124.61538434, 4115.89743562, 4129.87179460, 4104.74358947, 4091.15384581, 4128.97435870, 4150.51282031,12.0
4122.30769203, 4089.61538427, 4126.79487152, 4081.41025607, 4124.23076896, 4129.35897408, 4122.94871767, 4124.74358947, 4127.05128178, 4130.25640998, 4103.33333306, 4097.17948684, 4131.66666639, 4146.41025621,12.0
4120.89743562, 4094.99999966, 4133.97435870, 4092.69230735, 4124.87179460, 4120.51282024, 4110.76923050, 4115.89743562, 4131.41025614, 4135.12820485, 4110.51282024, 4110.89743562, 4140.64102544, 4141.02564082,12.0
4117.43589716, 4092.94871761, 4131.41025614, 4095.38461504, 4121.53846126, 4127.17948691, 4108.97435870, 4117.56410229, 4131.41025614, 4132.56410229, 4111.02564075, 4108.20512793, 4139.35897415, 4141.02564082,12.0
4121.79487152, 4085.38461504, 4125.25640998, 4085.51282017, 4121.66666639, 4126.66666639, 4104.10256383, 4119.74358947, 4140.89743569, 4124.61538434, 4106.15384588, 4095.25640991, 4132.30769203, 4144.35897415,12.0
4121.41025614, 4082.43589709, 4123.97435870, 4079.35897402, 4127.56410229, 4116.02564075, 4102.05128171, 4126.02564075, 4136.92307672, 4126.79487152, 4106.66666639, 4091.66666632, 4130.64102537, 4147.05128185,12.0
4118.97435870, 4069.74358940, 4117.17948691, 4076.92307658, 4125.51282024, 4113.20512793, 4099.74358940, 4115.76923050, 4108.97435870, 4132.43589716, 4102.43589709, 4082.94871761, 4122.30769203, 4144.23076903,12.0
4122.30769203, 4061.02564061, 4108.33333306, 4077.43589709, 4125.12820485, 4118.58974332, 4094.99999966, 4082.94871761, 4097.69230735, 4130.38461511, 4093.84615350, 4070.12820478, 4111.53846126, 4145.25641005,12.0
4121.66666639, 4078.84615350, 4112.56410229, 4081.02564068, 4124.61538434, 4116.41025614, 4103.84615357, 4077.56410222, 4107.94871767, 4125.76923050, 4093.20512786, 4075.89743555, 4116.02564075, 4146.15384595,12.0
4121.41025614, 4084.74358940, 4116.53846126, 4075.25640991, 4121.41025614, 4109.99999973, 4108.84615357, 4093.71794837, 4099.61538427, 4130.51282024, 4094.48717914, 4080.12820478, 4120.76923050, 4145.89743569,12.0
4120.89743562, 4067.82051241, 4110.25640998, 4069.23076882, 4123.33333306, 4116.02564075, 4102.56410229, 4091.02564068, 4086.28205094, 4137.30769210, 4092.56410222, 4072.56410222, 4114.10256383, 4149.74358954,12.0
4121.28205101, 4075.89743555, 4114.35897408, 4076.41025607, 4124.61538434, 4117.43589716, 4102.30769196, 4083.07692273, 4097.17948684, 4134.61538434, 4094.35897402, 4082.05128171, 4113.71794844, 4146.28205108,12.0
4122.56410229, 4096.41025607, 4127.43589716, 4082.94871761, 4126.02564075, 4104.23076896, 4098.33333299, 4090.64102530, 4109.61538434, 4131.92307665, 4097.56410222, 4096.28205094, 4122.30769203, 4143.20512800,12.0
4119.61538434, 4091.15384581, 4124.23076896, 4078.58974325, 4124.35897408, 4100.12820478, 4086.15384581, 4095.51282017, 4103.07692280, 4132.43589716, 4095.76923043, 4088.97435863, 4123.20512793, 4144.10256390,12.0
4119.23076896, 4081.41025607, 4112.82051255, 4067.82051241, 4122.30769203, 4097.43589709, 4075.12820478, 4084.23076889, 4098.71794837, 4129.74358947, 4092.94871761, 4075.51282017, 4114.23076896, 4144.23076903,12.0
4116.66666639, 4094.23076889, 4116.66666639, 4066.53846113, 4126.15384588, 4088.20512786, 4071.66666632, 4080.38461504, 4099.35897402, 4128.84615357, 4092.17948684, 4072.17948684, 4112.17948691, 4146.28205108,12.0
4115.51282024, 4110.12820485, 4127.43589716, 4077.17948684, 4124.48717921, 4090.76923043, 4076.66666632, 4087.82051248, 4098.71794837, 4133.71794844, 4093.97435863, 4080.51282017, 4117.82051255, 4144.99999980,12.0
4120.38461511, 4108.58974332, 4130.12820485, 4078.46153812, 4121.41025614, 4104.74358947, 4085.64102530, 4093.84615350, 4101.15384581, 4132.82051255, 4094.99999966, 4088.20512786, 4115.12820485, 4144.23076903,12.0
4120.38461511, 4107.30769203, 4123.97435870, 4070.76923043, 4122.56410229, 4109.74358947, 4085.64102530, 4095.38461504, 4099.99999966, 4125.89743562, 4090.25640991, 4080.64102530, 4107.05128178, 4144.61538441,12.0
4121.15384588, 4120.25640998, 4123.20512793, 4078.07692273, 4123.46153819, 4105.38461511, 4084.74358940, 4092.69230735, 4098.97435863, 4129.35897408, 4088.58974325, 4076.41025607, 4113.07692280, 4144.23076903,12.0
4121.53846126, 4134.61538434, 4132.69230742, 4091.02564068, 4123.33333306, 4105.12820485, 4099.74358940, 4100.64102530, 4111.66666639, 4136.79487159, 4095.12820478, 4089.61538427, 4126.79487152, 4146.92307672,12.0
4119.99999973, 4134.23076896, 4131.41025614, 4087.94871761, 4121.28205101, 4104.61538434, 4100.76923043, 4106.92307665, 4116.02564075, 4133.84615357, 4100.76923043, 4093.84615350, 4125.51282024, 4144.35897415,12.0
4122.94871767, 4141.28205108, 4127.30769203, 4087.43589709, 4122.30769203, 4106.92307665, 4089.23076889, 4093.71794837, 4109.23076896, 4127.17948691, 4105.12820485, 4093.58974325, 4122.69230742, 4141.53846133,12.0
4121.79487152, 4161.79487159, 4139.35897415, 4101.92307658, 4123.33333306, 4119.48717921, 4102.43589709, 4091.53846119, 4111.66666639, 4128.46153819, 4107.43589716, 4108.33333306, 4130.51282024, 4145.64102544,12.0
4120.76923050, 4167.30769210, 4146.28205108, 4108.71794844, 4121.02564075, 4120.76923050, 4113.71794844, 4098.71794837, 4109.61538434, 4130.12820485, 4106.15384588, 4114.87179460, 4132.69230742, 4146.28205108,12.0
4122.30769203, 4157.17948697, 4137.56410236, 4100.89743555, 4122.94871767, 4114.61538434, 4103.46153819, 4093.46153812, 4108.84615357, 4128.84615357, 4106.53846126, 4105.38461511, 4130.38461511, 4144.48717928,12.0
4119.74358947, 4146.53846133, 4130.38461511, 4092.69230735, 4123.58974332, 4122.17948691, 4104.23076896, 4091.41025607, 4116.66666639, 4130.76923050, 4107.82051255, 4102.69230742, 4128.84615357, 4142.69230749,12.0
4119.99999973, 4146.41025621, 4133.58974332, 4093.58974325, 4123.46153819, 4125.38461511, 4112.30769203, 4098.97435863, 4114.61538434, 4129.99999973, 4105.38461511, 4104.74358947, 4122.94871767, 4143.84615364,12.0
4119.99999973, 4156.53846133, 4138.20512800, 4101.28205094, 4123.84615357, 4120.76923050, 4113.71794844, 4110.12820485, 4114.61538434, 4126.92307665, 4108.46153819, 4103.84615357, 4122.43589716, 4147.05128185,12.0
4121.15384588, 4161.02564082, 4138.71794851, 4107.69230742, 4121.41025614, 4120.51282024, 4117.05128178, 4114.74358947, 4125.51282024, 4128.07692280, 4113.46153819, 4104.48717921, 4129.35897408, 4144.10256390,12.0
4121.66666639, 4151.53846133, 4134.61538434, 4103.84615357, 4123.46153819, 4119.61538434, 4108.97435870, 4108.33333306, 4122.56410229, 4133.20512793, 4106.41025614, 4100.12820478, 4124.61538434, 4144.74358954,12.0
4118.07692280, 4151.66666646, 4137.30769210, 4103.33333306, 4123.33333306, 4119.61538434, 4100.51282017, 4103.71794844, 4116.79487152, 4134.10256383, 4104.48717921, 4101.53846119, 4120.25640998, 4147.43589723,12.0
4121.28205101, 4172.05128192, 4148.71794851, 4118.33333306, 4123.20512793, 4117.82051255, 4111.92307665, 4111.53846126, 4127.43589716, 4129.74358947, 4114.74358947, 4120.64102537, 4131.53846126, 4146.66666646,12.0
4123.07692280, 4182.82051269, 4149.87179467, 4123.20512793, 4127.30769203, 4119.99999973, 4121.15384588, 4124.23076896, 4138.71794851, 4125.76923050, 4117.94871767, 4127.82051255, 4136.79487159, 4145.51282031,12.0
4123.46153819, 4173.20512807, 4137.82051262, 4108.58974332, 4123.07692280, 4124.23076896, 4103.46153819, 4103.20512793, 4133.97435870, 4127.43589716, 4107.69230742, 4109.61538434, 4125.76923050, 4144.48717928,12.0
4124.35897408, 4173.84615371, 4136.53846133, 4109.61538434, 4120.89743562, 4130.38461511, 4108.71794844, 4076.79487145, 4124.74358947, 4135.51282031, 4106.41025614, 4106.79487152, 4127.43589716, 4148.07692287,12.0
4119.99999973, 4192.82051269, 4146.28205108, 4126.02564075, 4123.20512793, 4138.07692287, 4137.94871774, 4090.12820478, 4131.41025614, 4136.28205108, 4117.69230742, 4126.53846126, 4141.66666646, 4146.66666646,12.0
4119.99999973, 4193.46153833, 4147.30769210, 4121.53846126, 4122.17948691, 4128.07692280, 4124.74358947, 4087.43589709, 4139.10256390, 4131.92307665, 4121.66666639, 4126.28205101, 4138.71794851, 4144.87179467,12.0
4120.51282024, 4179.48717935, 4142.30769210, 4112.69230742, 4123.71794844, 4117.94871767, 4103.07692280, 4065.76923036, 4136.66666646, 4134.10256383, 4119.10256383, 4113.20512793, 4128.46153819, 4148.97435877,12.0
4119.74358947, 4188.07692294, 4143.71794851, 4120.76923050, 4123.20512793, 4122.82051255, 4116.66666639, 4079.10256376, 4140.51282031, 4133.46153819, 4119.10256383, 4123.07692280, 4132.94871767, 4145.25641005,12.0
4122.05128178, 4208.20512814, 4152.05128185, 4127.17948691, 4122.69230742, 4127.69230742, 4135.64102544, 4101.79487145, 4149.99999980, 4128.58974332, 4124.35897408, 4142.69230749, 4145.64102544, 4144.74358954,12.0
4121.28205101, 4202.17948711, 4149.74358954, 4123.46153819, 4124.48717921, 4128.84615357, 4130.25640998, 4093.46153812, 4141.15384595, 4131.28205101, 4124.74358947, 4137.82051262, 4147.05128185, 4148.84615364,12.0
4118.84615357, 4186.53846140, 4136.02564082, 4113.71794844, 4123.97435870, 4131.66666639, 4112.94871767, 4077.05128171, 4128.58974332, 4134.23076896, 4115.51282024, 4115.51282024, 4133.58974332, 4144.48717928,12.0
4118.20512793, 4187.56410243, 4134.35897408, 4104.35897408, 4123.46153819, 4127.82051255, 4108.58974332, 4081.02564068, 4137.43589723, 4131.02564075, 4112.94871767, 4110.76923050, 4124.23076896, 4144.10256390,12.0
4120.25640998, 4200.38461525, 4144.10256390, 4108.71794844, 4121.28205101, 4113.97435870, 4112.56410229, 4092.56410222, 4149.10256390, 4131.28205101, 4120.51282024, 4123.46153819, 4129.61538434, 4147.30769210,12.0
4121.66666639, 4217.05128199, 4147.56410236, 4115.12820485, 4122.43589716, 4115.64102537, 4112.82051255, 4099.35897402, 4150.51282031, 4132.30769203, 4121.92307665, 4126.41025614, 4135.51282031, 4148.84615364,12.0
4117.94871767, 4228.07692301, 4140.38461518, 4103.97435870, 4124.48717921, 4122.69230742, 4108.58974332, 4094.87179453, 4145.76923056, 4128.71794844, 4116.92307665, 4115.12820485, 4131.92307665, 4148.33333313,12.0
4119.87179460, 4236.28205129, 4141.02564082, 4106.92307665, 4122.17948691, 4123.84615357, 4112.30769203, 4083.84615350, 4139.74358954, 4129.35897408, 4121.53846126, 4114.99999973, 4133.20512793, 4144.74358954,12.0
4121.92307665, 4237.56410257, 4140.64102544, 4117.05128178, 4123.20512793, 4125.51282024, 4109.35897408, 4081.79487145, 4129.48717921, 4135.38461518, 4122.17948691, 4114.10256383, 4130.76923050, 4146.66666646,12.0
4118.71794844, 4231.02564096, 4128.97435870, 4105.12820485, 4122.56410229, 4132.17948691, 4105.51282024, 4078.84615350, 4121.79487152, 4134.87179460, 4111.15384588, 4099.99999966, 4120.51282024, 4147.56410236,12.0
4119.87179460, 4237.82051282, 4129.48717921, 4101.53846119, 4122.30769203, 4139.87179467, 4121.28205101, 4073.46153812, 4133.97435870, 4128.46153819, 4111.79487152, 4103.33333306, 4128.97435870, 4145.12820492,12.0
4121.15384588, 4256.53846154, 4139.74358954, 4113.07692280, 4123.97435870, 4136.92307672, 4135.38461518, 4088.84615350, 4147.82051262, 4124.99999973, 4120.89743562, 4116.28205101, 4142.69230749, 4145.64102544,12.0
4123.58974332, 4266.02564103, 4142.94871774, 4119.99999973, 4121.92307665, 4133.97435870, 4128.46153819, 4099.48717914, 4139.74358954, 4129.74358947, 4118.20512793, 4117.94871767, 4132.56410229, 4144.99999980,12.0
4122.43589716, 4267.56410264, 4142.82051262, 4116.53846126, 4123.58974332, 4139.61538441, 4115.38461511, 4082.82051248, 4137.56410236, 4136.79487159, 4113.46153819, 4116.66666639, 4121.92307665, 4145.76923056,12.0
4117.43589716, 4280.64102571, 4142.94871774, 4114.10256383, 4124.23076896, 4140.38461518, 4115.12820485, 4084.35897402, 4155.76923056, 4135.25640998, 4117.43589716, 4121.66666639, 4135.76923056, 4143.58974339,12.0
4120.12820485, 4306.79487194, 4151.28205108, 4125.64102537, 4122.82051255, 4141.02564082, 4127.43589716, 4118.97435870, 4169.74358961, 4132.43589716, 4129.99999973, 4135.38461518, 4158.20512800, 4141.79487159,12.0
4119.23076896, 4322.17948732, 4161.02564082, 4137.17948697, 4124.74358947, 4142.43589723, 4135.25640998, 4135.38461518, 4174.61538448, 4134.23076896, 4139.10256390, 4146.92307672, 4156.66666646, 4145.38461518,12.0
4116.79487152, 4309.10256425, 4152.94871774, 4131.02564075, 4123.97435870, 4129.87179460, 4122.82051255, 4111.28205101, 4172.05128192, 4133.84615357, 4132.17948691, 4138.07692287, 4139.35897415, 4144.99999980,12.0
4122.17948691, 4295.64102571, 4140.64102544, 4116.66666639, 4124.74358947, 4121.79487152, 4111.15384588, 4098.46153812, 4161.15384595, 4133.97435870, 4121.41025614, 4122.43589716, 4135.12820485, 4147.43589723,12.0
4122.05128178, 4310.12820527, 4142.94871774, 4114.61538434, 4124.74358947, 4142.56410236, 4122.94871767, 4107.94871767, 4150.38461518, 4134.35897408, 4121.53846126, 4123.71794844, 4137.82051262, 4147.94871774,12.0
4120.12820485, 4324.87179501, 4145.51282031, 4115.25640998, 4123.20512793, 4156.66666646, 4136.02564082, 4102.05128171, 4150.64102544, 4130.12820485, 4123.07692280, 4123.58974332, 4135.12820485, 4141.53846133,12.0
4122.94871767, 4325.76923091, 4143.58974339, 4116.02564075, 4124.35897408, 4157.17948697, 4145.25641005, 4103.33333306, 4164.87179467, 4127.05128178, 4123.71794844, 4122.82051255, 4137.69230749, 4143.97435877,12.0
4124.35897408, 4337.82051303, 4147.69230749, 4124.48717921, 4123.33333306, 4155.64102544, 4149.74358954, 4112.43589716, 4169.35897422, 4130.51282024, 4130.51282024, 4134.48717921, 4141.53846133, 4147.94871774,12.0
4122.56410229, 4351.28205149, 4155.51282031, 4130.76923050, 4126.02564075, 4149.10256390, 4145.12820492, 4099.48717914, 4158.20512800, 4135.51282031, 4135.89743569, 4143.58974339, 4143.58974339, 4147.05128185,12.0
4120.76923050, 4353.71794893, 4159.35897415, 4136.92307672, 4126.41025614, 4156.41025621, 4147.82051262, 4099.61538427, 4156.66666646, 4135.76923056, 4136.28205108, 4149.35897415, 4154.23076903, 4145.51282031,12.0
4124.74358947, 4365.89743618, 4161.66666646, 4147.17948697, 4121.92307665, 4163.58974339, 4152.56410236, 4125.51282024, 4174.23076910, 4129.48717921, 4139.23076903, 4161.41025621, 4161.79487159, 4143.97435877,12.0
4123.84615357, 4381.28205156, 4167.82051262, 4156.15384595, 4123.58974332, 4162.30769210, 4146.02564082, 4135.76923056, 4187.17948704, 4126.66666639, 4141.92307672, 4168.46153833, 4156.53846133, 4143.84615364,12.0
4120.76923050, 4376.79487208, 4169.99999986, 4153.33333313, 4125.89743562, 4159.87179467, 4134.48717921, 4123.07692280, 4186.02564089, 4131.66666639, 4140.25641005, 4160.64102544, 4151.53846133, 4144.87179467,12.0
4122.82051255, 4370.12820541, 4167.17948697, 4148.20512800, 4126.28205101, 4146.28205108, 4132.05128178, 4126.15384588, 4188.97435884, 4132.05128178, 4139.23076903, 4154.48717928, 4152.56410236, 4148.84615364,12.0
4120.25640998, 4375.76923105, 4169.48717935, 4154.10256390, 4124.23076896, 4142.43589723, 4143.46153826, 4148.97435877, 4196.53846140, 4128.71794844, 4140.38461518, 4164.48717928, 4161.66666646, 4144.99999980,12.0
4120.64102537, 4368.58974387, 4167.17948697, 4145.12820492, 4122.43589716, 4152.43589723, 4141.92307672, 4138.97435877, 4181.28205115, 4131.41025614, 4135.25640998, 4161.41025621, 4159.35897415, 4138.20512800,12.0
4122.05128178, 4353.71794893, 4156.28205108, 4121.79487152, 4125.89743562, 4151.02564082, 4130.76923050, 4107.17948691, 4161.15384595, 4136.66666646, 4129.87179460, 4136.15384595, 4141.66666646, 4146.41025621,12.0
4120.76923050, 4360.76923098, 4154.99999980, 4121.79487152, 4126.28205101, 4148.46153826, 4141.02564082, 4106.92307665, 4170.12820499, 4134.35897408, 4134.10256383, 4136.41025621, 4140.76923056, 4149.10256390,12.0
4122.56410229, 4371.41025669, 4163.97435877, 4137.43589723, 4124.48717921, 4157.17948697, 4149.23076903, 4117.17948691, 4167.17948697, 4128.84615357, 4138.84615364, 4153.46153826, 4154.23076903, 4142.56410236,12.0
4119.74358947, 4379.10256438, 4168.97435884, 4143.33333313, 4122.30769203, 4165.76923056, 4142.82051262, 4111.02564075, 4146.66666646, 4129.48717921, 4139.10256390, 4154.10256390, 4153.33333313, 4143.71794851,12.0
4120.25640998, 4393.07692336, 4171.15384602, 4147.30769210, 4122.82051255, 4165.89743569, 4147.94871774, 4109.61538434, 4160.89743569, 4133.46153819, 4141.92307672, 4161.79487159, 4152.94871774, 4147.17948697,12.0
4124.74358947, 4391.02564131, 4173.07692294, 4152.43589723, 4128.33333306, 4154.87179467, 4149.99999980, 4122.05128178, 4181.92307679, 4136.28205108, 4140.89743569, 4171.15384602, 4158.20512800, 4146.92307672,12.0
4125.25640998, 4380.89743618, 4173.46153833, 4150.12820492, 4124.10256383, 4150.64102544, 4138.84615364, 4127.82051255, 4176.28205115, 4135.12820485, 4138.20512800, 4162.05128185, 4153.97435877, 4142.69230749,12.0
4125.76923050, 4393.71794900, 4178.33333320, 4147.56410236, 4120.64102537, 4169.48717935, 4142.82051262, 4127.17948691, 4177.82051269, 4133.33333306, 4142.69230749, 4164.10256390, 4153.84615364, 4144.61538441,12.0
4121.28205101, 4387.94871823, 4171.15384602, 4138.20512800, 4126.28205101, 4172.56410243, 4138.97435877, 4123.58974332, 4176.28205115, 4134.87179460, 4141.15384595, 4165.89743569, 4152.82051262, 4148.07692287,12.0
4119.48717921, 4361.41025662, 4155.51282031, 4128.84615357, 4124.35897408, 4152.56410236, 4116.15384588, 4110.38461511, 4159.99999980, 4134.23076896, 4130.76923050, 4144.61538441, 4143.84615364, 4144.61538441,12.0
4122.94871767, 4372.17948746, 4160.89743569, 4135.38461518, 4120.64102537, 4155.25641005, 4132.56410229, 4117.82051255, 4163.58974339, 4130.12820485, 4132.69230742, 4141.28205108, 4150.25641005, 4145.76923056,12.0
4120.89743562, 4395.76923105, 4170.89743576, 4138.46153826, 4121.15384588, 4165.51282031, 4160.89743569, 4133.07692280, 4178.20512807, 4130.25640998, 4139.61538441, 4158.07692287, 4158.84615364, 4146.53846133,12.0
4121.66666639, 4388.84615413, 4165.12820492, 4129.74358947, 4123.97435870, 4160.51282031, 4146.53846133, 4118.58974332, 4175.38461525, 4132.17948691, 4132.30769203, 4155.12820492, 4150.51282031, 4144.48717928,12.0
4122.17948691, 4379.10256438, 4160.38461518, 4132.17948691, 4126.66666639, 4165.12820492, 4132.69230742, 4116.41025614, 4173.84615371, 4131.53846126, 4132.56410229, 4147.30769210, 4150.76923056, 4146.53846133,12.0
4120.89743562, 4387.17948746, 4170.51282038, 4142.94871774, 4122.82051255, 4167.69230749, 4143.33333313, 4140.64102544, 4186.53846140, 4131.15384588, 4150.89743569, 4159.61538441, 4162.94871774, 4144.61538441,12.0
4123.58974332, 4384.74359003, 4173.97435884, 4136.92307672, 4121.53846126, 4152.56410236, 4131.28205101, 4134.48717921, 4184.61538448, 4129.74358947, 4154.10256390, 4160.89743569, 4159.87179467, 4144.10256390,12.0
4122.69230742, 4381.41025669, 4169.35897422, 4134.48717921, 4123.84615357, 4155.51282031, 4118.97435870, 4117.17948691, 4176.41025628, 4129.35897408, 4141.66666646, 4150.25641005, 4156.66666646, 4146.02564082,12.0
4122.82051255, 4399.61538497, 4180.64102551, 4150.51282031, 4123.07692280, 4174.10256397, 4160.38461518, 4140.25641005, 4191.92307679, 4130.51282024, 4148.84615364, 4164.48717928, 4166.15384595, 4145.38461518,12.0
4121.53846126, 4394.35897464, 4186.66666653, 4145.76923056, 4123.33333306, 4172.30769217, 4186.02564089, 4154.61538441, 4193.71794858, 4132.05128178, 4158.71794851, 4172.82051269, 4164.74358954, 4145.76923056,12.0
4121.15384588, 4367.17948746, 4168.97435884, 4122.94871767, 4123.20512793, 4161.28205108, 4149.10256390, 4125.64102537, 4162.82051262, 4132.05128178, 4144.35897415, 4148.33333313, 4153.84615364, 4144.35897415,12.0
4122.56410229, 4352.94871816, 4177.05128192, 4128.07692280, 4123.20512793, 4161.15384595, 4134.10256383, 4134.35897408, 4159.10256390, 4132.94871767, 4140.25641005, 4153.33333313, 4156.28205108, 4144.61538441,12.0
4123.33333306, 4352.17948739, 4175.12820499, 4128.71794844, 4121.66666639, 4144.61538441, 4130.64102537, 4121.02564075, 4155.89743569, 4131.66666639, 4137.43589723, 4151.53846133, 4151.02564082, 4143.07692287,12.0
4122.69230742, 4362.56410278, 4175.51282038, 4134.35897408, 4123.58974332, 4161.15384595, 4144.35897415, 4124.74358947, 4166.02564082, 4134.61538434, 4134.74358947, 4147.05128185, 4150.38461518, 4144.74358954,12.0
4120.51282024, 4381.28205156, 4175.12820499, 4139.35897415, 4122.82051255, 4179.61538448, 4166.41025621, 4136.92307672, 4162.43589723, 4134.74358947, 4135.12820485, 4145.38461518, 4149.74358954, 4146.28205108,12.0
4123.46153819, 4388.97435926, 4172.56410243, 4135.76923056, 4123.71794844, 4168.46153833, 4161.28205108, 4130.76923050, 4155.38461518, 4129.61538434, 4131.66666639, 4139.87179467, 4139.99999980, 4144.74358954,12.0
4122.69230742, 4387.17948746, 4177.94871781, 4133.58974332, 4124.48717921, 4163.20512800, 4153.71794851, 4141.15384595, 4158.20512800, 4127.43589716, 4131.66666639, 4143.97435877, 4145.76923056, 4145.25641005,12.0
4121.15384588, 4372.69230797, 4175.12820499, 4136.53846133, 4120.38461511, 4171.15384602, 4159.87179467, 4148.71794851, 4152.05128185, 4129.99999973, 4133.07692280, 4142.82051262, 4151.28205108, 4146.28205108,12.0
4122.05128178, 4357.82051303, 4159.99999980, 4127.56410229, 4123.46153819, 4174.74358961, 4143.46153826, 4125.12820485, 4147.94871774, 4133.71794844, 4129.10256383, 4124.48717921, 4135.51282031, 4150.12820492,12.0
4122.17948691, 4367.30769259, 4166.02564082, 4122.43589716, 4125.12820485, 4172.94871781, 4132.05128178, 4120.76923050, 4164.99999980, 4134.10256383, 4129.61538434, 4132.69230742, 4133.71794844, 4147.56410236,12.0
4124.48717921, 4372.30769259, 4178.71794858, 4126.79487152, 4122.56410229, 4161.02564082, 4140.25641005, 4134.99999973, 4164.48717928, 4131.53846126, 4134.99999973, 4147.17948697, 4146.15384595, 4141.92307672,12.0
4123.07692280, 4347.82051303, 4160.25641005, 4118.58974332, 4123.07692280, 4144.48717928, 4123.33333306, 4121.15384588, 4140.51282031, 4129.87179460, 4133.84615357, 4123.20512793, 4138.46153826, 4144.48717928,12.0
4123.97435870, 4342.82051303, 4154.10256390, 4114.99999973, 4122.05128178, 4145.38461518, 4117.56410229, 4114.61538434, 4146.28205108, 4132.43589716, 4135.25640998, 4115.64102537, 4139.10256390, 4144.87179467,12.0
4125.25640998, 4353.07692329, 4176.79487166, 4124.10256383, 4125.12820485, 4157.82051262, 4145.38461518, 4139.10256390, 4168.20512807, 4136.15384595, 4141.28205108, 4141.53846133, 4152.05128185, 4146.02564082,12.0
4120.38461511, 4346.66666688, 4174.74358961, 4124.99999973, 4127.56410229, 4165.25641005, 4139.87179467, 4137.69230749, 4164.87179467, 4133.20512793, 4138.97435877, 4140.64102544, 4144.23076903, 4146.66666646,12.0
4121.28205101, 4346.79487201, 4164.35897415, 4122.56410229, 4123.46153819, 4168.20512807, 4121.92307665, 4115.12820485, 4159.23076903, 4129.35897408, 4138.20512800, 4128.84615357, 4143.71794851, 4143.71794851,12.0
4122.94871767, 4350.00000021, 4174.74358961, 4125.25640998, 4123.46153819, 4172.30769217, 4150.76923056, 4133.07692280, 4173.97435884, 4133.97435870, 4143.07692287, 4142.69230749, 4159.87179467, 4145.51282031,12.0
4121.02564075, 4337.05128226, 4171.02564089, 4126.92307665, 4124.10256383, 4160.64102544, 4155.38461518, 4142.30769210, 4175.12820499, 4135.64102544, 4141.15384595, 4146.28205108, 4153.20512800, 4145.51282031,12.0
4123.46153819, 4331.92307707, 4159.74358954, 4128.46153819, 4123.07692280, 4151.15384595, 4125.25640998, 4117.17948691, 4155.64102544, 4129.35897408, 4139.23076903, 4133.84615357, 4145.64102544, 4146.02564082,12.0
4123.58974332, 4339.87179508, 4166.92307672, 4123.46153819, 4123.20512793, 4165.64102544, 4136.15384595, 4134.74358947, 4155.64102544, 4126.15384588, 4141.66666646, 4138.33333313, 4158.20512800, 4145.89743569,12.0
4125.12820485, 4330.25641040, 4167.69230749, 4115.12820485, 4123.58974332, 4166.41025621, 4152.17948697, 4155.12820492, 4164.99999980, 4131.02564075, 4137.30769210, 4142.94871774, 4150.64102544, 4142.43589723,12.0
4126.92307665, 4318.71794886, 4160.89743569, 4120.12820485, 4124.10256383, 4159.23076903, 4139.10256390, 4125.64102537, 4156.66666646, 4135.38461518, 4138.46153826, 4133.58974332, 4133.97435870, 4142.94871774,12.0
4126.02564075, 4325.51282066, 4169.61538448, 4133.20512793, 4121.66666639, 4161.66666646, 4137.43589723, 4123.71794844, 4159.35897415, 4132.56410229, 4150.25641005, 4138.84615364, 4144.10256390, 4144.61538441,12.0
4124.35897408, 4322.82051296, 4177.05128192, 4128.20512793, 4124.35897408, 4145.25641005, 4138.97435877, 4157.82051262, 4174.23076910, 4128.20512793, 4147.05128185, 4148.71794851, 4150.51282031, 4146.79487159,12.0
4119.61538434, 4306.02564117, 4160.51282031, 4111.02564075, 4127.17948691, 4121.92307665, 4119.87179460, 4141.28205108, 4152.56410236, 4129.35897408, 4134.10256383, 4132.94871767, 4137.56410236, 4147.17948697,12.0
4121.15384588, 4301.02564117, 4150.51282031, 4111.79487152, 4123.71794844, 4131.15384588, 4107.43589716, 4102.05128171, 4131.92307665, 4133.33333306, 4135.89743569, 4121.79487152, 4138.58974339, 4145.89743569,12.0
4123.84615357, 4317.05128219, 4165.12820492, 4127.05128178, 4122.82051255, 4157.94871774, 4130.76923050, 4127.17948691, 4157.94871774, 4135.25640998, 4141.28205108, 4139.35897415, 4153.07692287, 4147.05128185,12.0
4121.41025614, 4317.56410271, 4166.02564082, 4127.94871767, 4123.33333306, 4159.48717928, 4145.89743569, 4151.15384595, 4161.92307672, 4132.94871767, 4136.92307672, 4140.51282031, 4143.71794851, 4143.84615364,12.0
4121.41025614, 4292.94871802, 4152.43589723, 4117.56410229, 4125.38461511, 4145.89743569, 4122.82051255, 4121.92307665, 4133.46153819, 4129.61538434, 4135.89743569, 4118.84615357, 4127.43589716, 4143.33333313,12.0
4119.87179460, 4284.35897443, 4155.12820492, 4117.94871767, 4125.76923050, 4141.66666646, 4113.33333306, 4111.15384588, 4142.69230749, 4132.56410229, 4137.17948697, 4121.79487152, 4131.15384588, 4146.66666646,12.0
4122.69230742, 4297.56410264, 4165.64102544, 4127.94871767, 4123.20512793, 4142.94871774, 4129.10256383, 4120.51282024, 4154.74358954, 4132.94871767, 4141.41025621, 4139.87179467, 4142.05128185, 4145.64102544,12.0
4126.41025614, 4302.43589758, 4166.28205108, 4136.28205108, 4124.61538434, 4137.69230749, 4131.15384588, 4113.84615357, 4132.17948691, 4127.82051255, 4154.48717928, 4141.66666646, 4150.38461518, 4146.79487159,12.0
4124.23076896, 4293.71794879, 4163.07692287, 4137.43589723, 4124.10256383, 4138.84615364, 4121.15384588, 4111.66666639, 4135.76923056, 4129.99999973, 4155.25641005, 4139.99999980, 4150.25641005, 4144.99999980,12.0
4125.12820485, 4283.84615392, 4162.17948697, 4129.35897408, 4124.61538434, 4148.97435877, 4122.82051255, 4121.15384588, 4159.35897415, 4133.33333306, 4142.17948697, 4141.02564082, 4142.43589723, 4140.25641005,12.0
4124.99999973, 4273.97435905, 4159.87179467, 4119.35897408, 4126.79487152, 4153.58974339, 4136.92307672, 4134.23076896, 4149.10256390, 4129.23076896, 4137.30769210, 4136.66666646, 4137.82051262, 4144.87179467,12.0
4123.97435870, 4267.05128212, 4160.64102544, 4113.33333306, 4123.58974332, 4147.94871774, 4140.38461518, 4140.25641005, 4136.79487159, 4128.71794844, 4139.48717928, 4135.76923056, 4139.99999980, 4147.30769210,12.0
4123.58974332, 4265.00000000, 4164.48717928, 4116.15384588, 4123.46153819, 4140.12820492, 4132.56410229, 4135.51282031, 4151.92307672, 4135.51282031, 4139.74358954, 4139.99999980, 4141.79487159, 4146.41025621,12.0
4123.33333306, 4260.76923077, 4163.33333313, 4124.35897408, 4123.97435870, 4144.23076903, 4130.89743562, 4128.84615357, 4161.79487159, 4135.38461518, 4139.87179467, 4136.28205108, 4143.46153826, 4146.28205108,12.0
4126.28205101, 4252.05128206, 4161.02564082, 4123.58974332, 4121.92307665, 4147.30769210, 4130.76923050, 4126.15384588, 4151.41025621, 4128.97435870, 4139.48717928, 4131.92307665, 4146.02564082, 4146.66666646,12.0
4123.07692280, 4244.48717949, 4167.05128185, 4120.12820485, 4125.25640998, 4144.74358954, 4133.58974332, 4134.48717921, 4149.61538441, 4129.35897408, 4144.87179467, 4133.46153819, 4144.87179467, 4147.56410236,12.0
4119.87179460, 4246.02564103, 4175.76923063, 4123.84615357, 4124.48717921, 4144.23076903, 4136.66666646, 4139.23076903, 4156.15384595, 4130.51282024, 4147.69230749, 4139.48717928, 4148.20512800, 4144.10256390,12.0
4123.33333306, 4248.71794872, 4178.33333320, 4123.20512793, 4123.58974332, 4138.07692287, 4135.64102544, 4132.05128178, 4162.30769210, 4128.20512793, 4142.43589723, 4148.84615364, 4155.76923056, 4146.92307672,12.0
4123.33333306, 4237.30769231, 4175.64102551, 4119.74358947, 4125.76923050, 4138.97435877, 4130.38461511, 4128.58974332, 4163.33333313, 4129.10256383, 4143.33333313, 4148.58974339, 4147.17948697, 4149.99999980,12.0
4122.43589716, 4231.92307686, 4175.25641012, 4129.48717921, 4126.02564075, 4150.89743569, 4128.58974332, 4131.92307665, 4158.71794851, 4129.99999973, 4146.92307672, 4142.30769210, 4133.97435870, 4144.23076903,12.0
4121.02564075, 4238.71794872, 4175.38461525, 4134.99999973, 4123.46153819, 4152.56410236, 4133.71794844, 4138.07692287, 4157.82051262, 4128.58974332, 4147.17948697, 4143.58974339, 4144.35897415, 4143.71794851,12.0
4121.28205101, 4236.92307693, 4172.43589730, 4126.15384588, 4120.12820485, 4146.28205108, 4143.20512800, 4145.25641005, 4156.53846133, 4129.48717921, 4144.48717928, 4143.84615364, 4153.07692287, 4144.99999980,12.0
4124.74358947, 4225.51282045, 4172.82051269, 4127.30769203, 4125.51282024, 4154.74358954, 4150.76923056, 4149.48717928, 4158.33333313, 4130.25640998, 4139.35897415, 4139.35897415, 4141.15384595, 4145.12820492,12.0
4123.46153819, 4217.69230763, 4166.92307672, 4132.05128178, 4128.84615357, 4151.41025621, 4138.07692287, 4140.89743569, 4161.53846133, 4130.51282024, 4135.76923056, 4132.05128178, 4134.23076896, 4145.64102544,12.0
4123.58974332, 4219.23076917, 4159.23076903, 4123.71794844, 4124.10256383, 4128.07692280, 4116.02564075, 4128.33333306, 4160.25641005, 4131.41025614, 4133.46153819, 4124.87179460, 4135.64102544, 4145.76923056,12.0
4124.61538434, 4216.28205122, 4162.17948697, 4116.92307665, 4126.02564075, 4127.56410229, 4112.56410229, 4132.43589716, 4151.41025621, 4130.89743562, 4128.33333306, 4121.79487152, 4131.66666639, 4148.20512800,12.0
4122.94871767, 4206.15384609, 4159.87179467, 4121.41025614, 4126.15384588, 4135.38461518, 4119.87179460, 4131.02564075, 4139.48717928, 4129.35897408, 4128.58974332, 4121.79487152, 4127.69230742, 4145.64102544,12.0
4124.10256383, 4201.53846147, 4153.20512800, 4124.99999973, 4124.35897408, 4135.76923056, 4119.35897408, 4113.33333306, 4132.56410229, 4129.23076896, 4134.74358947, 4120.12820485, 4134.35897408, 4142.82051262,12.0
4121.15384588, 4216.02564096, 4162.56410236, 4132.94871767, 4125.25640998, 4147.69230749, 4122.17948691, 4115.38461511, 4141.15384595, 4130.38461511, 4140.12820492, 4128.71794844, 4145.25641005, 4144.99999980,12.0
4120.76923050, 4237.56410257, 4181.53846140, 4152.17948697, 4124.35897408, 4152.05128185, 4142.30769210, 4132.43589716, 4165.51282031, 4130.12820485, 4148.71794851, 4155.25641005, 4155.12820492, 4144.35897415,12.0
4124.61538434, 4230.51282045, 4183.20512807, 4153.46153826, 4124.87179460, 4139.99999980, 4148.07692287, 4130.76923050, 4172.30769217, 4129.61538434, 4149.10256390, 4163.84615364, 4154.74358954, 4143.97435877,12.0
4124.10256383, 4208.07692301, 4173.46153833, 4137.82051262, 4124.99999973, 4137.69230749, 4131.02564075, 4121.92307665, 4161.53846133, 4129.48717921, 4140.38461518, 4148.71794851, 4152.56410236, 4143.20512800,12.0
4122.94871767, 4211.53846147, 4174.23076910, 4136.41025621, 4125.25640998, 4145.89743569, 4119.23076896, 4120.64102537, 4158.20512800, 4130.76923050, 4140.76923056, 4144.10256390, 4154.10256390, 4143.58974339,12.0
4119.48717921, 4214.48717942, 4169.10256397, 4140.89743569, 4125.76923050, 4139.35897415, 4120.25640998, 4120.38461511, 4158.58974339, 4128.58974332, 4138.97435877, 4139.99999980, 4139.87179467, 4146.28205108,12.0
4122.82051255, 4191.53846140, 4154.99999980, 4130.64102537, 4123.71794844, 4129.23076896, 4127.82051255, 4131.79487152, 4153.07692287, 4127.17948691, 4132.05128178, 4130.51282024, 4133.20512793, 4144.48717928,12.0
4127.69230742, 4196.53846140, 4163.71794851, 4126.79487152, 4123.58974332, 4140.12820492, 4146.66666646, 4157.82051262, 4156.28205108, 4133.46153819, 4137.94871774, 4142.05128185, 4155.64102544, 4145.64102544,12.0
4122.17948691, 4211.15384609, 4177.30769217, 4130.51282024, 4121.28205101, 4143.84615364, 4140.89743569, 4151.02564082, 4160.38461518, 4134.35897408, 4141.28205108, 4149.23076903, 4157.82051262, 4142.94871774,12.0
4122.82051255, 4184.48717935, 4167.94871774, 4126.15384588, 4122.30769203, 4116.66666639, 4104.23076896, 4114.48717921, 4146.15384595, 4131.92307665, 4132.56410229, 4134.87179460, 4136.15384595, 4141.28205108,12.0
4126.66666639, 4184.23076910, 4168.46153833, 4139.35897415, 4126.92307665, 4113.71794844, 4110.12820485, 4126.41025614, 4140.76923056, 4135.51282031, 4138.71794851, 4143.97435877, 4151.02564082, 4148.20512800,12.0
4126.66666639, 4228.07692301, 4186.02564089, 4162.69230749, 4124.23076896, 4145.12820492, 4136.53846133, 4157.69230749, 4153.84615364, 4133.20512793, 4151.41025621, 4169.10256397, 4174.74358961, 4145.25641005,12.0
4125.25640998, 4221.53846147, 4182.43589730, 4156.53846133, 4124.48717921, 4147.69230749, 4111.15384588, 4134.74358947, 4157.17948697, 4126.15384588, 4144.23076903, 4156.79487159, 4153.84615364, 4141.79487159,12.0
4121.53846126, 4192.69230756, 4173.07692294, 4147.30769210, 4126.02564075, 4134.99999973, 4106.79487152, 4122.17948691, 4154.74358954, 4128.58974332, 4135.12820485, 4143.58974339, 4145.51282031, 4144.99999980,12.0
4125.12820485, 4203.07692301, 4177.17948704, 4154.74358954, 4122.82051255, 4148.97435877, 4143.33333313, 4148.20512800, 4159.74358954, 4131.28205101, 4137.43589723, 4151.28205108, 4164.74358954, 4145.25641005,12.0
4126.28205101, 4207.43589737, 4177.82051269, 4152.82051262, 4124.99999973, 4159.87179467, 4143.71794851, 4150.64102544, 4165.64102544, 4128.20512793, 4143.58974339, 4151.41025621, 4160.38461518, 4143.46153826,12.0
4122.56410229, 4197.56410243, 4176.02564089, 4145.51282031, 4126.66666639, 4158.46153826, 4133.84615357, 4137.17948697, 4154.48717928, 4130.51282024, 4148.33333313, 4152.69230749, 4148.33333313, 4142.56410236,12.0
4124.10256383, 4189.35897422, 4171.66666653, 4135.89743569, 4126.28205101, 4162.30769210, 4147.17948697, 4144.74358954, 4142.05128185, 4131.66666639, 4142.69230749, 4144.99999980, 4150.12820492, 4146.28205108,12.0
4123.58974332, 4174.87179474, 4158.58974339, 4125.64102537, 4125.64102537, 4158.33333313, 4140.76923056, 4148.58974339, 4149.35897415, 4129.61538434, 4130.76923050, 4122.94871767, 4145.76923056, 4147.82051262,12.0
4124.10256383, 4177.17948704, 4157.94871774, 4136.15384595, 4123.84615357, 4147.56410236, 4118.84615357, 4126.15384588, 4144.23076903, 4131.15384588, 4133.84615357, 4123.33333306, 4142.05128185, 4146.02564082,12.0
4121.41025614, 4196.66666653, 4173.20512807, 4147.56410236, 4123.20512793, 4160.38461518, 4129.74358947, 4126.66666639, 4136.02564082, 4130.51282024, 4142.05128185, 4145.12820492, 4150.64102544, 4145.89743569,12.0
4118.46153819, 4193.46153833, 4178.07692294, 4139.35897415, 4122.17948691, 4178.20512807, 4150.64102544, 4150.89743569, 4159.23076903, 4126.92307665, 4136.28205108, 4153.84615364, 4155.76923056, 4143.84615364,12.0
4124.61538434, 4179.87179474, 4175.76923063, 4139.48717928, 4125.76923050, 4164.35897415, 4149.74358954, 4152.43589723, 4168.33333320, 4132.17948691, 4136.28205108, 4153.71794851, 4155.89743569, 4144.87179467,12.0
4124.48717921, 4189.23076910, 4177.69230756, 4150.64102544, 4125.64102537, 4151.53846133, 4141.92307672, 4143.58974339, 4154.23076903, 4137.94871774, 4145.38461518, 4159.10256390, 4155.76923056, 4146.28205108,12.0
4122.94871767, 4206.02564096, 4189.48717935, 4158.97435877, 4119.74358947, 4180.38461525, 4148.07692287, 4149.35897415, 4165.12820492, 4129.99999973, 4153.71794851, 4175.12820499, 4161.28205108, 4143.33333313,12.0
4125.38461511, 4202.05128199, 4197.82051269, 4162.69230749, 4122.05128178, 4200.51282038, 4158.46153826, 4162.56410236, 4172.82051269, 4125.89743562, 4156.53846133, 4184.35897422, 4173.07692294, 4145.38461518,12.0
4124.87179460, 4194.74358961, 4190.64102551, 4160.12820492, 4123.46153819, 4173.20512807, 4163.84615364, 4172.94871781, 4165.25641005, 4131.66666639, 4145.64102544, 4172.94871781, 4172.69230756, 4143.84615364,12.0
4127.43589716, 4201.28205122, 4186.92307679, 4155.76923056, 4121.02564075, 4156.79487159, 4167.56410236, 4169.74358961, 4178.20512807, 4131.53846126, 4141.02564082, 4164.35897415, 4159.48717928, 4140.89743569,12.0
4127.17948691, 4196.02564089, 4187.82051269, 4155.25641005, 4122.30769203, 4182.17948704, 4162.05128185, 4156.92307672, 4183.33333320, 4128.33333306, 4151.28205108, 4169.23076910, 4157.43589723, 4145.25641005,12.0
4123.71794844, 4187.05128192, 4188.71794858, 4162.82051262, 4120.51282024, 4196.92307679, 4150.76923056, 4153.07692287, 4178.07692294, 4128.46153819, 4159.10256390, 4181.53846140, 4172.05128192, 4144.74358954,12.0
4121.53846126, 4195.12820499, 4191.79487166, 4172.05128192, 4121.53846126, 4179.74358961, 4151.28205108, 4160.64102544, 4176.79487166, 4129.61538434, 4158.84615364, 4187.56410243, 4182.56410243, 4141.79487159,12.0
4122.17948691, 4195.12820499, 4184.74358961, 4165.76923056, 4126.53846126, 4167.69230749, 4151.92307672, 4163.97435877, 4160.64102544, 4130.38461511, 4150.51282031, 4174.61538448, 4166.02564082, 4140.76923056,12.0
4124.61538434, 4194.99999986, 4178.33333320, 4161.28205108, 4126.66666639, 4175.76923063, 4136.53846133, 4158.84615364, 4160.89743569, 4129.74358947, 4139.10256390, 4164.74358954, 4148.46153826, 4143.33333313,12.0
4122.94871767, 4214.10256404, 4187.43589730, 4176.92307679, 4122.30769203, 4180.12820499, 4138.97435877, 4155.38461518, 4176.53846140, 4129.48717921, 4144.35897415, 4177.94871781, 4162.94871774, 4147.69230749,12.0
4125.25640998, 4212.30769224, 4189.23076910, 4176.53846140, 4118.97435870, 4172.43589730, 4155.25641005, 4145.89743569, 4159.74358954, 4131.66666639, 4156.28205108, 4182.05128192, 4168.84615371, 4143.58974339,12.0
4127.43589716, 4183.71794858, 4174.61538448, 4157.05128185, 4120.64102537, 4169.74358961, 4142.43589723, 4134.48717921, 4143.58974339, 4132.94871767, 4152.17948697, 4160.12820492, 4155.25641005, 4142.69230749,12.0
4124.10256383, 4187.30769217, 4176.15384602, 4166.02564082, 4121.02564075, 4175.89743576, 4139.61538441, 4145.76923056, 4156.53846133, 4131.28205101, 4151.15384595, 4161.66666646, 4160.64102544, 4144.35897415,12.0
4126.15384588, 4220.76923070, 4189.35897422, 4185.64102551, 4122.56410229, 4185.51282038, 4169.87179474, 4163.58974339, 4158.58974339, 4129.10256383, 4151.28205108, 4183.46153833, 4164.87179467, 4142.94871774,12.0
4124.48717921, 4226.02564096, 4184.48717935, 4175.76923063, 4127.30769203, 4193.71794858, 4173.58974345, 4165.38461518, 4153.84615364, 4126.28205101, 4144.48717928, 4176.53846140, 4159.35897415, 4144.23076903,12.0
4122.05128178, 4204.23076917, 4167.56410236, 4162.43589723, 4125.64102537, 4175.38461525, 4140.12820492, 4149.23076903, 4154.23076903, 4126.53846126, 4144.61538441, 4152.05128185, 4161.15384595, 4144.35897415,12.0
4125.76923050, 4203.20512814, 4170.38461525, 4175.38461525, 4124.74358947, 4162.94871774, 4141.41025621, 4145.89743569, 4156.41025621, 4133.97435870, 4152.43589723, 4158.07692287, 4160.25641005, 4145.64102544,12.0
4125.64102537, 4219.48717942, 4178.33333320, 4181.15384602, 4124.10256383, 4189.87179474, 4158.97435877, 4150.25641005, 4152.82051262, 4135.89743569, 4151.28205108, 4171.15384602, 4147.43589723, 4146.15384595,12.0
4127.43589716, 4232.17948711, 4175.51282038, 4171.66666653, 4124.10256383, 4197.56410243, 4142.43589723, 4137.94871774, 4134.48717921, 4130.38461511, 4143.71794851, 4167.82051262, 4146.28205108, 4145.64102544,12.0
4128.07692280, 4234.35897436, 4181.53846140, 4171.02564089, 4127.05128178, 4166.66666646, 4131.15384588, 4141.41025621, 4131.02564075, 4126.15384588, 4146.02564082, 4174.10256397, 4162.69230749, 4147.30769210,12.0
4124.23076896, 4232.82051275, 4185.76923063, 4174.99999986, 4123.46153819, 4155.51282031, 4138.97435877, 4154.74358954, 4146.66666646, 4128.33333306, 4156.02564082, 4177.17948704, 4167.56410236, 4143.84615364,12.0
4123.07692280, 4240.51282052, 4181.92307679, 4171.02564089, 4121.53846126, 4172.17948704, 4146.92307672, 4145.38461518, 4147.30769210, 4134.23076896, 4157.43589723, 4171.02564089, 4159.48717928, 4143.97435877,12.0
4122.69230742, 4244.35897436, 4188.33333320, 4167.69230749, 4124.35897408, 4179.48717935, 4146.92307672, 4141.28205108, 4137.05128185, 4136.66666646, 4152.69230749, 4179.10256397, 4159.10256390, 4147.17948697,12.0
4125.25640998, 4235.89743590, 4190.76923063, 4169.74358961, 4124.61538434, 4166.15384595, 4136.53846133, 4150.12820492, 4137.43589723, 4130.38461511, 4153.33333313, 4181.92307679, 4166.53846133, 4144.87179467,12.0
4124.10256383, 4246.15384616, 4187.56410243, 4180.38461525, 4123.33333306, 4170.25641012, 4150.76923056, 4161.28205108, 4146.79487159, 4125.51282024, 4155.76923056, 4177.30769217, 4167.69230749, 4145.76923056,12.0
4122.43589716, 4265.76923077, 4191.02564089, 4180.12820499, 4120.12820485, 4192.94871781, 4171.15384602, 4171.02564089, 4151.41025621, 4130.25640998, 4159.23076903, 4181.66666653, 4162.05128185, 4147.17948697,12.0
4126.28205101, 4256.28205129, 4187.56410243, 4162.82051262, 4122.05128178, 4187.56410243, 4153.46153826, 4170.76923063, 4150.12820492, 4133.33333306, 4168.07692287, 4178.20512807, 4168.71794858, 4144.61538441,12.0
4124.48717921, 4245.38461539, 4176.53846140, 4152.30769210, 4124.10256383, 4171.28205115, 4137.69230749, 4169.48717935, 4149.61538441, 4129.87179460, 4163.84615364, 4166.41025621, 4176.92307679, 4143.07692287,12.0
4125.64102537, 4257.69230770, 4176.15384602, 4155.89743569, 4120.89743562, 4167.05128185, 4136.41025621, 4168.46153833, 4145.76923056, 4129.48717921, 4150.64102544, 4162.43589723, 4159.74358954, 4146.53846133,12.0
4128.33333306, 4274.74358982, 4185.25641012, 4159.74358954, 4123.46153819, 4171.41025628, 4144.61538441, 4173.33333320, 4148.97435877, 4135.25640998, 4157.17948697, 4176.53846140, 4161.79487159, 4149.74358954,12.0
4123.33333306, 4286.15384623, 4185.12820499, 4154.99999980, 4125.12820485, 4183.20512807, 4159.61538441, 4173.71794858, 4157.82051262, 4133.84615357, 4160.38461518, 4185.89743576, 4188.58974345, 4143.33333313,12.0
4124.61538434, 4281.41025648, 4167.30769210, 4142.56410236, 4124.61538434, 4177.82051269, 4142.82051262, 4149.48717928, 4138.07692287, 4125.12820485, 4140.25641005, 4154.10256390, 4162.05128185, 4142.94871774,12.0
4127.69230742, 4281.66666674, 4153.20512800, 4126.79487152, 4126.66666639, 4164.23076903, 4126.02564075, 4144.61538441, 4115.38461511, 4126.79487152, 4142.43589723, 4127.94871767, 4119.35897408, 4149.61538441,12.0
4127.43589716, 4306.15384630, 4160.12820492, 4121.02564075, 4123.20512793, 4163.84615364, 4146.15384595, 4164.10256390, 4123.46153819, 4133.07692280, 4155.64102544, 4146.28205108, 4154.99999980, 4144.23076903,12.0
4126.15384588, 4328.84615399, 4167.30769210, 4136.02564082, 4124.48717921, 4174.35897422, 4155.38461518, 4162.43589723, 4133.20512793, 4130.25640998, 4141.53846133, 4158.33333313, 4188.84615371, 4142.30769210,12.0
4122.56410229, 4322.56410271, 4158.46153826, 4152.30769210, 4126.92307665, 4174.99999986, 4135.12820485, 4141.28205108, 4124.10256383, 4126.41025614, 4127.17948691, 4140.25641005, 4143.58974339, 4145.51282031,12.0
4125.51282024, 4309.87179501, 4158.33333313, 4143.71794851, 4124.61538434, 4171.28205115, 4134.48717921, 4137.56410236, 4117.82051255, 4129.74358947, 4136.92307672, 4137.56410236, 4117.94871767, 4144.61538441,12.0
4125.25640998, 4311.15384630, 4165.89743569, 4125.89743562, 4123.84615357, 4171.15384602, 4144.10256390, 4149.61538441, 4114.87179460, 4130.38461511, 4142.30769210, 4146.15384595, 4145.76923056, 4145.25641005,12.0
4123.84615357, 4327.05128219, 4162.30769210, 4142.05128185, 4124.35897408, 4159.23076903, 4126.15384588, 4140.25641005, 4109.61538434, 4128.71794844, 4133.33333306, 4141.02564082, 4156.15384595, 4142.94871774,12.0
4128.58974332, 4331.02564117, 4153.71794851, 4148.71794851, 4126.79487152, 4144.61538441, 4102.17948684, 4122.82051255, 4105.51282024, 4134.61538434, 4124.61538434, 4129.10256383, 4153.33333313, 4143.20512800,12.0
4126.92307665, 4313.71794886, 4145.51282031, 4118.33333306, 4126.28205101, 4137.17948697, 4103.58974332, 4123.33333306, 4097.30769196, 4136.92307672, 4113.33333306, 4116.53846126, 4177.69230756, 4144.61538441,12.0
4124.61538434, 4334.48717970, 4156.41025621, 4128.46153819, 4124.23076896, 4150.51282031, 4129.61538434, 4136.53846133, 4106.41025614, 4130.25640998, 4114.10256383, 4133.07692280, 4226.02564096, 4142.82051262,12.0
4124.61538434, 4361.92307714, 4165.12820492, 4163.84615364, 4124.87179460, 4164.61538441, 4133.84615357, 4141.41025621, 4113.46153819, 4127.30769203, 4123.07692280, 4144.99999980, 4245.25641026, 4144.99999980,12.0
4124.61538434, 4329.48717963, 4143.33333313, 4145.76923056, 4122.82051255, 4147.56410236, 4106.79487152, 4120.64102537, 4089.48717914, 4129.23076896, 4116.02564075, 4112.30769203, 4224.74358968, 4143.84615364,12.0
4124.99999973, 4316.92307707, 4132.82051255, 4123.97435870, 4123.58974332, 4136.15384595, 4099.23076889, 4106.53846126, 4082.05128171, 4130.12820485, 4108.71794844, 4096.02564068, 4223.97435891, 4144.10256390,12.0
4123.71794844, 4348.84615406, 4146.66666646, 4145.64102544, 4124.99999973, 4154.99999980, 4114.35897408, 4120.89743562, 4102.43589709, 4130.25640998, 4113.46153819, 4115.64102537, 4253.58974359, 4147.94871774,12.0
4124.99999973, 4341.66666688, 4143.20512800, 4148.97435877, 4124.10256383, 4152.56410236, 4120.51282024, 4121.15384588, 4096.53846119, 4127.69230742, 4113.07692280, 4112.43589716, 4256.41025641, 4146.79487159,12.0
4120.89743562, 4324.74358989, 4126.41025614, 4127.30769203, 4126.92307665, 4128.71794844, 4122.94871767, 4110.12820485, 4077.69230735, 4128.33333306, 4103.20512793, 4090.89743555, 4235.12820513, 4144.23076903,12.0
4119.48717921, 4340.64102585, 4125.89743562, 4126.28205101, 4126.28205101, 4139.74358954, 4118.20512793, 4117.69230742, 4090.64102530, 4132.05128178, 4099.87179453, 4094.35897402, 4238.20512821, 4142.17948697,12.0
4126.15384588, 4348.58974380, 4134.48717921, 4137.05128185, 4124.10256383, 4154.10256390, 4103.58974332, 4118.20512793, 4106.66666639, 4130.12820485, 4107.82051255, 4103.71794844, 4252.17948718, 4144.74358954,12.0
4122.17948691, 4353.20512842, 4136.66666646, 4142.82051262, 4125.25640998, 4142.30769210, 4104.87179460, 4112.17948691, 4104.48717921, 4128.84615357, 4116.15384588, 4103.97435870, 4254.23076923, 4146.79487159,12.0
4120.51282024, 4360.00000021, 4132.17948691, 4139.23076903, 4124.61538434, 4137.05128185, 4116.66666639, 4114.35897408, 4097.94871761, 4130.51282024, 4119.74358947, 4105.51282024, 4250.51282052, 4145.12820492,12.0
4125.25640998, 4346.53846175, 4127.94871767, 4128.71794844, 4125.51282024, 4137.43589723, 4117.94871767, 4117.43589716, 4092.69230735, 4130.12820485, 4114.23076896, 4103.07692280, 4243.33333334, 4147.82051262,12.0
4122.94871767, 4341.79487201, 4127.43589716, 4133.33333306, 4124.48717921, 4137.56410236, 4116.15384588, 4124.23076896, 4095.64102530, 4129.35897408, 4108.33333306, 4100.12820478, 4234.23076923, 4147.56410236,12.0
4121.41025614, 4342.94871816, 4124.35897408, 4133.97435870, 4124.99999973, 4147.56410236, 4115.38461511, 4127.94871767, 4100.38461504, 4128.07692280, 4107.69230742, 4092.69230735, 4227.82051275, 4143.97435877,12.0
4124.35897408, 4331.41025655, 4115.12820485, 4110.51282024, 4126.53846126, 4150.12820492, 4106.53846126, 4123.46153819, 4094.23076889, 4127.94871767, 4109.10256383, 4079.10256376, 4224.61538455, 4146.02564082,12.0
4126.79487152, 4336.79487201, 4120.51282024, 4106.79487152, 4124.10256383, 4135.51282031, 4108.20512793, 4122.05128178, 4094.87179453, 4128.97435870, 4117.30769203, 4091.66666632, 4228.97435891, 4147.17948697,12.0
4124.10256383, 4345.12820534, 4133.07692280, 4125.51282024, 4126.41025614, 4127.17948691, 4120.89743562, 4123.07692280, 4096.53846119, 4129.74358947, 4121.02564075, 4109.74358947, 4237.30769231, 4145.38461518,12.0
4122.17948691, 4330.25641040, 4125.12820485, 4123.71794844, 4127.43589716, 4130.64102537, 4118.84615357, 4115.12820485, 4084.99999966, 4129.35897408, 4109.35897408, 4096.79487145, 4232.56410250, 4144.74358954,12.0
4124.61538434, 4319.35897450, 4117.94871767, 4110.12820485, 4122.30769203, 4135.12820485, 4104.48717921, 4112.94871767, 4086.02564068, 4128.46153819, 4106.02564075, 4087.56410222, 4224.48717942, 4147.05128185,12.0
4121.02564075, 4330.64102578, 4132.30769203, 4119.74358947, 4122.69230742, 4144.35897415, 4116.92307665, 4135.89743569, 4112.05128178, 4127.69230742, 4125.12820485, 4111.53846126, 4234.35897436, 4147.82051262,12.0
4119.61538434, 4350.51282073, 4143.84615364, 4151.79487159, 4125.12820485, 4153.46153826, 4152.30769210, 4155.64102544, 4138.84615364, 4128.58974332, 4136.92307672, 4134.10256383, 4247.69230770, 4142.43589723,12.0
4121.28205101, 4347.05128226, 4136.02564082, 4156.28205108, 4126.79487152, 4154.48717928, 4151.41025621, 4149.35897415, 4137.94871774, 4131.28205101, 4129.10256383, 4123.33333306, 4246.66666667, 4144.74358954,12.0
4119.35897408, 4327.43589758, 4134.87179460, 4132.94871767, 4125.51282024, 4164.87179467, 4139.10256390, 4144.61538441, 4129.35897408, 4130.38461511, 4130.64102537, 4120.12820485, 4246.53846154, 4149.35897415,12.0
4120.64102537, 4332.30769252, 4147.94871774, 4127.82051255, 4123.46153819, 4169.61538448, 4151.53846133, 4154.61538441, 4131.53846126, 4131.66666639, 4143.58974339, 4141.15384595, 4258.07692308, 4147.17948697,12.0
4120.76923050, 4338.97435919, 4147.56410236, 4137.82051262, 4124.48717921, 4152.56410236, 4148.33333313, 4156.92307672, 4129.35897408, 4135.76923056, 4143.07692287, 4143.33333313, 4255.25641026, 4146.28205108,12.0
4122.30769203, 4322.56410271, 4133.07692280, 4139.48717928, 4124.61538434, 4144.74358954, 4123.20512793, 4137.30769210, 4117.94871767, 4130.25640998, 4130.64102537, 4120.51282024, 4232.30769224, 4144.99999980,12.0
4125.25640998, 4315.12820527, 4134.61538434, 4144.23076903, 4126.79487152, 4162.05128185, 4140.25641005, 4133.84615357, 4123.20512793, 4125.38461511, 4131.41025614, 4122.05128178, 4227.17948711, 4145.89743569,12.0
4121.53846126, 4322.05128219, 4148.46153826, 4148.20512800, 4124.48717921, 4169.87179474, 4179.10256397, 4167.05128185, 4139.61538441, 4129.10256383, 4141.66666646, 4146.79487159, 4251.53846154, 4145.76923056,12.0
4122.17948691, 4318.33333348, 4145.64102544, 4139.10256390, 4122.05128178, 4155.38461518, 4156.28205108, 4174.87179474, 4135.64102544, 4129.61538434, 4140.51282031, 4145.38461518, 4252.56410257, 4144.99999980,12.0
4124.10256383, 4307.43589758, 4136.41025621, 4141.53846133, 4127.69230742, 4155.25641005, 4125.12820485, 4147.56410236, 4124.99999973, 4127.30769203, 4133.97435870, 4130.64102537, 4226.02564096, 4147.43589723,12.0
4124.10256383, 4299.87179501, 4137.43589723, 4149.74358954, 4127.05128178, 4165.12820492, 4138.33333313, 4139.10256390, 4126.41025614, 4130.64102537, 4135.76923056, 4133.33333306, 4226.15384609, 4143.46153826,12.0
4128.33333306, 4281.53846161, 4135.51282031, 4139.23076903, 4125.89743562, 4159.48717928, 4139.48717928, 4145.89743569, 4130.89743562, 4130.51282024, 4138.33333313, 4136.28205108, 4235.64102564, 4143.58974339,12.0
4126.53846126, 4259.87179488, 4132.17948691, 4133.33333306, 4127.82051255, 4158.20512800, 4130.76923050, 4148.97435877, 4128.97435870, 4126.28205101, 4138.58974339, 4134.61538434, 4227.94871788, 4147.69230749,12.0
4122.43589716, 4242.82051282, 4140.51282031, 4144.35897415, 4123.97435870, 4166.15384595, 4143.33333313, 4156.02564082, 4123.71794844, 4128.07692280, 4140.12820492, 4144.48717928, 4224.23076917, 4145.25641005,12.0
4120.51282024, 4221.66666660, 4139.99999980, 4145.76923056, 4121.79487152, 4164.74358954, 4146.02564082, 4159.99999980, 4129.35897408, 4130.51282024, 4136.79487159, 4145.25641005, 4226.28205122, 4146.66666646,12.0
4121.28205101, 4202.94871788, 4130.89743562, 4141.79487159, 4123.97435870, 4163.71794851, 4142.43589723, 4149.35897415, 4138.97435877, 4129.10256383, 4141.92307672, 4137.17948697, 4222.43589737, 4147.69230749,12.0
4126.41025614, 4189.87179474, 4141.92307672, 4148.71794851, 4126.53846126, 4172.69230756, 4158.71794851, 4147.69230749, 4136.92307672, 4128.46153819, 4153.58974339, 4149.48717928, 4225.38461532, 4145.76923056,12.0
