AF3,F7,F3,FC5,T7,P7,O1,O2,P8,T8,FC6,F4,F8,AF4,Label
4104.23076896, 4195.76923063, 4162.69230749, 3816.66666577, 4114.99999973, 4162.94871774, 4173.71794858, 4173.84615371, 4174.87179474, 4134.74358947, 5000.12820673, 4161.53846133, 4117.82051255, 4143.46153826,12.0
4107.05128178, 4199.87179474, 4162.05128185, 3819.74358884, 4114.74358947, 4153.58974339, 4161.92307672, 4162.43589723, 4170.12820499, 4133.58974332, 4973.58974512, 4152.94871774, 4112.05128178, 4143.46153826,12.0
4109.35897408, 4186.53846140, 4156.28205108, 3818.20512731, 4118.58974332, 4123.58974332, 4115.89743562, 4130.38461511, 4141.15384595, 4134.10256383, 4951.15384762, 4136.79487159, 4102.56410229, 4140.38461518,12.0
4108.33333306, 4184.74358961, 4151.41025621, 3828.58974269, 4116.15384588, 4118.46153819, 4101.66666632, 4132.43589716, 4128.46153819, 4135.64102544, 4931.79487326, 4144.87179467, 4104.23076896, 4140.38461518,12.0
4114.35897408, 4196.15384602, 4156.92307672, 3847.43589661, 4113.58974332, 4140.51282031, 4129.48717921, 4150.76923056, 4140.51282031, 4133.71794844, 4925.38461685, 4161.66666646, 4107.94871767, 4142.43589723,12.0
4108.33333306, 4189.35897422, 4159.74358954, 3848.33333250, 4113.58974332, 4142.43589723, 4146.92307672, 4158.07692287, 4170.12820499, 4132.82051255, 4925.51282198, 4165.38461518, 4104.74358947, 4141.15384595,12.0
4108.84615357, 4179.35897422, 4153.84615364, 3833.97435807, 4113.97435870, 4128.58974332, 4136.02564082, 4152.82051262, 4169.10256397, 4135.38461518, 4910.89743729, 4154.48717928, 4103.33333306, 4140.89743569,12.0
4112.17948691, 4186.53846140, 4146.02564082, 3838.07692218, 4114.23076896, 4132.05128178, 4118.58974332, 4130.76923050, 4122.94871767, 4134.74358947, 4884.35897568, 4137.94871774, 4100.38461504, 4138.71794851,12.0
4108.46153819, 4189.74358961, 4145.38461518, 3851.28205045, 4115.12820485, 4143.46153826, 4127.94871767, 4114.87179460, 4111.28205101, 4131.79487152, 4868.33333466, 4137.05128185, 4097.05128171, 4139.10256390,12.0
4112.17948691, 4183.07692294, 4147.82051262, 3839.10256320, 4119.61538434, 4139.35897415, 4148.20512800, 4128.71794844, 4138.46153826, 4130.12820485, 4856.28205254, 4146.92307672, 4101.92307658, 4142.69230749,12.0
4106.92307665, 4180.89743576, 4141.02564082, 3825.38461449, 4118.46153819, 4133.46153819, 4140.12820492, 4142.94871774, 4129.23076896, 4130.38461511, 4833.84615510, 4141.28205108, 4101.92307658, 4138.71794851,12.0
4107.17948691, 4183.46153833, 4140.64102544, 3834.35897346, 4116.66666639, 4146.02564082, 4139.74358954, 4146.02564082, 4119.87179460, 4130.76923050, 4817.56410375, 4143.84615364, 4099.99999966, 4137.94871774,12.0
4112.30769203, 4189.35897422, 4149.35897415, 3840.64102481, 4120.89743562, 4151.15384595, 4158.33333313, 4156.02564082, 4149.35897415, 4131.02564075, 4803.97436016, 4162.94871774, 4105.25640998, 4140.89743569,12.0
4105.38461511, 4198.58974345, 4148.33333313, 3842.17948635, 4117.94871767, 4137.82051262, 4144.48717928, 4153.20512800, 4149.23076903, 4130.76923050, 4785.00000112, 4160.89743569, 4104.48717921, 4141.28205108,12.0
4109.35897408, 4192.82051269, 4143.71794851, 3855.89743507, 4116.41025614, 4133.58974332, 4123.84615357, 4137.56410236, 4127.30769203, 4130.12820485, 4771.28205240, 4145.38461518, 4098.84615350, 4141.92307672,12.0
4114.23076896, 4168.33333320, 4141.92307672, 3860.38461455, 4119.48717921, 4137.30769210, 4142.17948697, 4146.53846133, 4138.58974339, 4131.02564075, 4776.28205240, 4143.71794851, 4096.79487145, 4141.15384595,12.0
4113.33333306, 4160.51282031, 4141.15384595, 3846.66666584, 4112.94871767, 4138.71794851, 4158.33333313, 4162.94871774, 4145.89743569, 4132.17948691, 4829.48718074, 4146.53846133, 4095.12820478, 4142.56410236,12.0
4114.61538434, 4167.82051262, 4141.41025621, 3847.69230686, 4110.51282024, 4141.92307672, 4138.58974339, 4151.66666646, 4124.35897408, 4131.15384588, 4861.53846286, 4139.87179467, 4089.99999966, 4141.79487159,12.0
4114.74358947, 4170.51282038, 4142.69230749, 3861.15384532, 4117.69230742, 4136.15384595, 4121.41025614, 4138.71794851, 4116.66666639, 4129.99999973, 4767.94871906, 4136.53846133, 4088.58974325, 4141.15384595,12.0
4113.71794844, 4162.05128185, 4140.89743569, 3849.35897353, 4115.51282024, 4122.43589716, 4131.92307665, 4141.41025621, 4125.76923050, 4130.12820485, 4771.53846265, 4133.20512793, 4091.02564068, 4143.84615364,12.0
4111.41025614, 4138.20512800, 4128.58974332, 3824.87179397, 4111.02564075, 4121.28205101, 4132.56410229, 4130.38461511, 4109.61538434, 4130.89743562, 4622.30769308, 4114.35897408, 4085.12820478, 4140.76923056,12.0
4114.35897408, 4132.69230742, 4127.94871767, 3848.46153763, 4113.07692280, 4126.66666639, 4117.43589716, 4116.41025614, 4100.64102530, 4129.87179460, 3336.79486985, 4116.02564075, 4080.76923043, 4139.74358954,12.0
4107.30769203, 4149.74358954, 4142.30769210, 3904.74358898, 4114.48717921, 4115.25640998, 4109.99999973, 4127.43589716, 4121.66666639, 4129.23076896, 1418.07691710, 4143.84615364, 4090.12820478, 4141.92307672,12.0
4097.17948684, 4158.97435877, 4142.43589723, 3921.79487110, 4116.15384588, 4103.84615357, 4103.97435870, 4133.07692280, 4116.66666639, 4130.64102537, 583.33332555, 4143.20512800, 4094.99999966, 4142.30769210,12.0
4100.51282017, 4156.02564082, 4136.66666646, 3932.69230700, 4115.38461511, 4118.84615357, 4113.97435870, 4121.53846126, 4099.10256376, 4131.02564075, 739.99999257, 4127.17948691, 4088.33333299, 4141.66666646,12.0
4096.28205094, 4159.48717928, 4144.48717928, 3979.74358919, 4112.43589716, 4140.76923056, 4152.69230749, 4137.43589723, 4122.94871767, 4130.76923050, 742.56409513, 4145.64102544, 4086.79487145, 4141.28205108,12.0
4093.46153812, 4164.87179467, 4150.89743569, 4011.02564054, 4114.48717921, 4142.56410236, 4164.87179467, 4162.17948697, 4145.64102544, 4131.02564075, 652.94871031, 4164.10256390, 4093.84615350, 4143.97435877,12.0
4095.38461504, 4160.51282031, 4150.76923056, 4020.38461490, 4117.30769203, 4137.94871774, 4137.82051262, 4161.66666646, 4142.17948697, 4130.89743562, 751.15383872, 4163.71794851, 4101.02564068, 4143.33333313,12.0
4092.30769196, 4151.28205108, 4151.92307672, 4049.99999959, 4114.10256383, 4143.20512800, 4134.74358947, 4165.38461518, 4152.69230749, 4130.89743562, 798.84614655, 4171.28205115, 4103.20512793, 4139.74358954,12.0
4092.82051248, 4154.35897415, 4149.23076903, 4081.66666632, 4112.94871767, 4144.23076903, 4144.10256390, 4165.76923056, 4159.74358954, 4131.02564075, 789.48717219, 4168.97435884, 4095.51282017, 4141.28205108,12.0
4088.46153812, 4157.82051262, 4139.10256390, 4092.05128171, 4117.17948691, 4126.79487152, 4127.05128178, 4143.84615364, 4135.25640998, 4130.89743562, 774.74358238, 4146.53846133, 4085.38461504, 4140.25641005,12.0
4089.10256376, 4140.51282031, 4140.38461518, 4127.69230742, 4115.12820485, 4120.51282024, 4123.20512793, 4147.17948697, 4135.12820485, 4131.02564075, 785.12819777, 4145.38461518, 4091.92307658, 4138.97435877,12.0
4092.94871761, 4131.79487152, 4151.28205108, 4177.94871781, 4112.82051255, 4134.10256383, 4137.82051262, 4163.71794851, 4156.53846133, 4130.89743562, 833.58973637, 4157.43589723, 4098.20512786, 4140.38461518,12.0
4084.87179453, 4134.74358947, 4146.41025621, 4182.56410243, 4117.56410229, 4131.79487152, 4138.97435877, 4143.97435877, 4137.94871774, 4130.89743562, 841.02563380, 4142.69230749, 4087.30769196, 4141.41025621,12.0
4088.07692273, 4135.38461518, 4142.05128185, 4182.43589730, 4118.71794844, 4137.94871774, 4149.99999980, 4131.92307665, 4118.58974332, 4131.02564075, 1134.61537802, 4139.23076903, 4088.71794837, 4140.76923056,12.0
4091.15384581, 4154.10256390, 4152.56410236, 4203.33333327, 4112.94871767, 4165.12820492, 4176.28205115, 4162.17948697, 4148.20512800, 4130.89743562, 1581.92307130, 4162.69230749, 4101.15384581, 4136.92307672,12.0
4086.15384581, 4160.38461518, 4156.66666646, 4205.51282045, 4112.43589716, 4160.89743569, 4173.07692294, 4175.12820499, 4163.97435877, 4130.89743562, 1619.61537906, 4164.99999980, 4097.82051248, 4137.94871774,12.0
4089.35897402, 4122.69230742, 4145.25641005, 4187.94871781, 4120.38461511, 4129.99999973, 4142.69230749, 4151.28205108, 4137.94871774, 4131.02564075, 1572.43589174, 4145.25641005, 4088.33333299, 4140.38461518,12.0
4084.48717914, 4118.07692280, 4139.99999980, 4198.84615371, 4119.99999973, 4134.87179460, 4137.56410236, 4147.82051262, 4141.15384595, 4130.89743562, 1571.41025072, 4145.38461518, 4092.05128171, 4138.46153826,12.0
4084.10256376, 4152.05128185, 4146.41025621, 4214.99999993, 4114.74358947, 4149.61538441, 4147.17948697, 4155.89743569, 4156.79487159, 4131.02564075, 1153.33332681, 4151.02564082, 4096.66666632, 4141.66666646,12.0
4085.76923043, 4133.07692280, 4143.71794851, 4194.99999986, 4115.51282024, 4128.33333306, 4136.41025621, 4144.99999980, 4134.35897408, 4130.89743562, 701.41024891, 4141.79487159, 4092.17948684, 4144.99999980,12.0
4078.07692273, 4110.89743562, 4143.71794851, 4190.64102551, 4117.82051255, 4122.43589716, 4133.46153819, 4147.69230749, 4122.56410229, 4130.89743562, 761.28204392, 4154.10256390, 4096.53846119, 4144.35897415,12.0
4079.87179453, 4124.61538434, 4149.61538441, 4204.99999993, 4121.15384588, 4139.61538441, 4136.79487159, 4159.10256390, 4138.33333313, 4131.02564075, 846.41024919, 4162.94871774, 4106.02564075, 4141.28205108,12.0
4075.76923043, 4118.58974332, 4145.64102544, 4198.46153833, 4119.48717921, 4131.28205101, 4123.46153819, 4147.82051262, 4141.41025621, 4130.89743562, 747.56409513, 4148.33333313, 4103.71794844, 4142.43589723,12.0
4072.82051248, 4106.92307665, 4146.28205108, 4195.12820499, 4116.66666639, 4115.89743562, 4124.23076896, 4135.64102544, 4130.25640998, 4131.02564075, 783.58973623, 4157.94871774, 4103.84615357, 4146.28205108,12.0
4073.46153812, 4116.66666639, 4149.99999980, 4196.53846140, 4118.46153819, 4129.74358947, 4136.92307672, 4139.35897415, 4126.28205101, 4130.89743562, 803.58973630, 4171.41025628, 4108.33333306, 4142.69230749,12.0
4067.17948677, 4124.48717921, 4142.56410236, 4174.23076910, 4116.92307665, 4145.12820492, 4134.23076896, 4136.28205108, 4124.48717921, 4130.25640998, 756.53845418, 4151.79487159, 4104.10256383, 4141.28205108,12.0
4068.46153805, 4114.35897408, 4136.66666646, 4168.97435884, 4117.56410229, 4136.79487159, 4135.38461518, 4129.48717921, 4123.97435870, 4131.53846126, 752.05127462, 4133.58974332, 4100.64102530, 4142.94871774,12.0
4064.35897395, 4094.35897402, 4139.74358954, 4209.10256404, 4119.35897408, 4134.48717921, 4146.41025621, 4139.10256390, 4129.10256383, 4130.76923050, 792.94871066, 4142.43589723, 4103.20512793, 4142.17948697,12.0
4064.48717907, 4090.38461504, 4144.35897415, 4240.00000000, 4118.97435870, 4145.89743569, 4147.17948697, 4149.99999980, 4134.35897408, 4128.84615357, 742.43589000, 4149.87179467, 4105.76923050, 4144.87179467,12.0
4069.48717907, 4103.58974332, 4144.87179467, 4250.51282052, 4120.76923050, 4146.66666646, 4150.25641005, 4154.23076903, 4144.87179467, 4131.92307665, 780.64101828, 4147.43589723, 4106.15384588, 4143.33333313,12.0
4065.89743548, 4101.79487145, 4143.84615364, 4260.76923077, 4121.15384588, 4138.84615364, 4160.89743569, 4164.87179467, 4157.69230749, 4134.61538434, 1386.15384011, 4154.99999980, 4106.66666639, 4139.87179467,12.0
4069.74358940, 4094.61538427, 4142.94871774, 4270.89743597, 4120.89743562, 4142.17948697, 4154.10256390, 4164.10256390, 4152.69230749, 4136.41025621, 2154.35896992, 4152.69230749, 4107.43589716, 4141.79487159,12.0
4067.69230728, 4096.41025607, 4137.56410236, 4287.94871802, 4121.41025614, 4142.43589723, 4142.17948697, 4156.15384595, 4144.10256390, 4134.48717921, 2320.12820103, 4131.92307665, 4102.43589709, 4139.87179467,12.0
4065.76923036, 4092.05128171, 4131.92307665, 4288.84615392, 4121.28205101, 4128.46153819, 4140.51282031, 4161.02564082, 4151.28205108, 4126.92307665, 2312.05127796, 4119.23076896, 4098.46153812, 4138.20512800,12.0
4068.84615343, 4086.66666632, 4132.30769203, 4264.87179488, 4121.28205101, 4129.10256383, 4141.92307672, 4163.07692287, 4148.33333313, 4127.69230742, 2663.58974026, 4125.64102537, 4099.87179453, 4138.58974339,12.0
4064.74358933, 4077.94871761, 4130.64102537, 4260.76923077, 4122.05128178, 4136.41025621, 4138.46153826, 4159.87179467, 4136.53846133, 4126.92307665, 3078.58974109, 4124.48717921, 4099.35897402, 4139.74358954,12.0
4069.87179453, 4070.38461504, 4126.41025614, 4280.51282059, 4119.61538434, 4123.84615357, 4129.87179460, 4157.17948697, 4135.38461518, 4123.58974332, 3478.71794705, 4108.46153819, 4093.58974325, 4140.89743569,12.0
4076.15384581, 4087.17948684, 4133.07692280, 4284.48717956, 4117.82051255, 4125.89743562, 4142.69230749, 4157.94871774, 4137.05128185, 4130.25640998, 4010.12820465, 4116.15384588, 4093.07692273, 4139.10256390,12.0
4077.56410222, 4093.84615350, 4142.56410236, 4280.76923084, 4120.89743562, 4144.61538441, 4157.30769210, 4161.79487159, 4130.64102537, 4129.99999973, 4472.43589793, 4136.41025621, 4100.89743555, 4141.53846133,12.0
4078.33333299, 4081.79487145, 4142.94871774, 4291.28205136, 4120.76923050, 4134.48717921, 4143.07692287, 4159.10256390, 4124.99999973, 4123.58974332, 4777.17948830, 4137.30769210, 4103.84615357, 4141.92307672,12.0
4073.97435863, 4083.97435863, 4137.17948697, 4291.15384623, 4117.69230742, 4119.87179460, 4133.20512793, 4153.07692287, 4131.28205101, 4129.74358947, 4982.17948871, 4126.53846126, 4102.82051255, 4139.23076903,12.0
4081.92307658, 4090.76923043, 4137.56410236, 4286.41025648, 4119.23076896, 4133.58974332, 4140.38461518, 4150.25641005, 4139.61538441, 4135.51282031, 5120.89743778, 4122.43589716, 4100.25640991, 4140.64102544,12.0
4085.64102530, 4084.48717914, 4138.20512800, 4293.84615392, 4121.66666639, 4137.56410236, 4130.25640998, 4143.07692287, 4130.76923050, 4131.28205101, 5320.12820743, 4118.20512793, 4093.33333299, 4141.41025621,12.0
4075.89743555, 4085.64102530, 4133.20512793, 4285.38461546, 4119.87179460, 4121.92307665, 4114.48717921, 4129.61538434, 4112.17948691, 4133.33333306, 5551.66666945, 4112.56410229, 4092.05128171, 4143.71794851,12.0
4082.17948684, 4104.87179460, 4140.51282031, 4281.15384623, 4119.87179460, 4125.12820485, 4130.89743562, 4134.87179460, 4117.17948691, 4134.74358947, 5747.43590064, 4129.23076896, 4095.25640991, 4143.46153826,12.0
4081.92307658, 4102.69230742, 4143.71794851, 4299.35897443, 4121.02564075, 4122.05128178, 4135.12820485, 4144.48717928, 4125.25640998, 4127.05128178, 5918.97436252, 4141.28205108, 4096.02564068, 4143.07692287,12.0
4078.84615350, 4048.84615343, 4115.64102537, 4258.33333334, 4120.51282024, 4067.82051241, 4064.74358933, 4101.66666632, 4071.53846119, 4129.23076896, 5990.76923446, 4088.84615350, 4090.12820478, 4145.25641005,12.0
4087.43589709, 4029.74358926, 4103.97435870, 4219.23076917, 4121.53846126, 4046.66666625, 4026.02564054, 4076.02564068, 4039.23076882, 4135.51282031, 6041.53846536, 4053.84615343, 4083.33333299, 4142.56410236,12.0
4080.89743555, 4117.69230742, 4152.30769210, 4305.76923091, 4121.41025614, 4126.66666639, 4130.12820485, 4153.46153826, 4136.53846133, 4129.74358947, 6165.12820916, 4144.87179467, 4099.23076889, 4142.69230749,12.0
4082.17948684, 4186.28205115, 4195.76923063, 4386.02564131, 4121.66666639, 4201.53846147, 4234.10256411, 4217.43589737, 4229.48717942, 4124.48717921, 6268.07692732, 4231.02564096, 4119.23076896, 4143.46153826,12.0
4086.66666632, 4138.07692287, 4167.43589723, 4349.87179508, 4121.15384588, 4176.53846140, 4188.58974345, 4177.05128192, 4185.89743576, 4128.97435870, 6271.15385047, 4181.28205115, 4109.99999973, 4143.33333313,12.0
4084.99999966, 4101.53846119, 4139.23076903, 4319.74358989, 4119.99999973, 4134.99999973, 4126.28205101, 4144.74358954, 4136.02564082, 4133.33333306, 6278.97436329, 4131.79487152, 4097.17948684, 4144.10256390,12.0
4093.33333299, 4122.69230742, 4154.99999980, 4342.94871816, 4121.02564075, 4147.05128185, 4148.07692287, 4163.46153826, 4159.23076903, 4131.41025614, 6347.30769676, 4156.15384595, 4098.20512786, 4138.46153826,12.0
4084.61538427, 4113.58974332, 4149.10256390, 4341.53846175, 4119.99999973, 4151.28205108, 4150.76923056, 4156.66666646, 4157.56410236, 4133.58974332, 6379.61538914, 4145.76923056, 4098.20512786, 4139.23076903,12.0
4085.64102530, 4103.84615357, 4129.35897408, 4314.48717963, 4120.51282024, 4128.71794844, 4126.41025614, 4135.25640998, 4125.64102537, 4136.02564082, 6379.74359426, 4106.92307665, 4095.12820478, 4140.38461518,12.0
4097.56410222, 4118.71794844, 4134.74358947, 4310.00000014, 4123.20512793, 4126.02564075, 4134.61538434, 4152.56410236, 4138.84615364, 4134.23076896, 6428.33333792, 4112.69230742, 4093.33333299, 4137.56410236,12.0
4090.38461504, 4121.92307665, 4147.30769210, 4338.84615406, 4121.15384588, 4146.92307672, 4145.64102544, 4177.82051269, 4175.89743576, 4135.76923056, 6465.38462004, 4143.07692287, 4096.79487145, 4140.51282031,12.0
4097.56410222, 4133.97435870, 4156.79487159, 4370.51282079, 4121.15384588, 4161.15384595, 4148.97435877, 4177.82051269, 4189.10256397, 4136.28205108, 6474.48718422, 4163.58974339, 4104.74358947, 4138.07692287,12.0
4098.58974325, 4138.33333313, 4150.89743569, 4356.15384637, 4121.66666639, 4146.79487159, 4144.23076903, 4159.10256390, 4165.38461518, 4134.99999973, 6548.71795359, 4156.02564082, 4106.53846126, 4138.46153826,12.0
4097.30769196, 4115.38461511, 4140.51282031, 4328.07692322, 4121.15384588, 4126.53846126, 4120.64102537, 4130.64102537, 4120.64102537, 4134.99999973, 6648.46154354, 4132.56410229, 4096.66666632, 4140.25641005,12.0
4103.20512793, 4110.89743562, 4144.61538441, 4327.69230784, 4123.20512793, 4120.12820485, 4104.87179460, 4114.87179460, 4101.66666632, 4134.23076896, 6718.20513342, 4133.20512793, 4093.71794837, 4136.92307672,12.0
4096.02564068, 4132.05128178, 4153.33333313, 4337.17948739, 4120.64102537, 4124.87179460, 4117.30769203, 4129.23076896, 4127.05128178, 4134.87179460, 6778.20513356, 4159.87179467, 4106.79487152, 4142.05128185,12.0
4107.30769203, 4134.61538434, 4155.76923056, 4333.20512842, 4119.35897408, 4132.82051255, 4135.89743569, 4147.94871774, 4147.30769210, 4134.61538434, 6825.38462081, 4163.97435877, 4106.15384588, 4142.05128185,12.0
4109.48717921, 4126.92307665, 4146.41025621, 4321.92307707, 4121.92307665, 4135.76923056, 4142.17948697, 4150.25641005, 4134.35897408, 4134.23076896, 6958.07692885, 4144.35897415, 4096.28205094, 4140.64102544,12.0
4103.71794844, 4130.76923050, 4138.58974339, 4312.43589758, 4121.79487152, 4136.92307672, 4130.76923050, 4145.64102544, 4131.15384588, 4135.38461518, 7201.66667292, 4136.92307672, 4101.53846119, 4143.58974339,12.0
4112.05128178, 4128.71794844, 4141.28205108, 4293.07692315, 4122.82051255, 4142.17948697, 4124.99999973, 4151.92307672, 4148.20512800, 4133.97435870, 7341.28205782, 4137.56410236, 4102.30769196, 4142.17948697,12.0
4108.07692280, 4121.28205101, 4138.97435877, 4277.05128212, 4122.43589716, 4138.20512800, 4126.92307665, 4159.87179467, 4147.82051262, 4129.61538434, 7353.07692968, 4131.15384588, 4096.28205094, 4144.87179467,12.0
4111.92307665, 4117.30769203, 4136.66666646, 4287.82051289, 4123.20512793, 4121.79487152, 4111.66666639, 4143.33333313, 4131.02564075, 4128.07692280, 7413.97436565, 4127.82051255, 4098.33333299, 4143.20512800,12.0
4114.99999973, 4118.33333306, 4140.38461518, 4285.89743597, 4126.28205101, 4118.33333306, 4105.76923050, 4124.23076896, 4121.79487152, 4129.23076896, 7511.92308381, 4134.35897408, 4100.76923043, 4138.97435877,12.0
4113.33333306, 4123.20512793, 4142.94871774, 4267.94871802, 4125.51282024, 4124.23076896, 4124.48717921, 4126.66666639, 4126.15384588, 4128.84615357, 7551.41026343, 4135.64102544, 4099.74358940, 4142.17948697,12.0
4113.33333306, 4123.20512793, 4142.94871774, 4267.94871802, 4125.51282024, 4124.23076896, 4124.48717921, 4126.66666639, 4126.15384588, 4128.84615357, 7551.41026343, 4135.64102544, 4099.74358940, 4142.17948697,12.0
4114.48717921, 4124.23076896, 4144.48717928, 4268.58974366, 4121.79487152, 4123.20512793, 4129.99999973, 4130.38461511, 4128.20512793, 4128.46153819, 7549.35898138, 4135.64102544, 4100.76923043, 4143.46153826,12.0
4111.79487152, 4116.92307665, 4146.02564082, 4268.71794879, 4119.61538434, 4133.58974332, 4121.02564075, 4133.20512793, 4126.66666639, 4129.48717921, 7552.82051984, 4140.76923056, 4102.30769196, 4141.41025621,12.0
4119.35897408, 4120.12820485, 4146.53846133, 4255.64102564, 4120.12820485, 4146.92307672, 4121.53846126, 4138.46153826, 4120.64102537, 4129.61538434, 7557.69231471, 4138.58974339, 4102.56410229, 4138.97435877,12.0
4119.10256383, 4128.58974332, 4141.15384595, 4253.33333334, 4121.41025614, 4134.99999973, 4119.23076896, 4133.71794844, 4109.87179460, 4129.35897408, 7548.84616087, 4127.30769203, 4100.51282017, 4139.99999980,12.0
4115.38461511, 4125.38461511, 4140.25641005, 4260.12820513, 4122.30769203, 4123.97435870, 4113.97435870, 4126.41025614, 4114.23076896, 4129.48717921, 7544.48718644, 4127.94871767, 4097.69230735, 4140.64102544,12.0
4119.48717921, 4121.79487152, 4145.51282031, 4250.51282052, 4124.10256383, 4129.99999973, 4116.79487152, 4127.69230742, 4121.15384588, 4129.48717921, 7543.46154541, 4135.76923056, 4098.71794837, 4135.38461518,12.0
4123.33333306, 4124.61538434, 4141.92307672, 4234.23076923, 4124.87179460, 4131.53846126, 4119.35897408, 4129.74358947, 4112.94871767, 4129.35897408, 7539.74359670, 4124.99999973, 4099.61538427, 4135.64102544,12.0
4131.02564075, 4124.35897408, 4135.64102544, 4224.74358968, 4122.30769203, 4137.94871774, 4125.12820485, 4130.51282024, 4105.64102537, 4129.35897408, 7536.15385311, 4107.82051255, 4096.02564068, 4140.51282031,12.0
4127.69230742, 4124.48717921, 4133.97435870, 4219.48717942, 4120.12820485, 4145.25641005, 4128.20512793, 4124.99999973, 4107.30769203, 4129.35897408, 7533.71795567, 4108.97435870, 4092.69230735, 4137.94871774,12.0
4128.97435870, 4118.07692280, 4134.23076896, 4216.92307686, 4121.79487152, 4132.82051255, 4115.51282024, 4116.92307665, 4101.02564068, 4129.35897408, 7538.84616080, 4114.35897408, 4096.28205094, 4137.17948697,12.0
4136.28205108, 4108.33333306, 4135.25640998, 4212.17948711, 4122.05128178, 4121.15384588, 4110.89743562, 4126.79487152, 4096.15384581, 4129.35897408, 7529.61539157, 4113.33333306, 4100.51282017, 4139.74358954,12.0
4129.99999973, 4120.51282024, 4137.69230749, 4206.53846147, 4120.12820485, 4124.87179460, 4119.35897408, 4131.41025614, 4097.05128171, 4129.35897408, 7481.02564784, 4113.33333306, 4101.02564068, 4139.10256390,12.0
4133.46153819, 4135.12820485, 4140.25641005, 4200.64102551, 4121.79487152, 4131.02564075, 4114.35897408, 4111.02564075, 4086.66666632, 4129.35897408, 7438.20513495, 4113.46153819, 4099.87179453, 4141.02564082,12.0
4136.79487159, 4115.25640998, 4132.82051255, 4190.89743576, 4124.61538434, 4126.79487152, 4104.10256383, 4103.46153819, 4081.53846119, 4129.35897408, 7403.97436565, 4108.46153819, 4097.94871761, 4142.17948697,12.0
4136.66666646, 4101.53846119, 4127.05128178, 4183.20512807, 4123.58974332, 4117.56410229, 4108.97435870, 4123.97435870, 4093.07692273, 4129.35897408, 7281.79487819, 4107.17948691, 4097.05128171, 4141.41025621,12.0
4139.99999980, 4121.02564075, 4131.79487152, 4185.12820499, 4121.66666639, 4115.25640998, 4111.41025614, 4128.20512793, 4095.64102530, 4129.35897408, 7013.84615969, 4106.15384588, 4095.25640991, 4139.99999980,12.0
4134.10256383, 4123.84615357, 4133.97435870, 4183.20512807, 4120.25640998, 4113.71794844, 4101.79487145, 4109.99999973, 4080.25640991, 4129.35897408, 6782.30769766, 4102.05128171, 4095.25640991, 4140.38461518,12.0
4139.23076903, 4117.05128178, 4137.17948697, 4180.51282038, 4120.12820485, 4115.51282024, 4104.35897408, 4113.46153819, 4084.61538427, 4129.35897408, 6712.69231291, 4111.15384588, 4098.97435863, 4143.33333313,12.0
4139.23076903, 4117.05128178, 4137.17948697, 4180.51282038, 4120.12820485, 4115.51282024, 4104.35897408, 4113.46153819, 4084.61538427, 4129.35897408, 6712.69231291, 4111.15384588, 4098.97435863, 4143.33333313,12.0
4141.02564082, 4126.66666639, 4139.10256390, 4191.02564089, 4121.53846126, 4122.17948691, 4116.41025614, 4131.79487152, 4110.51282024, 4129.35897408, 6288.97436329, 4121.02564075, 4101.02564068, 4142.05128185,12.0
4134.48717921, 4122.30769203, 4132.56410229, 4188.07692294, 4122.94871767, 4121.28205101, 4121.02564075, 4132.05128178, 4107.69230742, 4129.35897408, 5568.84615663, 4116.15384588, 4094.48717914, 4139.35897415,12.0
4136.28205108, 4112.17948691, 4128.33333306, 4164.10256390, 4122.94871767, 4118.07692280, 4123.58974332, 4120.76923050, 4087.94871761, 4129.35897408, 4790.38461650, 4108.33333306, 4087.30769196, 4138.07692287,12.0
4127.69230742, 4114.87179460, 4130.25640998, 4162.05128185, 4122.05128178, 4118.97435870, 4122.30769203, 4121.41025614, 4087.94871761, 4129.35897408, 3276.53845946, 4106.79487152, 4098.33333299, 4139.87179467,12.0
4123.07692280, 4112.43589716, 4130.76923050, 4171.66666653, 4122.69230742, 4120.76923050, 4113.71794844, 4124.10256383, 4093.46153812, 4129.35897408, 1468.84614794, 4105.64102537, 4090.51282017, 4143.33333313,12.0
4120.89743562, 4107.69230742, 4127.94871767, 4155.89743569, 4124.61538434, 4125.25640998, 4114.99999973, 4121.66666639, 4084.99999966, 4129.35897408, 826.92306970, 4101.41025607, 4086.15384581, 4140.76923056,12.0
4115.89743562, 4117.30769203, 4129.74358947, 4143.07692287, 4124.23076896, 4130.76923050, 4126.53846126, 4129.10256383, 4085.64102530, 4129.35897408, 1051.02563429, 4103.46153819, 4182.56410243, 4139.48717928,12.0
4119.74358947, 4115.12820485, 4130.76923050, 4150.89743569, 4124.23076896, 4119.74358947, 4114.35897408, 4123.33333306, 4090.76923043, 4129.35897408, 1012.82050595, 4100.89743555, 4303.97435912, 4138.46153826,12.0
4116.66666639, 4099.35897402, 4122.56410229, 4151.53846133, 4124.87179460, 4101.15384581, 4093.46153812, 4108.58974332, 4078.33333299, 4129.35897408, 890.38460830, 4088.46153812, 4315.25641040, 4135.76923056,12.0
4116.28205101, 4109.74358947, 4125.51282024, 4149.48717928, 4123.07692280, 4107.43589716, 4104.74358947, 4121.53846126, 4077.94871761, 4129.35897408, 925.51281350, 4092.82051248, 4290.00000007, 4139.10256390,12.0
4117.30769203, 4130.89743562, 4140.51282031, 4153.46153826, 4120.25640998, 4121.41025614, 4123.58974332, 4138.33333313, 4103.33333306, 4129.35897408, 917.56409548, 4114.35897408, 4310.00000014, 4142.05128185,12.0
4112.05128178, 4126.92307665, 4144.23076903, 4152.82051262, 4120.51282024, 4120.12820485, 4122.05128178, 4133.97435870, 4116.79487152, 4129.35897408, 928.97435196, 4124.48717921, 4311.41025655, 4142.30769210,12.0
4117.56410229, 4121.41025614, 4140.38461518, 4153.84615364, 4122.05128178, 4124.10256383, 4123.46153819, 4131.66666639, 4106.79487152, 4129.35897408, 854.10255695, 4124.48717921, 4290.25641033, 4141.02564082,12.0
4115.64102537, 4136.02564082, 4140.38461518, 4147.69230749, 4122.56410229, 4133.97435870, 4132.17948691, 4139.74358954, 4107.17948691, 4129.35897408, 771.92306956, 4124.23076896, 4290.38461546, 4140.64102544,12.0
4112.30769203, 4138.07692287, 4139.61538441, 4134.35897408, 4124.10256383, 4129.61538434, 4125.38461511, 4133.84615357, 4111.41025614, 4129.35897408, 800.12819784, 4113.46153819, 4292.05128212, 4141.66666646,12.0
4111.53846126, 4118.20512793, 4135.38461518, 4125.38461511, 4123.84615357, 4128.46153819, 4120.12820485, 4121.66666639, 4100.38461504, 4129.35897408, 809.10255681, 4107.17948691, 4287.17948725, 4139.48717928,12.0
4097.69230735, 4115.12820485, 4134.23076896, 4109.10256383, 4121.53846126, 4139.10256390, 4136.92307672, 4131.02564075, 4098.33333299, 4129.35897408, 792.94871066, 4118.07692280, 4283.07692315, 4140.51282031,12.0
4092.56410222, 4130.64102537, 4138.84615364, 4096.15384581, 4123.20512793, 4140.12820492, 4144.74358954, 4141.28205108, 4102.69230742, 4129.35897408, 801.15383886, 4123.97435870, 4282.94871802, 4143.20512800,12.0
4087.05128171, 4132.94871767, 4136.53846133, 4096.53846119, 4123.84615357, 4133.20512793, 4126.53846126, 4131.66666639, 4096.79487145, 4129.35897408, 805.25640296, 4118.33333306, 4284.10256418, 4142.82051262,12.0
4082.94871761, 4127.82051255, 4130.76923050, 4091.79487145, 4121.66666639, 4131.02564075, 4111.92307665, 4123.58974332, 4090.38461504, 4129.35897408, 803.46153117, 4114.61538434, 4281.41025648, 4143.58974339,12.0
4086.92307658, 4121.15384588, 4127.43589716, 4080.38461504, 4123.58974332, 4121.66666639, 4108.58974332, 4117.94871767, 4082.94871761, 4129.35897408, 804.87178758, 4105.12820485, 4276.92307700, 4143.46153826,12.0
4076.15384581, 4116.15384588, 4124.74358947, 4084.74358940, 4125.12820485, 4109.48717921, 4105.89743562, 4113.58974332, 4076.15384581, 4129.35897408, 804.61537732, 4097.30769196, 4274.87179495, 4143.07692287,12.0
4072.17948684, 4128.71794844, 4133.84615357, 4095.64102530, 4121.79487152, 4118.97435870, 4117.56410229, 4121.53846126, 4088.84615350, 4129.35897408, 804.99999271, 4109.74358947, 4275.25641033, 4142.43589723,12.0
4069.87179453, 4140.12820492, 4140.25641005, 4094.35897402, 4120.89743562, 4137.56410236, 4139.87179467, 4131.28205101, 4103.07692280, 4129.35897408, 804.74358245, 4123.20512793, 4276.79487187, 4141.53846133,12.0
4060.51282010, 4133.84615357, 4134.35897408, 4087.94871761, 4124.99999973, 4137.43589723, 4142.94871774, 4133.20512793, 4096.41025607, 4129.35897408, 804.74358245, 4118.07692280, 4277.17948725, 4144.74358954,12.0
4066.41025600, 4129.87179460, 4133.58974332, 4083.33333299, 4126.79487152, 4124.74358947, 4122.30769203, 4131.02564075, 4090.64102530, 4129.35897408, 804.74358245, 4113.58974332, 4269.35897443, 4143.20512800,12.0
4068.07692266, 4138.58974339, 4136.66666646, 4089.23076889, 4122.30769203, 4121.66666639, 4111.41025614, 4126.53846126, 4096.92307658, 4129.35897408, 804.74358245, 4124.61538434, 4266.02564103, 4138.33333313,12.0
4068.97435856, 4141.41025621, 4137.56410236, 4095.76923043, 4121.92307665, 4132.30769203, 4124.61538434, 4117.43589716, 4093.71794837, 4129.35897408, 804.74358245, 4130.25640998, 4274.23076930, 4139.48717928,12.0
4070.64102530, 4145.76923056, 4137.94871774, 4096.02564068, 4128.33333306, 4138.58974339, 4133.33333306, 4117.69230742, 4085.76923043, 4129.35897408, 804.74358245, 4126.66666639, 4275.00000007, 4141.28205108,12.0
4063.07692266, 4147.17948697, 4134.61538434, 4086.79487145, 4127.82051255, 4125.64102537, 4112.43589716, 4120.76923050, 4083.07692273, 4129.35897408, 804.74358245, 4121.02564075, 4265.51282052, 4142.30769210,12.0
4066.66666625, 4124.35897408, 4124.61538434, 4061.79487138, 4120.89743562, 4111.15384588, 4094.23076889, 4106.66666639, 4070.76923043, 4129.35897408, 803.07691578, 4101.15384581, 4254.61538462, 4142.05128185,12.0
4067.30769189, 4117.05128178, 4123.33333306, 4053.84615343, 4120.89743562, 4124.23076896, 4118.97435870, 4112.82051255, 4075.76923043, 4129.35897408, 787.94871066, 4093.58974325, 4253.20512821, 4141.41025621,12.0
4065.38461497, 4147.94871774, 4138.07692287, 4078.58974325, 4124.61538434, 4146.02564082, 4150.76923056, 4145.38461518, 4110.64102537, 4129.35897408, 766.53845418, 4118.84615357, 4261.41025641, 4143.71794851,12.0
4068.33333292, 4153.71794851, 4142.17948697, 4099.48717914, 4122.69230742, 4138.46153826, 4139.23076903, 4148.20512800, 4117.56410229, 4129.35897408, 781.92306956, 4131.66666639, 4252.05128206, 4142.56410236,12.0
4063.97435856, 4132.82051255, 4135.51282031, 4096.79487145, 4120.51282024, 4119.87179460, 4123.71794844, 4132.94871767, 4098.58974325, 4129.35897408, 758.58973623, 4119.74358947, 4258.71794872, 4139.48717928,12.0
4066.15384574, 4139.48717928, 4139.61538441, 4089.61538427, 4123.33333306, 4128.20512793, 4134.61538434, 4131.79487152, 4096.79487145, 4129.35897408, 736.79486436, 4115.12820485, 4320.89743604, 4139.87179467,12.0
4065.76923036, 4145.51282031, 4135.64102544, 4084.74358940, 4125.51282024, 4141.15384595, 4138.20512800, 4129.87179460, 4100.25640991, 4129.35897408, 1017.30768543, 4113.20512793, 4365.00000021, 4140.64102544,12.0
4065.51282010, 4131.92307665, 4123.46153819, 4081.02564068, 4122.69230742, 4124.99999973, 4118.97435870, 4120.76923050, 4097.82051248, 4129.35897408, 1579.23076361, 4107.17948691, 4347.43589765, 4142.30769210,12.0
4069.99999966, 4123.07692280, 4124.61538434, 4077.43589709, 4121.15384588, 4108.46153819, 4097.17948684, 4118.84615357, 4096.92307658, 4129.35897408, 1903.58973866, 4108.46153819, 4333.71794893, 4143.20512800,12.0
4063.71794830, 4121.15384588, 4128.20512793, 4064.10256369, 4122.69230742, 4111.79487152, 4090.25640991, 4124.23076896, 4096.15384581, 4129.10256383, 2191.92307255, 4111.41025614, 4342.43589765, 4141.28205108,12.0
4069.87179453, 4137.56410236, 4135.12820485, 4061.15384574, 4121.15384588, 4125.38461511, 4112.94871767, 4135.51282031, 4115.89743562, 4129.10256383, 2793.84615079, 4123.20512793, 4340.64102585, 4139.99999980,12.0
4071.53846119, 4152.05128185, 4144.61538441, 4065.64102523, 4119.99999973, 4134.23076896, 4133.97435870, 4145.51282031, 4134.99999973, 4129.74358947, 2618.84615038, 4141.15384595, 4334.35897457, 4139.99999980,12.0
4060.12820472, 4140.76923056, 4139.74358954, 4052.82051241, 4123.20512793, 4127.30769203, 4125.64102537, 4137.05128185, 4112.43589716, 4128.71794844, 1370.51281440, 4131.15384588, 4329.35897450, 4142.94871774,12.0
4061.15384574, 4133.71794844, 4132.82051255, 4041.66666625, 4125.25640998, 4123.58974332, 4125.76923050, 4131.79487152, 4097.30769196, 4129.48717921, 619.35896665, 4112.69230742, 4321.66666681, 4143.33333313,12.0
4056.79487138, 4143.58974339, 4137.43589723, 4049.74358933, 4123.07692280, 4137.43589723, 4139.23076903, 4147.69230749, 4110.51282024, 4133.97435870, 786.28204392, 4123.84615357, 4321.41025655, 4141.53846133,12.0
4056.79487138, 4146.15384595, 4142.30769210, 4060.76923036, 4123.71794844, 4144.35897415, 4128.58974332, 4147.69230749, 4103.07692280, 4136.66666646, 840.64101842, 4140.25641005, 4320.00000014, 4142.69230749,12.0
4056.15384574, 4139.74358954, 4139.87179467, 4066.41025600, 4125.38461511, 4131.28205101, 4113.71794844, 4127.69230742, 4089.74358940, 4135.64102544, 693.46153096, 4134.99999973, 4311.02564117, 4140.89743569,12.0
4046.92307651, 4142.69230749, 4138.97435877, 4067.82051241, 4121.66666639, 4137.43589723, 4131.79487152, 4129.99999973, 4100.38461504, 4134.99999973, 759.35896700, 4130.38461511, 4306.02564117, 4139.99999980,12.0
4049.23076882, 4149.35897415, 4139.74358954, 4059.48717907, 4120.38461511, 4157.56410236, 4155.25641005, 4139.48717928, 4103.58974332, 4135.64102544, 808.58973630, 4135.64102544, 4303.33333348, 4141.66666646,12.0
4047.56410215, 4144.61538441, 4137.17948697, 4059.48717907, 4121.92307665, 4147.56410236, 4151.41025621, 4133.97435870, 4101.15384581, 4134.87179460, 799.61537732, 4130.38461511, 4296.66666674, 4141.53846133,12.0
4046.41025600, 4144.99999980, 4140.25641005, 4071.41025607, 4121.41025614, 4130.38461511, 4143.46153826, 4137.30769210, 4107.56410229, 4135.25640998, 804.23076194, 4131.79487152, 4294.10256418, 4141.41025621,12.0
4041.79487138, 4139.87179467, 4138.97435877, 4055.89743548, 4119.87179460, 4129.87179460, 4128.97435870, 4138.97435877, 4096.66666632, 4136.53846133, 801.28204399, 4133.33333306, 4292.05128212, 4141.02564082,12.0
4036.66666618, 4132.43589716, 4131.02564075, 4033.58974311, 4119.48717921, 4127.82051255, 4107.69230742, 4129.61538434, 4086.92307658, 4133.97435870, 803.58973630, 4116.28205101, 4288.33333341, 4141.53846133,12.0
4047.82051241, 4139.61538441, 4131.15384588, 4044.87179446, 4121.79487152, 4121.28205101, 4107.30769203, 4123.20512793, 4096.41025607, 4129.74358947, 803.46153117, 4106.92307665, 4284.61538469, 4140.51282031,12.0
4044.10256369, 4135.51282031, 4130.25640998, 4051.92307651, 4123.97435870, 4121.92307665, 4120.89743562, 4121.79487152, 4088.97435863, 4129.23076896, 803.20512091, 4112.69230742, 4278.58974366, 4139.87179467,12.0
4038.97435856, 4118.84615357, 4127.94871767, 4038.71794830, 4122.69230742, 4127.69230742, 4119.87179460, 4119.87179460, 4071.53846119, 4130.89743562, 802.69230040, 4114.99999973, 4274.61538469, 4144.10256390,12.0
4044.87179446, 4119.35897408, 4129.10256383, 4036.28205080, 4120.25640998, 4121.53846126, 4106.79487152, 4112.17948691, 4071.53846119, 4131.15384588, 802.69230040, 4107.43589716, 4272.82051289, 4142.82051262,12.0
4038.07692266, 4122.30769203, 4122.82051255, 4034.99999952, 4120.89743562, 4111.02564075, 4102.05128171, 4106.79487152, 4071.53846119, 4130.89743562, 802.94871066, 4098.58974325, 4270.12820520, 4138.71794851,12.0
4038.33333292, 4115.64102537, 4118.07692280, 4024.10256362, 4123.20512793, 4123.07692280, 4114.74358947, 4110.25640998, 4070.89743555, 4130.51282024, 802.69230040, 4093.97435863, 4266.41025641, 4140.51282031,12.0
4039.48717907, 4122.05128178, 4124.35897408, 4026.66666618, 4123.20512793, 4135.38461518, 4131.15384588, 4119.23076896, 4086.02564068, 4130.25640998, 802.82050553, 4101.02564068, 4265.38461539, 4143.58974339,12.0
4038.46153805, 4135.51282031, 4134.10256383, 4040.38461497, 4122.69230742, 4126.02564075, 4131.66666639, 4129.10256383, 4105.25640998, 4131.79487152, 802.82050553, 4115.51282024, 4268.20512828, 4144.35897415,12.0
4039.23076882, 4135.89743569, 4136.15384595, 4047.17948677, 4120.51282024, 4128.97435870, 4131.02564075, 4144.74358954, 4118.97435870, 4131.92307665, 802.56409527, 4119.10256383, 4265.64102564, 4141.92307672,12.0
4029.99999952, 4131.28205101, 4129.61538434, 4053.58974318, 4119.35897408, 4142.43589723, 4140.12820492, 4155.64102544, 4124.99999973, 4130.51282024, 801.53845425, 4116.92307665, 4258.71794872, 4141.79487159,12.0
4034.10256362, 4136.28205108, 4134.23076896, 4063.58974318, 4122.30769203, 4136.15384595, 4135.76923056, 4146.79487159, 4116.92307665, 4129.87179460, 801.92306963, 4124.74358947, 4257.82051282, 4143.84615364,12.0
4035.89743541, 4148.58974339, 4146.79487159, 4066.79487138, 4122.30769203, 4127.30769203, 4122.05128178, 4137.05128185, 4103.84615357, 4130.64102537, 799.74358245, 4139.48717928, 4258.97435898, 4143.84615364,12.0
4026.53846106, 4152.05128185, 4150.38461518, 4070.89743555, 4118.97435870, 4132.82051255, 4122.17948691, 4133.20512793, 4101.28205094, 4130.64102537, 797.05127476, 4151.28205108, 4261.15384616, 4145.76923056,12.0
4028.46153798, 4154.23076903, 4151.15384595, 4080.25640991, 4123.07692280, 4142.94871774, 4137.82051262, 4130.12820485, 4106.15384588, 4129.23076896, 803.46153117, 4156.53846133, 4257.30769231, 4145.64102544,12.0
4027.82051234, 4148.84615364, 4148.07692287, 4071.92307658, 4126.28205101, 4139.48717928, 4139.99999980, 4124.87179460, 4100.64102530, 4129.74358947, 808.84614655, 4146.02564082, 4251.02564103, 4142.05128185,12.0
4029.61538413, 4134.23076896, 4139.74358954, 4056.92307651, 4121.15384588, 4122.17948691, 4125.12820485, 4119.10256383, 4088.84615350, 4131.02564075, 824.61537739, 4123.58974332, 4281.66666674, 4139.48717928,12.0
4029.23076875, 4143.33333313, 4140.64102544, 4068.71794830, 4118.58974332, 4130.12820485, 4138.46153826, 4133.58974332, 4106.53846126, 4130.89743562, 866.02563387, 4126.41025614, 4338.97435919, 4138.71794851,12.0
4022.94871747, 4165.51282031, 4148.46153826, 4087.43589709, 4121.79487152, 4153.33333313, 4157.69230749, 4151.79487159, 4134.61538434, 4130.89743562, 902.69230061, 4146.92307672, 4356.53846175, 4141.28205108,12.0
4025.51282003, 4154.61538441, 4146.28205108, 4076.15384581, 4122.94871767, 4146.53846133, 4143.97435877, 4143.97435877, 4128.33333306, 4131.02564075, 945.12819811, 4145.51282031, 4342.17948739, 4140.89743569,12.0
4024.35897388, 4131.66666639, 4137.05128185, 4060.64102523, 4121.02564075, 4131.28205101, 4131.41025614, 4137.05128185, 4108.20512793, 4130.89743562, 1009.74358287, 4128.46153819, 4339.74358996, 4138.07692287,12.0
4026.28205080, 4140.25641005, 4136.66666646, 4067.82051241, 4120.89743562, 4138.71794851, 4138.07692287, 4145.51282031, 4104.99999973, 4131.02564075, 1076.79486506, 4120.12820485, 4338.58974380, 4141.66666646,12.0
4027.82051234, 4146.92307672, 4135.38461518, 4062.69230728, 4123.07692280, 4145.12820492, 4138.33333313, 4138.20512800, 4112.69230742, 4130.89743562, 1150.12819860, 4114.61538434, 4329.35897450, 4142.05128185,12.0
4023.84615336, 4127.30769203, 4126.53846126, 4041.92307651, 4123.58974332, 4132.30769203, 4124.35897408, 4122.82051255, 4104.23076896, 4130.89743562, 1222.30768592, 4105.64102537, 4324.48717963, 4139.48717928,12.0
4030.76923029, 4117.82051255, 4127.69230742, 4042.94871754, 4122.05128178, 4116.02564075, 4113.07692280, 4120.25640998, 4088.58974325, 4131.02564075, 1290.76922452, 4108.71794844, 4323.20512835, 4142.56410236,12.0
4026.28205080, 4124.48717921, 4131.15384588, 4054.48717907, 4121.02564075, 4110.76923050, 4107.94871767, 4118.97435870, 4089.99999966, 4130.89743562, 1361.02563491, 4118.46153819, 4324.10256425, 4143.07692287,12.0
4023.46153798, 4125.89743562, 4129.99999973, 4052.82051241, 4123.58974332, 4118.71794844, 4109.35897408, 4118.07692280, 4093.33333299, 4130.89743562, 1427.30768634, 4120.12820485, 4323.20512835, 4141.41025621,12.0
4030.25640977, 4125.51282024, 4136.02564082, 4049.87179446, 4124.61538434, 4116.28205101, 4110.25640998, 4127.56410229, 4088.84615350, 4130.89743562, 1495.25640442, 4124.99999973, 4319.74358989, 4142.17948697,12.0
4023.97435849, 4137.30769210, 4143.97435877, 4053.07692266, 4121.66666639, 4103.33333306, 4098.07692273, 4134.74358947, 4095.25640991, 4130.89743562, 1566.28204559, 4137.17948697, 4320.00000014, 4142.82051262,12.0
4026.41025593, 4150.76923056, 4147.30769210, 4061.41025600, 4120.38461511, 4110.38461511, 4096.53846119, 4129.99999973, 4109.74358947, 4131.02564075, 1635.51281496, 4150.76923056, 4319.74358989, 4141.28205108,12.0
4027.94871747, 4143.33333313, 4142.82051262, 4066.41025600, 4120.25640998, 4112.69230742, 4110.76923050, 4129.74358947, 4107.05128178, 4130.89743562, 1696.66666125, 4153.46153826, 4315.12820527, 4141.28205108,12.0
4025.25640977, 4121.28205101, 4133.33333306, 4051.53846113, 4120.51282024, 4102.56410229, 4114.74358947, 4133.33333306, 4097.94871761, 4130.89743562, 1752.30768703, 4130.76923050, 4310.51282066, 4143.58974339,12.0
4028.20512772, 4111.79487152, 4122.05128178, 4032.30769183, 4122.56410229, 4109.74358947, 4110.64102537, 4124.87179460, 4094.87179453, 4131.02564075, 1806.02563589, 4099.87179453, 4304.74358989, 4142.82051262,12.0
4023.58974311, 4131.92307665, 4139.61538441, 4056.41025600, 4124.35897408, 4116.28205101, 4118.20512793, 4118.58974332, 4073.07692273, 4130.89743562, 2232.30768807, 4128.84615357, 4291.15384623, 4140.38461518,12.0
4023.97435849, 4139.48717928, 4141.41025621, 4049.74358933, 4119.35897408, 4114.99999973, 4110.12820485, 4122.94871767, 4088.46153812, 4131.02564075, 2271.92307276, 4134.99999973, 4290.38461546, 4143.07692287,12.0
4014.99999952, 4153.84615364, 4142.56410236, 4045.64102523, 4118.97435870, 4120.38461511, 4127.17948691, 4132.30769203, 4105.25640998, 4130.89743562, 2324.10256001, 4140.12820492, 4291.28205136, 4142.30769210,12.0
4022.30769183, 4132.43589716, 4137.82051262, 4041.15384574, 4125.51282024, 4113.46153819, 4123.20512793, 4128.84615357, 4101.79487145, 4131.02564075, 2371.92307297, 4129.61538434, 4283.58974366, 4139.48717928,12.0
4023.46153798, 4115.64102537, 4127.30769203, 4039.23076882, 4124.74358947, 4100.12820478, 4099.48717914, 4116.92307665, 4087.82051248, 4130.89743562, 2414.35897047, 4112.17948691, 4274.23076930, 4140.51282031,12.0
4023.07692259, 4128.33333306, 4127.05128178, 4035.38461490, 4120.51282024, 4096.66666632, 4101.02564068, 4115.89743562, 4084.74358940, 4130.89743562, 2469.99999625, 4109.10256383, 4274.74358982, 4142.82051262,12.0
4026.53846106, 4135.76923056, 4136.02564082, 4030.64102516, 4124.87179460, 4104.10256383, 4117.56410229, 4123.84615357, 4095.12820478, 4131.02564075, 2534.61538101, 4119.61538434, 4276.28205136, 4138.71794851,12.0
4022.43589695, 4136.02564082, 4138.97435877, 4038.84615343, 4125.12820485, 4121.28205101, 4123.07692280, 4129.35897408, 4098.84615350, 4130.89743562, 2596.28204781, 4127.69230742, 4271.66666674, 4138.20512800,12.0
4029.48717900, 4136.66666646, 4136.28205108, 4047.43589702, 4121.15384588, 4132.30769203, 4130.38461511, 4121.15384588, 4091.92307658, 4130.89743562, 2661.15384282, 4123.20512793, 4270.51282059, 4143.84615364,12.0
4029.35897388, 4136.02564082, 4135.12820485, 4048.71794830, 4119.10256383, 4129.23076896, 4146.02564082, 4120.76923050, 4093.71794837, 4130.89743562, 2725.12820194, 4122.82051255, 4272.82051289, 4143.07692287,12.0
4024.87179439, 4141.15384595, 4138.97435877, 4051.15384574, 4115.25640998, 4129.10256383, 4151.53846133, 4136.15384595, 4101.92307658, 4130.89743562, 2775.76922765, 4128.20512793, 4270.64102571, 4139.61538441,12.0
4029.74358926, 4141.66666646, 4136.53846133, 4051.66666625, 4118.07692280, 4130.51282024, 4138.58974339, 4136.15384595, 4104.61538434, 4131.02564075, 2817.94871490, 4119.87179460, 4263.84615385, 4140.51282031,12.0
4026.66666618, 4134.74358947, 4129.23076896, 4050.76923036, 4122.69230742, 4126.79487152, 4125.89743562, 4121.15384588, 4104.10256383, 4130.89743562, 2833.07692009, 4110.25640998, 4257.94871795, 4143.97435877,12.0
4026.53846106, 4133.84615357, 4129.99999973, 4053.97435856, 4119.23076896, 4126.79487152, 4124.74358947, 4116.66666639, 4105.76923050, 4130.89743562, 2790.25640720, 4111.28205101, 4257.30769231, 4143.58974339,12.0
4026.79487131, 4123.97435870, 4126.92307665, 4046.92307651, 4116.53846126, 4121.79487152, 4122.05128178, 4126.92307665, 4107.05128178, 4131.02564075, 2737.82050963, 4107.94871767, 4257.69230770, 4139.99999980,12.0
4029.87179439, 4117.30769203, 4122.05128178, 4031.92307644, 4119.10256383, 4112.05128178, 4114.99999973, 4133.58974332, 4109.23076896, 4130.89743562, 2739.10256091, 4098.33333299, 4254.35897436, 4142.30769210,12.0
4030.51282003, 4132.30769203, 4125.76923050, 4037.69230728, 4119.10256383, 4112.94871767, 4114.23076896, 4129.35897408, 4108.46153819, 4130.89743562, 2739.10256091, 4102.56410229, 4250.12820513, 4144.61538441,12.0
4020.89743541, 4129.99999973, 4126.79487152, 4052.43589702, 4121.02564075, 4121.41025614, 4120.64102537, 4126.66666639, 4103.46153819, 4130.89743562, 2699.99999674, 4113.20512793, 4249.61538462, 4140.38461518,12.0
4026.28205080, 4116.02564075, 4126.02564075, 4050.76923036, 4123.58974332, 4124.23076896, 4124.48717921, 4127.05128178, 4103.46153819, 4130.89743562, 2679.87179154, 4112.94871767, 4249.48717949, 4137.43589723,12.0
4024.74358926, 4125.51282024, 4129.61538434, 4043.58974318, 4118.58974332, 4120.76923050, 4120.64102537, 4127.82051255, 4105.76923050, 4131.02564075, 2680.89743257, 4111.53846126, 4245.64102564, 4138.71794851,12.0
4016.15384567, 4129.74358947, 4129.61538434, 4044.61538420, 4118.46153819, 4118.97435870, 4121.15384588, 4129.35897408, 4106.41025614, 4130.89743562, 2678.07691975, 4113.33333306, 4240.12820513, 4142.43589723,12.0
4023.33333285, 4116.02564075, 4126.28205101, 4046.15384574, 4123.07692280, 4120.12820485, 4123.71794844, 4129.10256383, 4102.82051255, 4130.89743562, 2701.79486853, 4111.66666639, 4239.74358975, 4145.51282031,12.0
4024.99999952, 4122.56410229, 4126.15384588, 4047.05128164, 4119.35897408, 4116.28205101, 4125.12820485, 4131.53846126, 4101.53846119, 4131.02564075, 2747.69230450, 4111.15384588, 4242.43589744, 4143.20512800,12.0
4027.56410208, 4136.41025621, 4130.51282024, 4048.07692266, 4116.15384588, 4121.79487152, 4133.33333306, 4132.30769203, 4101.92307658, 4130.89743562, 2786.28204816, 4119.48717921, 4239.61538462, 4140.89743569,12.0
4024.99999952, 4121.53846126, 4130.38461511, 4043.58974318, 4119.61538434, 4135.64102544, 4138.97435877, 4130.76923050, 4102.82051255, 4131.02564075, 2821.79486874, 4121.66666639, 4231.92307686, 4140.51282031,12.0
4019.99999952, 4108.97435870, 4123.46153819, 4040.25640984, 4122.05128178, 4128.46153819, 4131.92307665, 4134.35897408, 4104.74358947, 4130.89743562, 2852.30768932, 4107.05128178, 4226.53846147, 4139.48717928,12.0
4029.74358926, 4119.61538434, 4120.51282024, 4045.51282010, 4123.84615357, 4111.92307665, 4116.53846126, 4132.05128178, 4104.35897408, 4130.89743562, 2873.71794580, 4100.12820478, 4227.69230763, 4137.82051262,12.0
4027.82051234, 4121.02564075, 4124.10256383, 4046.02564061, 4120.89743562, 4109.99999973, 4106.15384588, 4122.69230742, 4105.38461511, 4131.02564075, 2902.43589459, 4108.97435870, 4227.30769224, 4138.84615364,12.0
4027.82051234, 4118.71794844, 4129.35897408, 4040.25640984, 4116.41025614, 4118.20512793, 4110.76923050, 4124.74358947, 4107.17948691, 4130.89743562, 2941.28204851, 4113.71794844, 4224.99999993, 4141.41025621,12.0
4032.69230721, 4123.71794844, 4127.82051255, 4041.92307651, 4120.89743562, 4119.74358947, 4119.87179460, 4133.97435870, 4110.25640998, 4130.89743562, 2975.38461268, 4111.92307665, 4221.66666660, 4139.74358954,12.0
4027.56410208, 4122.56410229, 4124.10256383, 4056.41025600, 4122.82051255, 4109.61538434, 4105.89743562, 4131.66666639, 4117.94871767, 4130.89743562, 3004.10256147, 4116.53846126, 4218.33333327, 4140.76923056,12.0
4030.76923029, 4128.33333306, 4129.48717921, 4075.51282017, 4118.07692280, 4104.48717921, 4094.61538427, 4129.10256383, 4122.30769203, 4130.89743562, 3042.17948461, 4124.35897408, 4222.82051275, 4143.71794851,12.0
4029.35897388, 4144.99999980, 4136.53846133, 4084.48717914, 4117.30769203, 4118.07692280, 4124.23076896, 4138.97435877, 4121.02564075, 4131.02564075, 3086.41025398, 4136.15384595, 4224.99999993, 4141.15384595,12.0
4029.35897388, 4147.43589723, 4138.58974339, 4076.15384581, 4119.48717921, 4131.79487152, 4141.53846133, 4136.15384595, 4118.84615357, 4130.89743562, 3117.69230526, 4142.43589723, 4217.17948711, 4138.58974339,12.0
4033.20512772, 4135.12820485, 4131.28205101, 4063.84615343, 4119.87179460, 4122.82051255, 4115.64102537, 4118.46153819, 4113.58974332, 4130.89743562, 3139.10256174, 4122.43589716, 4207.17948711, 4140.38461518,12.0
4030.89743541, 4137.56410236, 4125.64102537, 4068.84615343, 4122.69230742, 4126.41025614, 4121.79487152, 4126.02564075, 4109.48717921, 4131.02564075, 3171.02563874, 4110.12820485, 4206.15384609, 4144.10256390,12.0
4034.35897388, 4140.64102544, 4131.02564075, 4075.38461504, 4122.05128178, 4148.20512800, 4154.10256390, 4142.69230749, 4117.05128178, 4130.89743562, 3209.74358752, 4126.41025614, 4210.12820506, 4142.69230749,12.0
4028.46153798, 4124.35897408, 4126.28205101, 4063.07692266, 4117.05128178, 4131.79487152, 4125.76923050, 4127.05128178, 4115.51282024, 4130.89743562, 3242.30769016, 4120.51282024, 4208.20512814, 4139.10256390,12.0
4027.05128157, 4121.66666639, 4120.25640998, 4064.74358933, 4119.87179460, 4103.84615357, 4086.92307658, 4108.20512793, 4100.76923043, 4130.89743562, 3275.51281843, 4104.87179460, 4204.35897429, 4139.99999980,12.0
4032.82051234, 4140.12820492, 4128.58974332, 4084.35897402, 4123.84615357, 4120.25640998, 4119.74358947, 4120.12820485, 4105.25640998, 4130.89743562, 3312.82051081, 4122.30769203, 4201.53846147, 4141.66666646,12.0
4025.76923029, 4146.66666646, 4132.17948691, 4081.28205094, 4119.23076896, 4148.58974339, 4159.48717928, 4139.87179467, 4124.23076896, 4131.02564075, 3345.76922883, 4133.71794844, 4198.58974345, 4142.69230749,12.0
4028.84615336, 4131.41025614, 4122.43589716, 4060.51282010, 4118.84615357, 4139.10256390, 4132.69230742, 4129.48717921, 4116.53846126, 4130.89743562, 3372.43589556, 4108.58974332, 4194.48717935, 4143.20512800,12.0
4029.87179439, 4113.46153819, 4110.25640998, 4060.89743548, 4122.69230742, 4116.02564075, 4095.25640991, 4108.46153819, 4098.46153812, 4130.89743562, 3403.71794692, 4090.51282017, 4191.66666653, 4139.99999980,12.0
4026.02564054, 4114.74358947, 4113.33333306, 4076.15384581, 4119.74358947, 4111.02564075, 4099.48717914, 4111.02564075, 4109.74358947, 4131.02564075, 3443.33333160, 4103.71794844, 4190.76923063, 4139.99999980,12.0
4030.38461490, 4128.20512793, 4122.94871767, 4071.15384581, 4119.35897408, 4114.61538434, 4108.97435870, 4116.92307665, 4117.56410229, 4130.89743562, 3477.05128039, 4114.48717921, 4190.89743576, 4142.94871774,12.0
4028.33333285, 4133.20512793, 4124.87179460, 4069.48717907, 4124.61538434, 4119.23076896, 4111.28205101, 4118.97435870, 4105.64102537, 4131.02564075, 3505.89743430, 4115.25640998, 4191.79487166, 4142.30769210,12.0
4034.23076875, 4133.97435870, 4131.41025614, 4089.87179453, 4123.46153819, 4127.82051255, 4128.07692280, 4129.99999973, 4109.74358947, 4130.89743562, 3542.17948565, 4125.38461511, 4191.41025628, 4141.02564082,12.0
4036.15384567, 4141.53846133, 4141.15384595, 4095.51282017, 4118.97435870, 4132.94871767, 4144.61538441, 4138.20512800, 4126.79487152, 4130.89743562, 3578.84615246, 4141.28205108, 4193.20512807, 4140.38461518,12.0
4031.15384567, 4144.23076903, 4138.46153826, 4082.43589709, 4121.41025614, 4130.38461511, 4136.28205108, 4136.92307672, 4129.99999973, 4131.02564075, 3606.41025502, 4142.17948697, 4193.71794858, 4139.99999980,12.0
4037.05128164, 4134.99999973, 4129.48717921, 4081.02564068, 4125.51282024, 4129.61538434, 4123.20512793, 4133.33333306, 4122.30769203, 4130.89743562, 3633.33333202, 4130.76923050, 4189.23076910, 4140.64102544,12.0
4034.99999952, 4127.82051255, 4126.66666639, 4082.56410222, 4119.61538434, 4129.87179460, 4119.87179460, 4124.61538434, 4113.20512793, 4130.89743562, 3668.84615260, 4131.66666639, 4185.12820499, 4140.89743569,12.0
4038.20512779, 4133.58974332, 4133.71794844, 4078.58974325, 4115.64102537, 4128.58974332, 4123.46153819, 4113.84615357, 4108.20512793, 4130.89743562, 3709.99999889, 4142.43589723, 4187.05128192, 4142.05128185,12.0
4038.46153805, 4137.82051262, 4139.35897415, 4085.51282017, 4121.92307665, 4128.33333306, 4129.74358947, 4118.07692280, 4113.46153819, 4130.89743562, 3744.87179383, 4144.87179467, 4187.05128192, 4141.15384595,12.0
4030.38461490, 4135.12820485, 4132.94871767, 4085.89743555, 4123.46153819, 4123.84615357, 4122.94871767, 4124.10256383, 4109.35897408, 4131.02564075, 3773.58974255, 4134.35897408, 4180.51282038, 4140.25641005,12.0
4039.74358933, 4134.35897408, 4125.38461511, 4072.56410222, 4118.84615357, 4119.61538434, 4120.51282024, 4117.05128178, 4098.84615350, 4130.89743562, 3809.35897346, 4120.64102537, 4176.28205115, 4142.05128185,12.0
4040.12820472, 4126.92307665, 4122.17948691, 4071.79487145, 4116.92307665, 4122.94871767, 4132.30769203, 4119.23076896, 4106.41025614, 4130.89743562, 3848.33333250, 4118.97435870, 4176.53846140, 4142.30769210,12.0
4037.17948677, 4115.38461511, 4123.84615357, 4071.02564068, 4115.76923050, 4123.20512793, 4128.58974332, 4126.79487152, 4107.82051255, 4131.02564075, 3881.02564027, 4122.94871767, 4176.92307679, 4142.43589723,12.0
4039.61538420, 4120.76923050, 4125.51282024, 4064.35897395, 4118.71794844, 4115.76923050, 4111.92307665, 4126.41025614, 4098.84615350, 4130.89743562, 3911.15384546, 4124.23076896, 4173.46153833, 4142.56410236,12.0
4035.38461490, 4138.58974339, 4128.97435870, 4080.51282017, 4121.92307665, 4119.87179460, 4122.82051255, 4134.74358947, 4116.66666639, 4130.89743562, 3949.10256348, 4135.89743569, 4171.15384602, 4143.33333313,12.0
4039.87179446, 4149.87179467, 4140.89743569, 4101.92307658, 4120.38461511, 4135.25640998, 4144.99999980, 4147.05128185, 4144.74358954, 4130.89743562, 3989.35897381, 4161.02564082, 4175.38461525, 4143.97435877,12.0
4037.05128164, 4150.38461518, 4142.82051262, 4091.79487145, 4118.97435870, 4138.07692287, 4140.89743569, 4146.02564082, 4142.69230749, 4130.89743562, 4015.25640977, 4167.94871774, 4177.69230756, 4141.66666646,12.0
4035.12820465, 4145.89743569, 4133.58974332, 4077.43589709, 4120.51282024, 4128.97435870, 4132.30769203, 4138.20512800, 4129.74358947, 4131.02564075, 4030.51282003, 4151.66666646, 4174.74358961, 4142.82051262,12.0
4039.48717907, 4139.48717928, 4130.64102537, 4081.66666632, 4122.05128178, 4130.51282024, 4143.97435877, 4133.46153819, 4138.33333313, 4130.89743562, 4044.99999959, 4145.12820492, 4171.15384602, 4142.43589723,12.0
4033.97435849, 4135.64102544, 4135.51282031, 4086.15384581, 4123.20512793, 4141.15384595, 4157.17948697, 4135.64102544, 4148.46153826, 4130.89743562, 4057.82051241, 4151.41025621, 4171.53846140, 4137.05128185,12.0
4038.33333292, 4138.33333313, 4139.35897415, 4087.30769196, 4124.23076896, 4147.94871774, 4158.97435877, 4140.51282031, 4139.48717928, 4131.02564075, 4070.38461504, 4154.10256390, 4172.94871781, 4137.94871774,12.0
4038.33333292, 4141.53846133, 4136.28205108, 4086.41025607, 4119.35897408, 4148.07692287, 4162.05128185, 4140.38461518, 4129.87179460, 4130.89743562, 4089.35897402, 4148.97435877, 4169.48717935, 4141.28205108,12.0
4035.64102516, 4139.48717928, 4132.56410229, 4080.25640991, 4116.66666639, 4144.10256390, 4155.64102544, 4133.46153819, 4131.66666639, 4131.02564075, 4114.10256383, 4141.28205108, 4162.43589723, 4138.07692287,12.0
4041.92307651, 4137.05128185, 4133.20512793, 4079.99999966, 4121.41025614, 4143.97435877, 4141.15384595, 4130.51282024, 4135.38461518, 4130.89743562, 4133.84615357, 4141.28205108, 4162.69230749, 4136.28205108,12.0
4041.41025600, 4133.58974332, 4130.89743562, 4080.64102530, 4123.07692280, 4137.94871774, 4137.82051262, 4134.87179460, 4134.99999973, 4130.89743562, 4147.05128185, 4143.07692287, 4166.28205108, 4141.66666646,12.0
4046.28205087, 4122.43589716, 4123.46153819, 4064.99999959, 4121.28205101, 4117.17948691, 4124.87179460, 4129.48717921, 4126.41025614, 4131.02564075, 4166.79487159, 4129.74358947, 4161.41025621, 4143.20512800,12.0
4043.71794830, 4114.10256383, 4118.46153819, 4055.12820472, 4119.10256383, 4107.30769203, 4106.02564075, 4126.53846126, 4124.35897408, 4130.89743562, 4185.38461525, 4119.35897408, 4155.76923056, 4136.53846133,12.0
4040.12820472, 4121.15384588, 4122.56410229, 4066.53846113, 4118.71794844, 4124.10256383, 4117.05128178, 4141.15384595, 4137.82051262, 4130.89743562, 4174.87179474, 4131.15384588, 4157.30769210, 4136.66666646,12.0
4049.99999959, 4135.25640998, 4131.41025614, 4078.20512786, 4119.87179460, 4141.79487159, 4147.43589723, 4150.76923056, 4147.94871774, 4130.89743562, 4148.58974339, 4147.94871774, 4161.41025621, 4142.43589723,12.0
4049.99999959, 4135.25640998, 4131.41025614, 4078.20512786, 4119.87179460, 4141.79487159, 4147.43589723, 4150.76923056, 4147.94871774, 4130.89743562, 4148.58974339, 4147.94871774, 4161.41025621, 4142.43589723,12.0
4047.82051241, 4141.53846133, 4132.05128178, 4074.23076889, 4119.23076896, 4141.53846133, 4155.64102544, 4146.15384595, 4142.43589723, 4130.89743562, 4134.35897408, 4152.05128185, 4161.79487159, 4142.05128185,12.0
4049.35897395, 4132.30769203, 4126.66666639, 4064.48717907, 4116.79487152, 4137.43589723, 4148.71794851, 4136.02564082, 4130.64102537, 4131.02564075, 4131.92307665, 4144.87179467, 4156.41025621, 4141.02564082,12.0
4049.99999959, 4116.15384588, 4122.56410229, 4058.84615343, 4115.76923050, 4142.05128185, 4153.71794851, 4131.02564075, 4119.48717921, 4130.89743562, 4124.10256383, 4136.15384595, 4149.87179467, 4141.28205108,12.0
4043.58974318, 4112.43589716, 4119.61538434, 4052.43589702, 4117.82051255, 4141.15384595, 4151.41025621, 4130.38461511, 4108.07692280, 4130.89743562, 4096.41025607, 4133.07692280, 4148.20512800, 4141.92307672,12.0
4051.53846113, 4120.76923050, 4120.25640998, 4051.41025600, 4119.48717921, 4126.79487152, 4130.38461511, 4124.10256383, 4104.10256383, 4131.02564075, 4063.20512779, 4133.84615357, 4150.12820492, 4142.56410236,12.0
4049.99999959, 4124.61538434, 4121.53846126, 4061.66666625, 4119.35897408, 4113.33333306, 4112.17948691, 4121.66666639, 4106.02564075, 4130.89743562, 4055.76923036, 4134.99999973, 4146.53846133, 4142.56410236,12.0
4045.76923036, 4128.71794844, 4122.30769203, 4066.79487138, 4120.38461511, 4114.99999973, 4113.84615357, 4130.89743562, 4112.17948691, 4130.89743562, 4076.79487145, 4138.46153826, 4143.20512800, 4143.07692287,12.0
4047.94871754, 4124.10256383, 4121.92307665, 4057.94871754, 4121.92307665, 4114.99999973, 4113.58974332, 4134.23076896, 4117.94871767, 4130.89743562, 4099.61538427, 4137.82051262, 4145.76923056, 4140.89743569,12.0
4043.33333292, 4112.56410229, 4120.76923050, 4059.23076882, 4121.28205101, 4106.92307665, 4104.87179460, 4131.92307665, 4123.58974332, 4130.89743562, 4122.43589716, 4135.89743569, 4146.92307672, 4138.58974339,12.0
4046.15384574, 4118.20512793, 4123.07692280, 4069.35897395, 4119.87179460, 4110.25640998, 4113.71794844, 4138.71794851, 4132.17948691, 4131.02564075, 4147.43589723, 4139.61538441, 4144.61538441, 4141.28205108,12.0
4044.87179446, 4121.79487152, 4121.53846126, 4061.92307651, 4119.48717921, 4115.51282024, 4123.58974332, 4141.28205108, 4128.58974332, 4130.89743562, 4159.99999980, 4137.94871774, 4142.94871774, 4142.43589723,12.0
4045.51282010, 4114.48717921, 4116.53846126, 4054.87179446, 4119.61538434, 4115.51282024, 4120.76923050, 4129.87179460, 4117.94871767, 4130.89743562, 4171.41025628, 4130.89743562, 4144.61538441, 4138.97435877,12.0
4048.97435856, 4115.51282024, 4113.97435870, 4062.94871754, 4122.43589716, 4121.79487152, 4127.17948691, 4126.92307665, 4115.76923050, 4131.02564075, 4189.61538448, 4126.15384588, 4142.69230749, 4137.05128185,12.0
4044.99999959, 4119.61538434, 4113.71794844, 4066.79487138, 4122.43589716, 4125.51282024, 4136.41025621, 4140.76923056, 4122.43589716, 4130.89743562, 4203.58974352, 4124.61538434, 4139.74358954, 4140.64102544,12.0
4051.53846113, 4117.43589716, 4114.10256383, 4056.41025600, 4119.61538434, 4118.07692280, 4126.28205101, 4139.61538441, 4120.51282024, 4131.02564075, 4214.48717942, 4123.07692280, 4140.38461518, 4143.84615364,12.0
4050.25640984, 4111.92307665, 4110.38461511, 4051.02564061, 4119.61538434, 4115.38461511, 4120.64102537, 4127.82051255, 4111.41025614, 4130.89743562, 4232.17948711, 4118.58974332, 4135.25640998, 4141.92307672,12.0
4048.46153805, 4110.38461511, 4110.12820485, 4055.25640984, 4119.74358947, 4124.10256383, 4134.35897408, 4133.20512793, 4114.87179460, 4130.89743562, 4251.79487180, 4111.79487152, 4127.17948691, 4140.12820492,12.0
4054.99999959, 4119.99999973, 4114.87179460, 4057.43589702, 4118.33333306, 4127.82051255, 4142.05128185, 4139.48717928, 4120.76923050, 4131.02564075, 4257.82051282, 4112.30769203, 4128.58974332, 4139.99999980,12.0
4050.25640984, 4128.58974332, 4112.94871767, 4060.12820472, 4119.99999973, 4121.02564075, 4134.35897408, 4129.74358947, 4116.28205101, 4130.89743562, 4255.00000000, 4117.56410229, 4132.56410229, 4140.76923056,12.0
4055.64102523, 4118.58974332, 4114.48717921, 4061.28205087, 4121.92307665, 4117.17948691, 4121.66666639, 4118.46153819, 4109.74358947, 4130.89743562, 4265.25641026, 4124.99999973, 4130.38461511, 4143.07692287,12.0
4059.35897395, 4113.58974332, 4121.15384588, 4061.28205087, 4117.82051255, 4115.12820485, 4111.92307665, 4118.33333306, 4109.74358947, 4130.89743562, 4243.84615385, 4140.51282031, 4130.64102537, 4141.66666646,12.0
4054.61538420, 4130.25640998, 4128.97435870, 4076.02564068, 4116.28205101, 4115.12820485, 4113.71794844, 4125.12820485, 4119.99999973, 4130.89743562, 4140.89743569, 4158.33333313, 4135.76923056, 4140.38461518,12.0
4059.87179446, 4141.41025621, 4136.02564082, 4090.76923043, 4119.61538434, 4125.64102537, 4123.84615357, 4132.30769203, 4132.82051255, 4131.02564075, 4039.61538420, 4161.66666646, 4134.74358947, 4143.33333313,12.0
4056.92307651, 4129.99999973, 4127.94871767, 4075.38461504, 4118.84615357, 4121.28205101, 4121.28205101, 4131.79487152, 4123.33333306, 4130.89743562, 4016.28205080, 4149.87179467, 4131.02564075, 4144.48717928,12.0
4057.17948677, 4116.53846126, 4117.69230742, 4063.58974318, 4116.53846126, 4109.74358947, 4112.30769203, 4125.12820485, 4102.17948684, 4130.89743562, 4016.15384567, 4137.94871774, 4131.28205101, 4143.58974339,12.0
4058.58974318, 4117.69230742, 4120.12820485, 4082.82051248, 4117.69230742, 4122.82051255, 4117.05128178, 4126.02564075, 4105.38461511, 4131.02564075, 3998.97435842, 4136.28205108, 4131.79487152, 4141.53846133,12.0
4053.71794830, 4120.89743562, 4121.53846126, 4091.41025607, 4120.51282024, 4133.20512793, 4125.64102537, 4126.66666639, 4113.46153819, 4130.89743562, 3997.17948663, 4137.82051262, 4129.87179460, 4140.89743569,12.0
4058.58974318, 4124.35897408, 4118.58974332, 4080.89743555, 4119.74358947, 4122.30769203, 4124.61538434, 4124.99999973, 4108.84615357, 4130.89743562, 4005.12820465, 4139.35897415, 4128.07692280, 4140.12820492,12.0
4054.10256369, 4128.58974332, 4115.76923050, 4078.20512786, 4116.92307665, 4117.94871767, 4122.05128178, 4129.99999973, 4114.87179460, 4130.89743562, 4019.23076875, 4136.53846133, 4126.41025614, 4138.71794851,12.0
4052.69230728, 4127.69230742, 4117.56410229, 4083.84615350, 4118.33333306, 4124.87179460, 4126.15384588, 4128.20512793, 4121.41025614, 4130.89743562, 4033.84615336, 4127.30769203, 4123.97435870, 4141.66666646,12.0
4057.17948677, 4121.28205101, 4120.76923050, 4086.79487145, 4119.99999973, 4120.25640998, 4124.35897408, 4120.51282024, 4113.71794844, 4131.02564075, 4003.71794817, 4127.69230742, 4124.10256383, 4142.30769210,12.0
4053.46153805, 4116.79487152, 4118.46153819, 4083.33333299, 4120.38461511, 4114.61538434, 4112.69230742, 4123.46153819, 4107.30769203, 4130.89743562, 3928.46153777, 4137.56410236, 4125.12820485, 4138.46153826,12.0
4058.84615343, 4116.15384588, 4113.33333306, 4077.69230735, 4121.66666639, 4123.46153819, 4108.33333306, 4121.28205101, 4107.82051255, 4130.89743562, 3828.97435807, 4129.87179460, 4122.82051255, 4137.69230749,12.0
4056.02564061, 4110.76923050, 4111.02564075, 4078.71794837, 4121.15384588, 4124.99999973, 4117.30769203, 4117.05128178, 4108.71794844, 4131.02564075, 3795.51281954, 4117.56410229, 4120.64102537, 4139.10256390,12.0
4053.20512779, 4116.02564075, 4115.38461511, 4084.61538427, 4118.71794844, 4120.38461511, 4127.05128178, 4132.56410229, 4112.05128178, 4130.89743562, 3922.43589674, 4129.74358947, 4123.20512793, 4139.99999980,12.0
4060.64102523, 4123.33333306, 4116.79487152, 4084.74358940, 4118.20512793, 4119.99999973, 4123.33333306, 4139.87179467, 4118.97435870, 4131.02564075, 4119.87179460, 4142.17948697, 4123.20512793, 4138.97435877,12.0
4056.28205087, 4115.64102537, 4114.23076896, 4081.15384581, 4119.61538434, 4115.51282024, 4120.64102537, 4130.76923050, 4122.94871767, 4130.89743562, 4221.28205122, 4134.99999973, 4115.76923050, 4138.97435877,12.0
4056.15384574, 4116.28205101, 4118.71794844, 4087.30769196, 4119.10256383, 4112.82051255, 4126.28205101, 4131.53846126, 4121.02564075, 4130.89743562, 4275.76923084, 4134.99999973, 4115.12820485, 4142.30769210,12.0
4057.82051241, 4118.07692280, 4117.43589716, 4091.53846119, 4117.94871767, 4118.71794844, 4120.12820485, 4135.89743569, 4120.64102537, 4131.02564075, 4506.53846210, 4137.56410236, 4119.48717921, 4143.20512800,12.0
4059.10256369, 4108.97435870, 4113.58974332, 4086.02564068, 4120.64102537, 4119.10256383, 4105.89743562, 4129.74358947, 4127.94871767, 4130.89743562, 4943.97436044, 4130.64102537, 4116.41025614, 4140.76923056,12.0
4065.51282010, 4103.07692280, 4116.02564075, 4083.84615350, 4124.23076896, 4114.10256383, 4104.74358947, 4120.89743562, 4128.33333306, 4130.89743562, 5414.87179731, 4128.07692280, 4112.30769203, 4139.10256390,12.0
4066.02564061, 4104.48717921, 4114.23076896, 4080.76923043, 4120.51282024, 4114.23076896, 4112.69230742, 4123.71794844, 4114.10256383, 4130.89743562, 5878.58974707, 4129.10256383, 4112.05128178, 4139.99999980,12.0
4072.56410222, 4105.12820485, 4113.71794844, 4075.64102530, 4118.58974332, 4111.92307665, 4110.51282024, 4124.35897408, 4103.33333306, 4130.89743562, 6321.15385054, 4130.25640998, 4113.58974332, 4141.28205108,12.0
4073.20512786, 4109.99999973, 4116.92307665, 4084.10256376, 4122.69230742, 4107.30769203, 4105.76923050, 4112.56410229, 4106.53846126, 4131.02564075, 6380.12820965, 4135.38461518, 4115.51282024, 4139.87179467,12.0
4071.66666632, 4125.76923050, 4120.89743562, 4102.43589709, 4121.15384588, 4121.02564075, 4118.20512793, 4115.64102537, 4118.58974332, 4130.89743562, 5926.53846509, 4143.46153826, 4113.07692280, 4141.79487159,12.0
4077.94871761, 4127.82051255, 4122.69230742, 4105.89743562, 4119.23076896, 4138.33333313, 4133.97435870, 4133.20512793, 4129.23076896, 4130.89743562, 5496.92307957, 4146.53846133, 4109.61538434, 4142.82051262,12.0
4071.28205094, 4119.61538434, 4120.12820485, 4100.89743555, 4118.97435870, 4127.43589716, 4130.89743562, 4141.79487159, 4131.79487152, 4131.02564075, 5416.92307943, 4142.43589723, 4110.38461511, 4138.58974339,12.0
4073.20512786, 4123.46153819, 4121.92307665, 4106.41025614, 4117.43589716, 4111.28205101, 4121.53846126, 4138.58974339, 4130.51282024, 4130.89743562, 5393.07692551, 4140.25641005, 4111.41025614, 4139.35897415,12.0
4075.25640991, 4127.05128178, 4125.38461511, 4111.92307665, 4119.35897408, 4116.66666639, 4120.12820485, 4134.23076896, 4123.84615357, 4130.89743562, 5214.10256612, 4142.56410236, 4109.61538434, 4142.30769210,12.0
4067.69230728, 4119.23076896, 4122.94871767, 4109.99999973, 4122.82051255, 4123.58974332, 4124.35897408, 4132.17948691, 4120.89743562, 4130.89743562, 5037.30769398, 4143.97435877, 4107.94871767, 4140.89743569,12.0
4073.33333299, 4111.41025614, 4118.20512793, 4106.53846126, 4121.41025614, 4117.43589716, 4124.23076896, 4131.02564075, 4128.97435870, 4130.89743562, 4974.61538615, 4137.30769210, 4108.20512793, 4140.38461518,12.0
4070.38461504, 4111.79487152, 4116.79487152, 4106.92307665, 4117.82051255, 4113.46153819, 4119.87179460, 4136.79487159, 4133.97435870, 4131.02564075, 4966.53846307, 4133.46153819, 4107.43589716, 4139.74358954,12.0
4069.10256369, 4120.25640998, 4125.25640998, 4119.99999973, 4118.58974332, 4124.87179460, 4130.76923050, 4140.12820492, 4129.99999973, 4130.89743562, 4963.07692461, 4143.58974339, 4108.58974332, 4138.07692287,12.0
4072.43589709, 4135.51282031, 4133.20512793, 4127.94871767, 4123.07692280, 4133.33333306, 4145.38461518, 4142.05128185, 4126.28205101, 4130.89743562, 4999.87179647, 4158.33333313, 4111.79487152, 4139.10256390,12.0
4068.20512779, 4135.25640998, 4129.48717921, 4120.25640998, 4124.23076896, 4121.92307665, 4130.64102537, 4142.30769210, 4127.82051255, 4131.02564075, 5079.61538636, 4157.43589723, 4110.38461511, 4141.02564082,12.0
4077.17948684, 4117.43589716, 4124.74358947, 4115.12820485, 4119.87179460, 4113.58974332, 4115.76923050, 4129.10256383, 4126.53846126, 4130.89743562, 5082.56410431, 4141.79487159, 4108.46153819, 4141.28205108,12.0
4076.79487145, 4116.92307665, 4123.20512793, 4119.23076896, 4116.66666639, 4128.07692280, 4134.23076896, 4123.33333306, 4121.66666639, 4131.02564075, 4947.94871941, 4138.07692287, 4109.10256383, 4138.71794851,12.0
4072.05128171, 4127.17948691, 4125.64102537, 4121.79487152, 4119.48717921, 4133.20512793, 4135.51282031, 4128.84615357, 4116.79487152, 4130.89743562, 4722.05128303, 4145.89743569, 4108.84615357, 4138.33333313,12.0
4076.41025607, 4121.66666639, 4127.05128178, 4119.48717921, 4121.15384588, 4110.89743562, 4109.99999973, 4127.94871767, 4122.17948691, 4130.89743562, 4492.82051331, 4142.94871774, 4106.02564075, 4140.76923056,12.0
4071.66666632, 4109.74358947, 4122.94871767, 4119.61538434, 4119.10256383, 4101.41025607, 4105.51282024, 4127.69230742, 4129.10256383, 4131.02564075, 4325.25641040, 4135.89743569, 4104.48717921, 4140.38461518,12.0
4074.35897402, 4118.84615357, 4126.28205101, 4124.74358947, 4121.92307665, 4115.51282024, 4112.17948691, 4127.69230742, 4119.74358947, 4130.89743562, 4180.25641012, 4139.74358954, 4102.05128171, 4139.74358954,12.0
4078.20512786, 4129.48717921, 4127.94871767, 4126.66666639, 4124.10256383, 4121.79487152, 4114.23076896, 4126.66666639, 4118.20512793, 4130.89743562, 3979.10256355, 4139.99999980, 4100.12820478, 4139.48717928,12.0
4081.53846119, 4115.76923050, 4120.51282024, 4121.66666639, 4119.48717921, 4115.12820485, 4118.58974332, 4135.12820485, 4130.76923050, 4130.89743562, 3770.89743486, 4128.58974332, 4105.25640998, 4139.87179467,12.0
4082.82051248, 4099.74358940, 4117.05128178, 4113.97435870, 4115.64102537, 4107.30769203, 4112.56410229, 4133.84615357, 4124.74358947, 4130.89743562, 3652.56410132, 4120.76923050, 4107.05128178, 4139.35897415,12.0
4075.38461504, 4106.79487152, 4117.05128178, 4107.94871767, 4119.10256383, 4105.25640998, 4101.53846119, 4115.12820485, 4107.94871767, 4131.02564075, 3591.66666528, 4119.10256383, 4102.69230742, 4140.76923056,12.0
4082.05128171, 4117.43589716, 4116.28205101, 4108.20512793, 4121.66666639, 4112.82051255, 4108.20512793, 4112.94871767, 4110.89743562, 4130.89743562, 3528.33333181, 4120.12820485, 4100.51282017, 4144.35897415,12.0
4080.51282017, 4117.05128178, 4119.10256383, 4118.46153819, 4117.17948691, 4120.89743562, 4123.07692280, 4128.58974332, 4125.25640998, 4130.89743562, 3479.35897276, 4128.71794844, 4102.05128171, 4143.20512800,12.0
4072.94871761, 4124.87179460, 4123.07692280, 4122.82051255, 4117.82051255, 4124.87179460, 4135.89743569, 4135.51282031, 4127.69230742, 4131.02564075, 3453.20512654, 4135.25640998, 4104.10256383, 4143.58974339,12.0
4079.74358940, 4128.33333306, 4122.43589716, 4116.92307665, 4121.92307665, 4132.05128178, 4145.25641005, 4130.89743562, 4124.10256383, 4130.89743562, 3453.33333167, 4130.51282024, 4102.17948684, 4143.71794851,12.0
4076.66666632, 4117.94871767, 4121.41025614, 4116.02564075, 4118.20512793, 4132.82051255, 4142.69230749, 4137.43589723, 4128.97435870, 4130.89743562, 3470.89743423, 4129.23076896, 4098.97435863, 4140.38461518,12.0
4077.69230735, 4119.74358947, 4123.84615357, 4118.07692280, 4114.74358947, 4123.84615357, 4135.12820485, 4147.56410236, 4138.07692287, 4130.89743562, 3487.69230610, 4131.79487152, 4099.61538427, 4140.64102544,12.0
4079.23076889, 4128.97435870, 4124.87179460, 4114.48717921, 4119.74358947, 4125.25640998, 4135.64102544, 4144.99999980, 4137.30769210, 4130.89743562, 3512.05128053, 4131.28205101, 4101.41025607, 4140.12820492,12.0
4072.56410222, 4130.25640998, 4127.30769203, 4121.15384588, 4123.46153819, 4130.89743562, 4133.97435870, 4140.12820492, 4130.64102537, 4131.02564075, 3552.30769085, 4141.28205108, 4101.66666632, 4140.38461518,12.0
4075.89743555, 4133.97435870, 4132.82051255, 4136.92307672, 4121.41025614, 4123.07692280, 4125.25640998, 4135.25640998, 4126.92307665, 4130.89743562, 3591.92307554, 4156.28205108, 4105.89743562, 4141.79487159,12.0
4074.87179453, 4137.94871774, 4132.30769203, 4135.89743569, 4122.17948691, 4113.20512793, 4117.30769203, 4127.94871767, 4121.66666639, 4130.89743562, 3621.79487048, 4157.69230749, 4107.30769203, 4142.05128185,12.0
4074.23076889, 4134.10256383, 4128.07692280, 4127.56410229, 4124.10256383, 4113.20512793, 4106.79487152, 4122.05128178, 4114.10256383, 4131.02564075, 3650.38461414, 4151.79487159, 4101.53846119, 4141.02564082,12.0
4073.07692273, 4134.23076896, 4131.15384588, 4132.56410229, 4123.20512793, 4114.99999973, 4104.87179460, 4123.58974332, 4117.17948691, 4130.89743562, 3679.35897318, 4155.64102544, 4098.97435863, 4139.61538441,12.0
4068.33333292, 4130.38461511, 4131.92307665, 4134.99999973, 4120.64102537, 4118.20512793, 4118.20512793, 4126.79487152, 4121.53846126, 4131.02564075, 3705.89743472, 4152.43589723, 4101.28205094, 4140.25641005,12.0
4075.25640991, 4113.07692280, 4121.79487152, 4117.30769203, 4118.46153819, 4118.84615357, 4119.35897408, 4124.35897408, 4109.87179460, 4130.89743562, 3720.51281940, 4127.30769203, 4098.71794837, 4140.51282031,12.0
4070.25640991, 4098.33333299, 4109.61538434, 4095.51282017, 4121.53846126, 4107.69230742, 4111.79487152, 4126.53846126, 4107.17948691, 4130.89743562, 3727.82051171, 4103.46153819, 4092.43589709, 4139.48717928,12.0
4069.10256369, 4096.66666632, 4108.58974332, 4087.56410222, 4126.53846126, 4105.38461511, 4118.58974332, 4130.89743562, 4123.46153819, 4131.02564075, 3758.33333229, 4095.51282017, 4091.28205094, 4140.12820492,12.0
4078.20512786, 4104.99999973, 4115.12820485, 4099.87179453, 4120.76923050, 4118.97435870, 4128.07692280, 4138.71794851, 4136.02564082, 4130.89743562, 3769.23076819, 4106.53846126, 4094.87179453, 4140.38461518,12.0
4074.48717914, 4123.07692280, 4124.10256383, 4118.20512793, 4116.66666639, 4130.89743562, 4134.35897408, 4156.15384595, 4145.51282031, 4130.89743562, 3713.97435787, 4132.05128178, 4100.64102530, 4139.61538441,12.0
4079.35897402, 4131.79487152, 4131.15384588, 4122.17948691, 4123.20512793, 4132.69230742, 4142.43589723, 4161.92307672, 4152.94871774, 4130.89743562, 3689.10256293, 4146.53846133, 4104.35897408, 4139.99999980,12.0
4082.17948684, 4122.94871767, 4126.79487152, 4123.97435870, 4124.99999973, 4123.33333306, 4138.20512800, 4149.10256390, 4153.84615364, 4130.89743562, 3678.97435780, 4141.15384595, 4099.99999966, 4141.28205108,12.0
4079.48717914, 4127.82051255, 4126.41025614, 4131.66666639, 4124.61538434, 4120.38461511, 4132.30769203, 4140.89743569, 4150.64102544, 4131.02564075, 3611.02563971, 4140.76923056, 4095.25640991, 4143.33333313,12.0
4084.35897402, 4142.82051262, 4134.35897408, 4133.97435870, 4122.30769203, 4133.46153819, 4143.84615364, 4136.02564082, 4143.97435877, 4130.89743562, 3851.15384532, 4152.56410236, 4097.94871761, 4141.92307672,12.0
4085.64102530, 4142.05128185, 4134.23076896, 4132.05128178, 4118.71794844, 4143.07692287, 4150.89743569, 4130.38461511, 4134.87179460, 4130.89743562, 4369.23076951, 4158.33333313, 4101.28205094, 4141.02564082,12.0
4088.71794837, 4142.05128185, 4135.38461518, 4132.05128178, 4121.92307665, 4141.28205108, 4145.12820492, 4133.58974332, 4134.10256383, 4131.02564075, 4672.82051373, 4161.15384595, 4103.84615357, 4143.46153826,12.0
4081.92307658, 4142.82051262, 4134.35897408, 4129.35897408, 4122.94871767, 4136.15384595, 4133.71794844, 4133.20512793, 4132.17948691, 4130.89743562, 5106.66666848, 4156.15384595, 4100.64102530, 4141.02564082,12.0
4081.92307658, 4142.82051262, 4134.35897408, 4129.35897408, 4122.94871767, 4136.15384595, 4133.71794844, 4133.20512793, 4132.17948691, 4130.89743562, 5106.66666848, 4156.15384595, 4100.64102530, 4141.02564082,12.0
4080.89743555, 4131.92307665, 4128.46153819, 4123.33333306, 4118.71794844, 4131.41025614, 4126.66666639, 4124.35897408, 4118.46153819, 4130.89743562, 5644.87179779, 4141.15384595, 4092.56410222, 4141.28205108,12.0
4091.92307658, 4127.05128178, 4128.33333306, 4119.99999973, 4119.35897408, 4125.25640998, 4125.51282024, 4115.89743562, 4111.53846126, 4130.89743562, 5353.20513057, 4134.87179460, 4094.61538427, 4142.94871774,12.0
4082.56410222, 4129.10256383, 4127.56410229, 4114.74358947, 4122.69230742, 4117.82051255, 4120.12820485, 4114.35897408, 4110.12820485, 4130.89743562, 4591.92307762, 4136.15384595, 4099.23076889, 4139.61538441,12.0
4081.02564068, 4131.92307665, 4125.25640998, 4111.15384588, 4122.30769203, 4121.92307665, 4121.92307665, 4123.33333306, 4111.02564075, 4131.02564075, 4433.20512863, 4134.48717921, 4095.12820478, 4139.48717928,12.0
4085.76923043, 4132.43589716, 4122.17948691, 4111.79487152, 4120.89743562, 4126.53846126, 4126.79487152, 4132.05128178, 4118.58974332, 4130.89743562, 4563.97435967, 4131.41025614, 4090.76923043, 4142.17948697,12.0
4081.66666632, 4133.46153819, 4122.69230742, 4115.89743562, 4119.74358947, 4122.05128178, 4123.20512793, 4133.20512793, 4123.97435870, 4130.89743562, 4513.20512876, 4134.48717921, 4094.48717914, 4142.17948697,12.0
4085.89743555, 4135.25640998, 4130.64102537, 4121.92307665, 4120.64102537, 4130.76923050, 4129.87179460, 4131.41025614, 4124.99999973, 4131.02564075, 4579.87179557, 4141.53846133, 4098.46153812, 4141.28205108,12.0
4082.94871761, 4135.76923056, 4133.07692280, 4119.87179460, 4120.12820485, 4141.41025621, 4143.71794851, 4135.76923056, 4130.25640998, 4130.89743562, 4705.89743687, 4150.51282031, 4095.76923043, 4140.76923056,12.0
4085.25640991, 4142.05128185, 4134.61538434, 4119.35897408, 4117.17948691, 4129.35897408, 4136.79487159, 4132.94871767, 4126.79487152, 4131.02564075, 4729.74359079, 4159.48717928, 4096.66666632, 4139.35897415,12.0
4089.23076889, 4141.02564082, 4134.61538434, 4122.30769203, 4119.10256383, 4116.92307665, 4121.79487152, 4118.97435870, 4114.74358947, 4130.89743562, 4760.64102676, 4154.23076903, 4099.61538427, 4138.71794851,12.0
4081.66666632, 4123.07692280, 4123.07692280, 4109.10256383, 4121.79487152, 4116.15384588, 4114.87179460, 4114.48717921, 4118.20512793, 4130.89743562, 4812.94871913, 4134.10256383, 4096.53846119, 4141.28205108,12.0
4086.15384581, 4108.33333306, 4115.25640998, 4092.30769196, 4119.61538434, 4110.76923050, 4109.99999973, 4114.99999973, 4118.58974332, 4131.02564075, 4858.20512953, 4124.23076896, 4091.15384581, 4142.30769210,12.0
4089.10256376, 4113.46153819, 4117.82051255, 4093.46153812, 4119.48717921, 4110.25640998, 4115.64102537, 4114.87179460, 4104.87179460, 4130.89743562, 4882.43589876, 4129.23076896, 4088.46153812, 4139.23076903,12.0
4090.76923043, 4126.02564075, 4122.43589716, 4101.02564068, 4122.69230742, 4118.07692280, 4121.41025614, 4117.05128178, 4102.05128171, 4130.89743562, 4922.56410396, 4129.74358947, 4088.46153812, 4141.15384595,12.0
4091.66666632, 4128.46153819, 4124.35897408, 4101.66666632, 4120.64102537, 4111.66666639, 4107.05128178, 4118.71794844, 4108.58974332, 4130.89743562, 4995.00000160, 4129.87179460, 4092.56410222, 4143.84615364,12.0
4086.66666632, 4124.23076896, 4123.84615357, 4103.84615357, 4118.71794844, 4104.87179460, 4105.64102537, 4123.84615357, 4109.23076896, 4130.89743562, 5050.38461706, 4137.05128185, 4096.79487145, 4141.92307672,12.0
4095.76923043, 4119.61538434, 4124.35897408, 4106.28205101, 4122.69230742, 4119.99999973, 4134.61538434, 4134.74358947, 4117.82051255, 4131.02564075, 5071.53846328, 4139.74358954, 4094.87179453, 4140.51282031,12.0
4095.76923043, 4119.87179460, 4124.35897408, 4103.84615357, 4123.07692280, 4127.69230742, 4142.30769210, 4140.38461518, 4124.74358947, 4130.89743562, 5075.38461713, 4136.92307672, 4092.30769196, 4142.05128185,12.0
4089.74358940, 4124.23076896, 4126.15384588, 4101.92307658, 4119.74358947, 4109.10256383, 4117.17948691, 4131.41025614, 4109.99999973, 4130.89743562, 5074.10256584, 4133.33333306, 4090.76923043, 4143.58974339,12.0
4095.89743555, 4127.17948691, 4125.51282024, 4100.51282017, 4119.10256383, 4099.87179453, 4109.61538434, 4122.69230742, 4108.07692280, 4131.02564075, 5087.82051463, 4133.20512793, 4090.38461504, 4142.05128185,12.0
4094.48717914, 4121.15384588, 4121.53846126, 4101.79487145, 4120.76923050, 4109.23076896, 4124.74358947, 4128.46153819, 4125.25640998, 4130.89743562, 5126.28205316, 4137.17948697, 4095.38461504, 4141.41025621,12.0
4095.89743555, 4119.48717921, 4124.48717921, 4104.48717921, 4121.92307665, 4116.53846126, 4133.33333306, 4137.43589723, 4131.92307665, 4130.89743562, 5168.71795067, 4139.87179467, 4094.87179453, 4143.71794851,12.0
4094.87179453, 4128.20512793, 4126.28205101, 4101.15384581, 4120.76923050, 4125.38461511, 4142.30769210, 4139.61538441, 4131.66666639, 4130.89743562, 5204.74359176, 4136.53846133, 4087.43589709, 4142.17948697,12.0
4092.82051248, 4124.74358947, 4121.66666639, 4097.94871761, 4115.64102537, 4137.82051262, 4151.15384595, 4132.94871767, 4127.94871767, 4130.89743562, 5243.97436106, 4134.48717921, 4087.43589709, 4141.15384595,12.0
4098.46153812, 4110.51282024, 4119.61538434, 4099.35897402, 4118.33333306, 4137.17948697, 4141.53846133, 4123.46153819, 4114.48717921, 4131.02564075, 5282.69230985, 4135.64102544, 4091.66666632, 4141.79487159,12.0
4090.51282017, 4100.12820478, 4116.66666639, 4095.25640991, 4123.97435870, 4118.58974332, 4122.05128178, 4122.82051255, 4109.35897408, 4130.89743562, 5309.35897659, 4129.23076896, 4090.64102530, 4140.25641005,12.0
4091.02564068, 4098.46153812, 4115.51282024, 4087.30769196, 4122.17948691, 4107.69230742, 4115.64102537, 4125.51282024, 4115.76923050, 4130.89743562, 5329.35897666, 4125.12820485, 4089.23076889, 4139.99999980,12.0
4096.28205094, 4100.51282017, 4120.89743562, 4089.10256376, 4120.76923050, 4114.10256383, 4121.28205101, 4123.84615357, 4113.97435870, 4131.02564075, 5355.51282288, 4132.30769203, 4087.56410222, 4139.48717928,12.0
4093.46153812, 4100.64102530, 4121.53846126, 4098.97435863, 4123.97435870, 4111.92307665, 4113.33333306, 4121.92307665, 4111.66666639, 4130.89743562, 5366.79487416, 4136.02564082, 4084.99999966, 4139.35897415,12.0
4098.58974325, 4098.97435863, 4118.84615357, 4104.48717921, 4126.02564075, 4100.76923043, 4097.43589709, 4119.48717921, 4109.99999973, 4131.02564075, 5340.38461768, 4131.15384588, 4086.15384581, 4142.17948697,12.0
4098.58974325, 4093.97435863, 4120.38461511, 4101.92307658, 4124.10256383, 4108.97435870, 4110.25640998, 4126.53846126, 4109.74358947, 4130.89743562, 5317.43589973, 4133.07692280, 4086.79487145, 4141.28205108,12.0
4102.05128171, 4093.71794837, 4124.99999973, 4097.05128171, 4122.69230742, 4128.07692280, 4134.48717921, 4136.53846133, 4118.20512793, 4130.89743562, 5329.10256640, 4140.89743569, 4086.53846119, 4139.48717928,12.0
4101.53846119, 4094.10256376, 4126.02564075, 4095.12820478, 4122.17948691, 4119.87179460, 4129.10256383, 4131.41025614, 4120.76923050, 4131.02564075, 5348.71795101, 4140.12820492, 4089.48717914, 4140.12820492,12.0
4094.87179453, 4089.23076889, 4126.79487152, 4097.43589709, 4123.20512793, 4112.17948691, 4126.02564075, 4128.33333306, 4112.94871767, 4130.89743562, 5368.33333570, 4137.82051262, 4090.64102530, 4142.69230749,12.0
4104.23076896, 4094.87179453, 4131.66666639, 4097.94871761, 4124.10256383, 4134.35897408, 4147.94871774, 4134.35897408, 4115.89743562, 4130.89743562, 5405.00000244, 4146.79487159, 4088.46153812, 4142.82051262,12.0
4104.74358947, 4100.64102530, 4129.61538434, 4091.28205094, 4120.76923050, 4135.51282031, 4139.10256390, 4131.92307665, 4127.05128178, 4130.89743562, 5441.92307943, 4153.33333313, 4087.56410222, 4139.74358954,12.0
4102.94871767, 4087.56410222, 4126.66666639, 4088.58974325, 4121.02564075, 4112.56410229, 4112.05128178, 4124.10256383, 4128.97435870, 4130.89743562, 5468.58974616, 4146.15384595, 4091.66666632, 4140.25641005,12.0
4107.94871767, 4077.30769196, 4128.46153819, 4090.38461504, 4124.61538434, 4117.82051255, 4121.28205101, 4125.25640998, 4129.61538434, 4131.02564075, 5490.38461803, 4143.71794851, 4093.84615350, 4140.64102544,12.0
4106.02564075, 4088.07692273, 4127.94871767, 4087.69230735, 4123.97435870, 4129.87179460, 4132.56410229, 4132.30769203, 4126.02564075, 4130.89743562, 5500.00000264, 4146.53846133, 4088.97435863, 4139.23076903,12.0
4113.07692280, 4088.58974325, 4128.84615357, 4090.12820478, 4122.94871767, 4116.41025614, 4116.92307665, 4130.25640998, 4117.82051255, 4130.89743562, 5511.28205393, 4140.12820492, 4086.28205094, 4140.76923056,12.0
4111.66666639, 4072.05128171, 4126.53846126, 4085.76923043, 4124.99999973, 4110.76923050, 4113.46153819, 4127.30769203, 4123.33333306, 4131.02564075, 5526.79487451, 4132.56410229, 4089.35897402, 4142.30769210,12.0
4105.89743562, 4070.38461504, 4118.97435870, 4069.87179453, 4122.69230742, 4116.41025614, 4121.15384588, 4131.28205101, 4129.87179460, 4130.89743562, 5528.33333605, 4125.89743562, 4091.15384581, 4143.20512800,12.0
4113.33333306, 4082.17948684, 4119.35897408, 4081.28205094, 4119.87179460, 4116.02564075, 4125.38461511, 4137.56410236, 4124.87179460, 4130.89743562, 5523.58974630, 4131.02564075, 4090.25640991, 4144.35897415,12.0
4110.51282024, 4081.92307658, 4124.35897408, 4101.28205094, 4121.92307665, 4117.30769203, 4134.23076896, 4142.43589723, 4126.28205101, 4130.89743562, 5528.33333605, 4147.82051262, 4088.33333299, 4144.74358954,12.0
4109.99999973, 4069.87179453, 4122.82051255, 4087.30769196, 4124.61538434, 4119.10256383, 4135.12820485, 4137.05128185, 4133.07692280, 4130.89743562, 5541.41025912, 4144.87179467, 4084.87179453, 4141.92307672,12.0
4108.46153819, 4060.76923036, 4117.94871767, 4072.56410222, 4123.71794844, 4115.76923050, 4128.46153819, 4131.02564075, 4129.99999973, 4131.02564075, 5550.38461817, 4126.53846126, 4084.23076889, 4137.82051262,12.0
4106.53846126, 4070.64102530, 4121.79487152, 4081.53846119, 4120.89743562, 4123.33333306, 4138.20512800, 4137.17948697, 4129.48717921, 4130.89743562, 5554.74359253, 4133.71794844, 4087.56410222, 4140.64102544,12.0
4113.20512793, 4078.71794837, 4126.41025614, 4081.66666632, 4121.92307665, 4136.28205108, 4146.02564082, 4135.76923056, 4130.76923050, 4130.89743562, 5564.87179766, 4146.28205108, 4087.30769196, 4144.10256390,12.0
4105.25640998, 4066.41025600, 4116.92307665, 4080.89743555, 4121.53846126, 4126.41025614, 4130.51282024, 4124.99999973, 4120.64102537, 4131.02564075, 5576.02564381, 4130.89743562, 4084.61538427, 4142.17948697,12.0
4108.33333306, 4064.87179446, 4114.99999973, 4099.10256376, 4118.84615357, 4114.87179460, 4120.76923050, 4123.58974332, 4117.56410229, 4130.89743562, 5582.56410542, 4124.48717921, 4084.61538427, 4142.69230749,12.0
4115.38461511, 4076.02564068, 4123.58974332, 4108.33333306, 4121.66666639, 4122.17948691, 4132.30769203, 4129.74358947, 4126.28205101, 4131.02564075, 5594.74359260, 4137.17948697, 4086.15384581, 4143.46153826,12.0
4108.07692280, 4070.38461504, 4121.28205101, 4093.07692273, 4124.99999973, 4121.28205101, 4131.15384588, 4131.02564075, 4122.56410229, 4130.89743562, 5610.00000285, 4132.30769203, 4086.66666632, 4140.76923056,12.0
4112.17948691, 4054.10256369, 4111.79487152, 4073.07692273, 4122.30769203, 4104.61538434, 4112.17948691, 4125.12820485, 4115.51282024, 4130.89743562, 5619.87179779, 4110.64102537, 4084.23076889, 4140.76923056,12.0
4113.07692280, 4051.28205087, 4109.23076896, 4070.38461504, 4117.56410229, 4105.51282024, 4116.66666639, 4124.99999973, 4121.79487152, 4131.02564075, 5631.92307985, 4109.10256383, 4079.74358940, 4141.02564082,12.0
4115.25640998, 4057.69230728, 4117.56410229, 4080.64102530, 4119.23076896, 4123.84615357, 4133.84615357, 4129.74358947, 4124.74358947, 4130.89743562, 5647.69231068, 4128.20512793, 4080.64102530, 4141.28205108,12.0
4119.61538434, 4054.61538420, 4119.99999973, 4083.84615350, 4123.07692280, 4120.38461511, 4124.10256383, 4125.38461511, 4116.66666639, 4130.89743562, 5655.25641325, 4128.71794844, 4084.87179453, 4140.38461518,12.0
4117.56410229, 4052.43589702, 4117.30769203, 4080.89743555, 4124.74358947, 4110.25640998, 4115.76923050, 4120.25640998, 4116.02564075, 4130.89743562, 5663.33333633, 4118.07692280, 4084.35897402, 4138.07692287,12.0
4122.94871767, 4054.48717907, 4122.05128178, 4086.28205094, 4124.87179460, 4119.99999973, 4127.94871767, 4125.12820485, 4120.38461511, 4130.89743562, 5677.94872101, 4124.61538434, 4083.07692273, 4137.69230749,12.0
4120.12820485, 4054.10256369, 4122.69230742, 4091.53846119, 4121.92307665, 4125.51282024, 4131.28205101, 4132.17948691, 4119.48717921, 4131.02564075, 5688.58974665, 4134.23076896, 4081.53846119, 4136.53846133,12.0
4118.84615357, 4055.64102523, 4122.69230742, 4089.61538427, 4119.74358947, 4122.05128178, 4132.17948691, 4136.92307672, 4125.25640998, 4130.89743562, 5699.87179793, 4134.10256383, 4080.64102530, 4136.66666646,12.0
4124.74358947, 4052.82051241, 4124.99999973, 4089.35897402, 4121.15384588, 4132.69230742, 4147.43589723, 4137.05128185, 4133.07692280, 4130.89743562, 5713.07692621, 4133.20512793, 4084.23076889, 4139.48717928,12.0
4124.48717921, 4051.02564061, 4123.97435870, 4096.28205094, 4120.38461511, 4141.66666646, 4153.07692287, 4136.79487159, 4133.97435870, 4131.02564075, 5720.51282364, 4137.94871774, 4087.17948684, 4142.56410236,12.0
4129.23076896, 4065.51282010, 4127.69230742, 4106.53846126, 4118.71794844, 4131.15384588, 4137.17948697, 4140.51282031, 4135.64102544, 4130.89743562, 5730.00000313, 4143.33333313, 4086.02564068, 4142.56410236,12.0
4125.64102537, 4067.56410215, 4128.58974332, 4103.84615357, 4119.48717921, 4118.97435870, 4120.25640998, 4140.51282031, 4136.79487159, 4130.89743562, 5745.89743910, 4141.66666646, 4082.05128171, 4141.15384595,12.0
4124.10256383, 4047.94871754, 4123.07692280, 4092.94871761, 4119.99999973, 4120.76923050, 4121.02564075, 4134.99999973, 4129.10256383, 4130.89743562, 5756.53846474, 4132.43589716, 4079.35897402, 4142.30769210,12.0
4129.23076896, 4049.61538420, 4124.10256383, 4094.23076889, 4117.05128178, 4128.58974332, 4134.48717921, 4136.53846133, 4130.64102537, 4130.89743562, 5763.84615705, 4131.79487152, 4083.84615350, 4142.94871774,12.0
4121.66666639, 4061.41025600, 4125.64102537, 4103.97435870, 4118.07692280, 4127.05128178, 4136.92307672, 4144.61538441, 4144.35897415, 4131.02564075, 5781.02564430, 4138.97435877, 4086.41025607, 4144.23076903,12.0
4124.48717921, 4056.41025600, 4122.43589716, 4106.66666639, 4123.58974332, 4121.15384588, 4125.64102537, 4134.23076896, 4133.46153819, 4130.89743562, 5797.94872122, 4136.41025621, 4078.20512786, 4144.23076903,12.0
4123.20512793, 4052.56410215, 4120.76923050, 4107.43589716, 4123.33333306, 4120.38461511, 4122.43589716, 4121.41025614, 4116.53846126, 4130.89743562, 5803.46154173, 4132.30769203, 4074.48717914, 4140.64102544,12.0
4117.43589716, 4053.84615343, 4120.12820485, 4108.46153819, 4120.89743562, 4120.12820485, 4122.56410229, 4125.51282024, 4120.25640998, 4131.02564075, 5807.43590071, 4131.15384588, 4079.87179453, 4140.12820492,12.0
4126.15384588, 4048.46153805, 4118.33333306, 4098.71794837, 4122.43589716, 4116.53846126, 4114.87179460, 4124.61538434, 4118.97435870, 4130.89743562, 5815.00000334, 4127.94871767, 4079.87179453, 4140.64102544,12.0
4126.28205101, 4051.28205087, 4120.76923050, 4095.38461504, 4123.20512793, 4117.82051255, 4117.30769203, 4119.61538434, 4109.48717921, 4131.02564075, 5821.79487513, 4131.66666639, 4074.74358940, 4139.10256390,12.0
4128.97435870, 4065.51282010, 4127.82051255, 4109.35897408, 4123.71794844, 4128.20512793, 4134.48717921, 4126.53846126, 4116.66666639, 4130.89743562, 5831.15384949, 4142.82051262, 4078.20512786, 4140.25641005,12.0
4128.58974332, 4068.84615343, 4130.51282024, 4116.28205101, 4124.48717921, 4135.38461518, 4150.76923056, 4140.64102544, 4128.58974332, 4130.89743562, 5840.51282385, 4147.43589723, 4085.25640991, 4140.25641005,12.0
4123.58974332, 4056.79487138, 4128.58974332, 4105.76923050, 4123.58974332, 4135.76923056, 4154.48717928, 4144.87179467, 4128.33333306, 4131.02564075, 5841.41025975, 4142.30769210, 4081.79487145, 4140.25641005,12.0
4133.20512793, 4045.76923036, 4126.66666639, 4097.30769196, 4124.10256383, 4134.35897408, 4144.35897415, 4135.12820485, 4126.28205101, 4130.89743562, 5838.84615719, 4133.84615357, 4076.15384581, 4141.66666646,12.0
4133.84615357, 4043.97435856, 4123.20512793, 4097.69230735, 4122.56410229, 4129.10256383, 4134.10256383, 4132.82051255, 4129.48717921, 4130.89743562, 5842.94872136, 4124.87179460, 4077.17948684, 4139.35897415,12.0
4132.94871767, 4050.64102523, 4125.25640998, 4098.07692273, 4118.71794844, 4131.02564075, 4138.46153826, 4144.99999980, 4135.64102544, 4130.89743562, 5850.38461879, 4123.71794844, 4080.76923043, 4138.97435877,12.0
4134.48717921, 4056.41025600, 4128.46153819, 4098.84615350, 4120.76923050, 4138.58974339, 4143.07692287, 4145.89743569, 4135.51282031, 4130.89743562, 5852.82051623, 4129.23076896, 4082.17948684, 4140.51282031,12.0
4127.69230742, 4058.20512779, 4128.97435870, 4102.30769196, 4124.74358947, 4134.48717921, 4136.02564082, 4133.07692280, 4134.74358947, 4131.02564075, 5858.46154187, 4132.69230742, 4082.43589709, 4141.41025621,12.0
4133.46153819, 4061.92307651, 4135.76923056, 4107.05128178, 4124.61538434, 4129.99999973, 4139.10256390, 4128.07692280, 4137.82051262, 4130.89743562, 5870.51282392, 4134.10256383, 4085.51282017, 4143.20512800,12.0
4135.89743569, 4066.66666625, 4137.43589723, 4110.64102537, 4122.30769203, 4135.64102544, 4149.48717928, 4130.38461511, 4130.51282024, 4130.89743562, 5873.58974700, 4136.02564082, 4084.10256376, 4142.56410236,12.0
4134.48717921, 4065.12820472, 4131.41025614, 4110.76923050, 4122.82051255, 4137.82051262, 4144.23076903, 4129.35897408, 4118.20512793, 4131.02564075, 5871.28205469, 4136.53846133, 4078.84615350, 4142.69230749,12.0
4139.10256390, 4051.66666625, 4126.41025614, 4098.07692273, 4125.51282024, 4126.66666639, 4121.66666639, 4122.69230742, 4112.17948691, 4130.89743562, 5873.84615725, 4127.05128178, 4074.99999966, 4143.20512800,12.0
4138.97435877, 4035.38461490, 4118.07692280, 4082.56410222, 4123.71794844, 4119.35897408, 4112.17948691, 4121.02564075, 4109.87179460, 4130.89743562, 5875.64102912, 4111.79487152, 4074.23076889, 4141.66666646,12.0
4144.87179467, 4040.51282010, 4116.53846126, 4079.48717914, 4121.92307665, 4128.71794844, 4129.61538434, 4131.92307665, 4121.02564075, 4130.89743562, 5875.89743938, 4111.53846126, 4077.17948684, 4141.66666646,12.0
4140.89743569, 4049.48717907, 4120.76923050, 4083.20512786, 4122.05128178, 4134.48717921, 4140.51282031, 4144.99999980, 4138.33333313, 4130.89743562, 5882.94872143, 4121.66666639, 4076.15384581, 4142.69230749,12.0
4136.92307672, 4048.58974318, 4124.35897408, 4091.79487145, 4118.58974332, 4132.82051255, 4139.74358954, 4149.35897415, 4143.20512800, 4131.02564075, 5895.00000348, 4130.25640998, 4076.53846119, 4142.69230749,12.0
4144.48717928, 4054.35897395, 4129.35897408, 4102.94871767, 4117.94871767, 4144.10256390, 4148.97435877, 4148.58974339, 4146.28205108, 4130.89743562, 5900.00000348, 4137.94871774, 4081.28205094, 4140.38461518,12.0
4137.69230749, 4059.35897395, 4128.84615357, 4102.82051255, 4124.87179460, 4154.99999980, 4154.23076903, 4146.02564082, 4147.17948697, 4130.89743562, 5895.64102912, 4137.56410236, 4082.82051248, 4139.48717928,12.0
4138.33333313, 4053.58974318, 4126.41025614, 4093.84615350, 4127.69230742, 4147.43589723, 4148.46153826, 4140.38461518, 4137.56410236, 4131.02564075, 5893.33333681, 4131.53846126, 4081.53846119, 4142.17948697,12.0
4137.69230749, 4052.56410215, 4127.69230742, 4093.33333299, 4121.92307665, 4142.17948697, 4151.53846133, 4137.30769210, 4136.92307672, 4130.89743562, 5896.79487527, 4131.28205101, 4077.43589709, 4141.92307672,12.0
4133.97435870, 4060.12820472, 4130.12820485, 4091.92307658, 4121.79487152, 4147.94871774, 4150.38461518, 4135.89743569, 4141.02564082, 4131.02564075, 5896.79487527, 4133.33333306, 4075.12820478, 4139.10256390,12.0
4143.97435877, 4055.38461497, 4129.74358947, 4083.33333299, 4124.99999973, 4143.33333313, 4134.35897408, 4130.89743562, 4139.74358954, 4130.89743562, 5892.43590091, 4128.71794844, 4080.12820478, 4135.76923056,12.0
4139.23076903, 4044.48717907, 4127.17948691, 4079.23076889, 4124.48717921, 4127.56410229, 4124.10256383, 4131.02564075, 4140.38461518, 4130.89743562, 5890.89743938, 4124.35897408, 4082.82051248, 4135.12820485,12.0
4137.56410236, 4044.74358933, 4126.53846126, 4077.69230735, 4124.74358947, 4127.43589716, 4128.20512793, 4134.23076896, 4137.56410236, 4131.02564075, 5895.76923425, 4121.02564075, 4076.92307658, 4139.35897415,12.0
4143.71794851, 4043.07692266, 4122.56410229, 4072.17948684, 4122.17948691, 4140.51282031, 4134.23076896, 4133.58974332, 4135.89743569, 4130.89743562, 5899.23077271, 4115.25640998, 4075.64102530, 4142.17948697,12.0
4142.30769210, 4037.30769189, 4119.87179460, 4067.17948677, 4117.69230742, 4134.99999973, 4124.99999973, 4131.66666639, 4140.25641005, 4130.89743562, 5896.28205476, 4114.48717921, 4081.79487145, 4141.79487159,12.0
4144.10256390, 4040.12820472, 4124.23076896, 4070.76923043, 4120.89743562, 4115.89743562, 4104.99999973, 4129.35897408, 4134.99999973, 4130.89743562, 5897.69231117, 4120.25640998, 4080.89743555, 4139.87179467,12.0
4141.02564082, 4045.51282010, 4125.25640998, 4077.30769196, 4124.99999973, 4108.71794844, 4097.82051248, 4126.02564075, 4123.71794844, 4130.89743562, 5899.61538809, 4125.12820485, 4077.56410222, 4138.07692287,12.0
4144.87179467, 4052.82051241, 4127.56410229, 4083.46153812, 4121.02564075, 4122.56410229, 4116.66666639, 4123.71794844, 4127.56410229, 4131.02564075, 5899.10256758, 4132.30769203, 4079.61538427, 4139.48717928,12.0
4148.07692287, 4057.05128164, 4131.02564075, 4083.20512786, 4119.35897408, 4142.69230749, 4146.15384595, 4128.20512793, 4133.71794844, 4130.89743562, 5901.02564450, 4135.38461518, 4079.48717914, 4139.48717928,12.0
4144.23076903, 4046.66666625, 4125.76923050, 4080.38461504, 4123.33333306, 4147.05128185, 4154.23076903, 4134.23076896, 4129.35897408, 4130.89743562, 5906.79487527, 4123.20512793, 4076.02564068, 4139.10256390,12.0
4151.02564082, 4041.53846113, 4121.53846126, 4085.51282017, 4125.38461511, 4137.30769210, 4136.02564082, 4126.79487152, 4126.41025614, 4131.02564075, 5904.48718297, 4112.56410229, 4075.89743555, 4140.76923056,12.0
4147.94871774, 4048.71794830, 4122.30769203, 4085.89743555, 4122.43589716, 4130.25640998, 4118.20512793, 4118.97435870, 4122.94871767, 4130.89743562, 5887.56410604, 4118.33333306, 4075.89743555, 4141.53846133,12.0
4147.94871774, 4046.41025600, 4123.07692280, 4076.79487145, 4119.99999973, 4130.76923050, 4122.17948691, 4124.10256383, 4123.33333306, 4130.89743562, 5882.94872143, 4120.51282024, 4072.05128171, 4144.61538441,12.0
4154.61538441, 4043.71794830, 4120.76923050, 4073.46153812, 4121.66666639, 4129.61538434, 4135.12820485, 4134.61538434, 4136.66666646, 4130.89743562, 5868.46154187, 4112.56410229, 4068.07692266, 4145.12820492,12.0
4147.94871774, 4050.89743548, 4117.30769203, 4080.51282017, 4122.56410229, 4126.02564075, 4134.35897408, 4140.89743569, 4142.30769210, 4130.89743562, 5780.51282378, 4112.43589716, 4067.56410215, 4141.15384595,12.0
4150.25641005, 4043.58974318, 4120.12820485, 4081.53846119, 4123.97435870, 4116.66666639, 4116.28205101, 4129.99999973, 4123.07692280, 4131.02564075, 5651.28205427, 4114.87179460, 4069.87179453, 4141.41025621,12.0
4149.35897415, 4031.66666618, 4122.05128178, 4077.05128171, 4123.33333306, 4112.94871767, 4113.58974332, 4123.84615357, 4109.74358947, 4130.89743562, 5563.20513099, 4117.94871767, 4067.69230728, 4142.69230749,12.0
4146.53846133, 4048.46153805, 4123.20512793, 4081.53846119, 4122.30769203, 4124.48717921, 4129.99999973, 4135.12820485, 4122.69230742, 4130.89743562, 5512.05128470, 4128.20512793, 4065.89743548, 4143.07692287,12.0
4148.46153826, 4058.58974318, 4122.30769203, 4085.51282017, 4122.82051255, 4122.56410229, 4121.92307665, 4124.87179460, 4126.15384588, 4131.02564075, 5467.43590001, 4122.82051255, 4067.69230728, 4141.53846133,12.0
4141.28205108, 4051.41025600, 4121.02564075, 4089.23076889, 4122.17948691, 4120.51282024, 4122.94871767, 4111.53846126, 4112.43589716, 4130.89743562, 5437.56410507, 4114.23076896, 4062.69230728, 4139.23076903,12.0
4146.28205108, 4055.64102523, 4125.25640998, 4093.46153812, 4119.87179460, 4133.84615357, 4141.92307672, 4119.23076896, 4104.48717921, 4131.02564075, 5424.35897686, 4123.46153819, 4058.33333292, 4141.92307672,12.0
4147.17948697, 4051.79487138, 4118.84615357, 4084.61538427, 4119.23076896, 4129.87179460, 4127.94871767, 4124.87179460, 4106.28205101, 4130.89743562, 5422.05128456, 4121.41025614, 4062.43589702, 4141.92307672,12.0
4141.92307672, 4044.48717907, 4111.02564075, 4077.17948684, 4123.20512793, 4116.66666639, 4119.23076896, 4129.35897408, 4114.99999973, 4130.89743562, 5389.35897679, 4106.02564075, 4063.97435856, 4138.97435877,12.0
4152.05128185, 4057.17948677, 4120.76923050, 4094.48717914, 4123.46153819, 4125.64102537, 4140.51282031, 4139.23076903, 4124.48717921, 4131.02564075, 5283.07692523, 4113.33333306, 4057.94871754, 4139.48717928,12.0
4155.76923056, 4068.97435856, 4129.35897408, 4100.38461504, 4118.33333306, 4129.74358947, 4140.38461518, 4136.79487159, 4130.64102537, 4130.89743562, 5176.92307887, 4129.23076896, 4055.89743548, 4142.56410236,12.0
4153.46153826, 4064.74358933, 4129.23076896, 4087.17948684, 4118.71794844, 4129.48717921, 4137.82051262, 4134.48717921, 4131.53846126, 4130.89743562, 5184.23077118, 4131.41025614, 4059.35897395, 4143.20512800,12.0
4147.82051262, 4054.74358933, 4123.58974332, 4089.35897402, 4124.23076896, 4145.12820492, 4153.58974339, 4143.33333313, 4129.35897408, 4130.89743562, 5195.25641228, 4124.10256383, 4061.41025600, 4139.99999980,12.0
4148.20512800, 4051.66666625, 4114.23076896, 4089.61538427, 4123.84615357, 4144.74358954, 4144.61538441, 4136.02564082, 4120.12820485, 4130.89743562, 5115.25641207, 4107.43589716, 4053.97435856, 4139.87179467,12.0
4158.20512800, 4058.71794830, 4116.53846126, 4087.94871761, 4120.64102537, 4137.05128185, 4138.46153826, 4125.51282024, 4114.61538434, 4131.02564075, 5318.71795101, 4106.02564075, 4044.10256369, 4142.17948697,12.0
4153.20512800, 4059.35897395, 4128.58974332, 4100.25640991, 4122.43589716, 4135.25640998, 4150.12820492, 4136.02564082, 4126.02564075, 4130.89743562, 5831.53846488, 4132.82051255, 4051.28205087, 4142.30769210,12.0
4154.48717928, 4046.53846113, 4128.33333306, 4097.43589709, 4124.48717921, 4122.05128178, 4136.28205108, 4134.99999973, 4129.99999973, 4130.89743562, 5941.92308054, 4140.76923056, 4061.41025600, 4142.69230749,12.0
4160.76923056, 4039.74358933, 4116.15384588, 4085.64102530, 4122.17948691, 4112.82051255, 4110.89743562, 4110.89743562, 4112.56410229, 4131.02564075, 5398.20513064, 4112.94871767, 4054.23076882, 4142.30769210,12.0
4153.33333313, 4041.41025600, 4110.64102537, 4097.17948684, 4120.12820485, 4119.23076896, 4110.12820485, 4108.71794844, 4107.94871767, 4130.89743562, 4850.64102690, 4098.07692273, 4045.12820472, 4140.12820492,12.0
4154.35897415, 4051.28205087, 4121.66666639, 4107.43589716, 4122.94871767, 4117.30769203, 4129.35897408, 4132.30769203, 4124.74358947, 4130.89743562, 4501.28205184, 4120.25640998, 4047.17948677, 4140.64102544,12.0
4149.87179467, 4054.35897395, 4129.99999973, 4096.28205094, 4123.71794844, 4114.23076896, 4137.17948697, 4141.92307672, 4133.07692280, 4130.89743562, 3580.25640887, 4142.30769210, 4055.12820472, 4144.74358954,12.0
4148.46153826, 4037.30769189, 4126.15384588, 4102.82051255, 4121.92307665, 4131.66666639, 4128.97435870, 4132.43589716, 4121.79487152, 4130.89743562, 2566.28204774, 4133.84615357, 4059.74358933, 4145.64102544,12.0
4152.30769210, 4027.69230721, 4119.48717921, 4126.02564075, 4122.69230742, 4136.02564082, 4124.87179460, 4126.15384588, 4112.82051255, 4131.02564075, 2787.82050970, 4114.61538434, 4054.74358933, 4141.66666646,12.0
4144.35897415, 4031.02564054, 4114.87179460, 4144.99999980, 4122.30769203, 4124.48717921, 4130.76923050, 4132.94871767, 4121.02564075, 4130.89743562, 3227.17948503, 4113.33333306, 4051.28205087, 4141.15384595,12.0
4150.51282031, 4038.07692266, 4122.17948691, 4165.64102544, 4121.28205101, 4129.87179460, 4136.66666646, 4136.15384595, 4135.76923056, 4130.89743562, 3465.38461372, 4129.61538434, 4059.35897395, 4142.56410236,12.0
4154.10256390, 4048.71794830, 4135.12820485, 4177.05128192, 4122.43589716, 4136.15384595, 4138.07692287, 4131.28205101, 4138.84615364, 4131.02564075, 5196.53846356, 4141.92307672, 4066.02564061, 4140.38461518,12.0
4155.12820492, 4042.05128164, 4141.79487159, 4175.64102551, 4124.23076896, 4124.74358947, 4129.48717921, 4127.05128178, 4132.17948691, 4130.89743562, 7543.20513516, 4145.51282031, 4071.66666632, 4142.43589723,12.0
4167.05128185, 4030.76923029, 4138.84615364, 4179.35897422, 4124.48717921, 4119.23076896, 4115.64102537, 4125.51282024, 4129.61538434, 4131.02564075, 8010.25641825, 4141.53846133, 4075.12820478, 4143.07692287,12.0
4167.56410236, 4039.48717907, 4134.99999973, 4195.12820499, 4122.56410229, 4124.61538434, 4119.48717921, 4125.76923050, 4129.35897408, 4130.89743562, 7549.87180189, 4131.79487152, 4068.07692266, 4138.58974339,12.0
4169.99999986, 4035.64102516, 4138.20512800, 4203.46153840, 4122.30769203, 4122.17948691, 4126.79487152, 4119.87179460, 4124.74358947, 4130.89743562, 7712.69231499, 4127.05128178, 4066.79487138, 4138.58974339,12.0
4170.64102551, 4010.64102516, 4133.20512793, 4203.58974352, 4123.46153819, 4119.48717921, 4121.92307665, 4119.74358947, 4121.15384588, 4131.02564075, 7783.84616135, 4123.07692280, 4073.71794837, 4139.74358954,12.0
4173.46153833, 4016.02564054, 4124.87179460, 4204.74358968, 4121.28205101, 4123.33333306, 4117.56410229, 4128.33333306, 4120.76923050, 4130.89743562, 7610.89744299, 4109.74358947, 4066.53846113, 4138.71794851,12.0
4183.84615371, 4035.38461490, 4126.92307665, 4204.48717942, 4119.10256383, 4117.69230742, 4112.69230742, 4128.46153819, 4125.38461511, 4130.89743562, 7592.43590453, 4104.35897408, 4060.25640984, 4138.20512800,12.0
4180.64102551, 4020.89743541, 4131.15384588, 4214.35897429, 4122.56410229, 4098.84615350, 4098.58974325, 4123.71794844, 4129.10256383, 4130.89743562, 7598.71795581, 4113.07692280, 4068.33333292, 4140.51282031,12.0
4184.87179474, 4004.99999952, 4129.74358947, 4228.97435891, 4127.82051255, 4091.15384581, 4087.17948684, 4118.07692280, 4120.25640998, 4130.89743562, 7598.84616094, 4109.48717921, 4071.79487145, 4144.74358954,12.0
4192.17948704, 4009.74358926, 4123.20512793, 4229.10256404, 4125.64102537, 4102.05128171, 4093.33333299, 4116.15384588, 4109.74358947, 4131.02564075, 7596.66667376, 4093.58974325, 4067.05128164, 4141.66666646,12.0
4192.82051269, 4014.87179439, 4123.20512793, 4225.64102558, 4121.53846126, 4109.23076896, 4108.46153819, 4125.12820485, 4118.33333306, 4130.89743562, 7597.82051991, 4095.38461504, 4067.82051241, 4137.30769210,12.0
4201.66666660, 4014.74358926, 4128.71794844, 4233.71794865, 4125.89743562, 4114.48717921, 4122.56410229, 4128.97435870, 4131.79487152, 4130.89743562, 7596.41026350, 4102.05128171, 4071.41025607, 4140.25641005,12.0
4199.35897422, 4018.33333285, 4129.48717921, 4243.33333334, 4125.76923050, 4124.99999973, 4134.48717921, 4127.82051255, 4129.10256383, 4131.02564075, 7597.94872504, 4100.76923043, 4073.20512786, 4140.51282031,12.0
4201.02564096, 4033.97435849, 4136.28205108, 4257.56410257, 4119.99999973, 4136.02564082, 4142.94871774, 4137.56410236, 4128.33333306, 4130.89743562, 7598.07693017, 4116.79487152, 4077.56410222, 4138.07692287,12.0
4209.48717942, 4038.84615343, 4141.28205108, 4267.69230777, 4122.94871767, 4138.58974339, 4143.20512800, 4139.35897415, 4139.74358954, 4130.89743562, 7598.33334042, 4131.28205101, 4077.43589709, 4140.12820492,12.0
4206.53846147, 4033.46153798, 4135.89743569, 4263.33333334, 4126.02564075, 4134.35897408, 4133.33333306, 4125.89743562, 4144.74358954, 4130.89743562, 7598.33334042, 4126.41025614, 4072.43589709, 4142.17948697,12.0
4210.51282045, 4043.46153805, 4139.99999980, 4274.35897443, 4121.53846126, 4133.84615357, 4131.79487152, 4125.12820485, 4138.07692287, 4130.89743562, 7598.20513530, 4136.79487159, 4074.48717914, 4140.64102544,12.0
4210.25641019, 4052.82051241, 4146.53846133, 4290.64102571, 4120.12820485, 4139.61538441, 4143.71794851, 4133.84615357, 4132.69230742, 4131.02564075, 7598.33334042, 4157.17948697, 4080.64102530, 4140.89743569,12.0
4210.25641019, 4052.82051241, 4146.53846133, 4290.64102571, 4120.12820485, 4139.61538441, 4143.71794851, 4133.84615357, 4132.69230742, 4131.02564075, 7598.33334042, 4157.17948697, 4080.64102530, 4140.89743569,12.0
4213.46153840, 4052.30769189, 4141.79487159, 4277.69230777, 4124.48717921, 4145.89743569, 4149.10256390, 4129.10256383, 4130.38461511, 4130.89743562, 7598.33334042, 4152.17948697, 4081.02564068, 4143.84615364,12.0
4221.28205122, 4052.82051241, 4137.05128185, 4261.92307693, 4125.51282024, 4139.99999980, 4138.46153826, 4119.10256383, 4122.94871767, 4130.89743562, 7598.20513530, 4135.64102544, 4076.28205094, 4142.56410236,12.0
4215.89743583, 4046.66666625, 4135.38461518, 4264.74358975, 4124.74358947, 4125.64102537, 4130.64102537, 4118.46153819, 4115.64102537, 4131.02564075, 7598.20513530, 4130.64102537, 4075.38461504, 4142.05128185,12.0
4220.89743583, 4044.23076882, 4134.10256383, 4266.15384616, 4126.15384588, 4130.38461511, 4139.23076903, 4123.33333306, 4119.87179460, 4130.89743562, 7598.33334042, 4129.99999973, 4077.30769196, 4143.07692287,12.0
4221.28205122, 4049.74358933, 4132.82051255, 4268.58974366, 4126.15384588, 4141.02564082, 4138.97435877, 4128.07692280, 4130.89743562, 4131.02564075, 7598.33334042, 4131.53846126, 4077.43589709, 4142.05128185,12.0
4219.48717942, 4042.30769189, 4131.92307665, 4271.02564110, 4124.10256383, 4131.53846126, 4126.79487152, 4127.17948691, 4128.46153819, 4130.89743562, 7598.33334042, 4130.38461511, 4077.17948684, 4143.46153826,12.0
4225.76923070, 4039.61538420, 4129.35897408, 4260.00000000, 4121.41025614, 4127.17948691, 4129.35897408, 4123.71794844, 4119.35897408, 4130.89743562, 7598.20513530, 4124.48717921, 4072.17948684, 4141.41025621,12.0
4224.87179481, 4050.12820472, 4126.15384588, 4252.69230770, 4122.30769203, 4133.97435870, 4137.17948697, 4125.25640998, 4125.38461511, 4131.02564075, 7598.20513530, 4119.10256383, 4069.35897395, 4136.28205108,12.0
4230.89743583, 4043.84615343, 4128.20512793, 4257.56410257, 4124.74358947, 4125.12820485, 4124.35897408, 4122.30769203, 4134.61538434, 4130.89743562, 7598.33334042, 4112.30769203, 4076.15384581, 4138.46153826,12.0
4228.20512814, 4039.61538420, 4133.46153819, 4262.43589744, 4123.33333306, 4120.89743562, 4124.35897408, 4120.51282024, 4135.64102544, 4130.89743562, 7598.33334042, 4116.53846126, 4079.87179453, 4141.53846133,12.0
4225.38461532, 4054.87179446, 4137.56410236, 4264.23076923, 4123.07692280, 4135.51282031, 4145.51282031, 4128.58974332, 4131.53846126, 4130.89743562, 7598.33334042, 4130.64102537, 4076.28205094, 4140.64102544,12.0
4236.53846154, 4055.51282010, 4137.56410236, 4262.94871795, 4125.25640998, 4139.35897415, 4138.46153826, 4124.48717921, 4122.43589716, 4130.89743562, 7598.20513530, 4134.35897408, 4076.28205094, 4139.23076903,12.0
4235.12820513, 4052.17948677, 4133.20512793, 4259.87179488, 4125.76923050, 4128.07692280, 4124.10256383, 4116.66666639, 4118.97435870, 4131.02564075, 7598.33334042, 4128.07692280, 4076.79487145, 4138.97435877,12.0
4238.20512821, 4069.74358940, 4136.15384595, 4266.28205129, 4125.64102537, 4132.94871767, 4133.84615357, 4122.30769203, 4127.69230742, 4130.89743562, 7610.51282760, 4129.61538434, 4077.94871761, 4141.92307672,12.0
4245.25641026, 4071.79487145, 4141.92307672, 4270.51282059, 4125.12820485, 4146.92307672, 4143.20512800, 4125.38461511, 4130.89743562, 4130.89743562, 7710.00000730, 4137.05128185, 4082.05128171, 4142.56410236,12.0
4246.79487180, 4057.94871754, 4139.87179467, 4260.38461539, 4123.97435870, 4144.99999980, 4141.92307672, 4123.07692280, 4118.97435870, 4131.53846126, 7797.82052033, 4140.64102544, 4078.07692273, 4141.53846133,12.0
4251.15384616, 4060.76923036, 4137.05128185, 4250.51282052, 4123.97435870, 4133.07692280, 4133.07692280, 4120.12820485, 4111.15384588, 4130.89743562, 7669.23077646, 4139.61538441, 4074.48717914, 4142.82051262,12.0
4246.79487180, 4065.89743548, 4137.30769210, 4252.94871795, 4125.12820485, 4129.61538434, 4124.35897408, 4120.51282024, 4118.33333306, 4129.61538434, 7782.82052033, 4136.92307672, 4079.48717914, 4143.46153826,12.0
4249.74358975, 4071.53846119, 4141.28205108, 4259.87179488, 4125.25640998, 4141.15384595, 4132.17948691, 4121.41025614, 4128.20512793, 4132.56410229, 7796.92308443, 4139.48717928, 4079.99999966, 4142.30769210,12.0
4248.20512821, 4083.97435863, 4143.20512800, 4257.30769231, 4123.84615357, 4141.92307672, 4143.33333313, 4118.97435870, 4123.20512793, 4130.51282024, 6159.87179891, 4144.10256390, 4076.92307658, 4139.99999980,12.0
4233.84615385, 4082.30769196, 4143.33333313, 4254.74358975, 4124.61538434, 4132.43589716, 4134.35897408, 4120.64102537, 4115.25640998, 4121.66666639, 3502.05128046, 4149.35897415, 4076.92307658, 4140.89743569,12.0
4234.74358975, 4069.99999966, 4146.02564082, 4259.61538462, 4125.12820485, 4133.20512793, 4122.82051255, 4114.48717921, 4117.82051255, 4124.99999973, 2117.17948267, 4152.43589723, 4078.97435863, 4142.17948697,12.0
4230.38461532, 4073.07692273, 4143.07692287, 4257.43589744, 4123.33333306, 4130.38461511, 4120.38461511, 4097.43589709, 4113.84615357, 4135.12820485, 1760.38461011, 4146.92307672, 4077.94871761, 4142.30769210,12.0
4227.17948711, 4086.66666632, 4141.53846133, 4251.02564103, 4124.48717921, 4123.46153819, 4120.12820485, 4095.38461504, 4102.56410229, 4132.56410229, 1131.66666007, 4140.38461518, 4077.30769196, 4142.69230749,12.0
4226.92307686, 4086.92307658, 4141.53846133, 4248.46153847, 4126.02564075, 4128.71794844, 4125.76923050, 4108.71794844, 4106.15384588, 4127.17948691, 769.87178751, 4136.53846133, 4076.41025607, 4139.99999980,12.0
4216.15384609, 4081.66666632, 4136.02564082, 4240.76923077, 4123.84615357, 4136.92307672, 4136.41025621, 4115.64102537, 4107.69230742, 4130.25640998, 967.17948023, 4133.07692280, 4074.35897402, 4141.15384595,12.0
4219.10256404, 4077.94871761, 4132.94871767, 4227.94871788, 4125.25640998, 4130.38461511, 4133.97435870, 4112.05128178, 4098.20512786, 4129.61538434, 1081.92307019, 4132.05128178, 4073.20512786, 4144.74358954,12.0
4216.66666660, 4073.71794837, 4133.97435870, 4230.12820506, 4126.66666639, 4119.99999973, 4120.76923050, 4114.10256383, 4108.46153819, 4125.76923050, 1114.35896769, 4131.53846126, 4072.69230735, 4142.69230749,12.0
4211.15384609, 4083.07692273, 4138.97435877, 4248.71794872, 4124.87179460, 4123.07692280, 4121.92307665, 4124.10256383, 4127.69230742, 4127.05128178, 1199.87178841, 4136.92307672, 4074.48717914, 4143.71794851,12.0
4213.58974352, 4100.64102530, 4147.69230749, 4255.64102564, 4125.64102537, 4127.94871767, 4128.71794844, 4130.25640998, 4128.07692280, 4127.30769203, 1246.15383976, 4154.23076903, 4077.56410222, 4144.61538441,12.0
4205.25641019, 4099.87179453, 4151.28205108, 4249.23076923, 4126.28205101, 4122.43589716, 4124.10256383, 4130.38461511, 4129.87179460, 4126.79487152, 1270.89742958, 4169.48717935, 4080.25640991, 4138.84615364,12.0
4205.64102558, 4092.56410222, 4148.46153826, 4248.97435898, 4125.25640998, 4117.94871767, 4121.41025614, 4127.94871767, 4137.82051262, 4127.05128178, 1314.99999382, 4162.69230749, 4081.41025607, 4137.43589723,12.0
4207.82051275, 4094.61538427, 4143.58974339, 4247.43589744, 4123.84615357, 4118.07692280, 4122.56410229, 4123.97435870, 4128.33333306, 4127.05128178, 1349.10255799, 4148.71794851, 4080.12820478, 4140.76923056,12.0
4207.82051275, 4092.69230735, 4141.92307672, 4236.02564103, 4122.17948691, 4118.97435870, 4119.99999973, 4113.33333306, 4113.07692280, 4127.05128178, 1351.92307081, 4143.46153826, 4077.17948684, 4141.02564082,12.0
4211.41025634, 4089.74358940, 4141.66666646, 4226.66666660, 4124.48717921, 4128.20512793, 4126.28205101, 4104.99999973, 4116.28205101, 4127.05128178, 1347.17948107, 4136.53846133, 4071.66666632, 4138.71794851,12.0
4204.87179481, 4095.64102530, 4139.35897415, 4224.99999993, 4125.89743562, 4137.30769210, 4134.35897408, 4113.20512793, 4126.53846126, 4127.05128178, 1369.48717338, 4134.23076896, 4072.30769196, 4137.30769210,12.0
4207.56410250, 4099.99999966, 4141.15384595, 4226.66666660, 4121.66666639, 4131.79487152, 4128.84615357, 4120.89743562, 4123.84615357, 4127.05128178, 1400.38460934, 4140.76923056, 4074.87179453, 4137.17948697,12.0
4207.05128199, 4098.07692273, 4138.07692287, 4224.87179481, 4121.53846126, 4120.25640998, 4119.35897408, 4117.05128178, 4113.58974332, 4127.05128178, 1417.56409659, 4137.69230749, 4071.02564068, 4138.46153826,12.0
4200.12820499, 4093.97435863, 4127.82051255, 4219.23076917, 4127.30769203, 4117.94871767, 4112.56410229, 4111.02564075, 4113.46153819, 4127.05128178, 1421.41025044, 4121.92307665, 4067.82051241, 4141.66666646,12.0
4203.97435891, 4092.17948684, 4128.71794844, 4217.30769224, 4127.69230742, 4123.33333306, 4115.89743562, 4112.05128178, 4120.25640998, 4127.05128178, 1410.76922473, 4121.66666639, 4068.97435856, 4142.56410236,12.0
4197.82051269, 4097.05128171, 4134.10256383, 4218.07692301, 4123.58974332, 4123.07692280, 4127.17948691, 4115.89743562, 4118.33333306, 4127.05128178, 1405.25640421, 4132.69230742, 4070.89743555, 4142.56410236,12.0
4197.17948704, 4107.05128178, 4136.15384595, 4220.12820506, 4125.12820485, 4122.05128178, 4123.46153819, 4109.61538434, 4111.79487152, 4127.05128178, 1435.89742993, 4132.69230742, 4073.20512786, 4144.35897415,12.0
4198.20512807, 4115.12820485, 4139.61538441, 4227.82051275, 4127.69230742, 4124.74358947, 4110.89743562, 4104.99999973, 4114.23076896, 4127.05128178, 1484.23076340, 4138.97435877, 4071.66666632, 4143.58974339,12.0
4192.17948704, 4120.89743562, 4142.82051262, 4227.30769224, 4124.35897408, 4125.76923050, 4116.53846126, 4114.61538434, 4122.43589716, 4127.05128178, 1522.69230193, 4150.76923056, 4070.51282017, 4142.82051262,12.0
4196.92307679, 4121.79487152, 4142.30769210, 4215.64102558, 4123.20512793, 4131.15384588, 4135.64102544, 4121.15384588, 4127.94871767, 4127.05128178, 1558.97435328, 4152.69230749, 4076.15384581, 4144.23076903,12.0
4188.84615371, 4122.17948691, 4137.94871774, 4210.51282045, 4124.74358947, 4140.51282031, 4143.84615364, 4122.69230742, 4131.41025614, 4127.05128178, 1591.53845591, 4149.61538441, 4079.35897402, 4144.87179467,12.0
4184.35897422, 4116.02564075, 4134.35897408, 4209.10256404, 4125.38461511, 4136.66666646, 4129.87179460, 4119.35897408, 4124.35897408, 4127.05128178, 1621.02563547, 4139.61538441, 4073.58974325, 4146.66666646,12.0
