AF3,F7,F3,FC5,T7,P7,O1,O2,P8,T8,FC6,F4,F8,AF4,Label
4128.71794844, 4128.20512793, 3720.12820402, 3833.33333243, 4119.23076896, 4053.33333292, 4067.56410215, 4090.51282017, 4028.97435849, 4137.56410236, 4122.56410229, 4113.84615357, 4127.94871767, 4145.12820492,12.0
4127.69230742, 4119.48717921, 3714.23076812, 3823.71794782, 4117.94871767, 4044.61538420, 4055.12820472, 4077.43589709, 4007.30769183, 4137.56410236, 4114.99999973, 4096.28205094, 4129.23076896, 4146.66666646,12.0
4123.71794844, 4114.99999973, 3713.97435787, 3822.30769141, 4113.46153819, 4047.43589702, 4053.46153805, 4073.46153812, 4006.92307644, 4137.56410236, 4114.48717921, 4083.97435863, 4127.56410229, 4146.15384595,12.0
4128.20512793, 4113.97435870, 3717.82051171, 3820.64102474, 4113.97435870, 4042.94871754, 4044.99999959, 4072.56410222, 4004.48717900, 4137.56410236, 4115.51282024, 4079.87179453, 4128.46153819, 4144.87179467,12.0
4129.10256383, 4100.25640991, 3712.30769120, 3801.15384518, 4116.79487152, 4018.97435849, 4020.76923029, 4046.66666625, 3970.51281989, 4137.56410236, 4106.53846126, 4063.07692266, 4131.41025614, 4143.33333313,12.0
4124.35897408, 4091.41025607, 3706.53846036, 3794.10256313, 4117.82051255, 4014.74358926, 4018.58974311, 4032.17948670, 3954.87179425, 4137.56410236, 4096.92307658, 4048.58974318, 4130.38461511, 4143.71794851,12.0
4123.33333306, 4094.74358940, 3707.30769113, 3805.89743493, 4114.10256383, 4019.23076875, 4024.23076875, 4042.94871754, 3973.33333278, 4137.56410236, 4099.99999966, 4048.46153805, 4132.69230742, 4146.02564082,12.0
4124.48717921, 4089.10256376, 3702.69230651, 3803.46153749, 4113.84615357, 4000.89743535, 3999.74358919, 4033.20512772, 3972.56410201, 4137.56410236, 4103.84615357, 4043.46153805, 4135.64102544, 4146.28205108,12.0
4127.43589716, 4078.46153812, 3696.66666549, 3789.74358877, 4118.07692280, 3978.84615329, 3972.43589688, 4009.48717900, 3952.43589681, 4137.56410236, 4099.10256376, 4029.23076875, 4135.25640998, 4142.30769210,12.0
4126.66666639, 4076.66666632, 3692.82051164, 3787.17948621, 4113.71794844, 3974.74358919, 3969.48717887, 4006.15384567, 3948.71794810, 4137.56410236, 4094.23076889, 4024.48717900, 4132.43589716, 4143.07692287,12.0
4125.12820485, 4075.12820478, 3689.10256293, 3790.76922980, 4112.30769203, 3969.74358912, 3964.61538399, 4008.33333285, 3947.56410194, 4137.56410236, 4092.56410222, 4023.46153798, 4130.76923050, 4148.97435877,12.0
4125.38461511, 4067.30769189, 3682.43589626, 3785.25640929, 4116.41025614, 3957.94871733, 3957.30769169, 4005.76923029, 3939.87179425, 4137.56410236, 4089.10256376, 4013.46153798, 4132.56410229, 4149.48717928,12.0
4122.82051255, 4062.82051241, 3675.76922952, 3774.23076819, 4116.02564075, 3957.82051220, 3965.89743528, 4010.12820465, 3939.74358912, 4137.56410236, 4086.02564068, 4007.05128157, 4128.58974332, 4143.46153826,12.0
4124.74358947, 4064.87179446, 3678.58974241, 3775.64102467, 4114.99999973, 3969.61538399, 3975.25640970, 4016.41025593, 3948.58974297, 4137.56410236, 4088.20512786, 4016.41025593, 4122.82051255, 4142.30769210,12.0
4125.64102537, 4071.28205094, 3686.41025523, 3793.71794775, 4115.25640998, 3979.10256355, 3980.89743535, 4024.48717900, 3959.74358912, 4137.56410236, 4095.89743555, 4039.10256369, 4125.51282024, 4146.02564082,12.0
4123.33333306, 4077.69230735, 3689.61538344, 3801.15384518, 4119.35897408, 3979.10256355, 3987.82051227, 4027.56410208, 3961.02564040, 4137.56410236, 4097.05128171, 4044.10256369, 4133.20512793, 4146.79487159,12.0
4121.15384588, 4076.66666632, 3684.87179369, 3797.69230672, 4119.87179460, 3975.38461483, 3987.17948663, 4019.61538413, 3953.20512758, 4137.56410236, 4091.66666632, 4027.69230721, 4135.89743569, 4145.51282031,12.0
4118.20512793, 4071.15384581, 3681.28205010, 3801.15384518, 4115.64102537, 3974.87179432, 3985.25640970, 4015.76923029, 3955.76923015, 4137.56410236, 4089.99999966, 4022.56410208, 4129.23076896, 4144.23076903,12.0
4122.05128178, 4071.66666632, 3684.23076805, 3800.12820416, 4117.56410229, 3977.69230714, 3992.94871740, 4025.25640977, 3966.79487117, 4137.56410236, 4089.35897402, 4026.79487131, 4123.33333306, 4144.10256390,12.0
4124.35897408, 4077.56410222, 3685.89743472, 3804.23076826, 4116.28205101, 3979.74358919, 3995.38461483, 4026.41025593, 3968.58974297, 4137.56410236, 4092.82051248, 4032.17948670, 4124.99999973, 4144.61538441,12.0
4120.89743562, 4077.56410222, 3680.76922959, 3817.69230679, 4111.66666639, 3974.35897381, 3982.56410201, 4012.05128157, 3956.28205066, 4137.56410236, 4100.64102530, 4036.92307651, 4131.41025614, 4144.87179467,12.0
4123.46153819, 4068.46153805, 3671.79487055, 3811.41025551, 4112.43589716, 3967.82051220, 3971.15384553, 4007.56410208, 3946.41025579, 4137.56410236, 4104.10256383, 4034.10256362, 4134.61538434, 4146.02564082,12.0
4123.46153819, 4068.46153805, 3671.79487055, 3811.41025551, 4112.43589716, 3967.82051220, 3971.15384553, 4007.56410208, 3946.41025579, 4137.56410236, 4104.10256383, 4034.10256362, 4134.61538434, 4146.02564082,12.0
4124.61538434, 4060.89743548, 3668.20512696, 3794.48717852, 4112.82051255, 3972.94871740, 3974.10256355, 4015.51282003, 3959.23076861, 4137.56410236, 4106.15384588, 4034.10256362, 4128.20512793, 4146.53846133,12.0
4123.33333306, 4059.74358933, 3670.51281927, 3793.07692211, 4116.02564075, 3976.66666611, 3978.71794817, 4018.84615336, 3972.43589688, 4137.56410236, 4111.28205101, 4038.20512779, 4124.48717921, 4145.64102544,12.0
4124.61538434, 4057.43589702, 3669.87179362, 3790.51281954, 4117.30769203, 3964.61538399, 3972.17948663, 4020.38461490, 3963.20512758, 4137.56410236, 4109.23076896, 4030.12820465, 4131.79487152, 4143.97435877,12.0
4124.74358947, 4054.99999959, 3671.53846029, 3785.38461442, 4111.79487152, 3960.89743528, 3972.82051227, 4025.51282003, 3961.66666605, 4137.56410236, 4103.58974332, 4026.79487131, 4131.79487152, 4146.02564082,12.0
4125.64102537, 4058.20512779, 3684.87179369, 3793.07692211, 4110.38461511, 3971.41025586, 3988.07692252, 4028.46153798, 3977.43589688, 4137.56410236, 4107.69230742, 4036.92307651, 4124.61538434, 4147.43589723,12.0
4122.17948691, 4056.66666625, 3694.99999882, 3798.20512724, 4113.58974332, 3976.66666611, 3994.35897381, 4025.51282003, 3983.71794817, 4137.56410236, 4110.25640998, 4033.71794824, 4124.74358947, 4145.12820492,12.0
4122.43589716, 4050.89743548, 3693.46153728, 3791.92307595, 4118.71794844, 3970.12820451, 3980.89743535, 4017.82051234, 3969.74358912, 4137.56410236, 4106.53846126, 4023.46153798, 4128.84615357, 4145.89743569,12.0
4127.69230742, 4049.48717907, 3684.35897318, 3786.41025544, 4117.30769203, 3960.89743528, 3968.71794810, 4003.97435842, 3956.53846092, 4137.56410236, 4103.97435870, 4019.74358926, 4130.64102537, 4146.66666646,12.0
4124.23076896, 4048.20512779, 3680.76922959, 3794.10256313, 4112.56410229, 3960.76923015, 3976.02564047, 4002.82051227, 3963.20512758, 4137.56410236, 4101.28205094, 4018.97435849, 4128.33333306, 4145.25641005,12.0
4123.46153819, 4052.82051241, 3685.76922959, 3809.99999910, 4116.79487152, 3973.46153791, 3991.41025586, 4023.07692259, 3979.23076868, 4137.56410236, 4103.71794844, 4029.74358926, 4126.79487152, 4145.76923056,12.0
4122.94871767, 4059.99999959, 3680.25640908, 3813.07692218, 4118.58974332, 3979.99999945, 3994.74358919, 4029.35897388, 3979.87179432, 4137.56410236, 4108.33333306, 4034.87179439, 4127.17948691, 4145.12820492,12.0
4120.76923050, 4055.64102523, 3675.89743472, 3804.87179390, 4114.74358947, 3972.30769176, 3986.66666611, 4020.25640977, 3972.43589688, 4137.56410236, 4104.74358947, 4015.64102516, 4126.53846126, 4143.07692287,12.0
4122.69230742, 4047.69230728, 3670.12820388, 3804.10256313, 4113.46153819, 3972.30769176, 3986.53846099, 4025.64102516, 3977.43589688, 4137.56410236, 4099.35897402, 4001.92307637, 4128.33333306, 4142.43589723,12.0
4122.17948691, 4049.99999959, 3660.12820388, 3811.66666577, 4115.76923050, 3976.41025586, 3991.02564047, 4039.61538420, 3990.51281996, 4137.56410236, 4099.48717914, 4006.66666618, 4129.87179460, 4146.02564082,12.0
4125.51282024, 4054.87179446, 3710.51281940, 3816.15384525, 4118.71794844, 3971.53846099, 3983.46153791, 4042.56410215, 3992.94871740, 4137.56410236, 4097.05128171, 4004.74358926, 4129.87179460, 4148.84615364,12.0
4124.99999973, 4052.43589702, 3828.07692218, 3819.35897346, 4114.99999973, 3968.58974297, 3971.79487124, 4029.35897388, 3978.97435842, 4137.56410236, 4093.97435863, 4001.15384560, 4126.92307665, 4146.15384595,12.0
4120.12820485, 4051.15384574, 3898.46153770, 3824.99999910, 4113.33333306, 3970.38461476, 3968.97435835, 4010.76923029, 3968.20512758, 4138.07692287, 4093.71794837, 4005.38461490, 4127.56410229, 4144.10256390,12.0
4120.64102537, 4051.66666625, 3886.92307616, 3827.69230679, 4113.97435870, 3970.76923015, 3973.46153791, 4005.12820465, 3967.94871733, 4138.71794851, 4090.76923043, 4005.64102516, 4132.05128178, 4145.51282031,12.0
4119.99999973, 4052.05128164, 4013.58974311, 3827.43589654, 4110.25640998, 3974.87179432, 3980.76923022, 4008.58974311, 3962.82051220, 4136.15384595, 4087.56410222, 4003.58974304, 4129.99999973, 4146.15384595,12.0
4123.33333306, 4058.33333292, 4327.56410271, 3837.69230679, 4112.43589716, 3981.92307637, 3989.48717894, 4011.28205080, 3963.20512758, 4138.71794851, 4089.61538427, 4009.99999952, 4126.28205101, 4144.48717928,12.0
4124.87179460, 4060.89743548, 4482.94871844, 3849.74358891, 4114.35897408, 3982.56410201, 3993.71794817, 4017.69230721, 3978.97435842, 4140.51282031, 4094.10256376, 4018.84615336, 4128.20512793, 4143.71794851,12.0
4122.05128178, 4056.02564061, 4424.74359009, 3845.64102481, 4111.41025614, 3979.10256355, 3989.10256355, 4017.94871747, 3982.05128150, 4125.64102537, 4095.38461504, 4016.02564054, 4128.46153819, 4145.89743569,12.0
4126.28205101, 4052.94871754, 4405.12820548, 3842.69230686, 4112.56410229, 3977.69230714, 3985.38461483, 4008.20512772, 3971.53846099, 4121.28205101, 4092.69230735, 4006.53846106, 4124.23076896, 4145.64102544,12.0
4125.38461511, 4051.28205087, 4259.23076923, 3848.33333250, 4112.30769203, 3975.25640970, 3982.05128150, 4006.79487131, 3978.20512765, 4129.99999973, 4092.30769196, 4004.74358926, 4125.38461511, 4144.35897415,12.0
4124.35897408, 4049.10256369, 3885.38461462, 3847.30769148, 4114.10256383, 3973.33333278, 3977.30769176, 4012.82051234, 3988.97435842, 4127.30769203, 4095.51282017, 4007.94871747, 4132.30769203, 4146.66666646,12.0
4125.12820485, 4046.28205087, 3689.87179369, 3845.12820430, 4114.23076896, 3979.10256355, 3980.38461483, 4012.17948670, 3983.46153791, 4124.23076896, 4096.15384581, 4009.87179439, 4130.25640998, 4145.89743569,12.0
4120.89743562, 4042.69230728, 3753.97435794, 3850.51281968, 4112.17948691, 3984.61538406, 3986.41025586, 4009.23076875, 3978.07692252, 4132.17948691, 4095.51282017, 4012.05128157, 4125.76923050, 4143.33333313,12.0
4123.46153819, 4045.51282010, 3772.82051178, 3857.05128122, 4114.61538434, 3985.25640970, 3989.35897381, 4017.17948670, 3988.84615329, 4138.07692287, 4100.38461504, 4021.53846106, 4129.87179460, 4145.38461518,12.0
4123.20512793, 4056.28205087, 3745.25640922, 3867.43589661, 4114.99999973, 3986.66666611, 3993.71794817, 4030.76923029, 4006.53846106, 4129.48717921, 4104.35897408, 4040.64102523, 4133.20512793, 4146.79487159,12.0
4121.02564075, 4068.46153805, 3770.25640922, 3885.25640950, 4115.38461511, 3993.20512765, 4001.41025586, 4045.12820472, 4015.25640977, 4123.46153819, 4104.74358947, 4054.61538420, 4129.99999973, 4145.12820492,12.0
4124.35897408, 4076.66666632, 3782.56410160, 3899.87179411, 4115.12820485, 4002.69230714, 4008.33333285, 4053.46153805, 4019.61538413, 4131.66666639, 4107.17948691, 4059.48717907, 4127.43589716, 4144.74358954,12.0
4123.97435870, 4074.87179453, 3772.56410153, 3898.84615309, 4113.71794844, 4002.17948663, 4011.28205080, 4046.92307651, 4018.71794824, 4134.61538434, 4107.56410229, 4059.10256369, 4127.43589716, 4144.87179467,12.0
4123.33333306, 4066.53846113, 3771.66666563, 3893.46153770, 4116.02564075, 3997.05128150, 4011.41025593, 4043.97435856, 4019.23076875, 4128.33333306, 4106.41025614, 4055.89743548, 4127.82051255, 4145.38461518,12.0
4122.82051255, 4064.10256369, 3772.05128101, 3896.02564027, 4115.51282024, 4001.66666611, 4013.20512772, 4052.05128164, 4027.69230721, 4130.25640998, 4107.56410229, 4055.25640984, 4127.43589716, 4146.28205108,12.0
4124.23076896, 4066.92307651, 3779.35897339, 3895.89743514, 4113.20512793, 4008.58974311, 4017.17948670, 4054.99999959, 4029.99999952, 4136.15384595, 4106.53846126, 4051.79487138, 4127.94871767, 4145.25641005,12.0
4123.71794844, 4063.84615343, 3781.53846057, 3890.76923001, 4112.30769203, 4008.71794824, 4017.94871747, 4051.66666625, 4026.79487131, 4128.58974332, 4102.69230742, 4043.58974318, 4128.84615357, 4142.43589723,12.0
4120.38461511, 4056.02564061, 3779.23076826, 3888.97435821, 4115.38461511, 4009.23076875, 4016.02564054, 4048.46153805, 4027.30769183, 4125.76923050, 4101.15384581, 4038.33333292, 4126.53846126, 4143.71794851,12.0
4122.17948691, 4054.74358933, 3783.97435801, 3888.58974283, 4118.20512793, 4011.41025593, 4015.76923029, 4048.07692266, 4027.56410208, 4132.69230742, 4102.17948684, 4040.76923036, 4126.66666639, 4146.02564082,12.0
4124.10256383, 4061.02564061, 3788.71794775, 3894.87179411, 4112.17948691, 4014.87179439, 4021.02564054, 4049.10256369, 4033.84615336, 4132.30769203, 4106.28205101, 4048.20512779, 4129.10256383, 4143.71794851,12.0
4124.61538434, 4069.10256369, 3796.53846057, 3912.05128136, 4111.66666639, 4019.87179439, 4028.71794824, 4057.69230728, 4054.48717907, 4132.30769203, 4111.02564075, 4060.38461497, 4127.43589716, 4144.48717928,12.0
4122.69230742, 4076.02564068, 3809.87179397, 3928.58974290, 4115.76923050, 4025.64102516, 4038.33333292, 4078.71794837, 4076.28205094, 4135.38461518, 4109.23076896, 4078.20512786, 4127.30769203, 4146.92307672,12.0
4121.28205101, 4080.38461504, 3816.41025551, 3932.56410187, 4114.35897408, 4027.30769183, 4044.48717907, 4089.35897402, 4080.38461504, 4133.71794844, 4110.64102537, 4088.20512786, 4129.74358947, 4145.25641005,12.0
4123.97435870, 4078.58974325, 3821.41025551, 3926.66666598, 4113.07692280, 4026.79487131, 4043.84615343, 4077.43589709, 4068.71794830, 4131.15384588, 4116.15384588, 4077.56410222, 4128.71794844, 4144.61538441,12.0
4126.41025614, 4074.23076889, 3839.87179397, 3924.74358905, 4111.66666639, 4035.51282003, 4046.28205087, 4067.69230728, 4062.05128164, 4133.58974332, 4112.43589716, 4061.92307651, 4127.43589716, 4146.79487159,12.0
4128.84615357, 4076.53846119, 3863.33333250, 3934.87179418, 4114.61538434, 4044.74358933, 4052.30769189, 4073.46153812, 4069.74358940, 4135.25640998, 4105.64102537, 4063.84615343, 4128.20512793, 4146.41025621,12.0
4123.46153819, 4081.28205094, 3869.74358891, 3944.87179425, 4116.66666639, 4043.97435856, 4051.41025600, 4074.74358940, 4075.64102530, 4132.05128178, 4109.23076896, 4069.99999966, 4127.30769203, 4145.51282031,12.0
4119.10256383, 4077.69230735, 3865.25640943, 3940.12820451, 4112.43589716, 4035.25640977, 4037.94871754, 4056.66666625, 4062.56410215, 4132.69230742, 4110.25640998, 4059.61538420, 4126.02564075, 4147.56410236,12.0
4122.94871767, 4069.35897395, 3877.43589668, 3932.69230700, 4112.56410229, 4024.99999952, 4020.64102516, 4039.48717907, 4042.17948677, 4136.53846133, 4103.58974332, 4047.43589702, 4127.43589716, 4146.41025621,12.0
4122.17948691, 4070.76923043, 3898.71794796, 3938.84615322, 4113.46153819, 4019.61538413, 4014.35897388, 4037.94871754, 4036.66666618, 4135.51282031, 4104.61538434, 4054.61538420, 4128.07692280, 4144.99999980,12.0
4124.74358947, 4078.46153812, 3906.66666598, 3945.76923015, 4114.23076896, 4024.10256362, 4024.99999952, 4048.97435856, 4048.20512779, 4134.23076896, 4108.71794844, 4068.20512779, 4128.07692280, 4145.38461518,12.0
4124.61538434, 4078.46153812, 3906.53846085, 3945.76923015, 4113.33333306, 4031.92307644, 4039.35897395, 4063.07692266, 4063.20512779, 4135.25640998, 4104.61538434, 4070.76923043, 4127.69230742, 4144.99999980,12.0
4120.89743562, 4073.58974325, 3915.89743521, 3945.25640963, 4111.02564075, 4033.58974311, 4041.41025600, 4063.07692266, 4064.35897395, 4128.33333306, 4100.25640991, 4064.61538420, 4125.64102537, 4145.12820492,12.0
4125.12820485, 4071.79487145, 3931.92307623, 3946.02564040, 4113.97435870, 4035.64102516, 4042.05128164, 4057.05128164, 4058.46153805, 4121.79487152, 4101.79487145, 4060.51282010, 4128.20512793, 4146.92307672,12.0
4124.10256383, 4069.10256369, 3958.46153784, 3942.82051220, 4113.20512793, 4036.28205080, 4044.35897395, 4058.33333292, 4057.17948677, 4129.74358947, 4101.79487145, 4057.05128164, 4130.89743562, 4144.74358954,12.0
4121.15384588, 4069.23076882, 4016.41025593, 3943.33333271, 4109.99999973, 4033.71794824, 4044.35897395, 4055.76923036, 4053.07692266, 4133.20512793, 4102.17948684, 4055.12820472, 4128.58974332, 4142.82051262,12.0
4124.87179460, 4072.82051248, 3995.12820458, 3948.33333271, 4110.76923050, 4033.33333285, 4043.97435856, 4046.66666625, 4042.82051241, 4124.87179460, 4102.43589709, 4055.64102523, 4127.05128178, 4145.51282031,12.0
4124.10256383, 4068.33333292, 4012.05128157, 3935.25640957, 4111.28205101, 4036.41025593, 4050.64102523, 4052.43589702, 4045.89743548, 4128.46153819, 4093.58974325, 4048.07692266, 4126.28205101, 4145.76923056,12.0
4122.94871767, 4066.02564061, 4349.74358996, 3927.82051213, 4112.94871767, 4040.76923036, 4057.05128164, 4070.12820478, 4062.43589702, 4139.74358954, 4092.82051248, 4041.92307651, 4125.64102537, 4143.71794851,12.0
4125.64102537, 4069.99999966, 4708.71794969, 3951.28205066, 4111.79487152, 4039.48717907, 4048.97435856, 4066.66666625, 4059.10256369, 4137.05128185, 4103.58974332, 4043.58974318, 4125.76923050, 4143.58974339,12.0
4125.76923050, 4067.05128164, 4704.35897534, 3967.17948656, 4110.76923050, 4034.99999952, 4037.05128164, 4046.28205087, 4043.58974318, 4134.48717921, 4101.28205094, 4036.02564054, 4125.76923050, 4144.87179467,12.0
4124.87179460, 4060.89743548, 4591.28205198, 3952.05128143, 4114.35897408, 4032.94871747, 4034.23076875, 4040.76923036, 4042.82051241, 4138.33333313, 4090.64102530, 4021.02564054, 4126.66666639, 4145.76923056,12.0
4122.30769203, 4059.87179446, 4615.89743667, 3940.64102502, 4115.12820485, 4032.69230721, 4033.46153798, 4044.48717907, 4047.30769189, 4135.25640998, 4090.25640991, 4017.94871747, 4127.30769203, 4145.25641005,12.0
4122.30769203, 4061.79487138, 4618.58974436, 3944.10256348, 4115.25640998, 4030.12820465, 4031.02564054, 4043.97435856, 4046.15384574, 4133.97435870, 4090.89743555, 4027.43589695, 4126.92307665, 4145.64102544,12.0
4124.74358947, 4062.30769189, 4572.05128275, 3944.99999938, 4115.64102537, 4027.56410208, 4032.82051234, 4047.05128164, 4050.12820472, 4138.46153826, 4090.12820478, 4033.58974311, 4126.28205101, 4143.97435877,12.0
4123.58974332, 4064.23076882, 4570.00000070, 3949.35897374, 4113.46153819, 4033.97435849, 4038.58974318, 4057.82051241, 4067.30769189, 4131.66666639, 4092.56410222, 4035.64102516, 4127.69230742, 4142.69230749,12.0
4123.33333306, 4067.17948677, 4564.35897506, 3957.17948656, 4114.10256383, 4043.07692266, 4045.25640984, 4066.92307651, 4077.17948684, 4122.69230742, 4092.82051248, 4042.43589702, 4127.43589716, 4144.87179467,12.0
4121.79487152, 4066.79487138, 4556.15384678, 3960.51281989, 4113.84615357, 4046.28205087, 4049.99999959, 4065.51282010, 4064.48717907, 4129.48717921, 4092.56410222, 4048.20512779, 4125.76923050, 4145.38461518,12.0
4122.82051255, 4062.43589702, 4551.15384678, 3957.05128143, 4115.51282024, 4046.92307651, 4049.48717907, 4059.48717907, 4049.61538420, 4135.51282031, 4091.53846119, 4032.94871747, 4126.53846126, 4142.69230749,12.0
4125.12820485, 4055.76923036, 4532.56410319, 3952.30769169, 4117.56410229, 4050.38461497, 4050.51282010, 4061.66666625, 4055.25640984, 4132.05128178, 4088.97435863, 4011.79487131, 4127.69230742, 4142.69230749,12.0
4122.43589716, 4054.10256369, 4511.28205184, 3955.64102502, 4114.48717921, 4058.46153805, 4063.07692266, 4069.35897395, 4069.48717907, 4129.87179460, 4093.07692273, 4013.33333285, 4126.02564075, 4144.61538441,12.0
4123.46153819, 4059.48717907, 4498.07692364, 3958.97435835, 4116.41025614, 4066.66666625, 4076.28205094, 4076.15384581, 4075.76923043, 4133.33333306, 4095.89743555, 4019.61538413, 4125.38461511, 4145.25641005,12.0
4123.20512793, 4061.53846113, 4488.71794921, 3957.43589681, 4117.43589716, 4070.12820478, 4071.02564068, 4077.43589709, 4079.35897402, 4133.58974332, 4094.35897402, 4019.61538413, 4126.41025614, 4146.28205108,12.0
4119.87179460, 4059.87179446, 4477.30769280, 3960.25640963, 4114.61538434, 4065.12820472, 4056.28205087, 4066.92307651, 4076.02564068, 4129.99999973, 4095.64102530, 4025.76923029, 4126.66666639, 4144.99999980,12.0
4121.02564075, 4063.20512779, 4469.74359023, 3969.99999938, 4115.76923050, 4059.23076882, 4053.33333292, 4056.79487138, 4068.84615343, 4131.92307665, 4093.84615350, 4035.76923029, 4127.30769203, 4142.05128185,12.0
4122.17948691, 4073.46153812, 4465.89743639, 3981.02564047, 4116.02564075, 4063.84615343, 4063.07692266, 4062.94871754, 4078.97435863, 4133.97435870, 4094.61538427, 4050.76923036, 4127.82051255, 4144.48717928,12.0
4122.43589716, 4079.48717914, 4459.74359016, 3991.66666611, 4115.12820485, 4072.43589709, 4074.99999966, 4074.23076889, 4094.23076889, 4132.30769203, 4103.58974332, 4064.48717907, 4124.99999973, 4147.82051262,12.0
4123.20512793, 4074.23076889, 4445.38461581, 3996.92307637, 4114.87179460, 4069.61538420, 4077.05128171, 4071.28205094, 4084.87179453, 4132.43589716, 4106.15384588, 4063.20512779, 4124.99999973, 4147.05128185,12.0
4125.38461511, 4072.43589709, 4431.28205170, 4001.53846099, 4116.41025614, 4064.87179446, 4071.28205094, 4069.61538420, 4075.89743555, 4129.35897408, 4101.02564068, 4062.82051241, 4128.33333306, 4146.79487159,12.0
4124.74358947, 4080.38461504, 4426.79487215, 4008.84615336, 4115.76923050, 4073.33333299, 4074.61538427, 4087.43589709, 4098.58974325, 4125.12820485, 4101.28205094, 4074.61538427, 4127.43589716, 4146.15384595,12.0
4122.82051255, 4084.99999966, 4419.35897471, 4016.66666618, 4112.56410229, 4080.76923043, 4083.33333299, 4097.43589709, 4113.46153819, 4128.33333306, 4106.15384588, 4081.79487145, 4124.61538434, 4144.87179467,12.0
4124.87179460, 4082.56410222, 4402.94871830, 4023.97435849, 4115.89743562, 4074.61538427, 4076.92307658, 4087.56410222, 4096.92307658, 4132.82051255, 4107.56410229, 4081.41025607, 4127.82051255, 4147.56410236,12.0
4122.17948691, 4080.38461504, 4389.23076951, 4024.48717900, 4117.43589716, 4067.43589702, 4064.87179446, 4077.69230735, 4083.97435863, 4130.38461511, 4108.07692280, 4083.33333299, 4131.41025614, 4149.48717928,12.0
4122.56410229, 4081.41025607, 4381.79487208, 4019.99999952, 4115.89743562, 4071.02564068, 4067.43589702, 4074.10256376, 4085.89743555, 4130.38461511, 4107.94871767, 4079.99999966, 4128.20512793, 4146.53846133,12.0
4127.94871767, 4078.33333299, 4368.07692336, 4015.38461490, 4117.17948691, 4076.02564068, 4074.61538427, 4073.20512786, 4080.76923043, 4133.71794844, 4102.69230742, 4071.15384581, 4126.79487152, 4144.35897415,12.0
4124.74358947, 4072.30769196, 4346.79487201, 4013.58974311, 4114.23076896, 4069.35897395, 4066.15384574, 4068.58974318, 4070.89743555, 4130.89743562, 4094.10256376, 4062.05128164, 4129.10256383, 4145.12820492,12.0
4124.35897408, 4072.17948684, 4333.71794893, 4011.79487131, 4115.12820485, 4060.64102523, 4056.28205087, 4063.33333292, 4068.20512779, 4130.12820485, 4094.74358940, 4055.38461497, 4129.10256383, 4146.15384595,12.0
4126.53846126, 4077.56410222, 4326.28205142, 4012.69230721, 4117.56410229, 4064.99999959, 4066.66666625, 4069.35897395, 4076.66666632, 4134.74358947, 4102.94871767, 4062.69230728, 4129.35897408, 4144.99999980,12.0
4127.05128178, 4082.82051248, 4316.41025655, 4021.66666618, 4115.38461511, 4074.48717914, 4081.53846119, 4079.74358940, 4086.66666632, 4128.46153819, 4102.17948684, 4070.38461504, 4128.71794844, 4143.97435877,12.0
4126.15384588, 4079.74358940, 4305.76923091, 4019.99999952, 4116.66666639, 4067.43589702, 4070.89743555, 4071.02564068, 4076.28205094, 4123.20512793, 4095.89743555, 4059.23076882, 4127.30769203, 4144.99999980,12.0
4123.20512793, 4073.97435863, 4298.33333341, 4010.64102516, 4115.64102537, 4056.28205087, 4055.38461497, 4060.51282010, 4067.43589702, 4130.51282024, 4094.35897402, 4053.84615343, 4126.66666639, 4145.25641005,12.0
4125.51282024, 4075.51282017, 4292.05128212, 4007.94871747, 4114.61538434, 4059.74358933, 4064.10256369, 4072.43589709, 4080.38461504, 4130.38461511, 4094.99999966, 4061.53846113, 4127.43589716, 4143.20512800,12.0
4123.33333306, 4065.76923036, 4268.97435905, 3994.61538406, 4114.23076896, 4048.58974318, 4054.74358933, 4068.07692266, 4072.30769196, 4124.99999973, 4088.46153812, 4039.87179446, 4127.69230742, 4141.66666646,12.0
4122.56410229, 4038.97435856, 4233.33333327, 3960.25640963, 4111.66666639, 4010.25640977, 4006.79487131, 4026.28205080, 4024.99999952, 4128.07692280, 4072.05128171, 3990.89743535, 4126.15384588, 4142.82051262,12.0
4124.99999973, 4026.15384567, 4208.97435891, 3940.38461476, 4113.58974332, 3986.79487124, 3979.87179432, 3997.43589688, 3993.20512765, 4130.51282024, 4061.15384574, 3970.64102502, 4126.02564075, 4145.38461518,12.0
4122.43589716, 4036.79487131, 4203.20512814, 3954.99999938, 4114.10256383, 3997.82051227, 3995.64102509, 4000.76923022, 4000.64102509, 4128.20512793, 4067.69230728, 3987.30769176, 4126.53846126, 4144.35897415,12.0
4126.02564075, 4043.84615343, 4195.89743576, 3964.61538399, 4113.33333306, 4009.23076875, 4003.58974304, 3998.97435842, 4001.02564047, 4126.92307665, 4073.84615350, 3992.17948663, 4126.28205101, 4142.82051262,12.0
4124.74358947, 4039.74358933, 4178.71794858, 3958.84615322, 4112.94871767, 4006.28205080, 3993.07692252, 3991.15384560, 3990.25640970, 4128.20512793, 4069.48717907, 3978.58974304, 4125.12820485, 4144.87179467,12.0
4120.38461511, 4042.94871754, 4178.58974345, 3964.23076861, 4114.74358947, 4007.17948670, 3998.33333278, 3994.23076868, 3992.30769176, 4130.51282024, 4065.89743548, 3978.97435842, 4123.20512793, 4145.89743569,12.0
4122.43589716, 4049.10256369, 4193.58974345, 3976.28205073, 4118.07692280, 4010.89743541, 4005.64102516, 3997.56410201, 3999.87179432, 4131.28205101, 4068.84615343, 3992.82051227, 4125.51282024, 4145.25641005,12.0
4124.99999973, 4074.74358940, 4167.69230749, 4036.02564054, 4113.33333306, 4028.20512772, 4005.12820465, 4014.74358926, 4020.51282003, 4129.48717921, 4078.71794837, 4048.07692266, 4127.30769203, 4145.38461518,12.0
4128.07692280, 4067.69230728, 4153.71794851, 4021.41025593, 4114.48717921, 4023.71794824, 4000.25640970, 4003.20512765, 4004.23076875, 4124.10256383, 4073.20512786, 4041.41025600, 4125.76923050, 4146.53846133,12.0
4120.25640998, 4068.97435856, 4138.33333313, 4020.76923029, 4111.28205101, 4031.02564054, 4009.99999952, 4006.66666618, 4008.20512772, 4127.94871767, 4072.94871761, 4031.28205080, 4125.51282024, 4145.89743569,12.0
4120.25640998, 4068.97435856, 4138.33333313, 4020.76923029, 4111.28205101, 4031.02564054, 4009.99999952, 4006.66666618, 4008.20512772, 4127.94871767, 4072.94871761, 4031.28205080, 4125.51282024, 4145.89743569,12.0
4120.12820485, 4072.43589709, 4132.94871767, 4027.82051234, 4113.71794844, 4043.97435856, 4020.12820465, 4014.35897388, 4017.05128157, 4135.38461518, 4076.02564068, 4033.58974311, 4125.25640998, 4146.28205108,12.0
4120.12820485, 4072.69230735, 4132.69230742, 4027.56410208, 4115.89743562, 4047.94871754, 4026.53846106, 4020.25640977, 4019.48717900, 4136.02564082, 4074.35897402, 4044.35897395, 4126.02564075, 4146.66666646,12.0
4123.20512793, 4078.46153812, 4129.10256383, 4035.51282003, 4114.35897408, 4043.71794830, 4024.99999952, 4024.74358926, 4029.74358926, 4128.71794844, 4074.35897402, 4056.02564061, 4126.66666639, 4145.38461518,12.0
4124.23076896, 4082.69230735, 4118.46153819, 4051.79487138, 4114.99999973, 4040.89743548, 4020.76923029, 4024.99999952, 4036.66666618, 4122.30769203, 4083.97435863, 4057.82051241, 4126.53846126, 4145.89743569,12.0
4118.71794844, 4078.84615350, 4103.58974332, 4058.97435856, 4113.07692280, 4043.07692266, 4024.74358926, 4023.33333285, 4033.07692259, 4127.69230742, 4091.15384581, 4052.56410215, 4126.79487152, 4146.28205108,12.0
4122.94871767, 4078.20512786, 4097.69230735, 4055.89743548, 4113.97435870, 4043.58974318, 4023.07692259, 4020.51282003, 4033.58974311, 4136.92307672, 4085.51282017, 4053.97435856, 4126.92307665, 4145.64102544,12.0
4124.74358947, 4082.43589709, 4095.64102530, 4056.28205087, 4115.38461511, 4039.10256369, 4009.61538413, 4016.66666618, 4033.97435849, 4131.92307665, 4079.23076889, 4062.05128164, 4126.15384588, 4145.12820492,12.0
4121.28205101, 4086.15384581, 4088.58974325, 4066.41025600, 4112.30769203, 4037.43589702, 4008.33333285, 4016.53846106, 4034.10256362, 4125.25640998, 4082.05128171, 4071.15384581, 4124.10256383, 4146.53846133,12.0
4121.92307665, 4089.10256376, 4081.53846119, 4073.33333299, 4114.48717921, 4047.30769189, 4024.48717900, 4022.69230721, 4047.94871754, 4131.41025614, 4088.33333299, 4078.20512786, 4126.53846126, 4149.48717928,12.0
4123.07692280, 4085.76923043, 4066.28205087, 4064.48717907, 4117.69230742, 4053.58974318, 4025.38461490, 4020.76923029, 4050.64102523, 4134.10256383, 4085.89743555, 4074.23076889, 4128.07692280, 4148.71794851,12.0
4124.87179460, 4080.25640991, 4044.35897395, 4051.66666625, 4116.66666639, 4047.94871754, 4014.23076875, 4010.12820465, 4027.56410208, 4130.64102537, 4076.41025607, 4059.10256369, 4124.10256383, 4144.23076903,12.0
4122.82051255, 4083.84615350, 4037.30769189, 4056.41025600, 4114.87179460, 4051.53846113, 4021.66666618, 4009.99999952, 4018.20512772, 4131.66666639, 4074.23076889, 4056.41025600, 4125.12820485, 4143.46153826,12.0
4122.69230742, 4088.20512786, 4037.05128164, 4067.17948677, 4113.84615357, 4064.87179446, 4033.71794824, 4014.99999952, 4029.10256362, 4132.69230742, 4074.87179453, 4063.97435856, 4128.84615357, 4146.53846133,12.0
4126.15384588, 4085.12820478, 4027.17948670, 4063.58974318, 4116.53846126, 4060.25640984, 4031.92307644, 4016.66666618, 4030.12820465, 4132.30769203, 4072.05128171, 4058.71794830, 4125.64102537, 4146.66666646,12.0
4123.97435870, 4082.43589709, 4016.53846106, 4057.94871754, 4116.02564075, 4045.25640984, 4028.33333285, 4019.87179439, 4026.28205080, 4132.43589716, 4071.41025607, 4048.84615343, 4124.87179460, 4145.38461518,12.0
4121.66666639, 4082.56410222, 4014.61538413, 4063.97435856, 4114.48717921, 4046.92307651, 4033.33333285, 4024.23076875, 4031.28205080, 4131.66666639, 4074.99999966, 4051.15384574, 4130.51282024, 4146.28205108,12.0
4123.84615357, 4081.28205094, 4013.07692259, 4067.82051241, 4115.89743562, 4056.79487138, 4040.76923036, 4025.38461490, 4035.25640977, 4132.56410229, 4081.02564068, 4058.46153805, 4130.89743562, 4146.79487159,12.0
4124.23076896, 4080.12820478, 4008.07692259, 4063.84615343, 4115.51282024, 4058.33333292, 4037.94871754, 4026.41025593, 4036.02564054, 4129.74358947, 4088.07692273, 4061.41025600, 4124.35897408, 4146.28205108,12.0
4120.89743562, 4080.25640991, 4007.69230721, 4063.84615343, 4116.53846126, 4054.74358933, 4029.23076875, 4027.43589695, 4036.79487131, 4126.53846126, 4086.53846119, 4066.41025600, 4123.84615357, 4145.64102544,12.0
4118.07692280, 4081.41025607, 4010.12820465, 4071.15384581, 4115.76923050, 4053.07692266, 4029.87179439, 4024.23076875, 4036.53846106, 4130.38461511, 4079.48717914, 4075.38461504, 4127.30769203, 4145.64102544,12.0
4119.23076896, 4085.51282017, 4008.71794824, 4076.02564068, 4113.58974332, 4055.25640984, 4031.79487131, 4022.05128157, 4033.46153798, 4132.30769203, 4082.43589709, 4083.71794837, 4125.12820485, 4146.41025621,12.0
4123.84615357, 4088.46153812, 4006.66666618, 4076.79487145, 4115.12820485, 4055.12820472, 4023.84615336, 4027.17948670, 4027.43589695, 4130.38461511, 4090.38461504, 4085.38461504, 4123.33333306, 4145.64102544,12.0
4122.69230742, 4089.87179453, 4003.97435842, 4079.61538427, 4113.46153819, 4056.15384574, 4023.84615336, 4032.56410208, 4033.84615336, 4128.33333306, 4090.51282017, 4084.10256376, 4124.87179460, 4144.99999980,12.0
4120.51282024, 4088.97435863, 3995.38461483, 4078.07692273, 4115.38461511, 4059.99999959, 4034.10256362, 4032.94871747, 4042.82051241, 4126.53846126, 4085.51282017, 4083.07692273, 4126.15384588, 4147.56410236,12.0
4123.71794844, 4084.48717914, 3980.25640970, 4071.28205094, 4118.97435870, 4062.30769189, 4033.46153798, 4032.56410208, 4036.66666618, 4127.56410229, 4081.53846119, 4073.58974325, 4124.48717921, 4146.79487159,12.0
4118.97435870, 4083.97435863, 3969.23076861, 4070.38461504, 4114.48717921, 4067.30769189, 4031.79487131, 4034.87179439, 4038.58974318, 4133.46153819, 4081.79487145, 4068.58974318, 4124.23076896, 4143.84615364,12.0
4116.28205101, 4088.46153812, 3965.25640963, 4074.74358940, 4114.61538434, 4071.66666632, 4039.23076882, 4037.30769189, 4047.56410215, 4135.38461518, 4087.30769196, 4079.10256376, 4127.05128178, 4146.02564082,12.0
4120.12820485, 4087.69230735, 3958.71794810, 4068.33333292, 4117.17948691, 4067.94871754, 4037.43589702, 4030.76923029, 4039.10256369, 4127.17948691, 4092.05128171, 4082.82051248, 4127.56410229, 4146.66666646,12.0
4118.46153819, 4084.74358940, 3950.89743528, 4059.10256369, 4116.41025614, 4068.84615343, 4033.33333285, 4028.46153798, 4033.46153798, 4122.30769203, 4087.05128171, 4071.53846119, 4126.53846126, 4145.12820492,12.0
4117.94871767, 4090.89743555, 3947.43589681, 4069.10256369, 4115.89743562, 4076.41025607, 4041.15384574, 4036.15384567, 4046.66666625, 4129.23076896, 4081.66666632, 4071.92307658, 4126.28205101, 4147.69230749,12.0
4122.05128178, 4093.97435863, 3946.79487117, 4080.76923043, 4115.12820485, 4071.02564068, 4042.43589702, 4035.89743541, 4048.33333292, 4132.69230742, 4083.97435863, 4082.82051248, 4124.99999973, 4147.82051262,12.0
4125.76923050, 4084.23076889, 3941.02564040, 4072.43589709, 4117.17948691, 4065.76923036, 4034.74358926, 4033.20512772, 4036.79487131, 4125.89743562, 4084.23076889, 4078.46153812, 4123.20512793, 4144.35897415,12.0
4123.97435870, 4080.38461504, 3927.69230700, 4062.56410215, 4116.15384588, 4074.48717914, 4035.76923029, 4033.46153798, 4034.10256362, 4128.71794844, 4080.89743555, 4066.66666625, 4124.48717921, 4144.99999980,12.0
4122.30769203, 4086.41025607, 3917.17948649, 4067.94871754, 4113.58974332, 4077.05128171, 4038.07692266, 4027.56410208, 4033.46153798, 4136.92307672, 4081.66666632, 4067.30769189, 4125.25640998, 4147.43589723,12.0
4124.74358947, 4088.71794837, 3912.43589674, 4074.99999966, 4114.99999973, 4074.61538427, 4036.92307651, 4027.05128157, 4035.64102516, 4132.05128178, 4082.94871761, 4069.23076882, 4124.48717921, 4144.87179467,12.0
4126.15384588, 4086.92307658, 3907.17948649, 4075.12820478, 4116.02564075, 4076.41025607, 4040.64102523, 4034.10256362, 4040.64102523, 4128.71794844, 4081.53846119, 4068.33333292, 4123.58974332, 4143.97435877,12.0
4125.25640998, 4087.17948684, 3901.28205052, 4072.94871761, 4115.51282024, 4078.58974325, 4045.38461497, 4034.10256362, 4040.38461497, 4135.89743569, 4084.10256376, 4077.56410222, 4125.25640998, 4146.53846133,12.0
4123.84615357, 4090.12820478, 3895.38461462, 4075.76923043, 4114.99999973, 4082.56410222, 4052.43589702, 4041.15384574, 4044.23076882, 4133.46153819, 4088.46153812, 4091.53846119, 4127.82051255, 4144.61538441,12.0
4121.53846126, 4097.30769196, 3887.43589668, 4086.79487145, 4115.51282024, 4087.82051248, 4056.41025600, 4059.10256369, 4054.10256369, 4121.66666639, 4088.71794837, 4095.51282017, 4127.82051255, 4142.82051262,12.0
4122.17948691, 4099.87179453, 3876.53846078, 4093.07692273, 4116.02564075, 4091.41025607, 4052.69230728, 4070.25640991, 4059.35897395, 4122.43589716, 4091.15384581, 4097.56410222, 4126.53846126, 4145.38461518,12.0
4122.82051255, 4088.97435863, 3853.58974276, 4084.87179453, 4114.74358947, 4088.58974325, 4048.84615343, 4069.48717907, 4054.35897395, 4130.51282024, 4091.79487145, 4098.84615350, 4124.23076896, 4145.12820492,12.0
4122.05128178, 4078.84615350, 3820.76922987, 4077.05128171, 4116.15384588, 4077.94871761, 4043.46153805, 4063.46153805, 4042.69230728, 4131.66666639, 4085.38461504, 4085.89743555, 4124.99999973, 4143.46153826,12.0
4121.79487152, 4081.53846119, 3804.87179390, 4087.43589709, 4114.99999973, 4081.92307658, 4045.38461497, 4071.02564068, 4048.58974318, 4128.20512793, 4084.48717914, 4087.69230735, 4126.41025614, 4144.61538441,12.0
4121.15384588, 4090.51282017, 3807.94871705, 4101.79487145, 4111.53846126, 4101.02564068, 4057.17948677, 4085.12820478, 4071.41025607, 4131.15384588, 4092.17948684, 4111.79487152, 4123.58974332, 4147.17948697,12.0
4123.46153819, 4095.64102530, 3804.74358877, 4105.76923050, 4113.84615357, 4108.71794844, 4067.43589702, 4092.05128171, 4078.58974325, 4136.53846133, 4093.84615350, 4119.99999973, 4122.56410229, 4146.28205108,12.0
4121.79487152, 4096.41025607, 3787.82051185, 4106.66666639, 4115.12820485, 4108.97435870, 4082.43589709, 4099.74358940, 4074.74358940, 4132.43589716, 4091.02564068, 4117.56410229, 4123.97435870, 4142.94871774,12.0
4118.58974332, 4095.64102530, 3770.76922973, 4102.94871767, 4114.35897408, 4105.25640998, 4087.56410222, 4102.56410229, 4077.56410222, 4126.53846126, 4090.76923043, 4119.74358947, 4126.66666639, 4143.84615364,12.0
4121.53846126, 4095.51282017, 3760.51281947, 4100.64102530, 4113.33333306, 4099.87179453, 4073.33333299, 4090.38461504, 4074.10256376, 4126.92307665, 4092.94871761, 4121.02564075, 4125.89743562, 4145.89743569,12.0
4122.17948691, 4096.66666632, 3738.97435787, 4105.64102537, 4113.33333306, 4103.33333306, 4066.41025600, 4078.33333299, 4067.05128164, 4134.87179460, 4094.48717914, 4118.46153819, 4123.07692280, 4143.33333313,12.0
4120.89743562, 4097.94871761, 3695.12820395, 4106.92307665, 4118.33333306, 4102.30769196, 4068.84615343, 4087.82051248, 4079.87179453, 4138.71794851, 4092.94871761, 4121.66666639, 4126.15384588, 4143.46153826,12.0
4120.12820485, 4096.28205094, 3655.25640901, 4102.30769196, 4117.30769203, 4088.07692273, 4057.17948677, 4098.07692273, 4091.41025607, 4131.79487152, 4090.12820478, 4124.99999973, 4127.43589716, 4146.02564082,12.0
4119.87179460, 4094.10256376, 3646.66666542, 4102.05128171, 4115.12820485, 4085.89743555, 4048.07692266, 4094.87179453, 4087.94871761, 4128.97435870, 4094.35897402, 4119.48717921, 4125.25640998, 4143.97435877,12.0
4121.66666639, 4099.10256376, 3651.41025516, 4108.97435870, 4117.82051255, 4101.66666632, 4067.82051241, 4100.25640991, 4094.99999966, 4133.07692280, 4099.61538427, 4120.25640998, 4126.15384588, 4141.02564082,12.0
4121.28205101, 4105.12820485, 3644.10256286, 4117.17948691, 4116.66666639, 4112.56410229, 4086.66666632, 4102.30769196, 4098.20512786, 4130.12820485, 4099.35897402, 4129.48717921, 4124.35897408, 4144.23076903,12.0
4121.41025614, 4105.25640998, 3633.46153715, 4120.51282024, 4115.25640998, 4113.71794844, 4084.23076889, 4089.61538427, 4086.02564068, 4124.74358947, 4098.71794837, 4136.15384595, 4123.58974332, 4148.33333313,12.0
4124.74358947, 4103.33333306, 3628.97435766, 4117.94871767, 4115.12820485, 4105.76923050, 4072.56410222, 4083.46153812, 4081.15384581, 4130.51282024, 4098.07692273, 4137.43589723, 4125.76923050, 4146.28205108,12.0
4124.99999973, 4104.74358947, 3628.58974227, 4117.56410229, 4116.66666639, 4099.10256376, 4072.56410222, 4091.92307658, 4084.35897402, 4134.99999973, 4097.69230735, 4135.38461518, 4123.71794844, 4145.25641005,12.0
4119.99999973, 4106.41025614, 3624.99999868, 4118.46153819, 4115.25640998, 4113.33333306, 4084.35897402, 4098.33333299, 4093.71794837, 4132.69230742, 4100.51282017, 4132.05128178, 4122.17948691, 4147.05128185,12.0
4117.43589716, 4104.35897408, 3613.97435766, 4116.53846126, 4112.43589716, 4126.15384588, 4083.46153812, 4092.30769196, 4105.76923050, 4129.48717921, 4100.76923043, 4131.79487152, 4123.07692280, 4145.76923056,12.0
4120.38461511, 4104.61538434, 3606.79487041, 4115.89743562, 4116.79487152, 4116.53846126, 4080.12820478, 4090.89743555, 4099.61538427, 4127.17948691, 4099.61538427, 4134.35897408, 4121.92307665, 4144.87179467,12.0
4121.28205101, 4109.35897408, 3607.43589605, 4119.10256383, 4117.17948691, 4110.64102537, 4089.23076889, 4104.23076896, 4090.76923043, 4129.87179460, 4101.15384581, 4138.33333313, 4121.79487152, 4145.25641005,12.0
4120.12820485, 4114.74358947, 3614.74358843, 4130.38461511, 4113.07692280, 4124.35897408, 4101.02564068, 4124.35897408, 4111.92307665, 4134.48717921, 4105.25640998, 4157.94871774, 4122.69230742, 4145.12820492,12.0
4120.64102537, 4117.56410229, 3610.25640894, 4139.10256390, 4114.99999973, 4128.84615357, 4097.82051248, 4123.84615357, 4120.38461511, 4133.58974332, 4109.23076896, 4177.30769217, 4123.58974332, 4145.25641005,12.0
4117.82051255, 4114.61538434, 3583.71794733, 4130.89743562, 4116.02564075, 4116.28205101, 4087.82051248, 4100.38461504, 4089.48717914, 4129.99999973, 4105.89743562, 4166.53846133, 4122.69230742, 4146.41025621,12.0
4117.69230742, 4111.53846126, 3566.92307547, 4124.61538434, 4116.79487152, 4117.69230742, 4097.05128171, 4101.92307658, 4085.51282017, 4131.15384588, 4101.41025607, 4150.76923056, 4122.30769203, 4146.02564082,12.0
4123.33333306, 4115.76923050, 3569.61538316, 4136.15384595, 4117.94871767, 4134.23076896, 4115.12820485, 4125.51282024, 4118.46153819, 4133.58974332, 4103.46153819, 4160.89743569, 4123.20512793, 4144.10256390,12.0
4122.30769203, 4119.99999973, 3566.15384470, 4143.97435877, 4118.20512793, 4140.51282031, 4119.35897408, 4122.82051255, 4126.15384588, 4132.94871767, 4106.41025614, 4175.38461525, 4121.79487152, 4144.35897415,12.0
4117.69230742, 4116.41025614, 3555.51281906, 4134.87179460, 4119.61538434, 4138.07692287, 4116.53846126, 4107.43589716, 4106.41025614, 4131.15384588, 4106.15384588, 4168.84615371, 4121.66666639, 4144.74358954,12.0
4118.07692280, 4114.48717921, 3547.56410111, 4127.56410229, 4118.20512793, 4137.69230749, 4115.25640998, 4110.25640998, 4100.38461504, 4127.30769203, 4102.94871767, 4156.66666646, 4122.56410229, 4143.97435877,12.0
4120.38461511, 4121.92307665, 3545.64102419, 4131.92307665, 4118.20512793, 4135.76923056, 4111.79487152, 4120.12820485, 4116.41025614, 4127.82051255, 4101.28205094, 4160.89743569, 4122.43589716, 4145.12820492,12.0
4118.97435870, 4122.17948691, 3550.38461393, 4138.33333313, 4119.99999973, 4135.38461518, 4112.30769203, 4120.51282024, 4124.23076896, 4133.33333306, 4104.35897408, 4172.69230756, 4122.30769203, 4145.89743569,12.0
4117.94871767, 4119.61538434, 3552.82051137, 4137.82051262, 4119.23076896, 4142.56410236, 4119.99999973, 4119.74358947, 4119.99999973, 4131.53846126, 4107.56410229, 4178.07692294, 4123.71794844, 4145.89743569,12.0
4122.17948691, 4124.35897408, 3546.66666521, 4136.15384595, 4118.71794844, 4143.84615364, 4119.74358947, 4119.99999973, 4120.38461511, 4126.53846126, 4105.51282024, 4178.07692294, 4125.12820485, 4146.79487159,12.0
4122.43589716, 4124.74358947, 3538.20512668, 4139.87179467, 4115.38461511, 4138.46153826, 4111.79487152, 4109.48717921, 4118.58974332, 4130.51282024, 4105.25640998, 4175.12820499, 4122.30769203, 4146.41025621,12.0
4119.61538434, 4122.56410229, 3534.10256258, 4139.87179467, 4115.76923050, 4136.15384595, 4108.97435870, 4106.02564075, 4112.94871767, 4135.64102544, 4106.92307665, 4171.02564089, 4120.89743562, 4147.17948697,12.0
4121.28205101, 4121.41025614, 3529.48717796, 4131.15384588, 4118.84615357, 4127.82051255, 4101.66666632, 4118.84615357, 4110.38461511, 4134.61538434, 4104.74358947, 4168.84615371, 4122.56410229, 4147.43589723,12.0
4122.82051255, 4120.89743562, 3525.51281899, 4129.23076896, 4116.15384588, 4123.07692280, 4095.64102530, 4128.71794844, 4115.51282024, 4130.25640998, 4105.51282024, 4172.05128192, 4122.94871767, 4146.53846133,12.0
4122.94871767, 4123.58974332, 3522.69230617, 4138.20512800, 4114.87179460, 4132.94871767, 4105.76923050, 4131.53846126, 4121.92307665, 4128.84615357, 4106.79487152, 4177.17948704, 4124.61538434, 4147.05128185,12.0
4122.56410229, 4123.84615357, 3513.84615232, 4138.20512800, 4115.64102537, 4140.64102544, 4117.43589716, 4131.41025614, 4125.51282024, 4128.58974332, 4105.12820485, 4179.10256397, 4126.53846126, 4145.89743569,12.0
4122.30769203, 4118.07692280, 3503.71794712, 4126.41025614, 4115.89743562, 4138.33333313, 4117.56410229, 4124.87179460, 4122.69230742, 4128.46153819, 4104.74358947, 4170.89743576, 4124.87179460, 4145.12820492,12.0
4122.17948691, 4118.20512793, 3499.99999841, 4121.41025614, 4117.69230742, 4131.53846126, 4105.12820485, 4111.92307665, 4107.82051255, 4130.76923050, 4106.28205101, 4160.89743569, 4122.82051255, 4145.64102544,12.0
4118.58974332, 4120.89743562, 3504.23076764, 4120.38461511, 4116.41025614, 4135.64102544, 4103.71794844, 4107.30769203, 4096.02564068, 4129.35897408, 4103.84615357, 4163.97435877, 4123.20512793, 4145.38461518,12.0
4118.84615357, 4112.56410229, 3507.30769071, 4110.64102537, 4115.76923050, 4145.38461518, 4119.99999973, 4114.23076896, 4098.07692273, 4126.41025614, 4099.10256376, 4165.51282031, 4124.48717921, 4145.51282031,12.0
4122.30769203, 4106.53846126, 3500.12820353, 4104.99999973, 4115.89743562, 4135.64102544, 4110.89743562, 4117.43589716, 4107.82051255, 4127.94871767, 4101.66666632, 4154.61538441, 4123.71794844, 4145.12820492,12.0
4119.48717921, 4111.41025614, 3495.12820353, 4113.97435870, 4117.56410229, 4112.56410229, 4080.25640991, 4113.07692280, 4109.48717921, 4128.33333306, 4106.79487152, 4151.53846133, 4123.33333306, 4144.99999980,12.0
4118.33333306, 4116.92307665, 3494.99999841, 4123.46153819, 4120.12820485, 4112.82051255, 4083.84615350, 4115.38461511, 4105.25640998, 4128.07692280, 4106.53846126, 4166.15384595, 4123.71794844, 4145.51282031,12.0
4121.15384588, 4121.79487152, 3464.48717782, 4127.69230742, 4117.43589716, 4136.53846133, 4113.84615357, 4126.02564075, 4113.07692280, 4129.35897408, 4107.43589716, 4181.79487166, 4122.05128178, 4144.35897415,12.0
4122.05128178, 4120.51282024, 3396.28204948, 4124.74358947, 4118.46153819, 4139.23076903, 4112.69230742, 4121.66666639, 4115.76923050, 4127.30769203, 4108.33333306, 4174.10256397, 4123.20512793, 4142.69230749,12.0
4120.38461511, 4111.66666639, 3335.38461344, 4114.10256383, 4119.87179460, 4118.33333306, 4086.92307658, 4106.79487152, 4103.33333306, 4126.28205101, 4103.07692280, 4153.58974339, 4124.99999973, 4143.33333313,12.0
4121.79487152, 4114.87179460, 3314.87179293, 4118.20512793, 4117.43589716, 4117.69230742, 4091.66666632, 4114.10256383, 4109.74358947, 4134.99999973, 4100.76923043, 4158.20512800, 4123.84615357, 4144.87179467,12.0
4124.61538434, 4128.84615357, 3318.07692114, 4133.97435870, 4118.33333306, 4140.38461518, 4122.17948691, 4136.79487159, 4131.28205101, 4137.82051262, 4107.30769203, 4183.07692294, 4124.23076896, 4145.64102544,12.0
4123.97435870, 4128.46153819, 3312.56410055, 4132.56410229, 4116.28205101, 4147.69230749, 4128.20512793, 4135.38461518, 4126.02564075, 4129.48717921, 4107.05128178, 4188.46153833, 4124.61538434, 4146.41025621,12.0
4124.35897408, 4119.35897408, 3302.69230568, 4118.33333306, 4114.99999973, 4131.53846126, 4103.20512793, 4119.61538434, 4109.87179460, 4127.69230742, 4103.07692280, 4178.33333320, 4123.71794844, 4146.79487159,12.0
4123.33333306, 4120.12820485, 3306.53845953, 4122.69230742, 4119.23076896, 4128.46153819, 4100.76923043, 4128.07692280, 4120.12820485, 4131.53846126, 4112.05128178, 4184.74358961, 4124.35897408, 4144.61538441,12.0
4122.30769203, 4124.35897408, 3314.10256209, 4135.64102544, 4119.87179460, 4135.89743569, 4119.35897408, 4140.12820492, 4133.71794844, 4129.87179460, 4119.74358947, 4194.87179474, 4124.10256383, 4143.97435877,12.0
4124.35897408, 4121.79487152, 3307.30769030, 4126.02564075, 4117.94871767, 4132.17948691, 4114.10256383, 4128.84615357, 4123.97435870, 4127.82051255, 4110.76923050, 4183.97435884, 4122.17948691, 4146.28205108,12.0
4123.46153819, 4120.51282024, 3298.33333132, 4115.64102537, 4116.28205101, 4130.89743562, 4109.99999973, 4119.99999973, 4112.82051255, 4128.71794844, 4102.56410229, 4173.33333320, 4122.82051255, 4145.38461518,12.0
4122.94871767, 4118.33333306, 3303.07692107, 4118.46153819, 4117.82051255, 4127.56410229, 4111.28205101, 4116.79487152, 4102.69230742, 4127.05128178, 4105.89743562, 4173.97435884, 4124.23076896, 4143.58974339,12.0
4124.23076896, 4112.82051255, 3305.38461337, 4115.25640998, 4118.33333306, 4117.30769203, 4094.10256376, 4106.79487152, 4090.76923043, 4127.05128178, 4106.53846126, 4171.28205115, 4122.69230742, 4144.35897415,12.0
4123.07692280, 4115.12820485, 3303.46153645, 4114.35897408, 4115.64102537, 4121.02564075, 4092.69230735, 4108.71794844, 4099.35897402, 4130.51282024, 4104.23076896, 4172.43589730, 4123.71794844, 4144.74358954,12.0
4120.38461511, 4123.07692280, 3309.74358773, 4124.10256383, 4116.79487152, 4129.99999973, 4107.43589716, 4123.58974332, 4113.58974332, 4129.61538434, 4107.17948691, 4179.87179474, 4126.02564075, 4146.02564082,12.0
4119.61538434, 4120.76923050, 3305.76922876, 4125.51282024, 4116.28205101, 4118.71794844, 4093.20512786, 4114.99999973, 4104.35897408, 4128.71794844, 4106.28205101, 4177.56410243, 4122.82051255, 4148.46153826,12.0
4122.05128178, 4117.82051255, 3290.51281850, 4120.51282024, 4114.99999973, 4112.69230742, 4082.17948684, 4097.30769196, 4095.38461504, 4132.94871767, 4103.71794844, 4175.76923063, 4120.89743562, 4148.07692287,12.0
4123.97435870, 4122.69230742, 3284.48717748, 4121.28205101, 4116.66666639, 4125.64102537, 4103.07692280, 4105.51282024, 4106.53846126, 4131.53846126, 4107.05128178, 4178.58974345, 4123.84615357, 4145.89743569,12.0
4122.69230742, 4114.10256383, 3280.76922869, 4112.05128178, 4117.43589716, 4123.58974332, 4099.99999966, 4109.99999973, 4103.20512793, 4129.74358947, 4104.23076896, 4162.30769210, 4123.84615357, 4147.56410236,12.0
4122.17948691, 4101.66666632, 3277.30769023, 4100.76923043, 4119.74358947, 4111.15384588, 4082.43589709, 4104.48717921, 4087.30769196, 4135.64102544, 4096.02564068, 4144.48717928, 4123.71794844, 4149.10256390,12.0
4123.07692280, 4109.23076896, 3283.46153645, 4106.28205101, 4117.30769203, 4118.58974332, 4096.92307658, 4116.41025614, 4095.76923043, 4136.02564082, 4098.33333299, 4153.07692287, 4123.84615357, 4146.02564082,12.0
4124.35897408, 4119.10256383, 3293.20512619, 4111.15384588, 4115.25640998, 4133.20512793, 4106.79487152, 4121.02564075, 4107.94871767, 4126.66666639, 4106.28205101, 4165.25641005, 4122.30769203, 4144.61538441,12.0
4124.87179460, 4123.97435870, 3304.48717748, 4119.87179460, 4119.61538434, 4135.76923056, 4101.28205094, 4108.84615357, 4102.94871767, 4121.53846126, 4106.41025614, 4176.66666653, 4122.82051255, 4145.25641005,12.0
4122.43589716, 4133.07692280, 3322.17948524, 4140.51282031, 4119.87179460, 4139.48717928, 4113.46153819, 4111.41025614, 4103.07692280, 4129.99999973, 4106.41025614, 4199.48717935, 4123.71794844, 4144.61538441,12.0
4120.51282024, 4138.97435877, 3331.53845960, 4148.58974339, 4118.07692280, 4149.35897415, 4129.61538434, 4131.02564075, 4115.25640998, 4136.92307672, 4109.87179460, 4208.33333327, 4123.46153819, 4146.66666646,12.0
4122.43589716, 4132.69230742, 3324.10256216, 4135.76923056, 4117.69230742, 4146.92307672, 4122.82051255, 4133.20512793, 4114.74358947, 4131.66666639, 4109.48717921, 4193.58974345, 4123.58974332, 4146.53846133,12.0
4126.28205101, 4126.02564075, 3321.15384421, 4128.71794844, 4118.84615357, 4134.87179460, 4113.71794844, 4123.71794844, 4103.20512793, 4131.92307665, 4106.92307665, 4181.28205115, 4123.20512793, 4142.94871774,12.0
4125.38461511, 4121.66666639, 3329.99999806, 4132.05128178, 4119.99999973, 4134.99999973, 4121.15384588, 4130.51282024, 4107.43589716, 4137.43589723, 4106.02564075, 4184.99999986, 4123.07692280, 4144.10256390,12.0
4121.41025614, 4118.97435870, 3332.17948524, 4126.41025614, 4116.02564075, 4149.23076903, 4130.25640998, 4132.69230742, 4110.89743562, 4133.20512793, 4105.12820485, 4186.66666653, 4123.07692280, 4147.43589723,12.0
4120.76923050, 4122.94871767, 3330.51281857, 4117.94871767, 4114.61538434, 4150.64102544, 4126.41025614, 4114.35897408, 4096.92307658, 4129.74358947, 4104.87179460, 4179.87179474, 4125.12820485, 4145.76923056,12.0
4120.51282024, 4123.84615357, 3335.25640831, 4118.07692280, 4117.94871767, 4134.23076896, 4110.25640998, 4097.69230735, 4081.15384581, 4133.58974332, 4106.02564075, 4179.74358961, 4124.74358947, 4144.10256390,12.0
4123.20512793, 4119.74358947, 3341.53845960, 4119.10256383, 4119.23076896, 4124.99999973, 4100.12820478, 4094.99999966, 4078.20512786, 4130.76923050, 4107.05128178, 4184.74358961, 4121.41025614, 4146.41025621,12.0
4125.38461511, 4119.48717921, 3345.38461344, 4117.94871767, 4117.94871767, 4131.53846126, 4106.53846126, 4101.28205094, 4084.87179453, 4126.79487152, 4106.41025614, 4184.87179474, 4122.82051255, 4146.66666646,12.0
4121.41025614, 4120.89743562, 3346.53845960, 4120.38461511, 4117.17948691, 4137.94871774, 4111.02564075, 4107.82051255, 4089.87179453, 4127.94871767, 4105.89743562, 4184.99999986, 4123.97435870, 4145.12820492,12.0
4119.87179460, 4123.07692280, 3348.58974172, 4126.79487152, 4122.69230742, 4140.12820492, 4111.53846126, 4114.74358947, 4093.97435863, 4126.92307665, 4106.79487152, 4192.94871781, 4121.28205101, 4146.66666646,12.0
4120.38461511, 4129.35897408, 3357.30769044, 4132.56410229, 4123.46153819, 4142.82051262, 4117.94871767, 4118.84615357, 4096.41025607, 4127.30769203, 4107.82051255, 4199.23076910, 4121.41025614, 4147.69230749,12.0
4120.76923050, 4132.82051255, 3361.79486992, 4135.51282031, 4116.28205101, 4148.71794851, 4125.51282024, 4124.48717921, 4103.20512793, 4132.94871767, 4107.82051255, 4205.38461532, 4123.46153819, 4146.66666646,12.0
4120.64102537, 4129.35897408, 3355.76922890, 4138.71794851, 4116.79487152, 4153.84615364, 4128.20512793, 4134.99999973, 4117.17948691, 4135.89743569, 4108.46153819, 4213.33333327, 4122.94871767, 4145.89743569,12.0
4119.87179460, 4126.92307665, 3346.02563908, 4138.07692287, 4119.61538434, 4148.20512800, 4123.58974332, 4130.12820485, 4113.71794844, 4131.02564075, 4108.71794844, 4205.64102558, 4119.74358947, 4145.38461518,12.0
4122.17948691, 4126.28205101, 3340.12820319, 4129.23076896, 4117.56410229, 4141.79487159, 4114.74358947, 4113.84615357, 4088.58974325, 4126.79487152, 4106.79487152, 4192.56410243, 4119.48717921, 4145.89743569,12.0
4121.41025614, 4126.02564075, 3336.02563908, 4120.12820485, 4117.17948691, 4145.64102544, 4115.76923050, 4117.82051255, 4089.35897402, 4129.48717921, 4106.92307665, 4191.53846140, 4121.92307665, 4145.76923056,12.0
4119.87179460, 4126.92307665, 3337.17948524, 4123.58974332, 4119.48717921, 4155.12820492, 4133.84615357, 4136.28205108, 4120.51282024, 4127.82051255, 4108.58974332, 4197.82051269, 4124.23076896, 4143.71794851,12.0
4122.43589716, 4129.10256383, 3341.92307498, 4135.12820485, 4122.30769203, 4159.61538441, 4145.89743569, 4143.33333313, 4119.35897408, 4125.12820485, 4109.99999973, 4197.94871781, 4125.89743562, 4144.74358954,12.0
4124.35897408, 4128.84615357, 3337.43589549, 4137.69230749, 4119.74358947, 4152.30769210, 4130.51282024, 4128.58974332, 4087.82051248, 4129.74358947, 4111.66666639, 4191.02564089, 4125.12820485, 4148.20512800,12.0
4123.33333306, 4125.51282024, 3324.61538267, 4133.33333306, 4117.82051255, 4136.02564082, 4107.69230742, 4111.02564075, 4079.10256376, 4130.51282024, 4109.23076896, 4184.61538448, 4123.97435870, 4149.23076903,12.0
4123.46153819, 4122.69230742, 3311.41025440, 4130.51282024, 4119.48717921, 4125.12820485, 4098.97435863, 4114.35897408, 4089.61538427, 4124.48717921, 4105.12820485, 4186.28205115, 4126.02564075, 4145.64102544,12.0
4126.53846126, 4119.99999973, 3307.05128004, 4128.07692280, 4117.17948691, 4127.94871767, 4101.41025607, 4125.64102537, 4098.71794837, 4127.56410229, 4106.02564075, 4193.58974345, 4126.15384588, 4143.07692287,12.0
4127.17948691, 4122.30769203, 3314.23076722, 4128.71794844, 4116.92307665, 4135.12820485, 4111.79487152, 4124.99999973, 4105.89743562, 4137.17948697, 4110.12820485, 4198.46153833, 4123.97435870, 4145.64102544,12.0
4123.84615357, 4132.05128178, 3320.38461344, 4136.66666646, 4118.58974332, 4141.53846133, 4122.43589716, 4126.28205101, 4108.46153819, 4135.51282031, 4110.51282024, 4203.84615378, 4123.71794844, 4147.43589723,12.0
4124.35897408, 4136.28205108, 3323.84615190, 4138.46153826, 4118.33333306, 4148.33333313, 4122.94871767, 4136.02564082, 4107.17948691, 4128.46153819, 4107.69230742, 4207.82051275, 4124.48717921, 4145.76923056,12.0
4123.97435870, 4124.48717921, 3317.82051088, 4120.89743562, 4118.07692280, 4151.92307672, 4125.76923050, 4139.23076903, 4107.94871767, 4127.56410229, 4106.92307665, 4199.61538448, 4124.48717921, 4144.99999980,12.0
4118.97435870, 4117.43589716, 3295.76922876, 4109.48717921, 4115.25640998, 4153.46153826, 4136.28205108, 4137.05128185, 4109.87179460, 4127.30769203, 4106.66666639, 4191.02564089, 4123.46153819, 4146.28205108,12.0
4119.74358947, 4119.35897408, 3273.71794664, 4113.07692280, 4118.46153819, 4147.94871774, 4128.84615357, 4135.51282031, 4103.97435870, 4126.53846126, 4105.12820485, 4186.53846140, 4123.71794844, 4146.15384595,12.0
4126.15384588, 4114.74358947, 3260.64102356, 4112.94871767, 4120.38461511, 4135.89743569, 4112.69230742, 4135.51282031, 4094.99999966, 4128.71794844, 4105.64102537, 4178.58974345, 4123.46153819, 4144.87179467,12.0
4127.56410229, 4112.05128178, 3250.76922869, 4107.43589716, 4115.89743562, 4129.99999973, 4114.10256383, 4133.07692280, 4093.97435863, 4131.92307665, 4104.99999973, 4174.74358961, 4122.43589716, 4145.25641005,12.0
4122.82051255, 4116.41025614, 3245.38461323, 4107.30769203, 4118.20512793, 4134.48717921, 4116.53846126, 4125.89743562, 4094.87179453, 4132.17948691, 4101.53846119, 4180.38461525, 4124.10256383, 4146.15384595,12.0
4119.23076896, 4119.48717921, 3250.12820305, 4112.43589716, 4120.38461511, 4139.48717928, 4108.46153819, 4123.07692280, 4090.76923043, 4130.76923050, 4102.82051255, 4188.71794858, 4124.99999973, 4145.76923056,12.0
4121.66666639, 4118.71794844, 3259.10256202, 4111.66666639, 4117.82051255, 4140.25641005, 4107.69230742, 4127.05128178, 4090.38461504, 4132.43589716, 4106.79487152, 4184.74358961, 4123.71794844, 4144.35897415,12.0
4121.28205101, 4116.79487152, 3260.51281843, 4104.61538434, 4117.30769203, 4137.82051262, 4112.30769203, 4126.41025614, 4090.76923043, 4134.35897408, 4103.33333306, 4169.99999986, 4122.94871767, 4143.71794851,12.0
4119.35897408, 4111.02564075, 3257.94871587, 4095.38461504, 4119.23076896, 4127.69230742, 4102.05128171, 4112.05128178, 4077.05128171, 4130.51282024, 4096.41025607, 4156.79487159, 4122.69230742, 4145.64102544,12.0
4120.76923050, 4102.30769196, 3257.82051074, 4083.33333299, 4119.61538434, 4117.69230742, 4088.33333299, 4100.64102530, 4063.46153805, 4127.30769203, 4092.56410222, 4147.69230749, 4123.07692280, 4146.92307672,12.0
4119.74358947, 4101.02564068, 3261.92307484, 4078.58974325, 4116.28205101, 4117.56410229, 4087.56410222, 4101.79487145, 4065.64102523, 4130.25640998, 4091.53846119, 4142.82051262, 4122.82051255, 4144.74358954,12.0
4118.58974332, 4101.92307658, 3268.58974151, 4077.05128171, 4118.07692280, 4116.28205101, 4091.79487145, 4107.43589716, 4070.64102530, 4130.76923050, 4092.56410222, 4136.79487159, 4124.23076896, 4144.35897415,12.0
4120.51282024, 4100.25640991, 3278.97435689, 4075.25640991, 4121.66666639, 4119.10256383, 4100.51282017, 4114.10256383, 4074.23076889, 4128.33333306, 4091.66666632, 4135.38461518, 4126.02564075, 4145.76923056,12.0
4121.92307665, 4103.58974332, 3296.79486978, 4083.20512786, 4119.23076896, 4127.56410229, 4105.64102537, 4112.05128178, 4077.56410222, 4127.69230742, 4089.87179453, 4138.84615364, 4124.23076896, 4145.64102544,12.0
4121.66666639, 4106.53846126, 3312.05128004, 4086.15384581, 4118.97435870, 4118.71794844, 4089.61538427, 4097.94871761, 4067.82051241, 4126.66666639, 4091.15384581, 4137.17948697, 4124.23076896, 4146.92307672,12.0
4123.20512793, 4098.97435863, 3319.74358780, 4074.35897402, 4119.87179460, 4098.33333299, 4067.82051241, 4085.76923043, 4056.92307651, 4127.69230742, 4092.43589709, 4134.99999973, 4125.25640998, 4145.89743569,12.0
4125.12820485, 4100.12820478, 3326.92307498, 4075.25640991, 4118.07692280, 4097.43589709, 4075.25640991, 4090.38461504, 4064.99999959, 4130.89743562, 4092.43589709, 4143.33333313, 4125.12820485, 4142.43589723,12.0
4120.12820485, 4110.64102537, 3332.94871601, 4089.74358940, 4115.76923050, 4111.41025614, 4093.33333299, 4101.53846119, 4072.30769196, 4130.25640998, 4092.30769196, 4151.41025621, 4125.89743562, 4142.69230749,12.0
4120.76923050, 4110.12820485, 3336.15384421, 4087.17948684, 4117.69230742, 4110.76923050, 4086.28205094, 4100.76923043, 4065.76923036, 4126.79487152, 4091.41025607, 4151.79487159, 4127.17948691, 4145.12820492,12.0
4125.25640998, 4102.43589709, 3341.92307498, 4070.64102530, 4121.92307665, 4100.12820478, 4071.02564068, 4097.94871761, 4060.12820472, 4128.97435870, 4090.38461504, 4149.61538441, 4127.82051255, 4145.12820492,12.0
4120.38461511, 4100.25640991, 3345.76922883, 4065.38461497, 4117.17948691, 4102.56410229, 4077.94871761, 4101.41025607, 4058.97435856, 4132.30769203, 4089.87179453, 4144.10256390, 4128.84615357, 4145.38461518,12.0
4122.69230742, 4105.76923050, 3353.07692120, 4072.43589709, 4118.33333306, 4116.41025614, 4095.89743555, 4109.87179460, 4066.02564061, 4132.43589716, 4091.66666632, 4146.02564082, 4132.05128178, 4147.56410236,12.0
4122.30769203, 4107.17948691, 3360.64102377, 4075.25640991, 4122.56410229, 4118.46153819, 4100.89743555, 4118.33333306, 4077.30769196, 4133.84615357, 4094.35897402, 4148.58974339, 4129.48717921, 4146.79487159,12.0
4118.84615357, 4096.02564068, 3358.20512633, 4064.74358933, 4116.15384588, 4109.74358947, 4093.58974325, 4110.51282024, 4069.23076882, 4131.92307665, 4091.79487145, 4133.58974332, 4126.02564075, 4145.38461518,12.0
4122.69230742, 4085.89743555, 3355.76922890, 4053.97435856, 4115.38461511, 4097.05128171, 4073.97435863, 4087.82051248, 4041.15384574, 4127.56410229, 4086.15384581, 4116.15384588, 4129.99999973, 4147.30769210,12.0
4118.46153819, 4087.82051248, 3356.28204941, 4053.33333292, 4118.33333306, 4075.64102530, 4047.30769189, 4071.15384581, 4024.99999952, 4127.94871767, 4081.79487145, 4110.64102537, 4130.76923050, 4147.69230749,12.0
4119.10256383, 4088.33333299, 3362.43589556, 4048.33333292, 4119.35897408, 4070.64102530, 4046.41025600, 4065.89743548, 4022.43589695, 4130.76923050, 4078.33333299, 4103.46153819, 4127.56410229, 4145.64102544,12.0
4118.97435870, 4076.66666632, 3367.56410069, 4031.92307644, 4117.43589716, 4087.82051248, 4068.20512779, 4068.58974318, 4019.48717900, 4128.71794844, 4072.94871761, 4090.38461504, 4127.94871767, 4144.87179467,12.0
4117.82051255, 4076.15384581, 3370.12820326, 4030.38461490, 4115.38461511, 4084.23076889, 4057.17948677, 4064.35897395, 4016.28205080, 4128.97435870, 4070.76923043, 4088.97435863, 4128.58974332, 4146.79487159,12.0
4123.97435870, 4093.97435863, 3389.74358794, 4056.92307651, 4119.35897408, 4070.12820478, 4035.12820465, 4069.61538420, 4039.35897395, 4135.38461518, 4080.25640991, 4111.02564075, 4128.58974332, 4147.69230749,12.0
4115.25640998, 4103.20512793, 3412.56410076, 4079.74358940, 4116.66666639, 4088.20512786, 4063.97435856, 4104.10256383, 4082.43589709, 4134.61538434, 4091.53846119, 4139.74358954, 4128.46153819, 4145.51282031,12.0
4117.05128178, 4105.25640998, 3425.76922904, 4078.58974325, 4116.53846126, 4112.94871767, 4102.56410229, 4128.07692280, 4096.28205094, 4128.46153819, 4094.48717914, 4151.15384595, 4129.74358947, 4144.99999980,12.0
4120.51282024, 4104.87179460, 3429.10256237, 4068.84615343, 4122.05128178, 4107.43589716, 4094.61538427, 4121.28205101, 4082.94871761, 4129.23076896, 4091.79487145, 4149.23076903, 4129.35897408, 4145.12820492,12.0
4115.12820485, 4102.17948684, 3429.23076750, 4067.17948677, 4118.84615357, 4100.38461504, 4084.74358940, 4114.87179460, 4078.97435863, 4131.79487152, 4090.51282017, 4145.64102544, 4127.56410229, 4144.87179467,12.0
4125.12820485, 4102.94871767, 3436.92307519, 4068.07692266, 4118.33333306, 4107.30769203, 4099.35897402, 4116.41025614, 4083.46153812, 4133.58974332, 4092.43589709, 4139.61538441, 4128.20512793, 4146.79487159,12.0
4119.74358947, 4096.92307658, 3436.02563929, 4056.41025600, 4117.69230742, 4097.43589709, 4087.82051248, 4103.20512793, 4071.92307658, 4133.84615357, 4088.33333299, 4129.35897408, 4126.28205101, 4146.15384595,12.0
4121.92307665, 4086.41025607, 3430.38461365, 4044.35897395, 4116.79487152, 4070.12820478, 4048.71794830, 4069.74358940, 4036.92307651, 4128.84615357, 4081.53846119, 4111.66666639, 4125.25640998, 4144.74358954,12.0
4126.02564075, 4080.25640991, 3433.20512647, 4046.53846113, 4120.51282024, 4060.51282010, 4035.12820465, 4047.94871754, 4011.53846106, 4127.17948691, 4082.69230735, 4100.64102530, 4127.30769203, 4145.25641005,12.0
4112.43589716, 4084.87179453, 3446.28204962, 4055.12820472, 4120.25640998, 4075.64102530, 4057.05128164, 4062.82051241, 4021.41025593, 4131.41025614, 4087.17948684, 4116.28205101, 4125.89743562, 4145.76923056,12.0
4122.05128178, 4098.71794837, 3470.76922911, 4065.12820472, 4122.05128178, 4096.02564068, 4084.61538427, 4094.99999966, 4049.23076882, 4129.87179460, 4088.97435863, 4143.20512800, 4126.79487152, 4145.51282031,12.0
4117.82051255, 4103.20512793, 3479.61538302, 4073.07692273, 4120.89743562, 4109.23076896, 4105.76923050, 4110.38461511, 4069.99999966, 4126.79487152, 4089.35897402, 4156.53846133, 4125.89743562, 4145.64102544,12.0
4116.41025614, 4099.87179453, 3483.20512661, 4069.99999966, 4118.20512793, 4107.56410229, 4107.43589716, 4107.56410229, 4073.46153812, 4129.61538434, 4087.43589709, 4153.46153826, 4125.51282024, 4147.05128185,12.0
4126.02564075, 4098.46153812, 3493.46153687, 4062.94871754, 4120.64102537, 4101.41025607, 4096.79487145, 4108.71794844, 4066.66666625, 4130.38461511, 4082.30769196, 4143.84615364, 4130.64102537, 4145.64102544,12.0
4112.05128178, 4100.76923043, 3493.46153687, 4071.41025607, 4116.92307665, 4108.07692280, 4099.35897402, 4115.89743562, 4070.76923043, 4128.97435870, 4081.41025607, 4139.87179467, 4128.58974332, 4143.97435877,12.0
4119.87179460, 4105.89743562, 3497.05128046, 4077.69230735, 4116.92307665, 4117.17948691, 4107.17948691, 4114.61538434, 4076.53846119, 4126.79487152, 4085.38461504, 4139.23076903, 4123.20512793, 4145.76923056,12.0
4116.28205101, 4099.99999966, 3499.74358815, 4063.07692266, 4118.33333306, 4110.89743562, 4104.99999973, 4109.87179460, 4063.97435856, 4124.48717921, 4081.53846119, 4134.61538434, 4123.71794844, 4144.74358954,12.0
4111.15384588, 4090.89743555, 3500.64102405, 4051.02564061, 4118.33333306, 4094.35897402, 4080.51282017, 4087.30769196, 4037.17948677, 4129.74358947, 4074.35897402, 4123.46153819, 4125.76923050, 4142.94871774,12.0
4123.46153819, 4097.17948684, 3516.02563950, 4065.64102523, 4121.79487152, 4105.89743562, 4088.07692273, 4090.38461504, 4046.41025600, 4133.58974332, 4080.38461504, 4129.35897408, 4124.99999973, 4144.23076903,12.0
4108.46153819, 4101.66666632, 3527.05128053, 4078.58974325, 4116.92307665, 4121.02564075, 4125.89743562, 4134.35897408, 4081.28205094, 4128.71794844, 4089.10256376, 4149.23076903, 4122.05128178, 4144.87179467,12.0
4120.89743562, 4100.25640991, 3534.10256258, 4070.76923043, 4118.33333306, 4105.89743562, 4120.38461511, 4128.33333306, 4067.30769189, 4130.51282024, 4085.76923043, 4148.97435877, 4126.53846126, 4144.23076903,12.0
4121.02564075, 4106.15384588, 3546.28204983, 4082.30769196, 4118.97435870, 4103.97435870, 4102.17948684, 4103.71794844, 4051.28205087, 4136.02564082, 4088.97435863, 4157.82051262, 4124.61538434, 4143.20512800,12.0
4107.17948691, 4121.92307665, 3562.82051137, 4114.74358947, 4115.51282024, 4125.25640998, 4117.82051255, 4124.61538434, 4091.53846119, 4131.15384588, 4103.84615357, 4190.51282038, 4117.17948691, 4143.07692287,12.0
4125.89743562, 4126.15384588, 3574.48717803, 4114.35897408, 4123.46153819, 4125.51282024, 4122.94871767, 4131.66666639, 4105.64102537, 4125.12820485, 4102.69230742, 4195.25641012, 4123.20512793, 4142.94871774,12.0
4112.43589716, 4110.76923050, 3566.02563957, 4093.07692273, 4121.41025614, 4114.87179460, 4105.89743562, 4108.71794844, 4070.64102530, 4128.20512793, 4091.02564068, 4171.79487166, 4127.56410229, 4145.12820492,12.0
4116.15384588, 4107.69230742, 3568.20512675, 4094.23076889, 4119.48717921, 4119.10256383, 4108.84615357, 4109.74358947, 4062.56410215, 4129.87179460, 4089.74358940, 4158.71794851, 4124.35897408, 4148.20512800,12.0
4125.51282024, 4108.58974332, 3573.46153701, 4098.71794837, 4119.48717921, 4118.33333306, 4115.64102537, 4115.76923050, 4068.71794830, 4128.58974332, 4089.74358940, 4153.20512800, 4127.05128178, 4144.87179467,12.0
4115.25640998, 4105.89743562, 3576.15384470, 4098.33333299, 4114.99999973, 4122.56410229, 4118.07692280, 4102.94871767, 4057.30769189, 4129.99999973, 4088.58974325, 4154.87179467, 4129.23076896, 4146.92307672,12.0
4129.35897408, 4104.74358947, 3587.82051143, 4098.71794837, 4122.94871767, 4126.53846126, 4120.89743562, 4112.05128178, 4062.43589702, 4130.38461511, 4088.46153812, 4156.53846133, 4128.33333306, 4150.38461518,12.0
4111.92307665, 4095.12820478, 3583.71794733, 4092.69230735, 4122.56410229, 4106.28205101, 4106.66666639, 4135.89743569, 4083.07692273, 4126.15384588, 4087.69230735, 4150.64102544, 4126.53846126, 4147.43589723,12.0
4116.28205101, 4102.17948684, 3595.25640887, 4098.71794837, 4119.61538434, 4102.94871767, 4098.20512786, 4135.64102544, 4085.25640991, 4132.17948691, 4092.05128171, 4164.23076903, 4131.41025614, 4148.46153826,12.0
4131.41025614, 4112.30769203, 3614.10256279, 4111.92307665, 4124.10256383, 4113.58974332, 4104.99999973, 4114.23076896, 4071.79487145, 4141.15384595, 4093.46153812, 4185.76923063, 4134.10256383, 4145.64102544,12.0
4111.66666639, 4105.25640998, 3613.33333202, 4114.23076896, 4119.35897408, 4111.79487152, 4114.35897408, 4107.05128178, 4074.10256376, 4135.12820485, 4095.51282017, 4190.76923063, 4129.48717921, 4143.71794851,12.0
4127.94871767, 4104.74358947, 3621.28204997, 4109.48717921, 4119.74358947, 4114.48717921, 4110.25640998, 4113.71794844, 4079.48717914, 4133.07692280, 4103.33333306, 4179.99999986, 4135.89743569, 4144.99999980,12.0
4120.51282024, 4101.92307658, 3621.92307561, 4104.23076896, 4118.46153819, 4115.25640998, 4098.46153812, 4104.35897408, 4066.02564061, 4140.64102544, 4099.35897402, 4168.46153833, 4134.74358947, 4142.43589723,12.0
4114.99999973, 4100.76923043, 3625.38461407, 4102.82051255, 4121.15384588, 4110.76923050, 4120.25640998, 4111.15384588, 4077.56410222, 4133.84615357, 4093.20512786, 4171.92307679, 4131.15384588, 4146.53846133,12.0
4127.05128178, 4102.56410229, 3638.33333202, 4104.10256383, 4127.30769203, 4120.12820485, 4153.84615364, 4164.87179467, 4126.66666639, 4122.56410229, 4096.28205094, 4178.58974345, 4131.41025614, 4147.05128185,12.0
4109.23076896, 4089.48717914, 3629.87179356, 4093.07692273, 4116.66666639, 4115.51282024, 4124.35897408, 4166.02564082, 4113.20512793, 4128.07692280, 4091.15384581, 4160.89743569, 4121.41025614, 4144.74358954,12.0
4127.43589716, 4076.79487145, 3622.43589612, 4074.35897402, 4120.64102537, 4084.23076889, 4064.10256369, 4083.46153812, 4037.17948677, 4136.92307672, 4083.46153812, 4131.66666639, 4127.43589716, 4146.92307672,12.0
4120.64102537, 4077.82051248, 3629.35897304, 4081.15384581, 4124.61538434, 4078.71794837, 4066.02564061, 4055.38461497, 4031.02564054, 4130.89743562, 4089.23076889, 4138.84615364, 4131.41025614, 4142.82051262,12.0
4113.33333306, 4098.20512786, 3651.28205004, 4113.71794844, 4117.69230742, 4108.71794844, 4107.56410229, 4102.56410229, 4080.25640991, 4128.33333306, 4101.28205094, 4174.74358961, 4124.10256383, 4144.23076903,12.0
4134.35897408, 4106.92307665, 3669.35897311, 4127.94871767, 4123.07692280, 4118.58974332, 4116.41025614, 4110.76923050, 4075.64102530, 4136.66666646, 4104.99999973, 4191.02564089, 4127.56410229, 4145.76923056,12.0
4113.97435870, 4090.12820478, 3661.92307568, 4113.84615357, 4119.48717921, 4108.20512793, 4105.51282024, 4085.64102530, 4051.15384574, 4137.56410236, 4101.66666632, 4181.53846140, 4127.82051255, 4142.05128185,12.0
4127.56410229, 4095.25640991, 3674.10256286, 4117.30769203, 4118.97435870, 4109.35897408, 4106.28205101, 4096.15384581, 4070.51282017, 4128.97435870, 4104.99999973, 4184.61538448, 4128.46153819, 4146.66666646,12.0
4130.76923050, 4103.84615357, 3691.02563985, 4129.23076896, 4122.05128178, 4114.23076896, 4117.17948691, 4122.43589716, 4091.41025607, 4126.66666639, 4107.82051255, 4198.07692294, 4130.25640998, 4145.25641005,12.0
4118.58974332, 4097.56410222, 3687.94871677, 4122.94871767, 4119.99999973, 4120.76923050, 4134.35897408, 4142.94871774, 4096.79487145, 4129.10256383, 4102.94871767, 4194.74358961, 4128.58974332, 4142.94871774,12.0
4138.84615364, 4094.74358940, 3688.71794754, 4112.30769203, 4123.97435870, 4120.64102537, 4133.20512793, 4148.97435877, 4098.46153812, 4125.76923050, 4101.28205094, 4180.51282038, 4128.46153819, 4148.71794851,12.0
4120.64102537, 4084.35897402, 3680.64102446, 4100.89743555, 4120.89743562, 4106.28205101, 4106.28205101, 4128.46153819, 4083.71794837, 4122.69230742, 4100.38461504, 4162.69230749, 4124.87179460, 4148.46153826,12.0
4126.15384588, 4083.58974325, 3685.25640908, 4094.87179453, 4119.74358947, 4098.71794837, 4090.64102530, 4110.51282024, 4067.94871754, 4132.94871767, 4098.97435863, 4156.79487159, 4129.35897408, 4144.61538441,12.0
4132.56410229, 4085.12820478, 3696.15384498, 4097.94871761, 4120.51282024, 4101.02564068, 4099.48717914, 4117.69230742, 4075.64102530, 4139.10256390, 4098.84615350, 4169.35897422, 4132.82051255, 4143.71794851,12.0
4118.84615357, 4084.74358940, 3703.46153728, 4107.05128178, 4119.48717921, 4106.15384588, 4110.25640998, 4130.64102537, 4096.66666632, 4133.58974332, 4104.87179460, 4185.89743576, 4125.76923050, 4146.28205108,12.0
4137.94871774, 4097.17948684, 3725.76922966, 4118.20512793, 4124.61538434, 4120.89743562, 4116.53846126, 4129.61538434, 4096.53846119, 4134.74358947, 4114.10256383, 4198.58974345, 4125.38461511, 4145.51282031,12.0
4120.25640998, 4096.02564068, 3729.87179376, 4118.58974332, 4119.48717921, 4125.89743562, 4115.51282024, 4113.71794844, 4076.53846119, 4137.05128185, 4109.61538434, 4193.71794858, 4126.79487152, 4142.43589723,12.0
4121.79487152, 4088.84615350, 3728.97435787, 4110.76923050, 4121.53846126, 4115.51282024, 4104.48717921, 4094.74358940, 4065.89743548, 4134.61538434, 4100.76923043, 4172.17948704, 4130.76923050, 4145.12820492,12.0
4131.28205101, 4083.20512786, 3735.64102453, 4105.38461511, 4123.97435870, 4110.25640998, 4101.28205094, 4094.99999966, 4068.58974318, 4134.74358947, 4102.43589709, 4163.46153826, 4131.15384588, 4144.99999980,12.0
4116.92307665, 4080.38461504, 3741.15384505, 4111.28205101, 4116.28205101, 4108.33333306, 4110.38461511, 4113.20512793, 4072.94871761, 4135.38461518, 4104.87179460, 4173.20512807, 4124.99999973, 4145.25641005,12.0
4135.51282031, 4090.38461504, 3755.89743486, 4123.33333306, 4122.94871767, 4115.51282024, 4125.12820485, 4130.89743562, 4084.35897402, 4135.51282031, 4101.92307658, 4178.07692294, 4127.43589716, 4147.82051262,12.0
4121.02564075, 4094.35897402, 3763.20512717, 4127.82051255, 4120.38461511, 4131.92307665, 4134.23076896, 4134.35897408, 4097.56410222, 4135.25640998, 4101.79487145, 4180.64102551, 4126.41025614, 4143.71794851,12.0
4118.97435870, 4091.92307658, 3777.82051185, 4126.66666639, 4118.58974332, 4130.25640998, 4127.05128178, 4132.30769203, 4093.07692273, 4135.38461518, 4107.94871767, 4189.48717935, 4130.25640998, 4142.43589723,12.0
4130.76923050, 4086.92307658, 3788.71794775, 4118.71794844, 4124.61538434, 4114.74358947, 4113.07692280, 4135.89743569, 4090.38461504, 4135.38461518, 4107.43589716, 4189.74358961, 4134.74358947, 4143.46153826,12.0
4114.10256383, 4084.48717914, 3780.51281954, 4115.25640998, 4117.17948691, 4116.41025614, 4108.58974332, 4124.74358947, 4090.76923043, 4135.38461518, 4102.56410229, 4178.46153833, 4125.38461511, 4143.58974339,12.0
4130.64102537, 4086.28205094, 3784.10256313, 4121.92307665, 4119.23076896, 4118.33333306, 4106.92307665, 4107.94871767, 4076.15384581, 4135.38461518, 4104.61538434, 4169.48717935, 4127.82051255, 4144.99999980,12.0
4123.46153819, 4080.38461504, 3787.56410160, 4117.69230742, 4121.02564075, 4102.94871767, 4095.12820478, 4110.76923050, 4069.35897395, 4135.38461518, 4104.10256383, 4173.20512807, 4132.30769203, 4142.69230749,12.0
4119.23076896, 4080.51282017, 3786.28205031, 4115.12820485, 4118.07692280, 4099.74358940, 4083.71794837, 4104.87179460, 4068.71794830, 4135.38461518, 4099.23076889, 4168.58974345, 4129.87179460, 4144.10256390,12.0
4138.46153826, 4082.56410222, 3790.38461442, 4146.28205108, 4122.69230742, 4105.64102537, 4088.07692273, 4092.94871761, 4055.51282010, 4135.38461518, 4101.53846119, 4156.02564082, 4131.79487152, 4145.89743569,12.0
4125.76923050, 4081.66666632, 3797.17948621, 4182.56410243, 4122.82051255, 4110.89743562, 4102.69230742, 4113.07692280, 4059.99999959, 4135.38461518, 4108.33333306, 4168.20512807, 4129.23076896, 4143.71794851,12.0
4131.02564075, 4092.82051248, 3813.07692218, 4184.10256397, 4121.02564075, 4123.71794844, 4112.56410229, 4132.30769203, 4076.53846119, 4135.38461518, 4111.53846126, 4181.28205115, 4129.87179460, 4144.35897415,12.0
4129.23076896, 4089.23076889, 3818.20512731, 4170.64102551, 4118.58974332, 4128.07692280, 4112.69230742, 4123.46153819, 4070.89743555, 4135.38461518, 4106.53846126, 4164.23076903, 4130.51282024, 4144.99999980,12.0
4125.51282024, 4077.17948684, 3818.71794782, 4167.69230749, 4119.74358947, 4118.97435870, 4108.20512793, 4115.76923050, 4062.30769189, 4135.38461518, 4103.07692280, 4150.38461518, 4129.87179460, 4147.82051262,12.0
4135.25640998, 4082.05128171, 3829.35897346, 4166.02564082, 4123.46153819, 4115.38461511, 4104.10256383, 4120.76923050, 4067.05128164, 4135.38461518, 4104.99999973, 4154.61538441, 4132.69230742, 4146.92307672,12.0
4123.84615357, 4083.46153812, 3834.61538372, 4157.94871774, 4119.99999973, 4116.79487152, 4097.43589709, 4123.71794844, 4070.76923043, 4135.38461518, 4101.92307658, 4150.25641005, 4130.76923050, 4146.53846133,12.0
4132.17948691, 4082.30769196, 3844.23076840, 4156.02564082, 4120.64102537, 4114.23076896, 4091.79487145, 4120.76923050, 4069.48717907, 4135.38461518, 4101.15384581, 4146.53846133, 4131.53846126, 4150.51282031,12.0
4129.10256383, 4078.71794837, 3849.99999917, 4158.46153826, 4121.66666639, 4107.56410229, 4094.23076889, 4114.23076896, 4061.02564061, 4135.38461518, 4102.30769196, 4147.43589723, 4132.05128178, 4146.79487159,12.0
4124.87179460, 4073.58974325, 3850.51281968, 4154.99999980, 4119.35897408, 4104.74358947, 4094.23076889, 4104.87179460, 4052.56410215, 4135.38461518, 4103.20512793, 4142.17948697, 4128.33333306, 4145.38461518,12.0
4132.94871767, 4072.69230735, 3856.79487096, 4149.10256390, 4121.53846126, 4097.94871761, 4078.33333299, 4091.41025607, 4052.69230728, 4135.38461518, 4108.71794844, 4142.05128185, 4130.89743562, 4145.64102544,12.0
4115.64102537, 4074.61538427, 3858.71794789, 4149.99999980, 4119.61538434, 4088.58974325, 4067.05128164, 4091.41025607, 4058.71794830, 4135.38461518, 4110.38461511, 4150.25641005, 4132.43589716, 4140.89743569,12.0
4125.25640998, 4083.33333299, 3866.02564020, 4154.35897415, 4118.97435870, 4108.71794844, 4101.66666632, 4122.69230742, 4067.56410215, 4135.38461518, 4103.20512793, 4149.99999980, 4132.94871767, 4143.20512800,12.0
4129.10256383, 4081.92307658, 3867.56410173, 4142.94871774, 4121.66666639, 4128.58974332, 4126.15384588, 4137.43589723, 4074.10256376, 4135.38461518, 4097.17948684, 4133.97435870, 4132.56410229, 4144.74358954,12.0
4117.56410229, 4074.99999966, 3865.89743507, 4130.25640998, 4120.89743562, 4108.33333306, 4091.53846119, 4112.56410229, 4075.51282017, 4135.38461518, 4100.38461504, 4127.69230742, 4129.74358947, 4143.97435877,12.0
4127.05128178, 4073.84615350, 3872.94871719, 4132.30769203, 4120.12820485, 4091.92307658, 4072.56410222, 4104.61538434, 4074.87179453, 4135.38461518, 4103.71794844, 4133.33333306, 4129.10256383, 4145.89743569,12.0
4121.15384588, 4072.17948684, 3871.02564020, 4139.23076903, 4118.97435870, 4106.02564075, 4092.30769196, 4117.94871767, 4071.53846119, 4135.38461518, 4100.25640991, 4132.43589716, 4128.20512793, 4147.94871774,12.0
4124.99999973, 4079.61538427, 3876.92307616, 4144.10256390, 4122.82051255, 4118.07692280, 4099.61538427, 4121.79487152, 4071.79487145, 4135.38461518, 4101.66666632, 4130.64102537, 4130.25640998, 4146.15384595,12.0
4126.02564075, 4082.05128171, 3890.25640950, 4138.84615364, 4122.05128178, 4113.20512793, 4090.12820478, 4121.79487152, 4073.20512786, 4135.38461518, 4104.74358947, 4138.20512800, 4129.87179460, 4141.79487159,12.0
4121.15384588, 4078.20512786, 3894.23076847, 4130.89743562, 4116.41025614, 4098.71794837, 4079.10256376, 4105.64102537, 4057.17948677, 4135.38461518, 4105.12820485, 4145.51282031, 4126.79487152, 4142.56410236,12.0
4133.33333306, 4078.97435863, 3895.76923001, 4127.56410229, 4122.17948691, 4080.51282017, 4063.33333292, 4084.23076889, 4047.17948677, 4135.38461518, 4105.89743562, 4141.92307672, 4129.10256383, 4145.38461518,12.0
4127.69230742, 4076.79487145, 3895.89743514, 4127.17948691, 4122.69230742, 4077.82051248, 4060.51282010, 4100.38461504, 4066.15384574, 4135.38461518, 4103.46153819, 4139.35897415, 4128.20512793, 4146.28205108,12.0
4132.30769203, 4075.51282017, 3901.28205052, 4128.71794844, 4119.35897408, 4089.87179453, 4069.35897395, 4117.69230742, 4077.30769196, 4135.38461518, 4099.99999966, 4138.58974339, 4126.66666639, 4146.02564082,12.0
4135.76923056, 4075.12820478, 3905.38461462, 4126.41025614, 4121.66666639, 4099.23076889, 4080.89743555, 4113.07692280, 4072.82051248, 4135.38461518, 4099.10256376, 4137.82051262, 4128.97435870, 4145.25641005,12.0
4125.89743562, 4073.58974325, 3906.28205059, 4125.76923050, 4120.38461511, 4102.69230742, 4095.76923043, 4122.30769203, 4074.10256376, 4135.38461518, 4098.33333299, 4140.76923056, 4131.15384588, 4147.82051262,12.0
4133.07692280, 4075.38461504, 3909.87179418, 4128.58974332, 4120.76923050, 4097.94871761, 4084.61538427, 4123.07692280, 4072.82051248, 4135.38461518, 4097.05128171, 4133.71794844, 4131.79487152, 4148.07692287,12.0
4127.69230742, 4070.12820478, 3907.05128136, 4119.87179460, 4119.99999973, 4099.10256376, 4074.23076889, 4107.05128178, 4061.53846113, 4135.38461518, 4094.23076889, 4122.69230742, 4130.12820485, 4146.02564082,12.0
4126.15384588, 4062.69230728, 3905.38461462, 4109.10256383, 4120.25640998, 4107.43589716, 4099.74358940, 4107.69230742, 4052.69230728, 4135.38461518, 4091.53846119, 4119.23076896, 4130.51282024, 4147.82051262,12.0
4128.07692280, 4069.23076882, 3910.12820444, 4115.51282024, 4123.07692280, 4110.25640998, 4111.53846126, 4115.12820485, 4055.38461497, 4135.38461518, 4093.07692273, 4122.56410229, 4129.99999973, 4149.23076903,12.0
4122.69230742, 4075.12820478, 3913.33333264, 4119.87179460, 4120.89743562, 4093.20512786, 4078.07692273, 4098.58974325, 4052.56410215, 4135.38461518, 4096.28205094, 4124.23076896, 4128.07692280, 4147.30769210,12.0
4126.79487152, 4068.84615343, 3915.64102495, 4111.53846126, 4119.74358947, 4071.28205094, 4050.25640984, 4075.89743555, 4043.58974318, 4135.38461518, 4093.71794837, 4123.46153819, 4129.48717921, 4146.02564082,12.0
4118.84615357, 4066.41025600, 3915.89743521, 4113.58974332, 4120.51282024, 4072.94871761, 4058.58974318, 4082.56410222, 4048.58974318, 4135.38461518, 4091.92307658, 4120.38461511, 4128.33333306, 4145.38461518,12.0
4123.58974332, 4076.02564068, 3918.33333264, 4120.51282024, 4122.43589716, 4086.41025607, 4072.69230735, 4097.17948684, 4057.94871754, 4135.38461518, 4094.87179453, 4112.94871767, 4127.94871767, 4144.87179467,12.0
4124.61538434, 4076.15384581, 3920.38461469, 4113.84615357, 4122.82051255, 4092.17948684, 4077.69230735, 4099.48717914, 4059.87179446, 4135.38461518, 4093.71794837, 4111.53846126, 4128.07692280, 4145.38461518,12.0
4114.35897408, 4070.64102530, 3922.94871726, 4106.92307665, 4117.94871767, 4096.92307658, 4082.69230735, 4108.07692280, 4064.99999959, 4135.38461518, 4092.82051248, 4120.38461511, 4124.74358947, 4145.64102544,12.0
4128.20512793, 4072.30769196, 3930.89743521, 4103.71794844, 4120.25640998, 4100.51282017, 4083.71794837, 4114.87179460, 4074.10256376, 4135.38461518, 4097.30769196, 4127.17948691, 4126.41025614, 4143.46153826,12.0
4125.51282024, 4062.17948677, 3926.15384546, 4094.87179453, 4124.99999973, 4090.12820478, 4075.89743555, 4104.23076896, 4067.43589702, 4135.38461518, 4094.10256376, 4113.07692280, 4128.71794844, 4141.15384595,12.0
4122.82051255, 4059.74358933, 3918.71794803, 4097.69230735, 4122.82051255, 4092.94871761, 4077.43589709, 4098.97435863, 4051.79487138, 4135.38461518, 4088.46153812, 4096.02564068, 4128.20512793, 4144.35897415,12.0
4130.76923050, 4072.30769196, 3924.10256341, 4109.61538434, 4120.51282024, 4107.05128178, 4083.46153812, 4098.46153812, 4040.25640984, 4135.38461518, 4089.61538427, 4099.48717914, 4128.71794844, 4145.25641005,12.0
4125.76923050, 4071.28205094, 3924.74358905, 4106.92307665, 4121.66666639, 4093.07692273, 4061.66666625, 4076.02564068, 4034.87179439, 4135.38461518, 4088.20512786, 4101.66666632, 4126.53846126, 4143.97435877,12.0
4130.64102537, 4066.28205087, 3923.46153777, 4098.97435863, 4124.23076896, 4076.79487145, 4038.71794830, 4055.38461497, 4041.15384574, 4135.38461518, 4086.92307658, 4096.66666632, 4123.97435870, 4145.89743569,12.0
4128.20512793, 4070.64102530, 3929.10256341, 4104.23076896, 4122.43589716, 4086.02564068, 4058.33333292, 4078.20512786, 4058.33333292, 4135.38461518, 4093.58974325, 4103.46153819, 4125.51282024, 4144.10256390,12.0
4130.89743562, 4075.38461504, 3936.53846085, 4109.10256383, 4121.41025614, 4096.28205094, 4080.12820478, 4105.64102537, 4062.17948677, 4135.38461518, 4097.17948684, 4107.43589716, 4129.10256383, 4143.33333313,12.0
4136.41025621, 4069.99999966, 3934.10256341, 4103.33333306, 4121.92307665, 4090.12820478, 4073.20512786, 4097.69230735, 4051.15384574, 4135.38461518, 4088.97435863, 4094.35897402, 4129.35897408, 4147.82051262,12.0
4123.58974332, 4065.38461497, 3929.23076854, 4100.51282017, 4119.48717921, 4085.89743555, 4077.30769196, 4099.35897402, 4060.12820472, 4135.38461518, 4084.35897402, 4092.56410222, 4127.43589716, 4149.23076903,12.0
4128.97435870, 4068.46153805, 3936.41025572, 4102.30769196, 4120.89743562, 4094.61538427, 4087.05128171, 4108.97435870, 4065.89743548, 4135.38461518, 4087.94871761, 4098.33333299, 4129.23076896, 4146.79487159,12.0
4130.25640998, 4069.48717907, 3936.41025572, 4097.43589709, 4121.53846126, 4096.15384581, 4070.25640991, 4085.38461504, 4042.43589702, 4135.64102544, 4086.28205094, 4089.48717914, 4127.94871767, 4147.69230749,12.0
4126.15384588, 4069.74358940, 3930.12820444, 4093.84615350, 4119.48717921, 4092.17948684, 4062.94871754, 4068.97435856, 4037.69230728, 4135.76923056, 4087.69230735, 4090.25640991, 4124.23076896, 4149.74358954,12.0
4130.51282024, 4065.76923036, 3930.89743521, 4092.82051248, 4120.89743562, 4094.48717914, 4072.43589709, 4086.15384581, 4057.94871754, 4134.61538434, 4093.20512786, 4099.74358940, 4126.66666639, 4147.43589723,12.0
4120.51282024, 4061.41025600, 3932.69230700, 4090.76923043, 4122.43589716, 4095.38461504, 4069.48717907, 4096.02564068, 4063.97435856, 4135.76923056, 4090.51282017, 4098.71794837, 4129.48717921, 4147.17948697,12.0
4126.79487152, 4071.79487145, 3943.07692246, 4100.89743555, 4122.56410229, 4091.92307658, 4069.10256369, 4086.28205094, 4058.84615343, 4136.41025621, 4089.23076889, 4101.92307658, 4129.48717921, 4147.82051262,12.0
4125.76923050, 4080.76923043, 3952.43589681, 4109.10256383, 4122.05128178, 4090.25640991, 4070.64102530, 4084.99999966, 4063.84615343, 4131.02564075, 4094.87179453, 4109.48717921, 4127.69230742, 4145.51282031,12.0
4118.07692280, 4081.15384581, 3951.79487117, 4102.56410229, 4121.92307665, 4089.61538427, 4057.82051241, 4093.07692273, 4071.02564068, 4128.46153819, 4096.28205094, 4106.02564075, 4127.05128178, 4144.48717928,12.0
4127.94871767, 4079.61538427, 3953.97435835, 4099.48717914, 4121.15384588, 4087.17948684, 4054.99999959, 4098.33333299, 4066.79487138, 4133.71794844, 4093.46153812, 4103.46153819, 4126.79487152, 4144.48717928,12.0
4123.58974332, 4070.64102530, 3956.02564040, 4103.33333306, 4120.25640998, 4086.41025607, 4064.87179446, 4097.82051248, 4061.28205087, 4135.89743569, 4091.15384581, 4103.20512793, 4123.33333306, 4142.82051262,12.0
4127.05128178, 4069.99999966, 3961.02564040, 4105.12820485, 4124.61538434, 4087.43589709, 4061.53846113, 4091.79487145, 4065.76923036, 4134.10256383, 4091.92307658, 4099.61538427, 4126.15384588, 4143.71794851,12.0
4125.51282024, 4073.71794837, 3963.84615322, 4101.79487145, 4124.87179460, 4089.61538427, 4059.61538420, 4090.51282017, 4067.56410215, 4135.12820485, 4094.87179453, 4098.71794837, 4130.12820485, 4145.25641005,12.0
4118.71794844, 4070.25640991, 3963.33333271, 4097.05128171, 4120.64102537, 4093.07692273, 4067.94871754, 4084.74358940, 4059.99999959, 4135.89743569, 4094.74358940, 4097.30769196, 4128.33333306, 4146.02564082,12.0
4127.94871767, 4069.35897395, 3968.46153784, 4095.89743555, 4121.28205101, 4094.87179453, 4069.99999966, 4078.07692273, 4058.46153805, 4134.23076896, 4093.97435863, 4097.30769196, 4128.33333306, 4144.61538441,12.0
4125.89743562, 4075.64102530, 3974.48717894, 4105.38461511, 4123.33333306, 4097.05128171, 4077.05128171, 4093.71794837, 4069.23076882, 4134.35897408, 4099.23076889, 4112.56410229, 4128.46153819, 4142.43589723,12.0
4125.89743562, 4075.64102530, 3974.48717894, 4105.38461511, 4123.33333306, 4097.05128171, 4077.05128171, 4093.71794837, 4069.23076882, 4134.35897408, 4099.23076889, 4112.56410229, 4128.46153819, 4142.43589723,12.0
4132.56410229, 4081.53846119, 3981.02564047, 4118.97435870, 4123.71794844, 4096.79487145, 4079.74358940, 4095.38461504, 4070.89743555, 4134.61538434, 4103.20512793, 4125.89743562, 4128.46153819, 4143.84615364,12.0
4132.43589716, 4075.64102530, 3980.25640970, 4115.25640998, 4121.28205101, 4090.12820478, 4061.92307651, 4070.25640991, 4057.30769189, 4134.35897408, 4098.71794837, 4115.25640998, 4130.38461511, 4144.35897415,12.0
4121.79487152, 4073.58974325, 3976.15384560, 4106.28205101, 4120.12820485, 4093.46153812, 4063.58974318, 4078.46153812, 4059.48717907, 4134.48717921, 4096.66666632, 4103.20512793, 4128.58974332, 4144.99999980,12.0
4131.66666639, 4082.56410222, 3976.92307637, 4111.53846126, 4121.92307665, 4101.28205094, 4086.92307658, 4110.25640998, 4082.94871761, 4134.48717921, 4103.46153819, 4109.10256383, 4127.30769203, 4147.17948697,12.0
4127.56410229, 4080.89743555, 3974.74358919, 4126.53846126, 4122.17948691, 4095.89743555, 4080.25640991, 4106.02564075, 4092.05128171, 4134.48717921, 4106.41025614, 4120.25640998, 4129.61538434, 4149.23076903,12.0
4126.28205101, 4081.28205094, 3979.61538406, 4141.41025621, 4121.41025614, 4106.53846126, 4083.33333299, 4110.76923050, 4096.92307658, 4134.48717921, 4103.71794844, 4125.51282024, 4131.41025614, 4149.48717928,12.0
4129.87179460, 4088.33333299, 3982.05128150, 4144.48717928, 4119.48717921, 4124.99999973, 4112.56410229, 4140.89743569, 4113.58974332, 4134.48717921, 4100.64102530, 4120.12820485, 4128.97435870, 4146.92307672,12.0
4122.05128178, 4080.76923043, 3971.41025586, 4137.69230749, 4119.35897408, 4107.69230742, 4093.20512786, 4122.05128178, 4099.23076889, 4134.48717921, 4097.17948684, 4104.48717921, 4126.28205101, 4146.41025621,12.0
4127.94871767, 4069.48717907, 3971.79487124, 4140.51282031, 4123.07692280, 4090.76923043, 4057.82051241, 4085.76923043, 4071.15384581, 4134.48717921, 4098.84615350, 4096.15384581, 4128.58974332, 4146.53846133,12.0
4122.82051255, 4073.97435863, 3981.66666611, 4156.28205108, 4122.82051255, 4107.30769203, 4081.02564068, 4100.51282017, 4084.48717914, 4134.48717921, 4103.20512793, 4111.41025614, 4128.97435870, 4148.07692287,12.0
4124.48717921, 4082.05128171, 3984.99999945, 4170.12820499, 4120.64102537, 4112.82051255, 4099.10256376, 4102.69230742, 4089.23076889, 4134.48717921, 4101.53846119, 4126.53846126, 4127.30769203, 4151.28205108,12.0
4130.38461511, 4083.07692273, 3986.15384560, 4179.74358961, 4121.53846126, 4099.74358940, 4074.87179453, 4076.92307658, 4065.38461497, 4134.48717921, 4097.56410222, 4122.82051255, 4126.66666639, 4148.33333313,12.0
4117.56410229, 4085.76923043, 3995.38461483, 4188.58974345, 4123.84615357, 4103.46153819, 4075.89743555, 4092.05128171, 4071.92307658, 4134.48717921, 4099.10256376, 4115.51282024, 4127.82051255, 4144.35897415,12.0
4126.79487152, 4088.97435863, 4005.38461490, 4189.99999986, 4126.66666639, 4110.25640998, 4092.17948684, 4111.02564075, 4088.33333299, 4134.48717921, 4100.51282017, 4110.76923050, 4131.41025614, 4146.53846133,12.0
4126.53846126, 4080.25640991, 4001.92307637, 4182.82051269, 4123.97435870, 4105.76923050, 4090.12820478, 4106.79487152, 4087.05128171, 4134.48717921, 4098.71794837, 4112.05128178, 4129.35897408, 4147.05128185,12.0
4120.12820485, 4078.46153812, 4008.33333285, 4180.51282038, 4122.56410229, 4114.48717921, 4098.84615350, 4123.33333306, 4099.23076889, 4134.48717921, 4101.53846119, 4123.33333306, 4127.69230742, 4144.48717928,12.0
4127.56410229, 4086.41025607, 4021.02564054, 4185.64102551, 4125.51282024, 4117.17948691, 4104.87179460, 4132.94871767, 4106.79487152, 4134.48717921, 4102.17948684, 4127.94871767, 4128.20512793, 4144.10256390,12.0
4123.58974332, 4084.99999966, 4015.25640977, 4183.20512807, 4123.07692280, 4097.43589709, 4089.74358940, 4110.64102537, 4092.69230735, 4134.48717921, 4097.56410222, 4117.05128178, 4126.15384588, 4145.76923056,12.0
4129.61538434, 4085.25640991, 4016.15384567, 4178.20512807, 4121.79487152, 4097.43589709, 4084.10256376, 4097.56410222, 4086.15384581, 4134.48717921, 4098.07692273, 4112.17948691, 4128.97435870, 4146.15384595,12.0
4128.46153819, 4088.84615350, 4023.33333285, 4184.35897422, 4123.20512793, 4113.33333306, 4092.82051248, 4105.89743562, 4093.97435863, 4134.48717921, 4100.76923043, 4124.10256383, 4130.12820485, 4142.94871774,12.0
4125.25640998, 4094.74358940, 4026.53846106, 4198.20512807, 4122.69230742, 4108.58974332, 4092.69230735, 4112.17948691, 4099.48717914, 4134.48717921, 4104.74358947, 4141.28205108, 4126.28205101, 4144.48717928,12.0
4125.25640998, 4094.74358940, 4026.53846106, 4198.20512807, 4122.69230742, 4108.58974332, 4092.69230735, 4112.17948691, 4099.48717914, 4134.48717921, 4104.74358947, 4141.28205108, 4126.28205101, 4144.48717928,12.0
4131.66666639, 4098.33333299, 4032.94871747, 4199.61538448, 4121.66666639, 4104.87179460, 4091.41025607, 4110.51282024, 4097.05128171, 4134.48717921, 4111.79487152, 4146.79487159, 4124.61538434, 4147.05128185,12.0
4123.20512793, 4084.87179453, 4020.51282003, 4180.38461525, 4121.02564075, 4113.84615357, 4093.46153812, 4107.17948691, 4088.07692273, 4134.48717921, 4108.58974332, 4127.56410229, 4125.89743562, 4146.02564082,12.0
4130.38461511, 4079.48717914, 4018.33333285, 4169.35897422, 4122.43589716, 4113.07692280, 4095.25640991, 4112.69230742, 4090.64102530, 4134.48717921, 4096.02564068, 4113.58974332, 4128.84615357, 4144.87179467,12.0
4132.82051255, 4085.76923043, 4062.56410215, 4174.87179474, 4122.43589716, 4113.84615357, 4101.28205094, 4124.74358947, 4108.46153819, 4134.48717921, 4096.28205094, 4127.82051255, 4129.10256383, 4145.51282031,12.0
4121.66666639, 4087.17948684, 4107.69230742, 4173.58974345, 4121.41025614, 4122.30769203, 4109.61538434, 4132.56410229, 4114.99999973, 4134.48717921, 4105.76923050, 4144.10256390, 4127.17948691, 4148.46153826,12.0
4129.10256383, 4086.92307658, 4110.38461511, 4167.43589723, 4122.43589716, 4119.10256383, 4117.05128178, 4139.23076903, 4112.43589716, 4134.48717921, 4103.33333306, 4139.87179467, 4126.41025614, 4146.92307672,12.0
4123.20512793, 4078.84615350, 4091.15384581, 4165.25641005, 4123.07692280, 4108.97435870, 4114.10256383, 4146.28205108, 4120.76923050, 4134.48717921, 4096.15384581, 4123.97435870, 4125.89743562, 4145.12820492,12.0
4122.17948691, 4072.05128171, 4084.48717914, 4164.10256390, 4123.58974332, 4111.66666639, 4100.12820478, 4127.82051255, 4114.74358947, 4134.48717921, 4099.35897402, 4118.20512793, 4127.69230742, 4148.20512800,12.0
4125.89743562, 4078.58974325, 4083.20512786, 4165.64102544, 4122.82051255, 4115.76923050, 4096.79487145, 4102.17948684, 4091.28205094, 4134.48717921, 4099.87179453, 4118.58974332, 4127.94871767, 4147.82051262,12.0
4117.82051255, 4084.48717914, 4081.41025607, 4166.15384595, 4121.79487152, 4102.56410229, 4094.10256376, 4103.71794844, 4084.74358940, 4134.48717921, 4092.94871761, 4111.15384588, 4125.76923050, 4148.46153826,12.0
4128.07692280, 4080.25640991, 4083.71794837, 4157.82051262, 4123.97435870, 4093.58974325, 4074.74358940, 4093.97435863, 4078.71794837, 4134.48717921, 4091.28205094, 4101.92307658, 4126.15384588, 4148.97435877,12.0
4124.23076896, 4071.28205094, 4078.07692273, 4147.94871774, 4124.23076896, 4106.28205101, 4071.92307658, 4073.46153812, 4062.69230728, 4134.48717921, 4091.15384581, 4101.02564068, 4125.38461511, 4144.87179467,12.0
4118.33333306, 4069.10256369, 4077.17948684, 4145.25641005, 4124.61538434, 4114.74358947, 4088.33333299, 4084.99999966, 4066.41025600, 4134.48717921, 4091.28205094, 4100.89743555, 4124.10256383, 4143.07692287,12.0
4122.43589716, 4070.51282017, 4081.92307658, 4142.17948697, 4124.74358947, 4106.79487152, 4090.51282017, 4109.23076896, 4087.94871761, 4134.48717921, 4096.15384581, 4097.82051248, 4125.51282024, 4144.23076903,12.0
4117.82051255, 4074.87179453, 4084.35897402, 4136.28205108, 4121.79487152, 4105.12820485, 4088.84615350, 4122.56410229, 4107.82051255, 4134.48717921, 4098.97435863, 4103.84615357, 4126.92307665, 4142.69230749,12.0
4128.33333306, 4082.43589709, 4094.61538427, 4137.94871774, 4122.17948691, 4111.66666639, 4093.58974325, 4131.15384588, 4120.89743562, 4134.48717921, 4101.15384581, 4117.94871767, 4127.82051255, 4143.71794851,12.0
4127.82051255, 4076.02564068, 4099.74358940, 4138.97435877, 4121.28205101, 4103.58974332, 4091.92307658, 4128.71794844, 4117.82051255, 4134.48717921, 4106.15384588, 4125.38461511, 4125.76923050, 4144.87179467,12.0
4124.23076896, 4065.64102523, 4096.92307658, 4130.25640998, 4120.25640998, 4098.84615350, 4094.87179453, 4118.46153819, 4108.71794844, 4134.48717921, 4105.12820485, 4122.17948691, 4125.25640998, 4143.84615364,12.0
4130.51282024, 4066.92307651, 4095.64102530, 4122.82051255, 4123.46153819, 4111.79487152, 4098.84615350, 4116.15384588, 4112.69230742, 4134.48717921, 4099.23076889, 4117.43589716, 4127.43589716, 4144.74358954,12.0
4124.87179460, 4070.25640991, 4091.41025607, 4124.87179460, 4125.12820485, 4112.05128178, 4083.58974325, 4111.92307665, 4110.64102537, 4134.48717921, 4099.74358940, 4116.66666639, 4126.41025614, 4146.02564082,12.0
4130.12820485, 4068.20512779, 4083.84615350, 4123.20512793, 4124.35897408, 4096.79487145, 4069.74358940, 4094.61538427, 4089.23076889, 4134.48717921, 4100.12820478, 4100.64102530, 4125.38461511, 4145.64102544,12.0
4127.69230742, 4060.76923036, 4072.43589709, 4114.61538434, 4121.53846126, 4096.28205094, 4078.20512786, 4083.84615350, 4077.69230735, 4134.48717921, 4091.41025607, 4073.46153812, 4124.48717921, 4145.89743569,12.0
4124.74358947, 4061.66666625, 4070.76923043, 4115.76923050, 4122.17948691, 4100.64102530, 4080.25640991, 4082.43589709, 4078.97435863, 4134.48717921, 4085.76923043, 4070.64102530, 4123.71794844, 4147.82051262,12.0
4133.84615357, 4072.82051248, 4081.28205094, 4123.20512793, 4125.89743562, 4091.66666632, 4070.51282017, 4081.53846119, 4074.61538427, 4134.48717921, 4090.38461504, 4092.43589709, 4126.79487152, 4146.79487159,12.0
4122.82051255, 4078.07692273, 4093.33333299, 4125.25640998, 4123.97435870, 4092.56410222, 4082.05128171, 4093.46153812, 4077.30769196, 4134.48717921, 4095.12820478, 4108.46153819, 4126.79487152, 4145.89743569,12.0
4124.74358947, 4081.28205094, 4108.07692280, 4125.76923050, 4120.76923050, 4102.56410229, 4094.87179453, 4108.58974332, 4094.10256376, 4134.48717921, 4096.41025607, 4105.51282024, 4126.28205101, 4147.43589723,12.0
4127.17948691, 4080.64102530, 4109.61538434, 4123.46153819, 4119.99999973, 4097.05128171, 4085.38461504, 4108.20512793, 4100.51282017, 4134.48717921, 4094.23076889, 4097.69230735, 4126.28205101, 4145.38461518,12.0
4116.02564075, 4071.28205094, 4100.89743555, 4120.25640998, 4122.05128178, 4093.20512786, 4087.17948684, 4105.38461511, 4095.12820478, 4134.48717921, 4089.61538427, 4095.64102530, 4124.87179460, 4143.33333313,12.0
4124.74358947, 4063.33333292, 4098.71794837, 4116.41025614, 4124.48717921, 4099.10256376, 4092.56410222, 4109.48717921, 4090.76923043, 4134.48717921, 4088.33333299, 4090.38461504, 4124.23076896, 4146.02564082,12.0
4120.12820485, 4057.94871754, 4093.20512786, 4108.20512793, 4121.79487152, 4098.20512786, 4074.48717914, 4104.99999973, 4088.97435863, 4134.48717921, 4090.25640991, 4083.07692273, 4123.07692280, 4148.07692287,12.0
4118.46153819, 4062.05128164, 4092.05128171, 4113.58974332, 4121.53846126, 4093.46153812, 4067.94871754, 4097.30769196, 4090.25640991, 4134.48717921, 4093.33333299, 4089.23076889, 4124.61538434, 4146.28205108,12.0
4124.87179460, 4068.84615343, 4094.87179453, 4122.69230742, 4126.02564075, 4087.43589709, 4072.69230735, 4093.46153812, 4087.82051248, 4134.48717921, 4095.76923043, 4097.43589709, 4125.76923050, 4145.12820492,12.0
4118.20512793, 4065.38461497, 4088.46153812, 4113.58974332, 4126.28205101, 4082.30769196, 4056.66666625, 4082.05128171, 4072.94871761, 4134.48717921, 4097.30769196, 4091.53846119, 4123.84615357, 4145.89743569,12.0
4125.38461511, 4066.66666625, 4090.89743555, 4109.74358947, 4125.51282024, 4088.07692273, 4053.46153805, 4071.92307658, 4063.33333292, 4134.48717921, 4097.30769196, 4094.23076889, 4126.41025614, 4145.38461518,12.0
4123.58974332, 4075.38461504, 4098.58974325, 4122.82051255, 4125.89743562, 4091.02564068, 4070.25640991, 4076.15384581, 4069.10256369, 4134.87179460, 4093.33333299, 4103.71794844, 4127.17948691, 4144.10256390,12.0
4123.84615357, 4078.97435863, 4096.15384581, 4125.51282024, 4125.64102537, 4092.17948684, 4081.28205094, 4085.12820478, 4076.41025607, 4134.48717921, 4092.05128171, 4097.43589709, 4122.82051255, 4143.46153826,12.0
4129.48717921, 4070.25640991, 4091.28205094, 4110.12820485, 4123.58974332, 4096.15384581, 4086.02564068, 4085.51282017, 4073.97435863, 4134.35897408, 4091.66666632, 4087.05128171, 4121.79487152, 4144.74358954,12.0
4122.17948691, 4064.48717907, 4092.43589709, 4101.79487145, 4122.17948691, 4094.87179453, 4083.97435863, 4091.66666632, 4069.48717907, 4135.51282031, 4086.92307658, 4088.84615350, 4124.61538434, 4147.82051262,12.0
4128.84615357, 4071.53846119, 4097.43589709, 4107.94871767, 4124.35897408, 4107.17948691, 4090.12820478, 4101.53846119, 4079.48717914, 4133.46153819, 4087.30769196, 4093.71794837, 4126.28205101, 4148.33333313,12.0
4126.92307665, 4069.35897395, 4093.20512786, 4110.51282024, 4123.58974332, 4124.23076896, 4105.25640998, 4100.25640991, 4099.48717914, 4129.23076896, 4094.10256376, 4092.82051248, 4125.25640998, 4147.43589723,12.0
4125.76923050, 4062.69230728, 4083.71794837, 4106.41025614, 4123.20512793, 4113.97435870, 4096.15384581, 4099.23076889, 4101.53846119, 4128.71794844, 4092.43589709, 4085.76923043, 4123.97435870, 4148.46153826,12.0
4132.56410229, 4065.25640984, 4088.07692273, 4104.23076896, 4124.35897408, 4100.51282017, 4073.07692273, 4098.58974325, 4096.53846119, 4129.87179460, 4089.10256376, 4083.07692273, 4125.51282024, 4147.30769210,12.0
4126.53846126, 4066.79487138, 4105.89743562, 4100.38461504, 4121.79487152, 4111.41025614, 4082.17948684, 4101.02564068, 4111.79487152, 4129.48717921, 4094.74358940, 4099.35897402, 4126.53846126, 4148.58974339,12.0
4132.43589716, 4063.71794830, 4118.20512793, 4093.20512786, 4122.30769203, 4122.17948691, 4104.87179460, 4110.12820485, 4130.25640998, 4130.76923050, 4097.82051248, 4108.97435870, 4126.79487152, 4152.05128185,12.0
4126.41025614, 4063.33333292, 4109.48717921, 4093.07692273, 4122.69230742, 4122.69230742, 4109.23076896, 4115.25640998, 4125.25640998, 4131.79487152, 4093.97435863, 4100.25640991, 4124.99999973, 4150.38461518,12.0
4118.97435870, 4073.58974325, 4102.82051255, 4104.48717921, 4119.61538434, 4123.58974332, 4108.97435870, 4115.76923050, 4116.92307665, 4130.76923050, 4094.35897402, 4098.20512786, 4125.25640998, 4150.12820492,12.0
4129.23076896, 4076.41025607, 4108.33333306, 4111.28205101, 4122.30769203, 4125.38461511, 4110.38461511, 4120.51282024, 4126.66666639, 4132.56410229, 4097.82051248, 4100.76923043, 4127.56410229, 4150.25641005,12.0
4121.53846126, 4068.58974318, 4104.48717921, 4111.66666639, 4124.74358947, 4124.10256383, 4107.30769203, 4116.92307665, 4126.28205101, 4135.25640998, 4095.76923043, 4093.20512786, 4124.61538434, 4147.56410236,12.0
4122.94871767, 4073.33333299, 4102.17948684, 4115.76923050, 4122.56410229, 4112.43589716, 4091.92307658, 4098.33333299, 4104.35897408, 4135.76923056, 4093.58974325, 4087.69230735, 4123.97435870, 4146.28205108,12.0
4120.89743562, 4077.94871761, 4105.51282024, 4120.76923050, 4120.64102537, 4102.82051255, 4081.28205094, 4097.17948684, 4101.28205094, 4135.51282031, 4096.15384581, 4094.87179453, 4126.02564075, 4143.84615364,12.0
4112.30769203, 4079.74358940, 4112.56410229, 4128.20512793, 4122.56410229, 4114.35897408, 4102.69230742, 4115.12820485, 4117.69230742, 4135.25640998, 4102.30769196, 4111.15384588, 4123.58974332, 4142.30769210,12.0
4126.15384588, 4090.25640991, 4126.79487152, 4135.64102544, 4123.97435870, 4128.71794844, 4123.58974332, 4121.41025614, 4120.25640998, 4134.61538434, 4108.46153819, 4131.41025614, 4122.43589716, 4144.48717928,12.0
4121.28205101, 4093.58974325, 4126.92307665, 4134.10256383, 4121.79487152, 4128.20512793, 4116.02564075, 4118.58974332, 4116.15384588, 4134.35897408, 4105.89743562, 4136.53846133, 4123.84615357, 4145.64102544,12.0
4119.35897408, 4091.28205094, 4121.28205101, 4131.66666639, 4121.66666639, 4126.79487152, 4105.89743562, 4117.43589716, 4122.43589716, 4134.61538434, 4101.15384581, 4130.12820485, 4125.38461511, 4146.41025621,12.0
4126.28205101, 4091.79487145, 4125.51282024, 4131.53846126, 4122.05128178, 4127.56410229, 4110.38461511, 4118.46153819, 4122.17948691, 4134.48717921, 4100.12820478, 4129.23076896, 4124.35897408, 4144.74358954,12.0
4120.89743562, 4088.58974325, 4125.38461511, 4125.51282024, 4123.46153819, 4121.28205101, 4109.10256383, 4120.89743562, 4114.61538434, 4134.48717921, 4099.10256376, 4127.17948691, 4122.82051255, 4143.58974339,12.0
4127.30769203, 4083.71794837, 4119.61538434, 4116.28205101, 4125.89743562, 4118.71794844, 4103.84615357, 4128.97435870, 4123.71794844, 4134.48717921, 4096.15384581, 4121.53846126, 4123.58974332, 4145.38461518,12.0
4124.61538434, 4078.71794837, 4114.35897408, 4111.41025614, 4122.05128178, 4126.28205101, 4112.30769203, 4135.76923056, 4135.89743569, 4134.48717921, 4095.51282017, 4117.82051255, 4124.48717921, 4143.97435877,12.0
4126.41025614, 4076.66666632, 4109.61538434, 4108.58974332, 4121.28205101, 4124.10256383, 4113.84615357, 4120.76923050, 4119.61538434, 4134.48717921, 4096.28205094, 4104.48717921, 4126.41025614, 4143.46153826,12.0
4126.41025614, 4076.66666632, 4109.61538434, 4108.58974332, 4121.28205101, 4124.10256383, 4113.84615357, 4120.76923050, 4119.61538434, 4134.48717921, 4096.28205094, 4104.48717921, 4126.41025614, 4143.46153826,12.0
4132.30769203, 4077.05128171, 4102.69230742, 4106.02564075, 4125.51282024, 4110.51282024, 4104.48717921, 4103.71794844, 4095.64102530, 4134.48717921, 4091.41025607, 4089.61538427, 4125.38461511, 4147.30769210,12.0
4122.69230742, 4080.89743555, 4104.61538434, 4111.53846126, 4125.25640998, 4111.15384588, 4105.12820485, 4109.35897408, 4096.79487145, 4134.48717921, 4087.69230735, 4097.05128171, 4123.07692280, 4149.10256390,12.0
4127.17948691, 4091.92307658, 4117.56410229, 4123.33333306, 4122.82051255, 4123.46153819, 4116.28205101, 4116.41025614, 4103.84615357, 4134.48717921, 4091.41025607, 4110.64102537, 4126.92307665, 4146.41025621,12.0
4127.69230742, 4097.56410222, 4119.74358947, 4126.53846126, 4122.82051255, 4131.53846126, 4130.25640998, 4117.30769203, 4109.35897408, 4134.48717921, 4098.20512786, 4115.64102537, 4127.05128178, 4146.66666646,12.0
4126.92307665, 4094.61538427, 4118.07692280, 4118.46153819, 4124.74358947, 4126.53846126, 4120.51282024, 4114.10256383, 4117.30769203, 4134.48717921, 4101.92307658, 4118.71794844, 4123.58974332, 4150.12820492,12.0
4129.61538434, 4093.84615350, 4119.87179460, 4116.41025614, 4123.71794844, 4119.48717921, 4103.33333306, 4110.51282024, 4118.58974332, 4134.48717921, 4103.84615357, 4122.17948691, 4124.35897408, 4146.92307672,12.0
4119.61538434, 4093.71794837, 4119.74358947, 4122.30769203, 4119.61538434, 4133.58974332, 4124.74358947, 4128.84615357, 4132.82051255, 4134.48717921, 4107.56410229, 4124.10256383, 4123.97435870, 4144.61538441,12.0
4127.43589716, 4094.61538427, 4136.66666646, 4117.82051255, 4119.87179460, 4148.20512800, 4146.28205108, 4142.56410236, 4148.07692287, 4134.48717921, 4111.02564075, 4125.38461511, 4125.38461511, 4146.15384595,12.0
4125.12820485, 4087.94871761, 4157.43589723, 4104.74358947, 4123.07692280, 4132.43589716, 4124.87179460, 4126.28205101, 4138.20512800, 4134.48717921, 4108.97435870, 4129.61538434, 4127.43589716, 4144.87179467,12.0
4114.87179460, 4081.92307658, 4162.43589723, 4103.84615357, 4123.33333306, 4126.28205101, 4119.10256383, 4126.79487152, 4134.35897408, 4134.48717921, 4109.35897408, 4137.05128185, 4126.15384588, 4145.76923056,12.0
4125.89743562, 4087.69230735, 4161.92307672, 4110.12820485, 4122.43589716, 4145.38461518, 4144.10256390, 4148.84615364, 4147.43589723, 4134.48717921, 4111.53846126, 4140.38461518, 4125.76923050, 4147.05128185,12.0
4121.41025614, 4091.15384581, 4157.17948697, 4108.71794844, 4122.56410229, 4138.84615364, 4133.20512793, 4144.61538441, 4144.10256390, 4134.48717921, 4106.79487152, 4134.74358947, 4126.15384588, 4145.89743569,12.0
4123.84615357, 4098.46153812, 4158.07692287, 4114.74358947, 4124.61538434, 4126.79487152, 4120.25640998, 4129.35897408, 4133.46153819, 4134.48717921, 4107.69230742, 4135.76923056, 4124.61538434, 4144.23076903,12.0
4125.25640998, 4107.05128178, 4161.41025621, 4126.28205101, 4123.33333306, 4143.07692287, 4142.17948697, 4132.69230742, 4134.99999973, 4134.48717921, 4113.46153819, 4141.53846133, 4123.58974332, 4141.92307672,12.0
4117.17948691, 4107.17948691, 4155.12820492, 4126.15384588, 4120.12820485, 4145.64102544, 4140.51282031, 4133.84615357, 4135.38461518, 4134.48717921, 4109.87179460, 4139.23076903, 4125.38461511, 4143.20512800,12.0
4126.92307665, 4106.41025614, 4151.41025621, 4129.10256383, 4121.53846126, 4135.38461518, 4124.48717921, 4132.05128178, 4136.79487159, 4134.48717921, 4106.28205101, 4137.69230749, 4126.66666639, 4144.99999980,12.0
4122.69230742, 4106.41025614, 4153.84615364, 4134.48717921, 4121.02564075, 4140.38461518, 4136.53846133, 4135.51282031, 4138.46153826, 4134.61538434, 4109.87179460, 4142.82051262, 4126.02564075, 4144.35897415,12.0
4123.58974332, 4107.94871767, 4155.76923056, 4127.43589716, 4121.41025614, 4140.12820492, 4141.28205108, 4122.17948691, 4126.28205101, 4134.99999973, 4109.87179460, 4142.17948697, 4127.43589716, 4146.41025621,12.0
4128.33333306, 4101.66666632, 4147.56410236, 4116.02564075, 4124.10256383, 4126.41025614, 4124.10256383, 4103.07692280, 4109.74358947, 4133.97435870, 4104.23076896, 4136.92307672, 4125.89743562, 4149.35897415,12.0
4120.76923050, 4096.41025607, 4126.66666639, 4115.12820485, 4122.94871767, 4123.84615357, 4121.92307665, 4108.58974332, 4108.84615357, 4134.48717921, 4102.05128171, 4138.46153826, 4123.58974332, 4147.56410236,12.0
4129.10256383, 4102.05128171, 4080.89743555, 4117.05128178, 4123.33333306, 4124.87179460, 4120.89743562, 4115.64102537, 4113.20512793, 4135.76923056, 4102.17948684, 4138.58974339, 4125.76923050, 4144.87179467,12.0
4127.82051255, 4104.74358947, 4087.82051248, 4118.97435870, 4122.94871767, 4116.79487152, 4107.30769203, 4112.05128178, 4116.41025614, 4131.41025614, 4105.38461511, 4136.15384595, 4123.71794844, 4146.79487159,12.0
4126.28205101, 4106.41025614, 4123.46153819, 4127.05128178, 4122.43589716, 4122.05128178, 4113.97435870, 4121.15384588, 4127.17948691, 4128.20512793, 4112.17948691, 4144.87179467, 4123.84615357, 4148.33333313,12.0
4131.53846126, 4111.53846126, 3992.94871740, 4129.99999973, 4124.23076896, 4135.51282031, 4133.71794844, 4129.87179460, 4131.02564075, 4132.94871767, 4111.28205101, 4154.87179467, 4126.41025614, 4147.17948697,12.0
4125.38461511, 4113.20512793, 4184.48717935, 4126.92307665, 4121.41025614, 4127.56410229, 4130.38461511, 4120.38461511, 4119.35897408, 4136.15384595, 4105.51282024, 4150.38461518, 4124.10256383, 4149.10256390,12.0
4128.07692280, 4115.25640998, 5030.51282218, 4132.56410229, 4120.25640998, 4117.30769203, 4117.30769203, 4109.74358947, 4118.58974332, 4134.23076896, 4107.94871767, 4145.76923056, 4123.84615357, 4148.97435877,12.0
4119.48717921, 4116.15384588, 5638.58974651, 4139.74358954, 4123.20512793, 4128.97435870, 4128.58974332, 4120.38461511, 4138.46153826, 4134.87179460, 4110.64102537, 4152.82051262, 4124.74358947, 4144.10256390,12.0
4117.17948691, 4112.94871767, 5549.35897714, 4135.12820485, 4124.35897408, 4133.97435870, 4133.07692280, 4122.82051255, 4132.43589716, 4136.02564082, 4107.94871767, 4159.23076903, 4127.05128178, 4143.58974339,12.0
4126.79487152, 4109.23076896, 5442.05128456, 4126.79487152, 4123.20512793, 4115.76923050, 4107.30769203, 4093.20512786, 4101.92307658, 4134.35897408, 4109.61538434, 4157.94871774, 4129.23076896, 4146.02564082,12.0
4112.43589716, 4107.82051255, 5526.79487451, 4126.28205101, 4122.30769203, 4104.87179460, 4092.69230735, 4078.07692273, 4092.43589709, 4134.23076896, 4110.76923050, 4150.51282031, 4126.02564075, 4146.41025621,12.0
4119.23076896, 4110.76923050, 5480.25641283, 4129.99999973, 4124.61538434, 4116.41025614, 4111.92307665, 4106.92307665, 4110.12820485, 4134.74358947, 4110.25640998, 4146.66666646, 4124.99999973, 4147.05128185,12.0
4127.82051255, 4106.66666639, 5403.20513064, 4126.02564075, 4124.35897408, 4125.89743562, 4128.84615357, 4129.74358947, 4126.28205101, 4134.48717921, 4107.94871767, 4142.43589723, 4126.53846126, 4146.02564082,12.0
4119.35897408, 4098.71794837, 5388.58974603, 4111.66666639, 4121.41025614, 4121.28205101, 4122.69230742, 4113.84615357, 4117.56410229, 4134.48717921, 4099.61538427, 4127.94871767, 4123.97435870, 4143.07692287,12.0
4125.76923050, 4099.10256376, 5363.20513057, 4108.71794844, 4122.56410229, 4119.99999973, 4119.87179460, 4113.33333306, 4114.23076896, 4134.48717921, 4096.53846119, 4123.84615357, 4123.58974332, 4141.15384595,12.0
4123.84615357, 4103.20512793, 5356.15384852, 4123.20512793, 4126.53846126, 4120.12820485, 4125.76923050, 4137.30769210, 4133.07692280, 4134.48717921, 4106.66666639, 4137.30769210, 4126.79487152, 4141.02564082,12.0
4126.02564075, 4109.10256383, 5341.41025871, 4132.43589716, 4125.64102537, 4118.20512793, 4119.99999973, 4128.33333306, 4135.25640998, 4134.48717921, 4112.82051255, 4143.71794851, 4126.92307665, 4144.61538441,12.0
4125.38461511, 4108.46153819, 5319.23077153, 4128.33333306, 4120.25640998, 4116.92307665, 4105.25640998, 4096.02564068, 4119.48717921, 4134.48717921, 4108.20512793, 4139.48717928, 4125.12820485, 4146.41025621,12.0
4120.25640998, 4104.99999973, 5302.82051505, 4127.17948691, 4123.97435870, 4119.48717921, 4102.43589709, 4095.25640991, 4123.71794844, 4134.48717921, 4108.71794844, 4137.30769210, 4124.10256383, 4143.58974339,12.0
4130.64102537, 4107.56410229, 5289.61538684, 4133.07692280, 4129.10256383, 4127.94871767, 4112.56410229, 4111.15384588, 4138.84615364, 4134.48717921, 4113.07692280, 4142.56410236, 4125.25640998, 4143.71794851,12.0
4125.76923050, 4109.74358947, 5274.74359190, 4133.71794844, 4123.20512793, 4132.82051255, 4119.99999973, 4108.71794844, 4136.53846133, 4134.48717921, 4112.82051255, 4151.28205108, 4127.30769203, 4148.58974339,12.0
4127.17948691, 4112.30769203, 5261.41025857, 4130.89743562, 4122.17948691, 4127.56410229, 4117.43589716, 4109.74358947, 4127.56410229, 4134.48717921, 4111.66666639, 4151.66666646, 4127.82051255, 4149.99999980,12.0
4131.53846126, 4109.35897408, 5245.00000209, 4126.28205101, 4126.15384588, 4114.35897408, 4106.53846126, 4116.53846126, 4123.71794844, 4134.48717921, 4110.12820485, 4143.71794851, 4124.99999973, 4147.43589723,12.0
4122.94871767, 4105.76923050, 5225.38461747, 4123.84615357, 4123.58974332, 4112.94871767, 4107.43589716, 4119.74358947, 4131.28205101, 4134.48717921, 4111.02564075, 4148.07692287, 4124.87179460, 4147.05128185,12.0
4128.58974332, 4110.89743562, 5213.97436099, 4129.23076896, 4122.05128178, 4125.76923050, 4123.58974332, 4124.61538434, 4139.48717928, 4134.48717921, 4114.99999973, 4158.07692287, 4128.84615357, 4144.35897415,12.0
4126.28205101, 4108.71794844, 5195.76923279, 4126.41025614, 4122.94871767, 4128.46153819, 4130.38461511, 4125.89743562, 4129.87179460, 4134.48717921, 4112.94871767, 4151.92307672, 4127.43589716, 4142.56410236,12.0
4124.48717921, 4103.97435870, 5176.28205323, 4119.61538434, 4122.82051255, 4122.94871767, 4121.92307665, 4115.12820485, 4117.94871767, 4134.48717921, 4109.74358947, 4142.05128185, 4125.38461511, 4149.10256390,12.0
4126.02564075, 4101.92307658, 5157.05128400, 4118.58974332, 4123.84615357, 4116.79487152, 4107.94871767, 4103.33333306, 4119.23076896, 4134.48717921, 4112.30769203, 4138.84615364, 4127.43589716, 4149.61538441,12.0
4114.74358947, 4098.71794837, 5126.66666855, 4118.84615357, 4123.07692280, 4112.69230742, 4099.35897402, 4103.20512793, 4117.94871767, 4134.48717921, 4112.43589716, 4137.69230749, 4126.53846126, 4143.33333313,12.0
4122.17948691, 4111.79487152, 5113.71795053, 4132.05128178, 4123.20512793, 4120.76923050, 4116.66666639, 4106.92307665, 4117.30769203, 4134.48717921, 4111.53846126, 4151.15384595, 4126.53846126, 4144.74358954,12.0
4118.20512793, 4123.07692280, 5110.89743771, 4148.71794851, 4122.82051255, 4132.17948691, 4138.07692287, 4111.53846126, 4122.17948691, 4134.48717921, 4115.38461511, 4166.53846133, 4127.05128178, 4146.79487159,12.0
4113.33333306, 4116.66666639, 5090.89743771, 4144.99999980, 4123.84615357, 4128.71794844, 4123.20512793, 4110.25640998, 4120.12820485, 4134.48717921, 4115.76923050, 4160.38461518, 4128.33333306, 4145.25641005,12.0
4125.51282024, 4110.25640998, 5069.61538636, 4134.23076896, 4127.43589716, 4114.87179460, 4099.10256376, 4103.33333306, 4112.05128178, 4134.48717921, 4111.92307665, 4149.99999980, 4129.48717921, 4144.35897415,12.0
4118.20512793, 4109.87179460, 5057.17948892, 4135.38461518, 4124.61538434, 4112.56410229, 4108.20512793, 4113.20512793, 4117.94871767, 4134.48717921, 4111.66666639, 4151.79487159, 4126.41025614, 4144.23076903,12.0
4122.82051255, 4113.58974332, 5045.51282218, 4139.87179467, 4121.92307665, 4119.35897408, 4123.07692280, 4130.12820485, 4130.51282024, 4134.48717921, 4115.89743562, 4155.51282031, 4124.99999973, 4144.48717928,12.0
4126.66666639, 4115.64102537, 5031.66666834, 4138.97435877, 4123.46153819, 4119.48717921, 4121.02564075, 4131.02564075, 4129.35897408, 4134.48717921, 4115.89743562, 4160.76923056, 4124.99999973, 4145.25641005,12.0
4122.17948691, 4114.35897408, 5020.76923237, 4137.43589723, 4124.35897408, 4119.99999973, 4124.48717921, 4127.82051255, 4125.64102537, 4134.48717921, 4113.07692280, 4164.99999980, 4125.64102537, 4147.94871774,12.0
4130.25640998, 4109.35897408, 5003.84615545, 4130.25640998, 4125.64102537, 4118.71794844, 4117.82051255, 4117.82051255, 4117.56410229, 4134.48717921, 4111.28205101, 4149.99999980, 4126.66666639, 4147.17948697,12.0
4125.51282024, 4104.99999973, 4977.43589897, 4120.89743562, 4125.12820485, 4111.53846126, 4100.64102530, 4100.51282017, 4106.02564075, 4134.48717921, 4108.33333306, 4130.51282024, 4125.51282024, 4144.61538441,12.0
4129.35897408, 4109.87179460, 4963.84615538, 4123.07692280, 4123.46153819, 4115.25640998, 4109.74358947, 4100.12820478, 4109.99999973, 4134.48717921, 4108.58974332, 4133.07692280, 4125.64102537, 4147.43589723,12.0
4128.71794844, 4113.97435870, 4959.35897589, 4133.33333306, 4122.69230742, 4124.99999973, 4126.53846126, 4117.43589716, 4127.56410229, 4134.48717921, 4112.17948691, 4147.43589723, 4126.92307665, 4148.58974339,12.0
4119.35897408, 4114.61538434, 4951.28205275, 4141.02564082, 4124.35897408, 4126.53846126, 4124.10256383, 4126.66666639, 4136.41025621, 4134.48717921, 4114.48717921, 4154.61538441, 4127.56410229, 4145.64102544,12.0
