AF3,F7,F3,FC5,T7,P7,O1,O2,P8,T8,FC6,F4,F8,AF4,Label
4125.12820485, 4025.12820465, 4142.17948697, 4003.33333278, 4124.48717921, 4069.48717907, 4096.28205094, 4080.89743555, 4063.58974318, 4135.12820485, 4039.35897395, 4067.94871754, 4053.20512779, 4144.61538441,12.0
4123.97435870, 4003.46153791, 4146.15384595, 4018.71794824, 4123.20512793, 4074.61538427, 4101.53846119, 4093.97435863, 4063.58974318, 4134.23076896, 4036.66666618, 4080.76923043, 4052.94871754, 4144.61538441,12.0
4125.25640998, 3979.74358919, 4138.33333313, 3996.15384560, 4126.41025614, 4064.87179446, 4095.25640991, 4084.87179453, 4056.02564061, 4134.87179460, 4031.41025593, 4063.46153805, 4052.56410215, 4144.10256390,12.0
4119.23076896, 3995.38461483, 4128.20512793, 3969.61538399, 4126.28205101, 4048.07692266, 4077.30769196, 4079.23076889, 4058.33333292, 4133.07692280, 4034.10256362, 4047.30769189, 4047.69230728, 4145.51282031,12.0
4125.25640998, 4008.07692259, 4134.61538434, 3976.28205073, 4127.17948691, 4046.53846113, 4068.58974318, 4098.07692273, 4071.28205094, 4132.05128178, 4046.28205087, 4062.43589702, 4049.87179446, 4146.92307672,12.0
4128.46153819, 4013.84615336, 4149.87179467, 3986.66666611, 4127.56410229, 4055.64102523, 4089.48717914, 4117.69230742, 4081.15384581, 4135.76923056, 4054.10256369, 4084.48717914, 4057.17948677, 4144.35897415,12.0
4127.30769203, 4043.46153805, 4167.43589723, 4009.87179439, 4125.89743562, 4082.43589709, 4130.12820485, 4130.89743562, 4102.30769196, 4131.28205101, 4063.97435856, 4106.28205101, 4059.23076882, 4141.28205108,12.0
4129.23076896, 4035.12820465, 4167.56410236, 4021.79487131, 4129.10256383, 4095.89743555, 4134.87179460, 4127.56410229, 4109.23076896, 4124.35897408, 4074.23076889, 4108.07692280, 4059.87179446, 4142.43589723,12.0
4124.10256383, 4007.05128157, 4144.35897415, 3976.28205073, 4124.87179460, 4069.35897395, 4099.87179453, 4099.35897402, 4062.94871754, 4130.51282024, 4069.99999966, 4077.94871761, 4048.33333292, 4144.23076903,12.0
4129.35897408, 4013.71794824, 4139.99999980, 3954.35897374, 4122.30769203, 4056.41025600, 4089.74358940, 4077.43589709, 4033.58974311, 4134.61538434, 4065.51282010, 4067.56410215, 4045.51282010, 4146.66666646,12.0
4130.12820485, 4027.94871747, 4164.99999980, 4004.74358926, 4127.05128178, 4087.30769196, 4117.94871767, 4089.61538427, 4078.97435863, 4130.76923050, 4093.20512786, 4110.38461511, 4070.25640991, 4148.20512800,12.0
4124.61538434, 4043.58974318, 4181.15384602, 4033.46153798, 4125.12820485, 4095.76923043, 4129.23076896, 4098.71794837, 4114.74358947, 4131.15384588, 4118.97435870, 4142.94871774, 4083.07692273, 4146.66666646,12.0
4129.61538434, 4043.97435856, 4165.12820492, 4002.05128150, 4124.35897408, 4065.89743548, 4102.17948684, 4081.66666632, 4084.48717914, 4134.61538434, 4103.84615357, 4114.74358947, 4064.10256369, 4143.46153826,12.0
4125.25640998, 3997.30769176, 4136.28205108, 3969.10256348, 4123.46153819, 4054.23076882, 4070.76923043, 4063.07692266, 4054.87179446, 4134.99999973, 4081.15384581, 4072.56410222, 4047.30769189, 4142.82051262,12.0
4122.94871767, 3974.48717894, 4133.07692280, 3978.07692252, 4124.23076896, 4058.58974318, 4062.69230728, 4059.99999959, 4057.94871754, 4133.33333306, 4084.74358940, 4069.35897395, 4053.20512779, 4147.30769210,12.0
4128.71794844, 4030.76923029, 4161.02564082, 4011.53846106, 4125.76923050, 4082.56410222, 4099.99999966, 4103.71794844, 4084.23076889, 4133.20512793, 4110.38461511, 4107.56410229, 4062.69230728, 4149.35897415,12.0
4132.56410229, 4042.56410215, 4166.66666646, 4003.71794817, 4121.92307665, 4103.58974332, 4137.30769210, 4140.64102544, 4115.64102537, 4134.23076896, 4110.76923050, 4116.02564075, 4055.76923036, 4146.92307672,12.0
4133.58974332, 3999.74358919, 4142.17948697, 3966.02564040, 4123.97435870, 4085.89743555, 4114.48717921, 4109.10256383, 4106.41025614, 4133.71794844, 4092.43589709, 4075.51282017, 4044.61538420, 4146.66666646,12.0
4122.82051255, 4013.07692259, 4138.58974339, 3965.64102502, 4123.84615357, 4075.89743555, 4088.33333299, 4083.97435863, 4074.48717914, 4129.87179460, 4103.71794844, 4074.10256376, 4059.48717907, 4147.17948697,12.0
4120.12820485, 4016.02564054, 4151.28205108, 3970.12820451, 4123.46153819, 4087.43589709, 4102.56410229, 4103.07692280, 4072.30769196, 4129.35897408, 4129.23076896, 4105.25640998, 4080.25640991, 4146.66666646,12.0
4124.35897408, 3967.82051220, 4139.61538441, 3939.35897374, 4127.30769203, 4077.69230735, 4107.69230742, 4104.48717921, 4080.51282017, 4129.87179460, 4132.69230742, 4090.51282017, 4073.33333299, 4146.53846133,12.0
4122.43589716, 3959.10256348, 4126.92307665, 3927.82051213, 4124.35897408, 4066.53846113, 4091.53846119, 4084.87179453, 4078.71794837, 4129.87179460, 4139.23076903, 4071.28205094, 4066.28205087, 4145.89743569,12.0
4124.61538434, 3998.97435842, 4141.53846133, 3932.94871726, 4125.38461511, 4088.97435863, 4101.79487145, 4098.33333299, 4092.05128171, 4134.99999973, 4157.05128185, 4098.07692273, 4082.56410222, 4144.99999980,12.0
4122.43589716, 3985.51281996, 4133.84615357, 3908.58974290, 4126.53846126, 4085.51282017, 4101.66666632, 4106.92307665, 4090.76923043, 4136.79487159, 4144.35897415, 4095.12820478, 4094.99999966, 4143.33333313,12.0
4124.61538434, 3946.41025579, 4110.64102537, 3904.35897360, 4123.46153819, 4062.30769189, 4076.53846119, 4088.84615350, 4067.05128164, 4132.69230742, 4134.48717921, 4066.66666625, 4081.41025607, 4142.43589723,12.0
4126.66666639, 3962.30769169, 4116.28205101, 3913.20512751, 4124.10256383, 4074.10256376, 4079.74358940, 4089.74358940, 4076.79487145, 4132.30769203, 4152.94871774, 4074.74358940, 4062.94871754, 4143.33333313,12.0
4120.12820485, 3970.64102502, 4119.61538434, 3899.61538385, 4123.20512793, 4075.38461504, 4088.46153812, 4094.23076889, 4094.23076889, 4135.12820485, 4151.92307672, 4084.35897402, 4063.71794830, 4144.87179467,12.0
4125.12820485, 3967.82051220, 4124.23076896, 3917.69230700, 4124.23076896, 4077.56410222, 4106.92307665, 4107.82051255, 4110.12820485, 4135.25640998, 4147.94871774, 4098.97435863, 4084.74358940, 4145.89743569,12.0
4127.43589716, 3979.61538406, 4138.33333313, 3953.97435835, 4125.38461511, 4110.51282024, 4137.05128185, 4141.02564082, 4140.38461518, 4133.97435870, 4169.48717935, 4124.99999973, 4096.53846119, 4144.74358954,12.0
4123.84615357, 3980.89743535, 4127.43589716, 3938.33333264, 4125.38461511, 4108.71794844, 4120.38461511, 4134.35897408, 4126.15384588, 4134.48717921, 4171.02564089, 4106.28205101, 4081.28205094, 4144.87179467,12.0
4125.51282024, 3974.87179432, 4108.58974332, 3916.79487110, 4127.56410229, 4084.35897402, 4095.64102530, 4110.12820485, 4085.12820478, 4134.87179460, 4151.66666646, 4072.94871761, 4072.69230735, 4147.05128185,12.0
4124.35897408, 3976.66666611, 4109.61538434, 3921.02564033, 4123.20512793, 4089.23076889, 4110.51282024, 4114.48717921, 4087.17948684, 4133.97435870, 4151.28205108, 4076.66666632, 4078.46153812, 4146.79487159,12.0
4127.56410229, 3949.35897374, 4097.17948684, 3891.28205052, 4122.82051255, 4070.89743555, 4095.12820478, 4092.17948684, 4079.35897402, 4135.25640998, 4139.48717928, 4057.56410215, 4067.94871754, 4147.82051262,12.0
4127.43589716, 3921.53846085, 4087.82051248, 3890.38461462, 4125.64102537, 4050.51282010, 4071.66666632, 4069.48717907, 4053.46153805, 4134.35897408, 4127.94871767, 4040.76923036, 4059.87179446, 4149.35897415,12.0
4124.99999973, 3983.97435842, 4122.56410229, 3951.28205066, 4122.43589716, 4093.97435863, 4111.15384588, 4108.07692280, 4087.17948684, 4132.69230742, 4161.53846133, 4095.64102530, 4084.23076889, 4148.20512800,12.0
4128.20512793, 4027.43589695, 4138.97435877, 3964.87179425, 4122.82051255, 4119.48717921, 4124.99999973, 4130.12820485, 4117.94871767, 4133.33333306, 4173.33333320, 4120.38461511, 4087.82051248, 4146.28205108,12.0
4123.20512793, 3964.74358912, 4102.69230742, 3926.15384546, 4121.28205101, 4081.53846119, 4078.07692273, 4099.23076889, 4077.69230735, 4133.46153819, 4138.84615364, 4067.82051241, 4055.38461497, 4144.61538441,12.0
4123.20512793, 3919.23076854, 4080.76923043, 3899.48717873, 4121.02564075, 4055.51282010, 4053.33333292, 4079.10256376, 4049.23076882, 4133.07692280, 4128.84615357, 4033.71794824, 4044.23076882, 4145.12820492,12.0
4125.76923050, 3965.76923015, 4108.20512793, 3915.89743521, 4123.33333306, 4085.89743555, 4088.58974325, 4109.48717921, 4098.97435863, 4133.20512793, 4152.05128185, 4071.79487145, 4076.79487145, 4146.02564082,12.0
4120.89743562, 4010.51282003, 4133.71794844, 3958.46153784, 4121.53846126, 4114.35897408, 4119.10256383, 4139.48717928, 4137.05128185, 4133.33333306, 4166.28205108, 4114.35897408, 4091.41025607, 4144.48717928,12.0
4121.15384588, 3987.05128150, 4120.76923050, 3962.69230707, 4124.35897408, 4090.12820478, 4094.74358940, 4120.76923050, 4100.25640991, 4133.33333306, 4152.69230749, 4093.20512786, 4061.92307651, 4145.76923056,12.0
4121.53846126, 3971.53846099, 4109.10256383, 3941.53846092, 4124.35897408, 4075.12820478, 4088.33333299, 4103.20512793, 4083.20512786, 4133.33333306, 4135.25640998, 4073.07692273, 4060.38461497, 4146.15384595,12.0
4124.10256383, 3994.99999945, 4119.10256383, 3947.82051220, 4122.43589716, 4102.17948684, 4110.89743562, 4109.35897408, 4105.25640998, 4133.33333306, 4137.56410236, 4090.76923043, 4076.41025607, 4144.23076903,12.0
4125.64102537, 3998.58974304, 4114.61538434, 3953.71794810, 4124.87179460, 4107.05128178, 4090.76923043, 4096.15384581, 4088.07692273, 4133.46153819, 4140.25641005, 4081.79487145, 4060.64102523, 4145.89743569,12.0
4122.69230742, 3978.33333278, 4102.56410229, 3948.58974297, 4122.05128178, 4079.74358940, 4069.99999966, 4075.25640991, 4060.76923036, 4133.33333306, 4131.41025614, 4063.84615343, 4050.12820472, 4146.92307672,12.0
4124.10256383, 3987.17948663, 4121.28205101, 3969.23076861, 4119.35897408, 4087.30769196, 4103.20512793, 4092.43589709, 4084.99999966, 4132.94871767, 4139.99999980, 4095.38461504, 4069.74358940, 4145.25641005,12.0
4122.30769203, 4005.51282003, 4129.23076896, 3980.38461483, 4117.82051255, 4102.05128171, 4099.99999966, 4101.02564068, 4097.69230735, 4133.71794844, 4149.23076903, 4105.25640998, 4070.38461504, 4144.74358954,12.0
4121.28205101, 3990.12820458, 4108.84615357, 3951.92307630, 4118.20512793, 4080.89743555, 4057.69230728, 4072.30769196, 4070.12820478, 4133.07692280, 4134.35897408, 4070.76923043, 4056.41025600, 4144.87179467,12.0
4122.30769203, 3975.38461483, 4110.64102537, 3945.76923015, 4123.33333306, 4074.48717914, 4074.10256376, 4078.97435863, 4071.66666632, 4130.64102537, 4126.53846126, 4076.79487145, 4065.12820472, 4145.64102544,12.0
4121.15384588, 3984.87179432, 4124.48717921, 3968.71794810, 4121.02564075, 4089.35897402, 4100.25640991, 4111.15384588, 4100.89743555, 4129.61538434, 4130.25640998, 4102.43589709, 4071.02564068, 4146.02564082,12.0
4123.20512793, 3996.92307637, 4121.41025614, 3968.07692246, 4121.41025614, 4091.41025607, 4091.41025607, 4114.48717921, 4108.97435870, 4130.51282024, 4128.20512793, 4095.76923043, 4072.05128171, 4146.79487159,12.0
4122.82051255, 4009.87179439, 4126.41025614, 3966.28205066, 4126.28205101, 4094.23076889, 4104.10256383, 4119.87179460, 4112.17948691, 4133.84615357, 4131.66666639, 4101.15384581, 4078.97435863, 4146.41025621,12.0
4120.38461511, 4023.58974311, 4141.28205108, 3989.61538406, 4123.71794844, 4105.76923050, 4113.97435870, 4130.38461511, 4129.48717921, 4133.46153819, 4143.46153826, 4124.35897408, 4076.53846119, 4145.12820492,12.0
4121.79487152, 4009.61538413, 4133.20512793, 3992.30769176, 4123.58974332, 4100.25640991, 4079.99999966, 4110.38461511, 4116.53846126, 4131.66666639, 4139.10256390, 4110.38461511, 4068.84615343, 4146.41025621,12.0
4119.87179460, 3979.10256355, 4115.25640998, 3963.84615322, 4123.07692280, 4073.84615350, 4056.41025600, 4082.69230735, 4074.61538427, 4134.35897408, 4119.87179460, 4083.71794837, 4069.35897395, 4146.66666646,12.0
4118.20512793, 3991.02564047, 4123.07692280, 3970.64102502, 4122.69230742, 4086.53846119, 4088.84615350, 4095.38461504, 4080.89743555, 4134.74358947, 4119.61538434, 4096.15384581, 4076.92307658, 4145.25641005,12.0
4122.30769203, 4027.43589695, 4138.97435877, 3994.35897381, 4125.25640998, 4132.94871767, 4132.94871767, 4132.94871767, 4126.02564075, 4131.92307665, 4134.99999973, 4119.99999973, 4080.76923043, 4146.02564082,12.0
4126.02564075, 4022.69230721, 4127.17948691, 3983.20512765, 4123.07692280, 4126.79487152, 4122.56410229, 4125.51282024, 4115.51282024, 4132.82051255, 4128.20512793, 4103.97435870, 4066.92307651, 4146.02564082,12.0
4124.35897408, 3991.41025586, 4107.69230742, 3973.97435842, 4120.51282024, 4091.66666632, 4081.02564068, 4086.28205094, 4057.94871754, 4134.87179460, 4111.92307665, 4076.79487145, 4049.23076882, 4145.89743569,12.0
4122.69230742, 3996.28205073, 4117.30769203, 3999.74358919, 4119.74358947, 4098.58974325, 4079.48717914, 4084.99999966, 4050.64102523, 4133.97435870, 4122.30769203, 4093.71794837, 4058.46153805, 4145.51282031,12.0
4126.41025614, 4012.69230721, 4135.38461518, 4023.07692259, 4121.41025614, 4114.10256383, 4111.15384588, 4113.84615357, 4096.28205094, 4134.23076896, 4129.23076896, 4120.76923050, 4072.69230735, 4143.58974339,12.0
4125.89743562, 3989.35897381, 4122.82051255, 3981.66666611, 4122.05128178, 4105.38461511, 4107.82051255, 4114.48717921, 4110.25640998, 4134.10256383, 4116.79487152, 4103.71794844, 4061.41025600, 4144.61538441,12.0
4125.89743562, 3972.43589688, 4106.15384588, 3943.58974297, 4119.61538434, 4098.07692273, 4076.79487145, 4094.48717914, 4080.89743555, 4133.97435870, 4118.33333306, 4085.64102530, 4058.20512779, 4146.53846133,12.0
4128.71794844, 4014.48717900, 4126.41025614, 3997.17948663, 4122.56410229, 4108.58974332, 4091.15384581, 4109.48717921, 4087.05128171, 4135.89743569, 4127.17948691, 4112.56410229, 4073.33333299, 4144.35897415,12.0
4126.53846126, 4036.28205080, 4142.82051262, 4035.25640977, 4121.28205101, 4120.25640998, 4123.58974332, 4134.48717921, 4116.41025614, 4135.51282031, 4120.12820485, 4128.20512793, 4068.97435856, 4143.97435877,12.0
4129.35897408, 3999.74358919, 4133.33333306, 3994.74358919, 4120.64102537, 4120.25640998, 4114.99999973, 4124.48717921, 4106.92307665, 4133.97435870, 4107.43589716, 4114.61538434, 4065.76923036, 4144.99999980,12.0
4130.89743562, 3990.12820458, 4125.12820485, 3977.56410201, 4126.41025614, 4108.46153819, 4087.56410222, 4103.33333306, 4075.25640991, 4133.84615357, 4101.66666632, 4105.51282024, 4065.51282010, 4144.48717928,12.0
4126.53846126, 4035.25640977, 4133.84615357, 4017.17948670, 4123.97435870, 4122.30769203, 4097.17948684, 4114.99999973, 4081.41025607, 4136.15384595, 4112.82051255, 4116.41025614, 4057.05128164, 4144.10256390,12.0
4129.10256383, 4051.02564061, 4149.99999980, 4050.25640984, 4120.89743562, 4155.89743569, 4135.76923056, 4144.35897415, 4125.76923050, 4135.89743569, 4127.56410229, 4140.89743569, 4074.48717914, 4144.74358954,12.0
4128.33333306, 4007.94871747, 4136.66666646, 4026.28205080, 4122.30769203, 4139.87179467, 4130.51282024, 4131.02564075, 4123.46153819, 4131.92307665, 4112.56410229, 4124.48717921, 4087.82051248, 4144.61538441,12.0
4124.99999973, 3973.71794817, 4105.76923050, 3979.61538406, 4123.07692280, 4099.99999966, 4090.64102530, 4091.02564068, 4078.46153812, 4131.28205101, 4094.99999966, 4074.99999966, 4051.41025600, 4144.87179467,12.0
4126.92307665, 3984.99999945, 4105.76923050, 3974.10256355, 4122.82051255, 4102.69230742, 4090.12820478, 4089.99999966, 4073.97435863, 4136.28205108, 4106.02564075, 4076.28205094, 4037.05128164, 4148.20512800,12.0
4128.84615357, 4006.41025593, 4125.51282024, 3988.07692252, 4119.99999973, 4116.53846126, 4106.02564075, 4109.10256383, 4097.05128171, 4135.12820485, 4104.23076896, 4113.46153819, 4073.33333299, 4147.17948697,12.0
4128.46153819, 4005.51282003, 4133.58974332, 3987.82051227, 4123.58974332, 4118.07692280, 4099.87179453, 4118.20512793, 4091.41025607, 4128.46153819, 4091.53846119, 4122.82051255, 4075.76923043, 4143.58974339,12.0
4122.17948691, 3997.69230714, 4138.07692287, 4004.48717900, 4125.12820485, 4129.87179460, 4106.92307665, 4132.30769203, 4083.71794837, 4130.25640998, 4108.46153819, 4127.82051255, 4057.94871754, 4144.99999980,12.0
4124.10256383, 4009.99999952, 4142.43589723, 4033.46153798, 4122.05128178, 4134.48717921, 4117.43589716, 4128.58974332, 4093.07692273, 4133.84615357, 4120.51282024, 4133.33333306, 4062.69230728, 4146.53846133,12.0
4127.17948691, 4012.69230721, 4131.53846126, 4021.53846106, 4125.64102537, 4120.38461511, 4097.82051248, 4102.43589709, 4086.66666632, 4132.43589716, 4101.15384581, 4109.23076896, 4059.10256369, 4145.89743569,12.0
4123.58974332, 3992.05128150, 4115.51282024, 3983.58974304, 4123.58974332, 4110.89743562, 4076.15384581, 4088.58974325, 4076.79487145, 4131.92307665, 4088.33333299, 4086.15384581, 4050.25640984, 4145.25641005,12.0
4129.10256383, 3989.23076868, 4117.30769203, 3967.94871733, 4119.48717921, 4110.38461511, 4081.92307658, 4089.10256376, 4075.89743555, 4134.61538434, 4093.33333299, 4088.97435863, 4058.46153805, 4146.92307672,12.0
4127.69230742, 4024.61538413, 4133.33333306, 4008.33333285, 4120.25640998, 4121.66666639, 4100.25640991, 4099.35897402, 4084.10256376, 4138.33333313, 4105.51282024, 4107.30769203, 4069.99999966, 4149.48717928,12.0
4126.53846126, 4025.76923029, 4136.92307672, 4049.87179446, 4121.92307665, 4131.92307665, 4101.41025607, 4105.51282024, 4096.15384581, 4131.79487152, 4111.28205101, 4115.25640998, 4064.61538420, 4145.51282031,12.0
4130.76923050, 4001.66666611, 4127.30769203, 4032.43589695, 4126.02564075, 4124.35897408, 4095.12820478, 4101.92307658, 4098.97435863, 4122.30769203, 4106.79487152, 4103.97435870, 4054.35897395, 4146.28205108,12.0
4125.38461511, 4018.07692259, 4130.38461511, 4028.46153798, 4123.71794844, 4126.02564075, 4107.05128178, 4107.69230742, 4094.87179453, 4128.07692280, 4107.05128178, 4106.66666639, 4053.71794830, 4152.05128185,12.0
4127.69230742, 4031.66666618, 4141.41025621, 4045.76923036, 4120.89743562, 4140.89743569, 4118.84615357, 4115.51282024, 4091.28205094, 4135.64102544, 4108.20512793, 4123.46153819, 4069.10256369, 4148.20512800,12.0
4126.15384588, 4016.41025593, 4133.07692280, 4030.76923029, 4121.66666639, 4130.25640998, 4097.30769196, 4106.15384588, 4087.17948684, 4131.15384588, 4105.38461511, 4112.56410229, 4068.46153805, 4147.43589723,12.0
4123.84615357, 4018.07692259, 4125.64102537, 4024.23076875, 4120.64102537, 4107.43589716, 4071.66666632, 4093.33333299, 4078.84615350, 4128.33333306, 4106.41025614, 4098.84615350, 4049.61538420, 4149.99999980,12.0
4129.48717921, 4043.71794830, 4144.74358954, 4057.82051241, 4122.56410229, 4124.10256383, 4090.25640991, 4102.43589709, 4082.17948684, 4133.97435870, 4106.92307665, 4122.94871767, 4059.61538420, 4148.20512800,12.0
4121.28205101, 4048.07692266, 4155.38461518, 4080.25640991, 4121.53846126, 4146.15384595, 4111.02564075, 4113.84615357, 4089.23076889, 4135.38461518, 4109.61538434, 4144.23076903, 4077.82051248, 4144.10256390,12.0
4121.02564075, 4027.05128157, 4135.89743569, 4050.89743548, 4121.53846126, 4113.33333306, 4080.12820478, 4090.25640991, 4075.12820478, 4132.82051255, 4109.61538434, 4114.99999973, 4063.84615343, 4140.64102544,12.0
4125.38461511, 4016.53846106, 4124.87179460, 4031.66666618, 4122.56410229, 4093.97435863, 4060.25640984, 4075.64102530, 4067.43589702, 4133.71794844, 4097.94871761, 4089.48717914, 4051.79487138, 4145.38461518,12.0
4124.10256383, 4027.43589695, 4143.97435877, 4060.38461497, 4120.38461511, 4132.43589716, 4093.97435863, 4099.74358940, 4089.48717914, 4133.58974332, 4096.02564068, 4122.30769203, 4068.20512779, 4145.38461518,12.0
4127.56410229, 4043.71794830, 4155.51282031, 4074.87179453, 4124.74358947, 4142.30769210, 4108.84615357, 4102.05128171, 4089.23076889, 4133.84615357, 4100.64102530, 4144.10256390, 4066.28205087, 4144.23076903,12.0
4122.17948691, 4051.41025600, 4146.15384595, 4062.17948677, 4124.23076896, 4117.82051255, 4091.53846119, 4078.71794837, 4066.53846113, 4133.33333306, 4089.23076889, 4125.25640998, 4048.71794830, 4148.33333313,12.0
4127.05128178, 4067.82051241, 4151.02564082, 4084.23076889, 4118.33333306, 4130.89743562, 4103.33333306, 4086.92307658, 4077.69230735, 4133.97435870, 4082.30769196, 4129.99999973, 4059.61538420, 4146.02564082,12.0
4127.56410229, 4057.69230728, 4154.74358954, 4097.43589709, 4119.48717921, 4142.56410236, 4103.07692280, 4094.87179453, 4085.76923043, 4137.94871774, 4089.35897402, 4139.87179467, 4070.89743555, 4147.94871774,12.0
4119.23076896, 4021.92307644, 4138.71794851, 4061.28205087, 4121.41025614, 4130.76923050, 4078.46153812, 4080.38461504, 4068.97435856, 4136.53846133, 4083.58974325, 4118.46153819, 4060.12820472, 4148.46153826,12.0
4128.97435870, 4017.69230721, 4133.97435870, 4053.58974318, 4121.28205101, 4140.25641005, 4084.10256376, 4088.71794837, 4066.28205087, 4125.12820485, 4062.69230728, 4105.25640998, 4049.23076882, 4143.97435877,12.0
4127.05128178, 4024.35897388, 4132.69230742, 4076.66666632, 4119.10256383, 4133.07692280, 4083.84615350, 4087.69230735, 4061.15384574, 4121.28205101, 4053.84615343, 4101.66666632, 4038.20512779, 4147.43589723,12.0
4124.23076896, 4033.97435849, 4131.28205101, 4087.30769196, 4121.41025614, 4111.41025614, 4068.71794830, 4061.41025600, 4050.38461497, 4130.38461511, 4064.61538420, 4099.35897402, 4029.74358926, 4146.41025621,12.0
4128.46153819, 4063.20512779, 4156.02564082, 4112.30769203, 4124.99999973, 4134.99999973, 4094.35897402, 4088.71794837, 4082.82051248, 4136.02564082, 4084.10256376, 4140.51282031, 4049.23076882, 4144.99999980,12.0
4126.02564075, 4101.28205094, 4180.25641012, 4137.17948697, 4120.12820485, 4158.71794851, 4121.02564075, 4132.56410229, 4119.61538434, 4133.71794844, 4091.15384581, 4182.30769217, 4067.69230728, 4146.79487159,12.0
4128.71794844, 4096.79487145, 4172.17948704, 4112.05128178, 4120.51282024, 4140.64102544, 4104.99999973, 4114.87179460, 4100.12820478, 4128.20512793, 4079.87179453, 4162.17948697, 4055.12820472, 4145.76923056,12.0
4124.74358947, 4040.89743548, 4148.33333313, 4073.33333299, 4121.53846126, 4124.74358947, 4084.74358940, 4083.58974325, 4071.28205094, 4129.99999973, 4064.74358933, 4122.69230742, 4043.46153805, 4149.61538441,12.0
4124.48717921, 4022.94871747, 4142.94871774, 4090.89743555, 4119.10256383, 4134.61538434, 4091.66666632, 4090.64102530, 4085.25640991, 4132.05128178, 4062.43589702, 4119.87179460, 4045.25640984, 4148.20512800,12.0
4126.92307665, 4061.66666625, 4151.66666646, 4117.94871767, 4122.43589716, 4149.10256390, 4110.64102537, 4116.15384588, 4112.56410229, 4125.64102537, 4074.61538427, 4137.05128185, 4044.99999959, 4144.48717928,12.0
4123.33333306, 4075.25640991, 4161.66666646, 4112.05128178, 4120.89743562, 4152.56410236, 4119.35897408, 4126.79487152, 4116.79487152, 4124.61538434, 4079.87179453, 4148.20512800, 4050.64102523, 4145.76923056,12.0
4126.92307665, 4050.12820472, 4168.84615371, 4100.25640991, 4121.15384588, 4135.25640998, 4100.38461504, 4111.92307665, 4101.28205094, 4130.89743562, 4068.46153805, 4143.58974339, 4052.30769189, 4145.38461518,12.0
4123.46153819, 4049.48717907, 4158.97435877, 4090.76923043, 4124.23076896, 4118.20512793, 4078.46153812, 4093.46153812, 4083.07692273, 4132.94871767, 4057.82051241, 4122.30769203, 4041.15384574, 4145.12820492,12.0
4122.05128178, 4049.23076882, 4145.89743569, 4080.76923043, 4121.66666639, 4127.43589716, 4079.23076889, 4088.97435863, 4077.56410222, 4131.02564075, 4056.66666625, 4106.53846126, 4033.71794824, 4144.87179467,12.0
4127.69230742, 4025.76923029, 4150.76923056, 4079.99999966, 4122.05128178, 4142.82051262, 4088.84615350, 4095.38461504, 4079.23076889, 4131.66666639, 4058.84615343, 4112.94871767, 4035.89743541, 4145.89743569,12.0
4124.23076896, 4035.12820465, 4164.35897415, 4089.61538427, 4121.66666639, 4146.53846133, 4101.02564068, 4107.43589716, 4086.28205094, 4132.43589716, 4060.89743548, 4131.66666639, 4040.12820472, 4145.64102544,12.0
4124.87179460, 4060.76923036, 4164.61538441, 4092.56410222, 4120.76923050, 4142.30769210, 4109.35897408, 4107.30769203, 4089.48717914, 4130.38461511, 4058.46153805, 4131.66666639, 4038.46153805, 4144.10256390,12.0
4126.53846126, 4048.33333292, 4153.58974339, 4087.17948684, 4120.89743562, 4142.05128185, 4113.84615357, 4100.64102530, 4087.30769196, 4126.15384588, 4061.15384574, 4116.02564075, 4038.46153805, 4148.20512800,12.0
4126.79487152, 4020.25640977, 4140.89743569, 4068.58974318, 4117.94871767, 4139.74358954, 4109.48717921, 4093.71794837, 4077.56410222, 4127.30769203, 4056.15384574, 4099.99999966, 4035.76923029, 4149.74358954,12.0
4129.61538434, 4035.76923029, 4139.48717928, 4054.23076882, 4120.12820485, 4135.89743569, 4100.89743555, 4090.25640991, 4069.23076882, 4133.33333306, 4039.87179446, 4094.61538427, 4036.02564054, 4146.53846133,12.0
4124.35897408, 4053.71794830, 4149.87179467, 4076.79487145, 4121.02564075, 4140.38461518, 4102.56410229, 4101.53846119, 4083.20512786, 4133.71794844, 4044.87179446, 4110.89743562, 4041.41025600, 4144.74358954,12.0
4123.33333306, 4020.64102516, 4142.94871774, 4085.25640991, 4118.46153819, 4135.12820485, 4095.64102530, 4100.89743555, 4089.87179453, 4133.71794844, 4057.17948677, 4112.82051255, 4033.97435849, 4146.02564082,12.0
4127.05128178, 3999.99999945, 4128.58974332, 4063.20512779, 4123.71794844, 4131.53846126, 4086.41025607, 4088.20512786, 4071.41025607, 4133.58974332, 4052.82051241, 4096.28205094, 4024.74358926, 4148.84615364,12.0
4124.99999973, 4030.76923029, 4132.56410229, 4073.46153812, 4124.48717921, 4144.10256390, 4099.87179453, 4095.25640991, 4066.02564061, 4131.53846126, 4048.07692266, 4102.82051255, 4029.61538413, 4145.38461518,12.0
4123.07692280, 4074.74358940, 4144.99999980, 4112.17948691, 4122.30769203, 4155.64102544, 4127.17948691, 4120.64102537, 4097.94871761, 4135.25640998, 4051.92307651, 4129.87179460, 4045.51282010, 4143.33333313,12.0
4120.76923050, 4072.94871761, 4137.56410236, 4102.69230742, 4122.30769203, 4146.66666646, 4125.76923050, 4128.07692280, 4106.02564075, 4136.92307672, 4053.58974318, 4122.69230742, 4048.71794830, 4146.66666646,12.0
4121.92307665, 4025.25640977, 4113.46153819, 4063.97435856, 4120.64102537, 4126.02564075, 4087.69230735, 4093.58974325, 4063.84615343, 4130.38461511, 4046.41025600, 4083.71794837, 4031.28205080, 4145.76923056,12.0
4124.10256383, 4016.15384567, 4111.41025614, 4078.20512786, 4121.15384588, 4133.07692280, 4080.76923043, 4073.97435863, 4057.30769189, 4130.89743562, 4043.58974318, 4082.94871761, 4023.33333285, 4148.07692287,12.0
4123.20512793, 4045.12820472, 4124.61538434, 4102.30769196, 4121.02564075, 4148.07692287, 4111.41025614, 4096.41025607, 4083.20512786, 4133.84615357, 4051.79487138, 4108.58974332, 4030.64102516, 4149.35897415,12.0
4124.87179460, 4042.05128164, 4130.25640998, 4086.15384581, 4122.43589716, 4139.48717928, 4117.56410229, 4112.30769203, 4085.76923043, 4133.20512793, 4059.74358933, 4114.48717921, 4039.87179446, 4145.51282031,12.0
4125.64102537, 4032.56410208, 4128.33333306, 4083.71794837, 4123.71794844, 4127.82051255, 4095.76923043, 4102.43589709, 4080.76923043, 4135.89743569, 4055.25640984, 4110.12820485, 4046.02564061, 4145.25641005,12.0
4125.38461511, 4062.05128164, 4129.48717921, 4115.25640998, 4121.92307665, 4134.87179460, 4092.69230735, 4095.25640991, 4084.99999966, 4132.56410229, 4051.79487138, 4119.74358947, 4044.35897395, 4144.99999980,12.0
4124.99999973, 4082.82051248, 4142.17948697, 4117.56410229, 4122.69230742, 4148.20512800, 4113.84615357, 4111.28205101, 4091.92307658, 4126.53846126, 4061.79487138, 4133.97435870, 4038.97435856, 4147.30769210,12.0
4124.87179460, 4052.94871754, 4141.53846133, 4084.35897402, 4120.89743562, 4134.35897408, 4113.71794844, 4114.61538434, 4091.28205094, 4131.15384588, 4064.61538420, 4126.41025614, 4042.30769189, 4149.10256390,12.0
4126.79487152, 4017.94871747, 4123.97435870, 4078.46153812, 4122.69230742, 4108.46153819, 4083.97435863, 4087.56410222, 4076.92307658, 4132.56410229, 4054.23076882, 4102.82051255, 4039.23076882, 4146.53846133,12.0
4124.23076896, 4017.17948670, 4115.12820485, 4090.51282017, 4124.48717921, 4109.99999973, 4068.07692266, 4071.92307658, 4058.97435856, 4128.97435870, 4046.53846113, 4091.92307658, 4030.76923029, 4147.30769210,12.0
4119.35897408, 4053.97435856, 4128.84615357, 4114.48717921, 4118.20512793, 4136.41025621, 4090.12820478, 4090.25640991, 4066.79487138, 4128.84615357, 4057.94871754, 4116.28205101, 4041.92307651, 4148.84615364,12.0
4122.43589716, 4076.79487145, 4144.87179467, 4140.25641005, 4120.25640998, 4151.66666646, 4111.66666639, 4107.56410229, 4087.05128171, 4126.41025614, 4072.05128171, 4136.41025621, 4051.53846113, 4148.33333313,12.0
4124.74358947, 4064.48717907, 4137.30769210, 4121.15384588, 4123.20512793, 4140.51282031, 4104.35897408, 4096.53846119, 4078.71794837, 4127.30769203, 4065.12820472, 4120.64102537, 4037.05128164, 4144.99999980,12.0
4123.33333306, 4046.79487138, 4117.43589716, 4080.76923043, 4120.89743562, 4117.82051255, 4085.89743555, 4075.76923043, 4056.41025600, 4135.89743569, 4046.92307651, 4098.07692273, 4024.99999952, 4144.87179467,12.0
4123.71794844, 4023.97435849, 4110.38461511, 4075.64102530, 4123.20512793, 4106.15384588, 4076.41025607, 4071.79487145, 4057.69230728, 4134.23076896, 4038.97435856, 4092.05128171, 4026.92307644, 4146.15384595,12.0
4119.74358947, 4036.28205080, 4126.66666639, 4109.10256383, 4122.30769203, 4122.56410229, 4093.46153812, 4097.17948684, 4082.43589709, 4127.82051255, 4053.84615343, 4114.10256383, 4036.66666618, 4144.74358954,12.0
4117.69230742, 4083.07692273, 4144.48717928, 4131.15384588, 4121.92307665, 4134.48717921, 4118.58974332, 4118.46153819, 4097.30769196, 4134.61538434, 4068.33333292, 4137.56410236, 4047.56410215, 4146.79487159,12.0
4122.69230742, 4082.43589709, 4143.20512800, 4120.64102537, 4122.05128178, 4119.99999973, 4120.12820485, 4111.66666639, 4099.23076889, 4138.84615364, 4063.58974318, 4135.38461518, 4050.38461497, 4145.76923056,12.0
4120.12820485, 4040.12820472, 4130.12820485, 4100.76923043, 4119.10256383, 4107.69230742, 4092.30769196, 4089.74358940, 4091.79487145, 4129.74358947, 4057.30769189, 4119.74358947, 4045.89743548, 4143.20512800,12.0
4118.84615357, 4034.99999952, 4124.61538434, 4094.87179453, 4121.28205101, 4107.43589716, 4069.48717907, 4077.17948684, 4072.30769196, 4126.28205101, 4058.20512779, 4109.23076896, 4036.53846106, 4145.64102544,12.0
4126.02564075, 4067.56410215, 4139.99999980, 4118.84615357, 4123.20512793, 4110.64102537, 4085.89743555, 4088.33333299, 4076.28205094, 4132.43589716, 4061.28205087, 4123.20512793, 4033.71794824, 4146.53846133,12.0
4128.07692280, 4075.25640991, 4154.87179467, 4136.92307672, 4124.23076896, 4114.74358947, 4101.41025607, 4100.12820478, 4098.07692273, 4136.02564082, 4063.33333292, 4144.61538441, 4050.89743548, 4148.33333313,12.0
4126.02564075, 4058.46153805, 4147.94871774, 4119.48717921, 4122.94871767, 4119.48717921, 4090.64102530, 4097.56410222, 4091.66666632, 4134.74358947, 4063.58974318, 4142.56410236, 4057.82051241, 4148.84615364,12.0
4124.87179460, 4067.43589702, 4137.56410236, 4100.76923043, 4118.58974332, 4130.38461511, 4095.89743555, 4093.20512786, 4072.30769196, 4132.56410229, 4059.35897395, 4128.71794844, 4038.07692266, 4146.15384595,12.0
4124.87179460, 4082.69230735, 4145.89743569, 4115.38461511, 4123.33333306, 4140.64102544, 4120.76923050, 4103.07692280, 4075.89743555, 4132.56410229, 4058.07692266, 4129.99999973, 4032.69230721, 4147.05128185,12.0
4123.20512793, 4067.05128164, 4154.23076903, 4130.89743562, 4124.35897408, 4135.64102544, 4121.53846126, 4114.23076896, 4094.99999966, 4131.79487152, 4061.66666625, 4143.84615364, 4050.64102523, 4145.12820492,12.0
4120.25640998, 4067.43589702, 4152.56410236, 4129.10256383, 4121.41025614, 4135.25640998, 4112.94871767, 4114.87179460, 4104.74358947, 4128.20512793, 4064.87179446, 4152.94871774, 4052.56410215, 4143.07692287,12.0
4122.43589716, 4092.43589709, 4152.94871774, 4130.38461511, 4122.82051255, 4144.10256390, 4114.10256383, 4117.30769203, 4099.23076889, 4130.25640998, 4059.74358933, 4151.53846133, 4038.20512779, 4147.05128185,12.0
4123.33333306, 4075.64102530, 4147.82051262, 4113.20512793, 4118.46153819, 4125.25640998, 4102.17948684, 4109.23076896, 4092.17948684, 4134.61538434, 4051.66666625, 4140.89743569, 4039.48717907, 4146.66666646,12.0
4122.69230742, 4049.99999959, 4140.25641005, 4097.82051248, 4119.35897408, 4106.15384588, 4088.71794837, 4103.46153819, 4096.02564068, 4132.05128178, 4051.02564061, 4133.84615357, 4053.46153805, 4145.38461518,12.0
4121.15384588, 4074.35897402, 4140.25641005, 4106.02564075, 4121.28205101, 4122.43589716, 4095.12820478, 4118.46153819, 4102.05128171, 4129.23076896, 4049.87179446, 4133.07692280, 4051.02564061, 4146.41025621,12.0
4117.17948691, 4083.71794837, 4143.58974339, 4105.89743562, 4119.61538434, 4136.02564082, 4114.61538434, 4133.46153819, 4107.94871767, 4133.97435870, 4046.92307651, 4133.46153819, 4039.74358933, 4146.92307672,12.0
4120.89743562, 4055.12820472, 4140.51282031, 4098.33333299, 4122.82051255, 4135.89743569, 4120.12820485, 4125.25640998, 4110.89743562, 4135.89743569, 4048.58974318, 4129.74358947, 4036.79487131, 4146.15384595,12.0
4121.28205101, 4060.89743548, 4136.28205108, 4104.10256383, 4119.48717921, 4135.38461518, 4110.12820485, 4107.30769203, 4099.48717914, 4131.28205101, 4046.66666625, 4128.07692280, 4031.41025593, 4145.25641005,12.0
4119.99999973, 4100.51282017, 4155.64102544, 4122.30769203, 4118.20512793, 4148.33333313, 4127.82051255, 4124.74358947, 4109.87179460, 4131.02564075, 4044.74358933, 4154.99999980, 4033.20512772, 4148.71794851,12.0
4125.64102537, 4101.79487145, 4166.53846133, 4126.66666639, 4123.58974332, 4158.46153826, 4144.99999980, 4139.23076903, 4131.53846126, 4134.10256383, 4046.79487138, 4170.12820499, 4039.35897395, 4148.20512800,12.0
4121.79487152, 4060.12820472, 4137.43589723, 4097.30769196, 4122.30769203, 4135.25640998, 4100.89743555, 4097.94871761, 4096.41025607, 4131.41025614, 4035.51282003, 4129.87179460, 4022.69230721, 4145.51282031,12.0
4120.38461511, 4072.69230735, 4139.74358954, 4089.74358940, 4120.51282024, 4130.38461511, 4097.56410222, 4099.61538427, 4076.92307658, 4126.15384588, 4029.10256362, 4125.51282024, 4012.94871747, 4148.07692287,12.0
4123.20512793, 4113.33333306, 4168.84615371, 4116.28205101, 4118.84615357, 4150.12820492, 4154.48717928, 4146.41025621, 4117.43589716, 4129.61538434, 4035.64102516, 4169.35897422, 4028.33333285, 4147.56410236,12.0
4121.15384588, 4074.35897402, 4150.64102544, 4097.56410222, 4121.41025614, 4132.17948691, 4129.87179460, 4122.94871767, 4111.79487152, 4136.02564082, 4019.48717900, 4145.89743569, 4017.82051234, 4145.51282031,12.0
4125.12820485, 4036.15384567, 4134.35897408, 4069.87179453, 4121.53846126, 4121.28205101, 4086.79487145, 4100.64102530, 4075.38461504, 4134.87179460, 3995.89743535, 4110.89743562, 3996.41025586, 4146.92307672,12.0
4124.48717921, 4087.17948684, 4158.46153826, 4101.15384581, 4117.43589716, 4146.15384595, 4114.99999973, 4133.20512793, 4096.53846119, 4135.51282031, 3994.48717894, 4147.82051262, 4004.23076875, 4148.33333313,12.0
4122.69230742, 4117.69230742, 4164.87179467, 4108.97435870, 4121.41025614, 4132.82051255, 4114.48717921, 4123.84615357, 4114.23076896, 4135.12820485, 3989.87179432, 4164.99999980, 4004.74358926, 4148.20512800,12.0
4123.20512793, 4093.20512786, 4157.05128185, 4091.28205094, 4120.89743562, 4118.58974332, 4091.02564068, 4099.48717914, 4102.17948684, 4127.82051255, 3985.51281996, 4154.10256390, 3996.41025586, 4146.79487159,12.0
4124.35897408, 4089.35897402, 4167.05128185, 4102.69230742, 4121.15384588, 4143.33333313, 4109.35897408, 4114.74358947, 4106.92307665, 4127.30769203, 3992.43589688, 4169.87179474, 4005.38461490, 4149.99999980,12.0
4127.30769203, 4087.82051248, 4159.10256390, 4090.25640991, 4124.10256383, 4140.64102544, 4109.23076896, 4107.94871767, 4096.92307658, 4134.87179460, 3982.30769176, 4160.89743569, 3998.07692252, 4151.15384595,12.0
4119.10256383, 4086.66666632, 4147.30769210, 4070.64102530, 4118.84615357, 4133.20512793, 4104.35897408, 4093.33333299, 4088.20512786, 4133.20512793, 3971.15384553, 4142.05128185, 3976.41025586, 4145.51282031,12.0
4118.46153819, 4092.05128171, 4159.35897415, 4085.25640991, 4122.94871767, 4147.94871774, 4142.05128185, 4114.61538434, 4109.87179460, 4131.28205101, 3974.10256355, 4154.35897415, 3981.41025586, 4144.61538441,12.0
4120.76923050, 4060.12820472, 4141.28205108, 4066.02564061, 4123.84615357, 4131.79487152, 4132.94871767, 4114.23076896, 4099.35897402, 4133.58974332, 3957.69230707, 4134.74358947, 3981.79487124, 4146.15384595,12.0
4114.74358947, 4044.74358933, 4123.20512793, 4040.89743548, 4118.46153819, 4118.71794844, 4091.28205094, 4100.12820478, 4084.87179453, 4129.23076896, 3946.02564040, 4109.99999973, 3962.43589681, 4145.25641005,12.0
4120.64102537, 4085.89743555, 4150.51282031, 4070.89743555, 4123.71794844, 4140.89743569, 4105.76923050, 4127.43589716, 4119.10256383, 4128.84615357, 3960.25640963, 4143.07692287, 3965.25640963, 4143.33333313,12.0
4123.07692280, 4106.15384588, 4163.07692287, 4092.82051248, 4123.07692280, 4141.02564082, 4121.66666639, 4147.94871774, 4129.87179460, 4132.82051255, 3964.87179425, 4168.71794858, 3980.38461483, 4142.94871774,12.0
4118.97435870, 4087.17948684, 4151.66666646, 4073.20512786, 4122.30769203, 4127.30769203, 4110.51282024, 4129.48717921, 4106.28205101, 4132.17948691, 3954.61538399, 4153.97435877, 3978.58974304, 4145.76923056,12.0
4118.33333306, 4084.23076889, 4154.48717928, 4049.99999959, 4122.69230742, 4134.48717921, 4118.58974332, 4114.99999973, 4114.23076896, 4130.64102537, 3947.69230707, 4152.82051262, 3975.64102509, 4145.89743569,12.0
4116.66666639, 4074.23076889, 4151.79487159, 4020.38461490, 4118.71794844, 4121.66666639, 4101.15384581, 4098.20512786, 4109.48717921, 4127.94871767, 3939.35897374, 4152.30769210, 3972.82051227, 4146.79487159,12.0
4119.10256383, 4067.94871754, 4148.33333313, 4001.66666611, 4121.79487152, 4117.30769203, 4077.82051248, 4084.99999966, 4089.74358940, 4128.20512793, 3941.02564040, 4145.89743569, 3964.35897374, 4147.94871774,12.0
4119.10256383, 4094.48717914, 4160.89743569, 4015.51282003, 4119.61538434, 4136.15384595, 4108.84615357, 4101.28205094, 4113.71794844, 4128.84615357, 3950.64102502, 4164.35897415, 3970.25640963, 4146.41025621,12.0
4122.94871767, 4086.53846119, 4154.61538441, 4000.51281996, 4120.89743562, 4114.99999973, 4113.07692280, 4107.43589716, 4117.82051255, 4128.33333306, 3940.51281989, 4154.87179467, 3973.71794817, 4148.33333313,12.0
4126.92307665, 4063.46153805, 4139.48717928, 3976.53846099, 4122.82051255, 4108.46153819, 4088.20512786, 4104.10256383, 4096.41025607, 4129.87179460, 3938.20512751, 4130.64102537, 3966.79487117, 4146.28205108,12.0
4120.76923050, 4076.41025607, 4144.74358954, 3992.69230714, 4117.17948691, 4137.82051262, 4099.48717914, 4107.94871767, 4113.58974332, 4129.74358947, 3962.94871733, 4146.28205108, 3973.33333278, 4143.07692287,12.0
4125.89743562, 4074.74358940, 4147.17948697, 3992.69230714, 4121.41025614, 4121.92307665, 4102.17948684, 4103.71794844, 4116.15384588, 4126.41025614, 3982.94871740, 4146.66666646, 3971.02564040, 4145.51282031,12.0
4129.10256383, 4063.20512779, 4142.69230749, 3980.64102509, 4121.41025614, 4106.15384588, 4100.64102530, 4114.74358947, 4100.89743555, 4127.56410229, 4010.64102516, 4136.15384595, 3959.23076861, 4145.25641005,12.0
4120.51282024, 4081.79487145, 4153.58974339, 3996.28205073, 4118.84615357, 4135.51282031, 4127.30769203, 4139.99999980, 4127.05128178, 4128.84615357, 4044.10256369, 4159.48717928, 3971.28205073, 4145.38461518,12.0
4118.58974332, 4081.28205094, 4148.33333313, 3992.56410201, 4121.79487152, 4132.94871767, 4106.41025614, 4124.23076896, 4126.66666639, 4125.38461511, 4035.89743541, 4153.46153826, 3973.97435842, 4147.17948697,12.0
4123.20512793, 4061.66666625, 4128.33333306, 3969.87179425, 4121.15384588, 4107.56410229, 4057.69230728, 4084.87179453, 4085.12820478, 4133.84615357, 3999.87179432, 4120.51282024, 3954.74358912, 4148.97435877,12.0
4130.89743562, 4082.05128171, 4145.64102544, 3988.84615329, 4123.46153819, 4139.99999980, 4100.38461504, 4103.58974332, 4102.30769196, 4141.41025621, 3980.64102509, 4142.43589723, 3959.61538399, 4148.84615364,12.0
4125.25640998, 4088.46153812, 4154.35897415, 4001.66666611, 4121.15384588, 4166.79487159, 4162.69230749, 4131.02564075, 4128.71794844, 4133.33333306, 3974.10256355, 4165.76923056, 3966.41025579, 4145.76923056,12.0
4117.56410229, 4049.35897395, 4130.64102537, 3968.07692246, 4120.38461511, 4141.02564082, 4138.20512800, 4101.79487145, 4090.76923043, 4131.15384588, 3971.79487124, 4135.76923056, 3950.64102502, 4145.38461518,12.0
4123.97435870, 4029.23076875, 4116.53846126, 3948.07692246, 4124.23076896, 4127.43589716, 4088.97435863, 4074.23076889, 4059.10256369, 4134.61538434, 3970.64102502, 4106.15384588, 3942.05128143, 4144.23076903,12.0
4123.20512793, 4037.30769189, 4116.79487152, 3959.87179425, 4119.10256383, 4140.38461518, 4093.71794837, 4086.79487145, 4079.23076889, 4134.23076896, 3965.76923015, 4110.76923050, 3948.07692246, 4143.07692287,12.0
4121.15384588, 4031.15384567, 4119.23076896, 3968.33333271, 4119.99999973, 4138.97435877, 4113.84615357, 4106.15384588, 4105.76923050, 4133.33333306, 3966.28205066, 4119.10256383, 3948.20512758, 4144.23076903,12.0
4123.97435870, 4000.64102509, 4105.89743562, 3948.33333271, 4122.30769203, 4102.69230742, 4074.87179453, 4096.15384581, 4096.66666632, 4133.97435870, 3966.79487117, 4099.23076889, 3943.58974297, 4143.84615364,12.0
4122.82051255, 4012.17948670, 4116.28205101, 3959.99999938, 4122.17948691, 4100.25640991, 4064.35897395, 4110.64102537, 4105.38461511, 4135.12820485, 3974.74358919, 4114.87179460, 3959.61538399, 4146.02564082,12.0
4123.84615357, 4085.76923043, 4173.20512807, 4034.35897388, 4125.76923050, 4173.07692294, 4146.15384595, 4183.84615371, 4172.82051269, 4134.48717921, 3997.94871740, 4198.97435884, 3991.41025586, 4148.20512800,12.0
4128.20512793, 4111.02564075, 4192.94871781, 4063.20512779, 4125.12820485, 4204.10256404, 4185.64102551, 4213.07692301, 4202.43589737, 4131.28205101, 4006.28205080, 4230.38461532, 3996.15384560, 4147.56410236,12.0
4124.35897408, 4047.17948677, 4151.92307672, 4007.69230721, 4123.97435870, 4153.84615364, 4140.25641005, 4161.66666646, 4147.43589723, 4133.46153819, 3997.43589688, 4167.69230749, 3969.35897374, 4147.82051262,12.0
4098.33333299, 4000.64102509, 4121.02564075, 3973.97435842, 4109.10256383, 4126.79487152, 4114.35897408, 4116.41025614, 4101.66666632, 4136.53846133, 3997.69230714, 4133.20512793, 3955.89743528, 4145.38461518,12.0
4088.71794837, 3985.25640970, 4113.20512793, 3973.84615329, 4103.58974332, 4123.07692280, 4107.05128178, 4088.84615350, 4091.41025607, 4128.07692280, 3993.07692252, 4129.61538434, 3950.89743528, 4144.48717928,12.0
4117.82051255, 3983.20512765, 4126.53846126, 3981.79487124, 4123.58974332, 4126.15384588, 4109.23076896, 4085.64102530, 4104.87179460, 4124.74358947, 3984.10256355, 4129.87179460, 3949.74358912, 4144.61538441,12.0
4121.79487152, 4013.20512772, 4153.84615364, 4013.58974311, 4122.82051255, 4149.48717928, 4137.69230749, 4113.07692280, 4138.07692287, 4129.74358947, 3993.20512765, 4168.58974345, 3963.84615322, 4144.35897415,12.0
4118.20512793, 3995.38461483, 4143.58974339, 4006.28205080, 4121.66666639, 4136.41025621, 4113.20512793, 4094.61538427, 4113.33333306, 4129.74358947, 3988.97435842, 4159.99999980, 3953.46153784, 4147.17948697,12.0
4148.33333313, 3929.87179418, 4118.07692280, 3967.82051220, 4138.84615364, 4112.17948691, 4073.33333299, 4064.87179446, 4065.76923036, 4130.25640998, 3975.12820458, 4106.28205101, 3927.94871726, 4147.82051262,12.0
4149.23076903, 3941.53846092, 4132.30769203, 3983.46153791, 4136.41025621, 4143.20512800, 4115.89743562, 4108.20512793, 4099.99999966, 4130.38461511, 3982.17948663, 4130.51282024, 3937.56410187, 4146.28205108,12.0
4113.46153819, 3984.99999945, 4140.12820492, 4000.12820458, 4117.30769203, 4164.74358954, 4141.79487159, 4145.51282031, 4131.66666639, 4129.23076896, 3981.79487124, 4165.51282031, 3951.28205066, 4145.51282031,12.0
4108.07692280, 3958.20512758, 4115.89743562, 3978.97435842, 4112.69230742, 4140.89743569, 4103.97435870, 4115.51282024, 4093.58974325, 4128.97435870, 3969.99999938, 4134.87179460, 3934.35897367, 4144.23076903,12.0
4125.76923050, 3921.41025572, 4109.10256383, 3968.97435835, 4123.33333306, 4125.64102537, 4098.84615350, 4095.89743555, 4077.05128171, 4128.46153819, 3967.69230707, 4115.51282024, 3924.87179418, 4144.48717928,12.0
4119.48717921, 3916.41025572, 4107.56410229, 3960.76923015, 4121.02564075, 4126.02564075, 4113.46153819, 4107.17948691, 4083.71794837, 4128.71794844, 3961.28205066, 4117.69230742, 3930.38461469, 4145.12820492,12.0
4115.38461511, 3929.99999931, 4107.17948691, 3964.48717887, 4117.30769203, 4136.92307672, 4109.35897408, 4109.10256383, 4084.74358940, 4132.05128178, 3963.33333271, 4124.74358947, 3940.76923015, 4146.28205108,12.0
4124.87179460, 3947.69230707, 4114.10256383, 3984.99999945, 4124.35897408, 4145.64102544, 4111.02564075, 4108.07692280, 4092.69230735, 4134.74358947, 3979.74358919, 4136.02564082, 3945.51281989, 4146.41025621,12.0
4122.69230742, 3934.35897367, 4102.30769196, 3973.07692252, 4120.12820485, 4133.71794844, 4111.92307665, 4110.25640998, 4081.92307658, 4133.58974332, 3976.92307637, 4122.17948691, 3933.71794803, 4145.25641005,12.0
4120.12820485, 3912.56410187, 4091.41025607, 3950.51281989, 4119.99999973, 4131.92307665, 4110.89743562, 4111.92307665, 4070.38461504, 4130.12820485, 3965.89743528, 4108.20512793, 3930.12820444, 4147.82051262,12.0
4118.97435870, 3928.07692239, 4098.58974325, 3962.05128143, 4123.20512793, 4147.05128185, 4120.89743562, 4115.12820485, 4085.76923043, 4127.43589716, 3973.20512765, 4123.33333306, 3942.82051220, 4148.20512800,12.0
4121.15384588, 3950.64102502, 4102.30769196, 3971.02564040, 4118.71794844, 4141.15384595, 4118.71794844, 4109.61538434, 4096.28205094, 4127.56410229, 3974.99999945, 4126.15384588, 3943.97435835, 4146.66666646,12.0
4121.28205101, 3951.41025579, 4097.05128171, 3966.02564040, 4119.87179460, 4133.07692280, 4109.48717921, 4110.38461511, 4088.58974325, 4129.23076896, 3967.94871733, 4114.10256383, 3929.35897367, 4145.89743569,12.0
4118.20512793, 3948.20512758, 4098.84615350, 3971.41025586, 4120.25640998, 4141.28205108, 4121.41025614, 4123.07692280, 4091.41025607, 4128.33333306, 3973.07692252, 4124.23076896, 3926.79487110, 4145.76923056,12.0
4123.20512793, 3928.07692239, 4097.94871761, 3958.71794810, 4119.23076896, 4131.79487152, 4120.25640998, 4110.64102537, 4087.17948684, 4125.51282024, 3973.84615329, 4120.51282024, 3928.71794803, 4148.20512800,12.0
4118.20512793, 3912.82051213, 4086.66666632, 3940.12820451, 4116.53846126, 4121.15384588, 4090.25640991, 4086.66666632, 4069.35897395, 4127.56410229, 3964.35897374, 4097.30769196, 3923.33333264, 4146.53846133,12.0
4117.82051255, 3942.43589681, 4092.17948684, 3956.92307630, 4116.53846126, 4131.28205101, 4089.48717914, 4094.23076889, 4081.66666632, 4133.07692280, 3966.79487117, 4105.51282024, 3929.61538392, 4145.25641005,12.0
4123.58974332, 3979.35897381, 4117.17948691, 3987.94871740, 4120.76923050, 4156.53846133, 4139.99999980, 4133.33333306, 4118.71794844, 4131.02564075, 3979.74358919, 4141.92307672, 3946.28205066, 4146.53846133,12.0
4118.97435870, 3959.87179425, 4110.76923050, 3979.74358919, 4118.33333306, 4154.87179467, 4145.38461518, 4127.82051255, 4115.76923050, 4127.05128178, 3978.58974304, 4135.64102544, 3942.30769169, 4145.76923056,12.0
4121.53846126, 3929.35897367, 4091.28205094, 3960.76923015, 4121.15384588, 4133.58974332, 4102.17948684, 4090.89743555, 4083.33333299, 4134.10256383, 3968.58974297, 4103.46153819, 3928.58974290, 4148.07692287,12.0
4118.46153819, 3939.10256348, 4103.07692280, 3972.94871740, 4122.69230742, 4137.43589723, 4106.15384588, 4104.61538434, 4087.69230735, 4136.02564082, 3971.41025586, 4119.87179460, 3939.74358912, 4148.71794851,12.0
4117.17948691, 3935.64102495, 4104.87179460, 3968.46153784, 4120.51282024, 4132.56410229, 4104.74358947, 4096.28205094, 4084.35897402, 4124.87179460, 3970.89743528, 4121.79487152, 3946.02564040, 4146.28205108,12.0
4123.07692280, 3926.66666598, 4091.92307658, 3953.97435835, 4122.82051255, 4117.69230742, 4082.43589709, 4061.92307651, 4060.76923036, 4123.07692280, 3965.12820451, 4094.10256376, 3935.12820444, 4145.89743569,12.0
4118.33333306, 3963.71794810, 4114.99999973, 3985.25640970, 4116.28205101, 4136.92307672, 4124.23076896, 4101.79487145, 4091.53846119, 4129.87179460, 3979.23076868, 4130.51282024, 3946.28205066, 4145.76923056,12.0
4120.38461511, 3984.10256355, 4143.07692287, 4011.15384567, 4116.02564075, 4158.97435877, 4160.89743569, 4146.66666646, 4129.61538434, 4134.35897408, 3997.56410201, 4176.02564089, 3966.53846092, 4147.05128185,12.0
4118.84615357, 3944.10256348, 4113.33333306, 3982.82051227, 4119.10256383, 4141.41025621, 4112.82051255, 4111.53846126, 4098.58974325, 4134.10256383, 3985.12820458, 4131.79487152, 3954.35897374, 4146.15384595,12.0
4117.82051255, 3943.58974297, 4093.58974325, 3978.46153791, 4116.66666639, 4137.30769210, 4097.82051248, 4096.79487145, 4070.12820478, 4131.41025614, 3970.12820451, 4101.66666632, 3943.20512758, 4145.89743569,12.0
4123.58974332, 3976.79487124, 4117.17948691, 4002.69230714, 4121.79487152, 4154.48717928, 4137.30769210, 4131.79487152, 4094.74358940, 4133.07692280, 3977.94871740, 4132.69230742, 3953.58974297, 4149.87179467,12.0
4117.30769203, 3952.56410194, 4109.99999973, 3981.28205073, 4120.64102537, 4137.17948697, 4114.99999973, 4115.76923050, 4102.30769196, 4134.23076896, 3976.02564047, 4123.07692280, 3949.99999938, 4147.94871774,12.0
4120.51282024, 3937.30769162, 4097.94871761, 3971.15384553, 4118.84615357, 4123.58974332, 4087.30769196, 4086.92307658, 4093.46153812, 4134.10256383, 3969.99999938, 4104.10256383, 3945.12820451, 4146.79487159,12.0
4119.48717921, 3965.64102502, 4114.74358947, 4000.64102509, 4121.15384588, 4138.33333313, 4120.64102537, 4104.99999973, 4097.69230735, 4133.97435870, 3980.12820458, 4129.61538434, 3958.20512758, 4150.64102544,12.0
4116.41025614, 3961.53846092, 4119.99999973, 4001.28205073, 4118.07692280, 4139.99999980, 4124.48717921, 4100.76923043, 4092.43589709, 4133.33333306, 3987.30769176, 4137.94871774, 3964.48717887, 4149.10256390,12.0
4122.94871767, 3941.15384553, 4111.15384588, 3989.10256355, 4120.64102537, 4136.92307672, 4093.71794837, 4077.69230735, 4085.12820478, 4133.71794844, 3985.51281996, 4118.46153819, 3958.46153784, 4146.41025621,12.0
4113.84615357, 3951.92307630, 4111.41025614, 3999.87179432, 4119.74358947, 4145.25641005, 4096.15384581, 4087.30769196, 4085.89743555, 4132.69230742, 3986.28205073, 4121.92307665, 3956.02564040, 4144.87179467,12.0
4118.58974332, 3961.79487117, 4118.97435870, 4004.87179439, 4118.97435870, 4143.33333313, 4111.28205101, 4099.35897402, 4093.46153812, 4134.74358947, 3988.46153791, 4135.51282031, 3960.89743528, 4147.05128185,12.0
4121.02564075, 3966.41025579, 4129.48717921, 4011.41025593, 4122.56410229, 4148.46153826, 4130.38461511, 4119.99999973, 4114.74358947, 4137.69230749, 3992.94871740, 4145.89743569, 3971.66666611, 4147.56410236,12.0
4113.20512793, 3972.82051227, 4134.35897408, 4027.30769183, 4118.58974332, 4163.71794851, 4158.20512800, 4148.84615364, 4132.43589716, 4134.74358947, 3998.20512765, 4156.28205108, 3976.02564047, 4142.94871774,12.0
4122.94871767, 3948.97435835, 4117.94871767, 4009.61538413, 4118.58974332, 4149.35897415, 4143.71794851, 4131.15384588, 4116.02564075, 4131.15384588, 3990.12820458, 4136.28205108, 3964.23076861, 4143.97435877,12.0
4117.43589716, 3927.30769162, 4095.89743555, 3981.28205073, 4117.94871767, 4122.56410229, 4101.28205094, 4091.28205094, 4088.84615350, 4132.69230742, 3983.84615329, 4103.97435870, 3953.71794810, 4146.15384595,12.0
4116.53846126, 3949.99999938, 4106.41025614, 3999.74358919, 4117.94871767, 4139.48717928, 4109.35897408, 4100.64102530, 4093.71794837, 4133.07692280, 3998.84615329, 4117.94871767, 3962.43589681, 4144.74358954,12.0
4121.41025614, 3960.89743528, 4124.61538434, 4020.76923029, 4121.92307665, 4173.46153833, 4135.89743569, 4130.64102537, 4115.12820485, 4132.05128178, 4012.82051234, 4148.58974339, 3974.87179432, 4144.61538441,12.0
4117.30769203, 3943.84615322, 4118.46153819, 4007.43589695, 4118.07692280, 4157.69230749, 4127.05128178, 4113.97435870, 4116.53846126, 4133.84615357, 4009.48717900, 4141.66666646, 3975.89743535, 4145.38461518,12.0
4125.76923050, 3945.76923015, 4114.23076896, 4003.07692252, 4120.25640998, 4129.87179460, 4117.56410229, 4086.28205094, 4098.07692273, 4133.71794844, 4002.94871740, 4128.20512793, 3973.97435842, 4147.94871774,12.0
4120.25640998, 3948.33333271, 4115.76923050, 4014.99999952, 4120.12820485, 4136.53846133, 4111.41025614, 4084.74358940, 4084.74358940, 4132.56410229, 4003.46153791, 4130.64102537, 3973.58974304, 4146.53846133,12.0
4119.61538434, 3937.82051213, 4115.51282024, 4018.84615336, 4117.43589716, 4145.38461518, 4100.12820478, 4085.64102530, 4087.69230735, 4132.82051255, 4006.02564054, 4129.99999973, 3973.84615329, 4145.76923056,12.0
4124.23076896, 3931.79487110, 4114.23076896, 4018.97435849, 4119.23076896, 4129.87179460, 4101.02564068, 4089.61538427, 4096.15384581, 4132.05128178, 4003.58974304, 4125.12820485, 3973.97435842, 4146.92307672,12.0
4114.61538434, 3924.48717880, 4107.94871767, 4023.20512772, 4115.89743562, 4112.82051255, 4101.79487145, 4106.79487152, 4086.28205094, 4129.35897408, 3997.82051227, 4125.38461511, 3971.79487124, 4145.64102544,12.0
4123.46153819, 3941.53846092, 4122.82051255, 4044.48717907, 4120.38461511, 4137.82051262, 4117.82051255, 4138.71794851, 4095.76923043, 4123.58974332, 4008.71794824, 4146.66666646, 3977.05128150, 4146.41025621,12.0
4119.10256383, 3973.58974304, 4145.51282031, 4073.33333299, 4121.15384588, 4181.66666653, 4153.07692287, 4159.74358954, 4148.20512800, 4125.38461511, 4029.23076875, 4172.94871781, 3990.76923022, 4144.61538441,12.0
4113.07692280, 3954.48717887, 4129.61538434, 4055.89743548, 4116.41025614, 4162.94871774, 4141.15384595, 4131.41025614, 4147.30769210, 4130.64102537, 4015.25640977, 4147.82051262, 3983.46153791, 4141.28205108,12.0
4123.33333306, 3903.84615309, 4093.46153812, 4003.71794817, 4120.51282024, 4109.99999973, 4104.87179460, 4099.35897402, 4080.64102530, 4128.84615357, 3983.46153791, 4090.76923043, 3960.76923015, 4143.20512800,12.0
4117.17948691, 3905.76923008, 4091.79487145, 4005.25640977, 4117.69230742, 4123.58974332, 4115.12820485, 4106.66666639, 4068.71794830, 4128.07692280, 3988.84615329, 4091.53846119, 3965.38461476, 4145.76923056,12.0
4118.20512793, 3937.43589674, 4120.51282024, 4045.76923036, 4117.82051255, 4161.92307672, 4125.76923050, 4109.99999973, 4108.71794844, 4130.64102537, 4009.61538413, 4133.46153819, 3986.41025586, 4147.43589723,12.0
4117.43589716, 3950.51281989, 4132.43589716, 4062.43589702, 4119.87179460, 4160.38461518, 4124.87179460, 4110.12820485, 4119.48717921, 4129.87179460, 4012.94871747, 4153.07692287, 3992.94871740, 4147.05128185,12.0
4117.94871767, 3944.10256348, 4125.51282024, 4054.35897395, 4118.71794844, 4152.05128185, 4135.12820485, 4111.53846126, 4101.02564068, 4129.87179460, 4012.43589695, 4146.66666646, 3987.94871740, 4147.30769210,12.0
4124.35897408, 3927.05128136, 4122.43589716, 4045.38461497, 4122.69230742, 4158.58974339, 4130.76923050, 4106.53846126, 4094.99999966, 4133.84615357, 4013.84615336, 4135.64102544, 3986.02564047, 4147.94871774,12.0
4113.46153819, 3931.28205059, 4127.43589716, 4050.64102523, 4119.35897408, 4156.02564082, 4122.05128178, 4114.99999973, 4108.84615357, 4133.20512793, 4014.23076875, 4141.92307672, 3992.94871740, 4144.87179467,12.0
4116.41025614, 3949.87179425, 4134.87179460, 4057.94871754, 4117.43589716, 4143.33333313, 4128.20512793, 4121.66666639, 4113.58974332, 4126.66666639, 4018.20512772, 4150.51282031, 3997.82051227, 4145.38461518,12.0
4120.25640998, 3939.61538399, 4129.48717921, 4050.38461497, 4119.74358947, 4143.71794851, 4131.02564075, 4119.35897408, 4110.25640998, 4128.97435870, 4018.58974311, 4141.92307672, 3992.94871740, 4143.07692287,12.0
4116.02564075, 3918.97435828, 4117.17948691, 4038.71794830, 4117.30769203, 4140.76923056, 4117.94871767, 4113.20512793, 4105.64102537, 4133.97435870, 4012.30769183, 4125.12820485, 3984.23076868, 4139.23076903,12.0
4122.69230742, 3931.02564033, 4121.66666639, 4044.87179446, 4118.97435870, 4143.20512800, 4120.25640998, 4114.87179460, 4101.15384581, 4128.33333306, 4015.64102516, 4127.56410229, 3985.25640970, 4145.25641005,12.0
4119.74358947, 3959.35897374, 4140.25641005, 4066.66666625, 4116.92307665, 4158.58974339, 4152.43589723, 4146.79487159, 4131.28205101, 4122.43589716, 4029.87179439, 4158.84615364, 4002.17948663, 4149.99999980,12.0
4121.53846126, 3948.46153784, 4138.97435877, 4064.99999959, 4116.66666639, 4152.05128185, 4151.92307672, 4157.17948697, 4154.48717928, 4131.53846126, 4029.87179439, 4158.46153826, 4004.10256362, 4150.51282031,12.0
4120.12820485, 3932.43589674, 4126.79487152, 4059.10256369, 4122.30769203, 4161.28205108, 4134.23076896, 4136.66666646, 4136.66666646, 4138.46153826, 4022.17948670, 4135.51282031, 3992.30769176, 4147.94871774,12.0
4113.46153819, 3953.71794810, 4136.02564082, 4080.12820478, 4120.38461511, 4191.15384602, 4151.53846133, 4142.43589723, 4126.92307665, 4131.92307665, 4027.82051234, 4152.43589723, 4001.66666611, 4145.25641005,12.0
4119.61538434, 3957.30769169, 4142.56410236, 4079.87179453, 4120.64102537, 4173.20512807, 4156.02564082, 4148.71794851, 4132.30769203, 4129.99999973, 4031.92307644, 4165.25641005, 4010.38461490, 4147.94871774,12.0
4117.17948691, 3923.07692239, 4127.05128178, 4049.99999959, 4122.05128178, 4138.46153826, 4124.35897408, 4122.05128178, 4116.15384588, 4132.05128178, 4026.15384567, 4142.17948697, 3996.02564047, 4148.33333313,12.0
4116.92307665, 3922.17948649, 4128.84615357, 4055.25640984, 4121.92307665, 4153.84615364, 4126.79487152, 4116.92307665, 4109.35897408, 4131.28205101, 4030.64102516, 4142.43589723, 3992.82051227, 4145.76923056,12.0
4118.71794844, 3958.84615322, 4148.46153826, 4089.35897402, 4123.58974332, 4175.76923063, 4166.41025621, 4152.17948697, 4135.25640998, 4133.46153819, 4042.82051241, 4172.17948704, 4013.33333285, 4144.10256390,12.0
4117.17948691, 3963.71794810, 4148.58974339, 4087.82051248, 4117.69230742, 4167.94871774, 4174.23076910, 4159.10256390, 4147.05128185, 4132.30769203, 4043.46153805, 4173.71794858, 4021.53846106, 4140.51282031,12.0
4122.43589716, 3940.12820451, 4134.23076896, 4063.84615343, 4117.56410229, 4164.48717928, 4149.87179467, 4134.61538434, 4137.30769210, 4130.12820485, 4037.05128164, 4145.76923056, 4010.89743541, 4140.38461518,12.0
4117.17948691, 3932.69230700, 4124.10256383, 4065.76923036, 4118.84615357, 4171.28205115, 4137.94871774, 4134.61538434, 4129.87179460, 4133.84615357, 4035.12820465, 4131.92307665, 4003.84615329, 4143.46153826,12.0
4116.41025614, 3937.82051213, 4125.25640998, 4074.99999966, 4118.71794844, 4168.84615371, 4138.46153826, 4139.74358954, 4123.33333306, 4132.69230742, 4031.53846106, 4137.30769210, 4005.38461490, 4142.69230749,12.0
4121.66666639, 3924.23076854, 4120.51282024, 4054.99999959, 4123.07692280, 4140.12820492, 4121.41025614, 4118.07692280, 4105.76923050, 4124.23076896, 4020.76923029, 4123.20512793, 4001.28205073, 4144.74358954,12.0
4117.05128178, 3908.84615316, 4106.28205101, 4036.02564054, 4117.56410229, 4113.33333306, 4100.12820478, 4100.12820478, 4096.02564068, 4126.53846126, 4013.71794824, 4098.07692273, 3990.76923022, 4149.23076903,12.0
4118.58974332, 3942.69230707, 4123.84615357, 4071.53846119, 4116.15384588, 4154.10256390, 4132.30769203, 4133.20512793, 4132.30769203, 4133.20512793, 4029.99999952, 4129.61538434, 4004.10256362, 4147.56410236,12.0
4119.35897408, 3980.51281996, 4151.92307672, 4107.56410229, 4122.43589716, 4199.35897422, 4171.66666653, 4169.48717935, 4166.53846133, 4130.89743562, 4050.25640984, 4174.35897422, 4024.35897388, 4145.64102544,12.0
4119.35897408, 3964.35897374, 4145.76923056, 4092.82051248, 4118.84615357, 4170.64102551, 4156.92307672, 4152.94871774, 4152.43589723, 4129.35897408, 4046.92307651, 4164.74358954, 4017.17948670, 4147.56410236,12.0
4122.30769203, 3943.71794810, 4130.64102537, 4070.12820478, 4118.07692280, 4146.15384595, 4138.46153826, 4141.79487159, 4134.35897408, 4133.58974332, 4037.17948677, 4145.12820492, 4008.33333285, 4148.33333313,12.0
4118.71794844, 3946.28205066, 4124.61538434, 4060.51282010, 4118.58974332, 4152.30769210, 4136.15384595, 4141.79487159, 4135.64102544, 4133.97435870, 4034.74358926, 4138.07692287, 4012.82051234, 4147.82051262,12.0
4119.87179460, 3946.02564040, 4124.35897408, 4060.12820472, 4117.30769203, 4146.66666646, 4126.92307665, 4121.79487152, 4134.74358947, 4127.82051255, 4038.97435856, 4134.61538434, 4017.17948670, 4148.84615364,12.0
4118.33333306, 3943.20512758, 4132.17948691, 4072.17948684, 4118.58974332, 4149.74358954, 4126.66666639, 4123.58974332, 4127.56410229, 4127.82051255, 4046.28205087, 4147.30769210, 4015.89743541, 4147.17948697,12.0
4117.17948691, 3947.30769169, 4136.53846133, 4075.89743555, 4117.43589716, 4156.53846133, 4134.35897408, 4141.41025621, 4124.35897408, 4130.76923050, 4045.51282010, 4157.82051262, 4017.43589695, 4144.23076903,12.0
4120.38461511, 3949.61538399, 4130.64102537, 4064.48717907, 4120.38461511, 4146.15384595, 4126.41025614, 4134.48717921, 4127.30769203, 4127.43589716, 4038.71794830, 4143.07692287, 4022.30769183, 4146.66666646,12.0
4115.51282024, 3951.28205066, 4121.66666639, 4065.25640984, 4121.66666639, 4143.46153826, 4110.89743562, 4119.99999973, 4128.46153819, 4128.58974332, 4038.84615343, 4129.99999973, 4018.84615336, 4147.17948697,12.0
4117.69230742, 3973.07692252, 4131.92307665, 4089.10256376, 4118.84615357, 4153.20512800, 4126.15384588, 4129.99999973, 4135.76923056, 4132.30769203, 4050.89743548, 4151.15384595, 4016.15384567, 4145.51282031,12.0
4119.35897408, 3985.64102509, 4144.35897415, 4091.92307658, 4120.25640998, 4149.74358954, 4144.61538441, 4140.25641005, 4137.69230749, 4128.58974332, 4052.69230728, 4164.74358954, 4022.05128157, 4148.58974339,12.0
4117.82051255, 3963.07692246, 4133.46153819, 4069.99999966, 4120.25640998, 4144.99999980, 4130.38461511, 4124.35897408, 4123.33333306, 4127.43589716, 4039.87179446, 4145.64102544, 4022.69230721, 4148.07692287,12.0
4119.35897408, 3962.94871733, 4129.74358947, 4074.99999966, 4121.02564075, 4161.41025621, 4131.41025614, 4123.58974332, 4125.89743562, 4134.99999973, 4044.23076882, 4145.51282031, 4026.15384567, 4146.41025621,12.0
4114.35897408, 3992.69230714, 4136.02564082, 4087.30769196, 4119.23076896, 4172.94871781, 4154.74358954, 4142.30769210, 4137.69230749, 4134.99999973, 4056.53846113, 4159.10256390, 4033.71794824, 4145.25641005,12.0
4119.23076896, 3991.28205073, 4126.79487152, 4070.25640991, 4119.87179460, 4154.74358954, 4144.48717928, 4135.51282031, 4125.89743562, 4130.38461511, 4046.28205087, 4142.56410236, 4027.30769183, 4143.84615364,12.0
4124.61538434, 3965.12820451, 4112.17948691, 4054.61538420, 4123.71794844, 4127.82051255, 4108.20512793, 4113.07692280, 4107.30769203, 4133.20512793, 4031.66666618, 4121.79487152, 4020.89743541, 4144.10256390,12.0
4120.51282024, 3964.99999938, 4108.84615357, 4062.17948677, 4119.10256383, 4120.64102537, 4097.17948684, 4100.64102530, 4109.35897408, 4134.35897408, 4039.74358933, 4128.07692280, 4026.02564054, 4143.97435877,12.0
4121.79487152, 3991.02564047, 4117.17948691, 4075.76923043, 4118.71794844, 4145.25641005, 4122.69230742, 4108.71794844, 4122.69230742, 4132.94871767, 4052.05128164, 4143.20512800, 4030.12820465, 4146.79487159,12.0
4120.89743562, 4013.58974311, 4123.84615357, 4090.12820478, 4120.38461511, 4168.46153833, 4148.20512800, 4132.17948691, 4131.53846126, 4132.94871767, 4058.07692266, 4152.56410236, 4036.92307651, 4150.25641005,12.0
4121.53846126, 4008.97435849, 4114.99999973, 4091.28205094, 4117.05128178, 4145.76923056, 4132.94871767, 4127.17948691, 4123.84615357, 4130.76923050, 4057.05128164, 4146.28205108, 4041.28205087, 4150.25641005,12.0
4119.48717921, 3981.41025586, 4095.38461504, 4070.38461504, 4120.38461511, 4118.33333306, 4108.46153819, 4099.99999966, 4109.35897408, 4125.89743562, 4042.56410215, 4125.64102537, 4031.92307644, 4146.53846133,12.0
4115.64102537, 3980.38461483, 4094.87179453, 4076.41025607, 4119.35897408, 4140.76923056, 4125.38461511, 4117.69230742, 4125.51282024, 4128.20512793, 4042.43589702, 4129.35897408, 4030.25640977, 4143.07692287,12.0
4121.92307665, 3994.99999945, 4101.92307658, 4091.92307658, 4116.15384588, 4159.35897415, 4140.64102544, 4143.07692287, 4140.12820492, 4136.15384595, 4051.15384574, 4134.48717921, 4033.71794824, 4144.23076903,12.0
4118.97435870, 3991.28205073, 4091.02564068, 4081.41025607, 4119.23076896, 4146.53846133, 4130.64102537, 4126.79487152, 4122.69230742, 4134.35897408, 4041.41025600, 4114.74358947, 4023.33333285, 4144.99999980,12.0
4116.92307665, 4006.66666618, 4092.69230735, 4083.71794837, 4121.92307665, 4146.79487159, 4133.07692280, 4119.35897408, 4115.25640998, 4129.61538434, 4039.99999959, 4118.46153819, 4023.84615336, 4143.97435877,12.0
4120.51282024, 4028.97435849, 4110.89743562, 4096.41025607, 4121.92307665, 4159.99999980, 4142.69230749, 4138.97435877, 4131.02564075, 4133.46153819, 4053.58974318, 4141.53846133, 4040.12820472, 4145.76923056,12.0
4116.15384588, 4034.99999952, 4118.97435870, 4111.15384588, 4118.46153819, 4170.38461525, 4156.28205108, 4155.76923056, 4152.82051262, 4135.51282031, 4058.84615343, 4152.94871774, 4047.56410215, 4146.02564082,12.0
4118.84615357, 4034.99999952, 4118.46153819, 4123.33333306, 4120.38461511, 4166.79487159, 4161.02564082, 4151.79487159, 4162.17948697, 4133.07692280, 4058.71794830, 4155.51282031, 4042.17948677, 4144.99999980,12.0
4117.30769203, 4016.28205080, 4110.25640998, 4104.74358947, 4122.05128178, 4143.71794851, 4131.66666639, 4124.99999973, 4137.17948697, 4134.35897408, 4053.84615343, 4138.33333313, 4033.46153798, 4147.17948697,12.0
4115.89743562, 4014.48717900, 4109.87179460, 4095.64102530, 4117.94871767, 4142.43589723, 4119.87179460, 4106.66666639, 4125.64102537, 4132.82051255, 4054.87179446, 4133.71794844, 4038.58974318, 4148.58974339,12.0
4122.17948691, 4033.07692259, 4121.28205101, 4110.38461511, 4121.28205101, 4154.23076903, 4141.02564082, 4112.82051255, 4139.10256390, 4131.28205101, 4065.25640984, 4150.38461518, 4044.99999959, 4147.43589723,12.0
4119.23076896, 4017.05128157, 4113.46153819, 4090.76923043, 4120.76923050, 4138.58974339, 4131.28205101, 4117.05128178, 4124.35897408, 4134.61538434, 4058.33333292, 4135.38461518, 4036.02564054, 4145.12820492,12.0
4121.02564075, 4007.05128157, 4103.07692280, 4079.10256376, 4118.07692280, 4139.99999980, 4124.61538434, 4132.30769203, 4124.74358947, 4131.66666639, 4050.64102523, 4118.58974332, 4037.43589702, 4145.25641005,12.0
4121.92307665, 4051.79487138, 4124.99999973, 4120.38461511, 4121.92307665, 4181.92307679, 4171.41025628, 4178.58974345, 4177.94871781, 4126.53846126, 4067.94871754, 4151.41025621, 4054.99999959, 4145.64102544,12.0
4119.87179460, 4068.84615343, 4137.43589723, 4128.46153819, 4118.33333306, 4187.05128192, 4183.58974345, 4185.89743576, 4194.87179474, 4129.74358947, 4074.10256376, 4169.23076910, 4054.10256369, 4143.84615364,12.0
4122.69230742, 4017.56410208, 4109.99999973, 4080.64102530, 4117.17948691, 4139.48717928, 4136.28205108, 4142.43589723, 4141.66666646, 4133.84615357, 4051.28205087, 4126.15384588, 4035.12820465, 4147.05128185,12.0
4122.69230742, 4017.56410208, 4109.99999973, 4080.64102530, 4117.17948691, 4139.48717928, 4136.28205108, 4142.43589723, 4141.66666646, 4133.84615357, 4051.28205087, 4126.15384588, 4035.12820465, 4147.05128185,12.0
4119.61538434, 4006.66666618, 4098.97435863, 4072.17948684, 4120.12820485, 4127.17948691, 4128.46153819, 4137.17948697, 4119.74358947, 4132.43589716, 4044.48717907, 4107.43589716, 4031.92307644, 4150.64102544,12.0
4121.15384588, 4042.82051241, 4119.99999973, 4103.46153819, 4118.20512793, 4151.79487159, 4151.41025621, 4153.84615364, 4149.10256390, 4129.23076896, 4058.46153805, 4133.97435870, 4041.92307651, 4147.94871774,12.0
4118.46153819, 4051.79487138, 4127.94871767, 4116.79487152, 4119.48717921, 4163.20512800, 4150.25641005, 4145.38461518, 4160.89743569, 4126.02564075, 4067.82051241, 4147.56410236, 4049.23076882, 4144.87179467,12.0
4114.35897408, 4047.82051241, 4123.46153819, 4119.48717921, 4121.15384588, 4164.23076903, 4139.23076903, 4134.87179460, 4145.51282031, 4128.97435870, 4071.28205094, 4146.15384595, 4050.89743548, 4145.76923056,12.0
4119.35897408, 4043.84615343, 4125.89743562, 4110.76923050, 4121.28205101, 4152.05128185, 4128.33333306, 4127.05128178, 4128.20512793, 4136.41025621, 4064.99999959, 4139.23076903, 4043.33333292, 4147.30769210,12.0
4116.41025614, 4032.82051234, 4120.64102537, 4097.17948684, 4120.25640998, 4136.92307672, 4121.92307665, 4119.10256383, 4125.76923050, 4131.41025614, 4055.51282010, 4126.79487152, 4032.69230721, 4144.10256390,12.0
4117.94871767, 4048.71794830, 4120.64102537, 4116.92307665, 4119.61538434, 4158.07692287, 4140.25641005, 4127.43589716, 4142.94871774, 4125.89743562, 4063.07692266, 4135.89743569, 4037.82051241, 4141.92307672,12.0
4121.66666639, 4075.64102530, 4134.61538434, 4140.38461518, 4121.66666639, 4182.56410243, 4152.17948697, 4140.25641005, 4155.89743569, 4131.66666639, 4075.38461504, 4153.46153826, 4054.10256369, 4143.33333313,12.0
4117.69230742, 4059.74358933, 4132.56410229, 4114.87179460, 4120.51282024, 4158.71794851, 4140.89743569, 4132.43589716, 4137.56410236, 4129.87179460, 4068.58974318, 4142.17948697, 4053.97435856, 4143.84615364,12.0
4117.17948691, 4027.82051234, 4113.33333306, 4081.15384581, 4122.30769203, 4126.66666639, 4134.10256383, 4111.92307665, 4106.28205101, 4125.89743562, 4050.25640984, 4116.66666639, 4034.99999952, 4144.48717928,12.0
4115.38461511, 4037.17948677, 4114.10256383, 4101.92307658, 4123.71794844, 4149.74358954, 4145.89743569, 4121.02564075, 4118.97435870, 4132.94871767, 4054.61538420, 4121.79487152, 4031.15384567, 4144.74358954,12.0
4118.97435870, 4063.97435856, 4135.12820485, 4131.79487152, 4118.84615357, 4192.69230756, 4167.17948697, 4156.53846133, 4165.12820492, 4134.48717921, 4078.33333299, 4152.82051262, 4053.58974318, 4144.74358954,12.0
4121.41025614, 4066.79487138, 4134.61538434, 4123.33333306, 4120.38461511, 4179.99999986, 4163.97435877, 4164.99999980, 4169.61538448, 4130.76923050, 4075.64102530, 4151.79487159, 4058.97435856, 4144.61538441,12.0
4117.82051255, 4037.56410215, 4110.25640998, 4104.23076896, 4120.76923050, 4130.76923050, 4129.10256383, 4133.71794844, 4132.05128178, 4133.71794844, 4049.10256369, 4112.56410229, 4035.51282003, 4143.71794851,12.0
4121.53846126, 4026.66666618, 4109.87179460, 4109.35897408, 4120.51282024, 4126.79487152, 4122.30769203, 4123.46153819, 4124.35897408, 4133.97435870, 4051.79487138, 4109.10256383, 4031.66666618, 4146.79487159,12.0
4121.15384588, 4074.35897402, 4139.61538441, 4136.53846133, 4122.30769203, 4169.74358961, 4166.28205108, 4161.15384595, 4161.92307672, 4130.12820485, 4082.56410222, 4159.99999980, 4056.53846113, 4147.43589723,12.0
4118.84615357, 4094.74358940, 4144.87179467, 4139.23076903, 4116.92307665, 4175.38461525, 4163.33333313, 4159.87179467, 4166.53846133, 4132.43589716, 4084.23076889, 4168.71794858, 4057.69230728, 4141.53846133,12.0
4118.46153819, 4054.74358933, 4121.41025614, 4117.30769203, 4116.79487152, 4141.79487159, 4114.74358947, 4116.53846126, 4125.51282024, 4132.56410229, 4061.66666625, 4121.79487152, 4034.74358926, 4141.15384595,12.0
4116.02564075, 4048.46153805, 4115.64102537, 4114.35897408, 4118.71794844, 4132.17948691, 4125.12820485, 4119.23076896, 4120.89743562, 4129.48717921, 4058.71794830, 4115.76923050, 4035.25640977, 4144.99999980,12.0
4118.07692280, 4070.89743555, 4123.97435870, 4114.35897408, 4118.71794844, 4144.87179467, 4158.97435877, 4141.79487159, 4140.25641005, 4131.92307665, 4065.25640984, 4134.10256383, 4043.33333292, 4146.53846133,12.0
4113.97435870, 4065.38461497, 4127.69230742, 4108.58974332, 4120.64102537, 4167.17948697, 4169.23076910, 4152.17948697, 4148.84615364, 4133.84615357, 4067.17948677, 4130.89743562, 4043.84615343, 4144.87179467,12.0
4114.87179460, 4079.99999966, 4143.20512800, 4138.71794851, 4120.12820485, 4188.07692294, 4187.56410243, 4175.12820499, 4164.48717928, 4132.30769203, 4078.84615350, 4154.23076903, 4054.10256369, 4144.48717928,12.0
4120.89743562, 4105.51282024, 4154.74358954, 4168.20512807, 4119.87179460, 4183.33333320, 4188.20512807, 4186.41025628, 4172.17948704, 4134.10256383, 4088.84615350, 4181.28205115, 4058.07692266, 4146.92307672,12.0
4116.53846126, 4063.46153805, 4121.79487152, 4127.43589716, 4117.56410229, 4141.41025621, 4131.02564075, 4132.82051255, 4138.46153826, 4134.48717921, 4071.92307658, 4132.30769203, 4037.94871754, 4145.76923056,12.0
4115.76923050, 4034.23076875, 4100.89743555, 4091.02564068, 4119.35897408, 4114.61538434, 4094.87179453, 4086.92307658, 4105.89743562, 4133.33333306, 4058.58974318, 4091.41025607, 4028.71794824, 4143.84615364,12.0
4117.94871767, 4075.89743555, 4127.30769203, 4119.10256383, 4124.23076896, 4137.69230749, 4124.10256383, 4117.94871767, 4119.61538434, 4137.17948697, 4066.66666625, 4132.05128178, 4046.15384574, 4142.82051262,12.0
4119.99999973, 4105.89743562, 4142.05128185, 4149.99999980, 4120.25640998, 4162.82051262, 4150.64102544, 4153.97435877, 4142.43589723, 4135.64102544, 4073.58974325, 4163.20512800, 4053.71794830, 4142.82051262,12.0
4121.15384588, 4089.74358940, 4130.89743562, 4141.15384595, 4122.30769203, 4154.35897415, 4146.41025621, 4144.23076903, 4148.46153826, 4123.46153819, 4074.87179453, 4142.82051262, 4046.15384574, 4145.51282031,12.0
4116.79487152, 4071.41025607, 4121.92307665, 4116.41025614, 4125.76923050, 4139.10256390, 4136.66666646, 4123.58974332, 4136.28205108, 4123.71794844, 4069.35897395, 4125.64102537, 4045.38461497, 4146.79487159,12.0
4121.28205101, 4076.28205094, 4125.12820485, 4115.64102537, 4119.87179460, 4148.07692287, 4146.02564082, 4126.02564075, 4118.46153819, 4134.48717921, 4062.69230728, 4130.12820485, 4052.43589702, 4144.99999980,12.0
4120.64102537, 4087.94871761, 4134.23076896, 4131.79487152, 4122.43589716, 4159.74358954, 4168.33333320, 4145.89743569, 4128.07692280, 4135.38461518, 4067.82051241, 4139.23076903, 4055.12820472, 4143.33333313,12.0
4116.28205101, 4081.02564068, 4130.38461511, 4123.84615357, 4127.56410229, 4145.76923056, 4158.58974339, 4146.41025621, 4148.07692287, 4129.99999973, 4072.43589709, 4133.97435870, 4047.82051241, 4143.33333313,12.0
4121.41025614, 4071.53846119, 4123.97435870, 4113.71794844, 4124.61538434, 4135.76923056, 4128.33333306, 4131.15384588, 4145.25641005, 4126.92307665, 4069.48717907, 4125.89743562, 4047.56410215, 4145.76923056,12.0
4119.23076896, 4099.99999966, 4144.87179467, 4146.28205108, 4121.41025614, 4154.74358954, 4144.61538441, 4153.07692287, 4149.61538441, 4128.46153819, 4083.84615350, 4159.87179467, 4065.38461497, 4144.87179467,12.0
4118.58974332, 4113.71794844, 4156.53846133, 4159.99999980, 4119.35897408, 4155.89743569, 4163.97435877, 4167.17948697, 4163.33333313, 4132.30769203, 4095.64102530, 4183.71794858, 4072.56410222, 4143.58974339,12.0
4120.89743562, 4084.99999966, 4129.48717921, 4123.71794844, 4119.61538434, 4129.61538434, 4125.76923050, 4128.46153819, 4141.15384595, 4134.74358947, 4078.33333299, 4141.66666646, 4053.97435856, 4147.69230749,12.0
4118.71794844, 4086.79487145, 4122.94871767, 4124.87179460, 4117.43589716, 4132.94871767, 4110.25640998, 4116.15384588, 4126.66666639, 4133.07692280, 4075.38461504, 4124.74358947, 4046.66666625, 4147.17948697,12.0
4122.05128178, 4103.71794844, 4139.61538441, 4150.12820492, 4119.61538434, 4149.23076903, 4140.51282031, 4137.94871774, 4146.79487159, 4127.30769203, 4091.41025607, 4155.38461518, 4061.15384574, 4144.23076903,12.0
4118.58974332, 4086.92307658, 4134.35897408, 4134.74358947, 4124.48717921, 4147.05128185, 4147.69230749, 4135.76923056, 4142.17948697, 4128.20512793, 4086.92307658, 4154.61538441, 4064.23076882, 4145.76923056,12.0
4115.64102537, 4073.58974325, 4127.82051255, 4116.28205101, 4122.05128178, 4140.12820492, 4143.07692287, 4121.66666639, 4120.12820485, 4129.74358947, 4078.33333299, 4135.51282031, 4056.41025600, 4146.79487159,12.0
4118.20512793, 4082.43589709, 4129.87179460, 4126.41025614, 4122.43589716, 4134.23076896, 4136.28205108, 4115.51282024, 4125.25640998, 4126.92307665, 4081.79487145, 4134.35897408, 4052.56410215, 4144.48717928,12.0
4119.61538434, 4088.20512786, 4125.89743562, 4138.33333313, 4121.79487152, 4134.10256383, 4115.76923050, 4116.41025614, 4136.53846133, 4127.69230742, 4084.10256376, 4136.53846133, 4052.05128164, 4143.07692287,12.0
4122.94871767, 4104.87179460, 4133.84615357, 4143.58974339, 4118.58974332, 4144.74358954, 4125.12820485, 4138.46153826, 4142.17948697, 4128.97435870, 4088.84615350, 4150.38461518, 4059.48717907, 4145.89743569,12.0
4119.61538434, 4106.92307665, 4140.51282031, 4134.10256383, 4118.84615357, 4140.25641005, 4141.02564082, 4144.23076903, 4143.97435877, 4127.82051255, 4090.38461504, 4155.76923056, 4066.28205087, 4146.66666646,12.0
4119.10256383, 4073.07692273, 4123.84615357, 4113.20512793, 4117.69230742, 4117.30769203, 4113.07692280, 4106.53846126, 4114.23076896, 4126.92307665, 4078.33333299, 4129.23076896, 4055.76923036, 4144.61538441,12.0
4119.48717921, 4080.64102530, 4125.89743562, 4126.92307665, 4119.74358947, 4127.30769203, 4111.53846126, 4102.17948684, 4103.97435870, 4128.97435870, 4077.94871761, 4131.92307665, 4049.99999959, 4146.92307672,12.0
4114.48717921, 4104.23076896, 4137.69230749, 4141.79487159, 4119.61538434, 4146.41025621, 4135.89743569, 4124.23076896, 4125.76923050, 4128.97435870, 4085.38461504, 4154.35897415, 4058.33333292, 4148.71794851,12.0
4121.02564075, 4081.79487145, 4126.02564075, 4120.12820485, 4119.10256383, 4129.10256383, 4119.74358947, 4109.23076896, 4121.92307665, 4132.05128178, 4078.33333299, 4139.61538441, 4058.46153805, 4146.53846133,12.0
4121.79487152, 4078.07692273, 4124.61538434, 4119.74358947, 4122.94871767, 4122.56410229, 4120.12820485, 4115.12820485, 4114.48717921, 4136.02564082, 4080.51282017, 4130.25640998, 4054.74358933, 4145.12820492,12.0
4117.17948691, 4111.53846126, 4135.25640998, 4141.92307672, 4121.53846126, 4144.35897415, 4148.58974339, 4149.48717928, 4126.66666639, 4132.17948691, 4090.89743555, 4142.43589723, 4056.79487138, 4145.12820492,12.0
4121.66666639, 4111.53846126, 4126.53846126, 4137.17948697, 4120.25640998, 4149.99999980, 4147.30769210, 4140.64102544, 4137.30769210, 4132.17948691, 4088.46153812, 4135.25640998, 4061.02564061, 4145.12820492,12.0
4119.74358947, 4080.38461504, 4112.43589716, 4113.97435870, 4120.25640998, 4127.82051255, 4124.74358947, 4103.84615357, 4123.07692280, 4135.89743569, 4077.82051248, 4114.61538434, 4058.84615343, 4146.28205108,12.0
4118.84615357, 4076.02564068, 4117.69230742, 4110.64102537, 4120.64102537, 4113.46153819, 4114.74358947, 4096.41025607, 4111.02564075, 4131.92307665, 4077.69230735, 4117.43589716, 4053.58974318, 4148.97435877,12.0
4117.69230742, 4106.79487152, 4134.23076896, 4135.76923056, 4123.46153819, 4126.66666639, 4125.38461511, 4124.10256383, 4131.02564075, 4125.51282024, 4092.82051248, 4143.33333313, 4061.28205087, 4147.56410236,12.0
4115.12820485, 4121.79487152, 4134.35897408, 4151.53846133, 4119.48717921, 4134.61538434, 4124.87179460, 4131.15384588, 4140.89743569, 4126.02564075, 4098.20512786, 4148.97435877, 4068.20512779, 4142.94871774,12.0
4118.58974332, 4096.79487145, 4123.46153819, 4127.69230742, 4119.35897408, 4121.02564075, 4112.30769203, 4114.23076896, 4126.28205101, 4132.94871767, 4088.46153812, 4129.35897408, 4064.23076882, 4143.58974339,12.0
4117.30769203, 4089.99999966, 4124.87179460, 4116.28205101, 4122.82051255, 4127.43589716, 4127.56410229, 4128.20512793, 4134.23076896, 4136.02564082, 4086.66666632, 4130.89743562, 4063.20512779, 4144.99999980,12.0
4119.48717921, 4114.74358947, 4127.30769203, 4137.94871774, 4119.87179460, 4150.76923056, 4142.56410236, 4140.38461518, 4146.79487159, 4130.38461511, 4093.46153812, 4141.92307672, 4066.41025600, 4143.84615364,12.0
4119.48717921, 4094.35897402, 4111.28205101, 4125.64102537, 4119.23076896, 4131.41025614, 4115.89743562, 4111.28205101, 4112.82051255, 4123.20512793, 4086.53846119, 4117.43589716, 4059.35897395, 4146.41025621,12.0
4117.56410229, 4069.61538420, 4111.79487152, 4111.53846126, 4119.23076896, 4112.69230742, 4111.02564075, 4107.30769203, 4103.58974332, 4128.07692280, 4083.58974325, 4113.46153819, 4057.43589702, 4147.56410236,12.0
4123.07692280, 4091.02564068, 4127.30769203, 4132.56410229, 4119.74358947, 4130.12820485, 4132.30769203, 4130.12820485, 4139.99999980, 4131.79487152, 4092.56410222, 4139.23076903, 4066.15384574, 4145.89743569,12.0
4121.41025614, 4088.71794837, 4113.58974332, 4115.76923050, 4121.66666639, 4117.43589716, 4114.48717921, 4115.38461511, 4131.02564075, 4129.10256383, 4085.12820478, 4119.61538434, 4057.94871754, 4146.28205108,12.0
4120.38461511, 4076.53846119, 4108.07692280, 4100.38461504, 4119.48717921, 4100.51282017, 4114.35897408, 4111.66666639, 4105.51282024, 4129.10256383, 4084.35897402, 4109.74358947, 4054.99999959, 4145.12820492,12.0
4121.79487152, 4105.64102537, 4132.94871767, 4143.46153826, 4121.02564075, 4138.58974339, 4150.38461518, 4139.48717928, 4125.12820485, 4128.58974332, 4100.51282017, 4146.53846133, 4073.46153812, 4144.48717928,12.0
4121.15384588, 4115.12820485, 4125.64102537, 4147.17948697, 4123.33333306, 4148.07692287, 4131.79487152, 4119.10256383, 4131.28205101, 4128.71794844, 4098.97435863, 4140.25641005, 4072.43589709, 4147.56410236,12.0
4122.69230742, 4095.89743555, 4096.28205094, 4098.84615350, 4121.79487152, 4101.28205094, 4084.10256376, 4080.12820478, 4106.92307665, 4131.28205101, 4080.89743555, 4100.51282017, 4052.82051241, 4148.84615364,12.0
4118.46153819, 4111.02564075, 4107.43589716, 4107.17948691, 4122.43589716, 4107.43589716, 4103.71794844, 4110.51282024, 4116.28205101, 4129.99999973, 4084.48717914, 4116.02564075, 4058.97435856, 4146.02564082,12.0
4120.12820485, 4132.43589716, 4123.71794844, 4139.23076903, 4122.17948691, 4141.28205108, 4140.38461518, 4142.56410236, 4136.53846133, 4129.48717921, 4101.41025607, 4147.69230749, 4076.53846119, 4145.38461518,12.0
4122.82051255, 4109.10256383, 4096.79487145, 4113.97435870, 4122.43589716, 4112.05128178, 4109.10256383, 4105.38461511, 4109.87179460, 4134.35897408, 4087.82051248, 4117.56410229, 4064.74358933, 4146.92307672,12.0
4117.56410229, 4101.66666632, 4081.28205094, 4097.30769196, 4123.07692280, 4094.23076889, 4087.30769196, 4086.66666632, 4090.64102530, 4133.58974332, 4073.71794837, 4094.48717914, 4054.35897395, 4145.12820492,12.0
4119.10256383, 4137.30769210, 4108.84615357, 4133.84615357, 4121.92307665, 4143.46153826, 4131.15384588, 4127.43589716, 4129.87179460, 4132.82051255, 4095.76923043, 4137.94871774, 4073.07692273, 4143.84615364,12.0
4119.48717921, 4142.05128185, 4119.35897408, 4143.58974339, 4122.05128178, 4158.46153826, 4152.05128185, 4149.99999980, 4155.64102544, 4133.71794844, 4108.20512793, 4159.74358954, 4082.82051248, 4144.99999980,12.0
4119.87179460, 4118.20512793, 4094.23076889, 4109.61538434, 4123.20512793, 4116.02564075, 4120.64102537, 4121.53846126, 4121.15384588, 4128.33333306, 4089.23076889, 4122.69230742, 4071.41025607, 4145.25641005,12.0
4120.51282024, 4123.58974332, 4084.48717914, 4103.20512793, 4125.51282024, 4106.28205101, 4106.02564075, 4095.25640991, 4101.66666632, 4130.51282024, 4085.38461504, 4108.71794844, 4065.51282010, 4146.02564082,12.0
4117.30769203, 4138.71794851, 4095.25640991, 4126.66666639, 4121.66666639, 4125.12820485, 4119.10256383, 4102.30769196, 4122.56410229, 4132.94871767, 4097.17948684, 4129.10256383, 4067.94871754, 4147.56410236,12.0
4121.92307665, 4144.74358954, 4102.56410229, 4132.69230742, 4120.38461511, 4118.07692280, 4128.46153819, 4120.38461511, 4122.56410229, 4129.74358947, 4091.41025607, 4135.38461518, 4070.51282017, 4146.92307672,12.0
4123.33333306, 4156.41025621, 4112.30769203, 4136.66666646, 4126.41025614, 4120.38461511, 4137.56410236, 4135.38461518, 4118.58974332, 4130.25640998, 4093.71794837, 4144.48717928, 4077.56410222, 4145.76923056,12.0
4121.53846126, 4153.33333313, 4114.61538434, 4139.74358954, 4122.30769203, 4137.17948697, 4127.82051255, 4127.94871767, 4133.84615357, 4133.07692280, 4104.87179460, 4146.15384595, 4079.74358940, 4144.74358954,12.0
4120.51282024, 4133.07692280, 4100.76923043, 4122.30769203, 4120.64102537, 4127.56410229, 4106.28205101, 4107.56410229, 4121.79487152, 4135.25640998, 4094.35897402, 4120.12820485, 4070.89743555, 4146.92307672,12.0
4116.79487152, 4132.30769203, 4093.97435863, 4113.33333306, 4125.25640998, 4114.87179460, 4108.97435870, 4102.82051255, 4099.87179453, 4134.10256383, 4081.15384581, 4106.15384588, 4064.23076882, 4148.84615364,12.0
4122.43589716, 4141.41025621, 4100.38461504, 4127.30769203, 4120.51282024, 4120.76923050, 4124.61538434, 4104.87179460, 4105.51282024, 4134.10256383, 4086.79487145, 4114.23076896, 4064.35897395, 4146.15384595,12.0
4123.07692280, 4143.33333313, 4108.07692280, 4132.05128178, 4119.48717921, 4128.33333306, 4142.69230749, 4121.02564075, 4124.99999973, 4136.79487159, 4093.58974325, 4127.17948691, 4073.07692273, 4143.58974339,12.0
4118.07692280, 4144.74358954, 4108.58974332, 4122.69230742, 4122.56410229, 4133.58974332, 4146.53846133, 4139.61538441, 4136.02564082, 4135.64102544, 4095.51282017, 4134.35897408, 4083.84615350, 4144.87179467,12.0
4119.99999973, 4144.10256390, 4103.71794844, 4118.20512793, 4121.79487152, 4132.94871767, 4123.46153819, 4123.20512793, 4124.99999973, 4131.79487152, 4094.10256376, 4124.10256383, 4078.71794837, 4148.07692287,12.0
4118.84615357, 4147.94871774, 4104.48717921, 4115.38461511, 4121.02564075, 4129.61538434, 4121.92307665, 4104.35897408, 4116.53846126, 4132.05128178, 4089.74358940, 4119.23076896, 4068.46153805, 4147.69230749,12.0
4118.58974332, 4152.69230749, 4116.15384588, 4123.20512793, 4121.92307665, 4137.30769210, 4147.56410236, 4119.48717921, 4132.17948691, 4127.82051255, 4095.25640991, 4138.58974339, 4076.02564068, 4144.35897415,12.0
4119.23076896, 4157.43589723, 4126.66666639, 4147.43589723, 4124.23076896, 4146.92307672, 4150.12820492, 4140.76923056, 4146.02564082, 4122.69230742, 4108.84615357, 4154.48717928, 4088.71794837, 4145.76923056,12.0
4120.76923050, 4160.76923056, 4121.02564075, 4149.35897415, 4121.92307665, 4139.61538441, 4127.94871767, 4136.28205108, 4142.17948697, 4130.12820485, 4111.28205101, 4146.41025621, 4083.71794837, 4149.23076903,12.0
4122.17948691, 4142.94871774, 4109.23076896, 4122.05128178, 4120.89743562, 4117.43589716, 4113.07692280, 4115.25640998, 4132.94871767, 4129.10256383, 4099.74358940, 4129.48717921, 4075.89743555, 4146.66666646,12.0
4117.30769203, 4119.48717921, 4100.12820478, 4107.82051255, 4122.94871767, 4095.12820478, 4107.43589716, 4102.05128171, 4104.99999973, 4124.10256383, 4087.05128171, 4112.17948691, 4072.43589709, 4143.46153826,12.0
4120.89743562, 4132.82051255, 4103.71794844, 4120.25640998, 4118.33333306, 4106.92307665, 4115.12820485, 4106.79487152, 4094.23076889, 4129.10256383, 4088.84615350, 4115.25640998, 4072.69230735, 4145.25641005,12.0
4124.23076896, 4166.02564082, 4121.28205101, 4134.48717921, 4119.61538434, 4145.76923056, 4134.23076896, 4119.23076896, 4133.71794844, 4128.58974332, 4103.46153819, 4137.30769210, 4079.61538427, 4145.89743569,12.0
4119.48717921, 4163.20512800, 4125.12820485, 4140.51282031, 4121.53846126, 4153.71794851, 4138.97435877, 4122.43589716, 4153.58974339, 4126.28205101, 4107.82051255, 4138.97435877, 4079.35897402, 4143.33333313,12.0
4122.17948691, 4131.92307665, 4110.38461511, 4130.25640998, 4118.84615357, 4126.28205101, 4127.05128178, 4114.10256383, 4126.41025614, 4129.23076896, 4097.43589709, 4118.33333306, 4070.51282017, 4144.61538441,12.0
4123.84615357, 4133.07692280, 4113.46153819, 4128.58974332, 4121.79487152, 4132.30769203, 4134.35897408, 4128.46153819, 4124.35897408, 4132.30769203, 4099.87179453, 4122.69230742, 4079.48717914, 4148.84615364,12.0
4123.20512793, 4161.66666646, 4131.02564075, 4146.15384595, 4121.15384588, 4152.82051262, 4151.15384595, 4146.41025621, 4151.53846133, 4130.76923050, 4110.12820485, 4148.84615364, 4093.58974325, 4147.69230749,12.0
4122.05128178, 4158.84615364, 4123.71794844, 4134.99999973, 4121.02564075, 4123.33333306, 4132.69230742, 4121.28205101, 4134.48717921, 4127.17948691, 4099.23076889, 4137.17948697, 4077.94871761, 4144.48717928,12.0
4118.97435870, 4148.97435877, 4116.79487152, 4123.58974332, 4123.07692280, 4115.38461511, 4120.38461511, 4114.74358947, 4113.07692280, 4126.41025614, 4092.30769196, 4121.15384588, 4071.15384581, 4145.76923056,12.0
4121.79487152, 4155.89743569, 4124.61538434, 4140.38461518, 4124.10256383, 4150.89743569, 4138.58974339, 4138.84615364, 4139.99999980, 4127.43589716, 4106.02564075, 4132.30769203, 4088.46153812, 4146.28205108,12.0
4122.05128178, 4141.66666646, 4115.12820485, 4130.38461511, 4127.17948691, 4137.43589723, 4131.92307665, 4127.30769203, 4141.53846133, 4125.64102537, 4103.58974332, 4121.28205101, 4082.82051248, 4144.61538441,12.0
4122.43589716, 4145.12820492, 4116.15384588, 4124.87179460, 4124.10256383, 4117.56410229, 4128.07692280, 4121.02564075, 4121.15384588, 4126.66666639, 4095.89743555, 4121.41025614, 4070.76923043, 4144.87179467,12.0
4122.69230742, 4179.74358961, 4139.23076903, 4155.76923056, 4121.28205101, 4152.82051262, 4153.33333313, 4148.46153826, 4143.71794851, 4135.89743569, 4108.84615357, 4153.84615364, 4085.12820478, 4146.02564082,12.0
4118.07692280, 4151.02564082, 4127.17948691, 4134.74358947, 4122.69230742, 4149.10256390, 4140.12820492, 4133.33333306, 4145.38461518, 4135.64102544, 4105.76923050, 4137.69230749, 4086.15384581, 4144.48717928,12.0
4119.99999973, 4102.05128171, 4099.61538427, 4089.23076889, 4123.07692280, 4102.05128171, 4106.53846126, 4092.30769196, 4098.58974325, 4124.99999973, 4084.10256376, 4094.48717914, 4065.89743548, 4143.33333313,12.0
4118.97435870, 4127.56410229, 4108.46153819, 4105.76923050, 4124.99999973, 4111.53846126, 4119.10256383, 4100.25640991, 4098.20512786, 4122.82051255, 4088.33333299, 4103.84615357, 4071.02564068, 4145.38461518,12.0
4117.94871767, 4161.92307672, 4127.69230742, 4133.46153819, 4121.79487152, 4144.10256390, 4139.87179467, 4122.17948691, 4132.56410229, 4128.97435870, 4109.35897408, 4133.20512793, 4089.35897402, 4145.89743569,12.0
4123.58974332, 4142.56410236, 4125.76923050, 4129.87179460, 4121.02564075, 4137.30769210, 4131.02564075, 4115.51282024, 4122.94871767, 4130.12820485, 4111.53846126, 4135.76923056, 4083.71794837, 4145.12820492,12.0
4122.17948691, 4123.46153819, 4118.97435870, 4122.82051255, 4124.87179460, 4121.15384588, 4121.41025614, 4112.94871767, 4105.76923050, 4126.53846126, 4101.79487145, 4124.23076896, 4075.38461504, 4147.30769210,12.0
4120.64102537, 4154.74358954, 4130.38461511, 4136.15384595, 4122.30769203, 4139.99999980, 4144.87179467, 4135.38461518, 4135.25640998, 4125.51282024, 4108.46153819, 4136.53846133, 4086.79487145, 4147.82051262,12.0
4120.76923050, 4180.89743576, 4146.53846133, 4155.76923056, 4121.15384588, 4167.56410236, 4176.28205115, 4154.23076903, 4166.02564082, 4128.46153819, 4121.15384588, 4162.94871774, 4098.71794837, 4145.12820492,12.0
4121.92307665, 4161.15384595, 4139.48717928, 4153.46153826, 4122.05128178, 4153.58974339, 4157.56410236, 4138.58974339, 4153.20512800, 4131.28205101, 4114.87179460, 4157.43589723, 4091.66666632, 4144.74358954,12.0
4122.94871767, 4141.15384595, 4125.25640998, 4133.97435870, 4121.79487152, 4120.89743562, 4121.41025614, 4119.35897408, 4126.92307665, 4129.23076896, 4106.92307665, 4132.82051255, 4082.56410222, 4147.43589723,12.0
4118.07692280, 4149.87179467, 4126.15384588, 4127.56410229, 4122.17948691, 4123.71794844, 4130.51282024, 4133.71794844, 4126.41025614, 4126.66666639, 4109.99999973, 4128.20512793, 4086.66666632, 4149.10256390,12.0
4121.15384588, 4150.76923056, 4119.48717921, 4124.23076896, 4121.15384588, 4134.35897408, 4136.15384595, 4133.33333306, 4134.48717921, 4129.35897408, 4103.58974332, 4119.87179460, 4084.99999966, 4148.33333313,12.0
4124.35897408, 4135.76923056, 4113.46153819, 4124.74358947, 4122.69230742, 4132.43589716, 4127.43589716, 4116.41025614, 4132.17948691, 4133.07692280, 4096.15384581, 4110.25640998, 4077.69230735, 4147.30769210,12.0
4121.02564075, 4149.23076903, 4132.69230742, 4148.20512800, 4122.56410229, 4150.89743569, 4150.38461518, 4132.17948691, 4137.94871774, 4132.17948691, 4109.23076896, 4136.02564082, 4085.51282017, 4145.38461518,12.0
4122.69230742, 4162.43589723, 4142.30769210, 4153.58974339, 4121.66666639, 4150.64102544, 4152.17948697, 4139.48717928, 4136.28205108, 4130.64102537, 4116.28205101, 4149.48717928, 4094.35897402, 4144.10256390,12.0
4119.61538434, 4142.56410236, 4127.05128178, 4131.15384588, 4123.20512793, 4118.07692280, 4123.46153819, 4124.99999973, 4112.82051255, 4131.53846126, 4104.99999973, 4128.20512793, 4085.38461504, 4146.28205108,12.0
4116.79487152, 4139.87179467, 4129.35897408, 4136.92307672, 4121.41025614, 4124.87179460, 4134.61538434, 4135.89743569, 4121.41025614, 4130.89743562, 4108.71794844, 4135.25640998, 4087.05128171, 4146.92307672,12.0
4119.10256383, 4168.58974345, 4149.23076903, 4161.28205108, 4123.58974332, 4156.92307672, 4161.79487159, 4155.51282031, 4164.10256390, 4127.56410229, 4126.41025614, 4163.33333313, 4104.35897408, 4145.38461518,12.0
4118.84615357, 4162.69230749, 4138.33333313, 4146.53846133, 4126.28205101, 4141.53846133, 4143.71794851, 4142.30769210, 4147.94871774, 4127.30769203, 4119.99999973, 4144.48717928, 4095.25640991, 4145.76923056,12.0
4118.71794844, 4134.48717921, 4124.48717921, 4134.74358947, 4123.58974332, 4120.38461511, 4126.41025614, 4134.23076896, 4114.99999973, 4133.07692280, 4106.66666639, 4123.33333306, 4084.99999966, 4146.02564082,12.0
4116.15384588, 4147.82051262, 4141.66666646, 4157.94871774, 4123.71794844, 4142.30769210, 4144.61538441, 4156.02564082, 4149.87179467, 4134.99999973, 4119.10256383, 4150.38461518, 4102.17948684, 4145.51282031,12.0
4119.99999973, 4149.35897415, 4137.94871774, 4149.35897415, 4122.94871767, 4134.35897408, 4139.99999980, 4145.25641005, 4157.30769210, 4131.02564075, 4120.38461511, 4147.17948697, 4101.28205094, 4146.92307672,12.0
4125.12820485, 4116.02564075, 4117.43589716, 4123.07692280, 4123.46153819, 4109.10256383, 4123.33333306, 4116.92307665, 4117.94871767, 4132.94871767, 4101.79487145, 4108.07692280, 4079.74358940, 4148.33333313,12.0
4121.15384588, 4126.66666639, 4126.66666639, 4139.48717928, 4124.35897408, 4131.15384588, 4147.56410236, 4136.28205108, 4126.92307665, 4132.30769203, 4105.64102537, 4117.17948691, 4084.10256376, 4147.43589723,12.0
4123.84615357, 4149.99999980, 4136.02564082, 4154.48717928, 4121.79487152, 4144.87179467, 4159.74358954, 4146.66666646, 4143.71794851, 4127.05128178, 4117.82051255, 4139.61538441, 4094.87179453, 4147.56410236,12.0
4123.33333306, 4123.20512793, 4116.41025614, 4130.38461511, 4123.20512793, 4125.76923050, 4123.71794844, 4118.33333306, 4123.97435870, 4129.74358947, 4107.69230742, 4114.10256383, 4084.48717914, 4148.58974339,12.0
4120.25640998, 4110.12820485, 4112.05128178, 4129.10256383, 4121.41025614, 4130.64102537, 4122.17948691, 4127.56410229, 4127.17948691, 4133.20512793, 4105.12820485, 4103.71794844, 4084.61538427, 4148.07692287,12.0
4122.30769203, 4141.92307672, 4131.02564075, 4154.61538441, 4120.12820485, 4140.64102544, 4156.92307672, 4160.76923056, 4148.20512800, 4132.43589716, 4117.05128178, 4129.48717921, 4097.30769196, 4148.07692287,12.0
4118.71794844, 4137.94871774, 4124.23076896, 4149.48717928, 4123.58974332, 4115.76923050, 4139.61538441, 4143.58974339, 4134.99999973, 4132.94871767, 4109.87179460, 4118.07692280, 4092.56410222, 4149.35897415,12.0
4119.10256383, 4107.94871767, 4102.30769196, 4129.48717921, 4123.33333306, 4101.15384581, 4106.53846126, 4108.97435870, 4117.05128178, 4128.07692280, 4096.15384581, 4085.89743555, 4076.66666632, 4147.94871774,12.0
4119.10256383, 4115.64102537, 4106.15384588, 4129.23076896, 4122.43589716, 4112.17948691, 4112.94871767, 4112.43589716, 4120.25640998, 4127.17948691, 4100.76923043, 4089.61538427, 4073.71794837, 4146.53846133,12.0
4117.69230742, 4134.99999973, 4117.56410229, 4144.61538441, 4120.76923050, 4122.69230742, 4126.41025614, 4129.23076896, 4126.66666639, 4131.41025614, 4112.30769203, 4107.05128178, 4085.38461504, 4143.97435877,12.0
4120.64102537, 4125.76923050, 4112.17948691, 4149.99999980, 4122.94871767, 4127.82051255, 4132.43589716, 4129.35897408, 4125.89743562, 4127.82051255, 4107.94871767, 4102.30769196, 4091.79487145, 4143.07692287,12.0
4117.94871767, 4110.51282024, 4108.97435870, 4141.53846133, 4125.25640998, 4124.10256383, 4145.51282031, 4127.05128178, 4119.23076896, 4127.94871767, 4100.12820478, 4096.53846119, 4088.07692273, 4145.89743569,12.0
4118.84615357, 4121.41025614, 4121.66666639, 4145.12820492, 4123.07692280, 4127.94871767, 4148.20512800, 4132.30769203, 4124.74358947, 4132.17948691, 4108.20512793, 4115.64102537, 4088.20512786, 4144.87179467,12.0
4119.99999973, 4134.74358947, 4130.64102537, 4153.71794851, 4125.51282024, 4131.79487152, 4134.10256383, 4131.53846126, 4135.76923056, 4127.56410229, 4112.56410229, 4129.23076896, 4091.53846119, 4143.58974339,12.0
4117.94871767, 4126.41025614, 4127.43589716, 4148.20512800, 4123.97435870, 4113.97435870, 4127.56410229, 4124.35897408, 4124.23076896, 4127.69230742, 4103.46153819, 4120.25640998, 4087.94871761, 4144.74358954,12.0
4121.41025614, 4124.61538434, 4126.28205101, 4152.82051262, 4122.30769203, 4112.56410229, 4135.64102544, 4130.25640998, 4117.30769203, 4133.71794844, 4107.17948691, 4121.02564075, 4087.05128171, 4145.76923056,12.0
4121.79487152, 4145.89743569, 4135.89743569, 4181.41025628, 4124.87179460, 4153.71794851, 4158.58974339, 4153.84615364, 4148.97435877, 4128.97435870, 4127.43589716, 4140.51282031, 4096.28205094, 4146.92307672,12.0
4123.84615357, 4145.25641005, 4131.41025614, 4180.12820499, 4121.28205101, 4157.05128185, 4154.61538441, 4149.74358954, 4159.35897415, 4126.92307665, 4124.10256383, 4134.48717921, 4095.64102530, 4146.79487159,12.0
4124.35897408, 4120.64102537, 4113.71794844, 4150.25641005, 4122.17948691, 4109.87179460, 4124.99999973, 4121.41025614, 4125.12820485, 4138.46153826, 4106.02564075, 4109.23076896, 4085.76923043, 4146.28205108,12.0
4120.89743562, 4127.94871767, 4121.28205101, 4160.89743569, 4123.58974332, 4118.33333306, 4136.41025621, 4136.79487159, 4125.51282024, 4140.38461518, 4114.87179460, 4119.61538434, 4089.35897402, 4145.89743569,12.0
4123.71794844, 4141.79487159, 4134.10256383, 4175.38461525, 4119.99999973, 4146.15384595, 4152.43589723, 4154.23076903, 4139.23076903, 4129.74358947, 4124.87179460, 4132.94871767, 4092.94871761, 4147.17948697,12.0
4121.15384588, 4136.66666646, 4130.64102537, 4165.12820492, 4124.10256383, 4132.05128178, 4147.05128185, 4138.20512800, 4131.79487152, 4125.25640998, 4119.61538434, 4129.35897408, 4094.23076889, 4147.05128185,12.0
4121.15384588, 4138.97435877, 4132.56410229, 4172.94871781, 4125.38461511, 4131.02564075, 4156.66666646, 4135.64102544, 4142.82051262, 4129.23076896, 4124.74358947, 4138.20512800, 4104.23076896, 4144.48717928,12.0
4121.15384588, 4138.97435877, 4132.56410229, 4172.94871781, 4125.38461511, 4131.02564075, 4156.66666646, 4135.64102544, 4142.82051262, 4129.23076896, 4124.74358947, 4138.20512800, 4104.23076896, 4144.48717928,12.0
4123.07692280, 4126.15384588, 4128.33333306, 4175.25641012, 4122.69230742, 4137.56410236, 4146.15384595, 4132.82051255, 4139.35897415, 4133.84615357, 4125.89743562, 4127.94871767, 4099.87179453, 4143.71794851,12.0
4117.56410229, 4102.69230742, 4114.48717921, 4156.66666646, 4124.74358947, 4118.71794844, 4109.61538434, 4112.56410229, 4109.87179460, 4132.05128178, 4114.23076896, 4105.76923050, 4083.84615350, 4145.25641005,12.0
4121.15384588, 4114.10256383, 4117.17948691, 4154.35897415, 4125.76923050, 4102.05128171, 4112.56410229, 4106.79487152, 4112.17948691, 4124.74358947, 4113.07692280, 4110.25640998, 4089.23076889, 4146.66666646,12.0
4121.79487152, 4125.25640998, 4117.94871767, 4156.41025621, 4122.94871767, 4109.35897408, 4133.07692280, 4118.84615357, 4127.05128178, 4122.43589716, 4115.76923050, 4110.38461511, 4096.02564068, 4146.41025621,12.0
4118.84615357, 4114.74358947, 4110.38461511, 4151.66666646, 4119.99999973, 4125.12820485, 4131.79487152, 4128.71794844, 4114.48717921, 4130.51282024, 4114.35897408, 4101.79487145, 4086.15384581, 4145.51282031,12.0
4121.28205101, 4135.38461518, 4123.20512793, 4171.66666653, 4125.51282024, 4139.48717928, 4143.84615364, 4142.43589723, 4119.74358947, 4135.12820485, 4122.69230742, 4124.87179460, 4094.99999966, 4145.12820492,12.0
4119.35897408, 4149.87179467, 4135.25640998, 4182.56410243, 4128.33333306, 4143.20512800, 4160.38461518, 4146.02564082, 4145.25641005, 4127.82051255, 4128.84615357, 4144.74358954, 4110.64102537, 4146.02564082,12.0
4119.61538434, 4118.97435870, 4118.84615357, 4158.07692287, 4122.05128178, 4128.20512793, 4150.38461518, 4126.79487152, 4133.97435870, 4129.74358947, 4119.48717921, 4126.15384588, 4101.92307658, 4145.38461518,12.0
4120.89743562, 4099.35897402, 4097.69230735, 4138.46153826, 4121.79487152, 4105.76923050, 4119.23076896, 4106.79487152, 4096.28205094, 4139.35897415, 4105.64102537, 4101.53846119, 4088.07692273, 4144.87179467,12.0
4122.30769203, 4116.79487152, 4094.35897402, 4140.76923056, 4123.46153819, 4102.17948684, 4106.53846126, 4101.02564068, 4087.94871761, 4134.99999973, 4102.30769196, 4100.38461504, 4086.92307658, 4144.61538441,12.0
4122.94871767, 4137.43589723, 4102.69230742, 4151.15384595, 4124.74358947, 4132.30769203, 4138.58974339, 4124.23076896, 4121.92307665, 4131.41025614, 4116.02564075, 4120.25640998, 4098.07692273, 4144.48717928,12.0
4118.46153819, 4129.99999973, 4095.64102530, 4143.97435877, 4124.74358947, 4134.99999973, 4147.17948697, 4135.25640998, 4134.99999973, 4139.23076903, 4119.35897408, 4118.33333306, 4099.99999966, 4146.41025621,12.0
4120.38461511, 4108.20512793, 4076.66666632, 4125.51282024, 4121.79487152, 4098.07692273, 4107.56410229, 4106.15384588, 4105.38461511, 4135.38461518, 4109.61538434, 4093.46153812, 4093.71794837, 4147.43589723,12.0
4121.66666639, 4115.51282024, 4083.58974325, 4137.94871774, 4125.76923050, 4110.76923050, 4109.10256383, 4109.87179460, 4109.23076896, 4124.87179460, 4118.33333306, 4102.82051255, 4101.15384581, 4146.92307672,12.0
4120.38461511, 4145.38461518, 4098.46153812, 4161.15384595, 4128.20512793, 4137.94871774, 4141.41025621, 4140.76923056, 4137.05128185, 4129.74358947, 4128.71794844, 4126.79487152, 4109.35897408, 4146.79487159,12.0
4123.58974332, 4143.33333313, 4092.30769196, 4148.33333313, 4123.84615357, 4114.99999973, 4136.15384595, 4135.25640998, 4126.66666639, 4132.43589716, 4117.82051255, 4114.99999973, 4101.79487145, 4149.23076903,12.0
4117.43589716, 4113.97435870, 4083.46153812, 4128.46153819, 4122.56410229, 4110.38461511, 4126.28205101, 4120.64102537, 4114.48717921, 4126.66666639, 4110.76923050, 4098.33333299, 4093.71794837, 4149.48717928,12.0
4116.79487152, 4110.12820485, 4086.02564068, 4137.43589723, 4121.66666639, 4135.25640998, 4132.94871767, 4120.64102537, 4131.66666639, 4129.74358947, 4120.64102537, 4107.43589716, 4098.58974325, 4144.99999980,12.0
4122.43589716, 4123.58974332, 4089.23076889, 4148.20512800, 4124.99999973, 4132.43589716, 4139.10256390, 4128.46153819, 4137.94871774, 4134.99999973, 4122.82051255, 4117.30769203, 4102.94871767, 4144.48717928,12.0
4118.07692280, 4131.41025614, 4091.92307658, 4155.12820492, 4127.30769203, 4127.69230742, 4143.46153826, 4141.92307672, 4134.10256383, 4132.82051255, 4120.89743562, 4119.23076896, 4104.35897408, 4148.33333313,12.0
4116.92307665, 4131.92307665, 4091.79487145, 4159.10256390, 4125.38461511, 4132.05128178, 4135.51282031, 4133.97435870, 4130.89743562, 4130.64102537, 4122.94871767, 4117.69230742, 4104.74358947, 4148.84615364,12.0
4117.82051255, 4112.94871767, 4081.15384581, 4143.07692287, 4125.12820485, 4113.58974332, 4118.20512793, 4110.89743562, 4119.74358947, 4133.58974332, 4116.15384588, 4104.48717921, 4097.05128171, 4144.61538441,12.0
4120.25640998, 4101.02564068, 4080.12820478, 4136.66666646, 4123.84615357, 4100.25640991, 4112.94871767, 4115.12820485, 4117.17948691, 4132.43589716, 4113.97435870, 4106.41025614, 4094.48717914, 4143.46153826,12.0
4120.38461511, 4115.38461511, 4093.71794837, 4152.82051262, 4127.05128178, 4106.66666639, 4117.30769203, 4128.97435870, 4125.38461511, 4127.05128178, 4123.33333306, 4126.41025614, 4103.84615357, 4144.87179467,12.0
4117.17948691, 4128.71794844, 4101.28205094, 4163.97435877, 4125.25640998, 4117.43589716, 4129.23076896, 4129.99999973, 4136.15384595, 4126.15384588, 4126.66666639, 4132.05128178, 4109.99999973, 4144.35897415,12.0
4123.07692280, 4129.48717921, 4103.46153819, 4172.69230756, 4119.35897408, 4134.48717921, 4147.82051262, 4132.30769203, 4154.74358954, 4133.33333306, 4128.20512793, 4134.99999973, 4109.10256383, 4144.99999980,12.0
4123.58974332, 4110.25640998, 4098.20512786, 4162.30769210, 4123.46153819, 4129.10256383, 4141.15384595, 4128.07692280, 4145.89743569, 4139.74358954, 4126.02564075, 4129.74358947, 4106.79487152, 4147.30769210,12.0
4120.64102537, 4093.97435863, 4086.15384581, 4145.38461518, 4123.84615357, 4103.84615357, 4121.41025614, 4118.33333306, 4110.51282024, 4135.12820485, 4114.48717921, 4112.43589716, 4101.79487145, 4145.38461518,12.0
4122.17948691, 4100.51282017, 4083.20512786, 4153.84615364, 4121.02564075, 4101.15384581, 4116.41025614, 4112.69230742, 4104.10256383, 4127.56410229, 4111.02564075, 4107.30769203, 4095.51282017, 4143.20512800,12.0
4118.07692280, 4105.38461511, 4091.41025607, 4165.64102544, 4122.17948691, 4123.58974332, 4128.33333306, 4116.92307665, 4130.64102537, 4130.64102537, 4121.15384588, 4120.51282024, 4098.46153812, 4146.15384595,12.0
4120.25640998, 4109.23076896, 4104.10256383, 4172.56410243, 4123.20512793, 4145.38461518, 4152.94871774, 4134.99999973, 4155.12820492, 4132.94871767, 4130.89743562, 4142.43589723, 4107.30769203, 4148.71794851,12.0
4121.28205101, 4118.07692280, 4112.82051255, 4183.33333320, 4124.99999973, 4144.35897415, 4165.12820492, 4152.05128185, 4155.64102544, 4127.56410229, 4133.07692280, 4151.15384595, 4111.79487152, 4147.56410236,12.0
4118.20512793, 4099.23076889, 4098.33333299, 4166.79487159, 4123.20512793, 4121.15384588, 4147.05128185, 4137.43589723, 4132.69230742, 4128.33333306, 4126.79487152, 4130.25640998, 4106.41025614, 4143.20512800,12.0
4120.76923050, 4069.35897395, 4081.92307658, 4138.46153826, 4121.79487152, 4107.17948691, 4126.41025614, 4108.84615357, 4119.48717921, 4130.25640998, 4118.97435870, 4107.94871767, 4099.23076889, 4143.58974339,12.0
4120.38461511, 4077.56410222, 4091.66666632, 4151.79487159, 4122.43589716, 4116.41025614, 4130.38461511, 4116.79487152, 4136.02564082, 4123.71794844, 4121.02564075, 4119.23076896, 4102.82051255, 4148.33333313,12.0
4123.84615357, 4084.74358940, 4102.17948684, 4168.97435884, 4122.30769203, 4121.66666639, 4140.89743569, 4134.74358947, 4148.07692287, 4127.30769203, 4124.61538434, 4130.38461511, 4106.15384588, 4146.79487159,12.0
4124.48717921, 4073.58974325, 4097.30769196, 4163.46153826, 4126.28205101, 4120.38461511, 4148.71794851, 4140.25641005, 4142.17948697, 4140.25641005, 4124.74358947, 4123.46153819, 4104.74358947, 4145.12820492,12.0
4119.74358947, 4073.84615350, 4089.74358940, 4162.56410236, 4125.76923050, 4122.94871767, 4138.20512800, 4136.02564082, 4141.02564082, 4137.43589723, 4123.97435870, 4117.17948691, 4104.74358947, 4146.53846133,12.0
4119.99999973, 4057.05128164, 4082.43589709, 4152.69230749, 4121.41025614, 4109.99999973, 4110.76923050, 4110.12820485, 4133.58974332, 4132.05128178, 4116.66666639, 4102.17948684, 4100.89743555, 4147.56410236,12.0
4117.30769203, 4045.38461497, 4081.66666632, 4146.28205108, 4120.76923050, 4101.41025607, 4121.66666639, 4100.38461504, 4125.89743562, 4138.58974339, 4114.74358947, 4098.20512786, 4098.58974325, 4148.07692287,12.0
4119.61538434, 4062.17948677, 4086.53846119, 4156.02564082, 4119.99999973, 4117.43589716, 4143.97435877, 4123.07692280, 4129.23076896, 4136.41025621, 4121.53846126, 4115.64102537, 4104.74358947, 4147.30769210,12.0
4123.58974332, 4062.69230728, 4086.53846119, 4157.94871774, 4123.58974332, 4125.51282024, 4133.20512793, 4131.92307665, 4139.61538441, 4125.12820485, 4124.61538434, 4122.30769203, 4107.43589716, 4146.28205108,12.0
4122.69230742, 4049.35897395, 4081.02564068, 4152.69230749, 4124.10256383, 4109.99999973, 4127.94871767, 4115.25640998, 4144.61538441, 4124.48717921, 4120.25640998, 4110.12820485, 4101.79487145, 4145.51282031,12.0
4122.30769203, 4050.89743548, 4074.48717914, 4152.05128185, 4121.02564075, 4100.38461504, 4132.69230742, 4106.92307665, 4138.33333313, 4135.38461518, 4114.74358947, 4098.20512786, 4093.58974325, 4144.87179467,12.0
4119.35897408, 4049.10256369, 4069.87179453, 4147.05128185, 4122.17948691, 4111.28205101, 4125.76923050, 4120.76923050, 4135.64102544, 4138.07692287, 4114.74358947, 4097.17948684, 4089.35897402, 4144.74358954,12.0
4123.33333306, 4053.71794830, 4082.05128171, 4153.46153826, 4122.56410229, 4126.66666639, 4137.94871774, 4140.76923056, 4153.71794851, 4133.46153819, 4120.64102537, 4118.07692280, 4100.51282017, 4146.15384595,12.0
4124.74358947, 4067.30769189, 4099.10256376, 4166.02564082, 4125.25640998, 4132.17948691, 4155.64102544, 4146.41025621, 4165.51282031, 4133.97435870, 4125.76923050, 4137.17948697, 4110.64102537, 4146.28205108,12.0
4116.53846126, 4046.53846113, 4088.33333299, 4149.87179467, 4125.51282024, 4115.38461511, 4132.69230742, 4133.71794844, 4139.48717928, 4131.41025614, 4121.41025614, 4118.20512793, 4097.69230735, 4144.23076903,12.0
4119.48717921, 4022.17948670, 4067.82051241, 4127.69230742, 4123.46153819, 4088.46153812, 4110.89743562, 4116.53846126, 4121.15384588, 4128.46153819, 4113.07692280, 4092.94871761, 4084.87179453, 4145.38461518,12.0
4121.66666639, 4037.56410215, 4070.64102530, 4137.17948697, 4126.79487152, 4093.58974325, 4125.51282024, 4116.02564075, 4130.25640998, 4132.56410229, 4112.69230742, 4102.30769196, 4093.84615350, 4146.92307672,12.0
4117.05128178, 4062.94871754, 4091.28205094, 4166.66666646, 4125.89743562, 4121.66666639, 4139.61538441, 4125.76923050, 4147.43589723, 4130.76923050, 4129.74358947, 4132.17948691, 4104.87179460, 4144.61538441,12.0
4114.48717921, 4069.74358940, 4100.25640991, 4176.66666653, 4122.30769203, 4116.66666639, 4135.89743569, 4123.07692280, 4161.02564082, 4127.69230742, 4144.99999980, 4147.43589723, 4107.94871767, 4144.99999980,12.0
4116.02564075, 4052.82051241, 4087.05128171, 4152.05128185, 4121.41025614, 4092.94871761, 4120.12820485, 4106.28205101, 4144.48717928, 4134.10256383, 4132.43589716, 4128.71794844, 4105.51282024, 4146.53846133,12.0
4121.28205101, 4043.07692266, 4084.48717914, 4145.76923056, 4121.92307665, 4111.41025614, 4122.43589716, 4108.58974332, 4133.20512793, 4133.71794844, 4122.43589716, 4119.23076896, 4101.28205094, 4144.35897415,12.0
4116.92307665, 4065.89743548, 4099.23076889, 4175.64102551, 4125.51282024, 4153.33333313, 4155.64102544, 4139.87179467, 4166.15384595, 4127.30769203, 4140.12820492, 4143.71794851, 4106.66666639, 4144.23076903,12.0
4115.76923050, 4066.02564061, 4090.12820478, 4169.48717935, 4124.10256383, 4136.66666646, 4160.64102544, 4144.35897415, 4170.12820499, 4131.79487152, 4139.74358954, 4130.12820485, 4103.97435870, 4146.41025621,12.0
4121.92307665, 4036.66666618, 4067.05128164, 4131.66666639, 4121.66666639, 4089.35897402, 4128.20512793, 4131.02564075, 4135.25640998, 4132.05128178, 4112.56410229, 4085.89743555, 4087.17948684, 4146.79487159,12.0
4118.97435870, 4040.76923036, 4069.48717907, 4130.51282024, 4124.48717921, 4096.15384581, 4121.92307665, 4160.25641005, 4138.46153826, 4123.58974332, 4110.12820485, 4091.66666632, 4084.99999966, 4146.92307672,12.0
4118.84615357, 4058.33333292, 4080.89743555, 4150.89743569, 4124.35897408, 4121.53846126, 4146.92307672, 4191.92307679, 4157.17948697, 4129.87179460, 4127.30769203, 4117.82051255, 4093.84615350, 4146.92307672,12.0
4119.74358947, 4051.28205087, 4081.28205094, 4156.15384595, 4122.69230742, 4117.69230742, 4153.20512800, 4181.66666653, 4161.79487159, 4140.38461518, 4126.28205101, 4113.20512793, 4097.82051248, 4145.64102544,12.0
4120.12820485, 4056.02564061, 4084.35897402, 4158.33333313, 4119.74358947, 4114.61538434, 4139.35897415, 4171.15384602, 4172.56410243, 4136.41025621, 4120.64102537, 4112.69230742, 4099.74358940, 4147.05128185,12.0
4122.56410229, 4057.43589702, 4083.71794837, 4153.33333313, 4121.41025614, 4116.66666639, 4128.58974332, 4168.46153833, 4159.99999980, 4134.10256383, 4123.33333306, 4117.17948691, 4095.51282017, 4148.33333313,12.0
4119.48717921, 4026.53846106, 4063.33333292, 4124.99999973, 4125.25640998, 4091.28205094, 4108.46153819, 4137.82051262, 4115.51282024, 4136.79487159, 4111.66666639, 4085.76923043, 4077.69230735, 4146.92307672,12.0
4122.05128178, 4038.58974318, 4060.38461497, 4126.15384588, 4123.33333306, 4083.07692273, 4098.07692273, 4123.33333306, 4116.28205101, 4135.38461518, 4104.10256383, 4079.74358940, 4075.12820478, 4148.20512800,12.0
4123.07692280, 4080.12820478, 4084.99999966, 4164.35897415, 4126.28205101, 4114.10256383, 4122.82051255, 4151.15384595, 4159.87179467, 4136.28205108, 4123.07692280, 4124.35897408, 4092.94871761, 4147.69230749,12.0
4121.02564075, 4058.07692266, 4082.94871761, 4158.58974339, 4128.20512793, 4115.12820485, 4139.61538441, 4157.56410236, 4154.48717928, 4137.30769210, 4126.02564075, 4127.82051255, 4094.87179453, 4142.43589723,12.0
4123.71794844, 4019.48717900, 4058.46153805, 4115.76923050, 4124.35897408, 4085.64102530, 4112.43589716, 4134.74358947, 4113.71794844, 4134.74358947, 4104.10256383, 4087.82051248, 4080.51282017, 4141.66666646,12.0
4119.87179460, 4034.99999952, 4063.33333292, 4121.02564075, 4122.30769203, 4089.87179453, 4103.71794844, 4148.07692287, 4122.05128178, 4137.30769210, 4107.05128178, 4092.94871761, 4083.46153812, 4146.28205108,12.0
4119.23076896, 4047.69230728, 4077.69230735, 4152.43589723, 4123.07692280, 4108.97435870, 4127.94871767, 4176.53846140, 4161.53846133, 4137.94871774, 4126.79487152, 4120.51282024, 4097.43589709, 4146.15384595,12.0
4121.53846126, 4022.05128157, 4063.07692266, 4135.51282031, 4125.76923050, 4093.33333299, 4121.92307665, 4167.05128185, 4157.94871774, 4127.94871767, 4120.25640998, 4098.58974325, 4089.35897402, 4145.38461518,12.0
4119.23076896, 4029.10256362, 4059.48717907, 4123.84615357, 4122.69230742, 4093.97435863, 4121.28205101, 4169.48717935, 4143.20512800, 4126.15384588, 4108.46153819, 4089.99999966, 4083.07692273, 4146.66666646,12.0
4122.82051255, 4067.82051241, 4082.05128171, 4158.20512800, 4121.79487152, 4124.23076896, 4153.33333313, 4193.58974345, 4159.87179467, 4129.35897408, 4118.20512793, 4122.56410229, 4095.76923043, 4144.74358954,12.0
4121.28205101, 4056.53846113, 4076.92307658, 4155.89743569, 4128.46153819, 4116.28205101, 4144.35897415, 4177.17948704, 4159.23076903, 4127.30769203, 4118.97435870, 4112.30769203, 4092.17948684, 4144.87179467,12.0
4118.33333306, 4013.33333285, 4053.46153805, 4121.53846126, 4123.97435870, 4091.66666632, 4108.84615357, 4139.23076903, 4138.97435877, 4129.48717921, 4109.23076896, 4080.76923043, 4079.74358940, 4146.15384595,12.0
4119.87179460, 4014.61538413, 4059.74358933, 4130.76923050, 4120.51282024, 4103.07692280, 4118.84615357, 4139.48717928, 4146.79487159, 4134.23076896, 4116.02564075, 4097.17948684, 4087.43589709, 4145.38461518,12.0
4121.15384588, 4041.41025600, 4076.28205094, 4152.30769210, 4124.99999973, 4114.74358947, 4139.48717928, 4161.02564082, 4164.74358954, 4134.99999973, 4126.02564075, 4124.23076896, 4095.89743555, 4145.38461518,12.0
4124.74358947, 4039.99999959, 4071.02564068, 4144.23076903, 4122.94871767, 4095.12820478, 4117.94871767, 4149.35897415, 4144.61538441, 4133.20512793, 4118.97435870, 4115.89743562, 4087.56410222, 4146.28205108,12.0
4120.76923050, 4046.02564061, 4072.56410222, 4152.43589723, 4123.07692280, 4104.99999973, 4118.97435870, 4151.66666646, 4138.33333313, 4132.94871767, 4117.56410229, 4117.43589716, 4086.02564068, 4145.76923056,12.0
4120.51282024, 4044.74358933, 4070.12820478, 4156.15384595, 4124.87179460, 4117.05128178, 4137.56410236, 4167.17948697, 4159.74358954, 4131.79487152, 4121.92307665, 4118.20512793, 4086.41025607, 4143.46153826,12.0
4126.66666639, 4011.41025593, 4045.51282010, 4121.28205101, 4123.58974332, 4087.30769196, 4117.05128178, 4142.94871774, 4139.10256390, 4133.33333306, 4108.71794844, 4084.74358940, 4074.87179453, 4145.25641005,12.0
4120.51282024, 4021.41025593, 4049.99999959, 4123.58974332, 4123.07692280, 4088.97435863, 4119.61538434, 4142.30769210, 4128.71794844, 4134.61538434, 4107.56410229, 4089.10256376, 4078.20512786, 4147.69230749,12.0
4120.51282024, 4047.56410215, 4069.87179453, 4149.99999980, 4123.71794844, 4110.51282024, 4144.87179467, 4165.38461518, 4155.38461518, 4131.79487152, 4121.66666639, 4121.92307665, 4091.02564068, 4144.87179467,12.0
4122.69230742, 4037.94871754, 4069.87179453, 4151.28205108, 4126.02564075, 4107.30769203, 4139.61538441, 4165.38461518, 4165.76923056, 4132.17948691, 4126.92307665, 4125.76923050, 4092.05128171, 4144.99999980,12.0
4119.23076896, 4044.99999959, 4077.56410222, 4166.53846133, 4123.71794844, 4117.30769203, 4138.33333313, 4171.79487166, 4180.76923063, 4133.97435870, 4136.41025621, 4138.58974339, 4093.84615350, 4147.05128185,12.0
4121.28205101, 4053.33333292, 4079.10256376, 4169.61538448, 4123.07692280, 4120.89743562, 4134.35897408, 4171.28205115, 4192.82051269, 4132.82051255, 4137.94871774, 4144.61538441, 4090.89743555, 4144.61538441,12.0
4120.64102537, 4036.92307651, 4060.89743548, 4144.99999980, 4126.41025614, 4095.25640991, 4114.74358947, 4149.10256390, 4175.25641012, 4129.35897408, 4125.12820485, 4117.82051255, 4079.61538427, 4143.07692287,12.0
4121.53846126, 4041.79487138, 4058.46153805, 4142.69230749, 4126.02564075, 4092.82051248, 4119.35897408, 4147.82051262, 4167.94871774, 4131.66666639, 4122.17948691, 4114.74358947, 4080.12820478, 4144.74358954,12.0
4120.76923050, 4051.53846113, 4069.23076882, 4155.64102544, 4126.02564075, 4106.66666639, 4136.53846133, 4162.94871774, 4173.97435884, 4136.66666646, 4123.58974332, 4132.30769203, 4090.89743555, 4145.25641005,12.0
4118.20512793, 4038.46153805, 4063.46153805, 4153.33333313, 4123.97435870, 4101.28205094, 4132.05128178, 4153.46153826, 4156.28205108, 4135.64102544, 4121.02564075, 4121.28205101, 4081.28205094, 4145.64102544,12.0
4120.89743562, 4033.20512772, 4052.05128164, 4141.53846133, 4120.89743562, 4096.66666632, 4121.28205101, 4133.97435870, 4141.28205108, 4133.84615357, 4120.51282024, 4102.30769196, 4068.58974318, 4147.94871774,12.0
4118.33333306, 4032.05128157, 4047.56410215, 4131.41025614, 4123.46153819, 4099.48717914, 4119.23076896, 4131.53846126, 4150.12820492, 4133.33333306, 4112.56410229, 4100.51282017, 4086.15384581, 4147.56410236,12.0
4120.76923050, 4037.05128164, 4052.82051241, 4145.76923056, 4124.23076896, 4112.43589716, 4133.71794844, 4149.99999980, 4162.05128185, 4133.33333306, 4111.53846126, 4112.17948691, 4038.97435856, 4146.66666646,12.0
4123.20512793, 4040.25640984, 4053.84615343, 4154.87179467, 4124.23076896, 4108.20512793, 4141.92307672, 4157.56410236, 4162.56410236, 4135.38461518, 4120.25640998, 4111.15384588, 3877.05128129, 4147.05128185,12.0
4119.23076896, 4026.02564054, 4043.07692266, 4133.07692280, 4123.97435870, 4085.51282017, 4123.20512793, 4145.38461518, 4154.10256390, 4135.12820485, 4116.41025614, 4095.12820478, 3769.48717845, 4145.12820492,12.0
4121.79487152, 4048.46153805, 4056.66666625, 4147.94871774, 4122.69230742, 4102.94871767, 4127.69230742, 4160.64102544, 4174.61538448, 4130.12820485, 4118.46153819, 4118.71794844, 3809.61538372, 4145.76923056,12.0
4123.20512793, 4076.15384581, 4067.30769189, 4169.99999986, 4123.84615357, 4116.92307665, 4133.58974332, 4173.33333320, 4187.17948704, 4127.69230742, 4127.82051255, 4141.15384595, 3842.56410173, 4150.64102544,12.0
4121.92307665, 4039.74358933, 4035.76923029, 4134.74358947, 4122.05128178, 4075.38461504, 4095.12820478, 4135.12820485, 4151.28205108, 4131.28205101, 4116.66666639, 4099.99999966, 3807.17948628, 4148.84615364,12.0
