AF3,F7,F3,FC5,T7,P7,O1,O2,P8,T8,FC6,F4,F8,AF4,Label
4107.56410229, 4129.74358947, 4136.92307672, 4261.79487180, 4124.87179460, 4189.35897422, 4188.71794858, 4186.66666653, 4169.99999986, 4127.94871767, 3743.71794768, 4152.05128185, 4108.07692280, 4147.17948697,12.0
4105.89743562, 4133.97435870, 4133.58974332, 4248.46153847, 4126.15384588, 4190.89743576, 4184.61538448, 4198.07692294, 4177.17948704, 4134.48717921, 3738.97435787, 4138.84615364, 4101.02564068, 4148.33333313,12.0
4110.64102537, 4157.82051262, 4148.71794851, 4262.69230770, 4127.30769203, 4212.82051275, 4213.33333327, 4226.41025634, 4196.02564089, 4129.23076896, 3756.15384512, 4172.94871781, 4115.76923050, 4149.87179467,12.0
4107.30769203, 4148.20512800, 4150.51282031, 4265.25641026, 4125.64102537, 4199.74358961, 4189.10256397, 4200.89743576, 4174.23076910, 4128.46153819, 3770.12820409, 4183.33333320, 4127.94871767, 4147.17948697,12.0
4108.58974332, 4105.12820485, 4122.05128178, 4221.02564096, 4122.94871767, 4155.76923056, 4127.69230742, 4139.74358954, 4125.89743562, 4136.02564082, 3760.64102460, 4135.64102544, 4111.92307665, 4145.64102544,12.0
4105.64102537, 4086.66666632, 4110.76923050, 4190.89743576, 4125.51282024, 4143.07692287, 4128.33333306, 4134.10256383, 4124.48717921, 4136.02564082, 3763.71794768, 4121.15384588, 4107.43589716, 4145.64102544,12.0
4100.12820478, 4098.46153812, 4132.56410229, 4195.51282038, 4127.05128178, 4157.30769210, 4159.87179467, 4165.64102544, 4153.33333313, 4133.84615357, 3790.51281954, 4156.02564082, 4124.74358947, 4146.02564082,12.0
4105.51282024, 4095.89743555, 4139.99999980, 4181.53846140, 4124.23076896, 4159.74358954, 4155.51282031, 4162.43589723, 4153.33333313, 4135.25640998, 3799.99999903, 4164.35897415, 4130.89743562, 4146.28205108,12.0
4104.10256383, 4091.28205094, 4132.30769203, 4167.56410236, 4124.35897408, 4160.12820492, 4152.05128185, 4148.58974339, 4151.41025621, 4135.12820485, 3806.28205031, 4159.87179467, 4135.25640998, 4144.10256390,12.0
4104.35897408, 4114.61538434, 4146.28205108, 4187.43589730, 4125.38461511, 4177.94871781, 4186.92307679, 4178.46153833, 4187.82051269, 4134.87179460, 3828.07692218, 4187.17948704, 4148.07692287, 4144.61538441,12.0
4106.28205101, 4133.33333306, 4169.99999986, 4211.53846147, 4126.41025614, 4203.84615378, 4223.46153840, 4226.66666660, 4230.51282045, 4134.87179460, 3838.33333243, 4217.30769224, 4153.71794851, 4144.99999980,12.0
4103.33333306, 4136.92307672, 4177.82051269, 4221.41025634, 4126.66666639, 4215.12820506, 4232.30769224, 4244.61538462, 4241.02564103, 4134.87179460, 3837.82051192, 4227.69230763, 4154.61538441, 4147.05128185,12.0
4107.30769203, 4133.33333306, 4169.74358961, 4219.74358968, 4125.38461511, 4199.74358961, 4219.99999993, 4228.71794865, 4221.92307686, 4134.87179460, 3843.20512738, 4221.15384609, 4154.61538441, 4148.71794851,12.0
4106.79487152, 4128.71794844, 4168.71794858, 4218.84615378, 4126.15384588, 4182.69230756, 4214.87179481, 4221.53846147, 4213.33333327, 4134.87179460, 3846.92307609, 4220.12820506, 4156.02564082, 4143.20512800,12.0
4106.66666639, 4133.20512793, 4177.56410243, 4226.79487173, 4125.76923050, 4191.79487166, 4222.56410250, 4233.71794865, 4227.43589737, 4134.87179460, 3846.92307609, 4233.97435898, 4161.41025621, 4141.92307672,12.0
4108.46153819, 4127.30769203, 4170.76923063, 4221.79487173, 4126.41025614, 4197.94871781, 4205.25641019, 4219.35897429, 4220.64102558, 4134.87179460, 3847.56410173, 4229.99999993, 4159.23076903, 4145.76923056,12.0
4107.43589716, 4123.07692280, 4163.07692287, 4208.97435891, 4127.94871767, 4188.58974345, 4191.02564089, 4188.07692294, 4199.23076910, 4134.87179460, 3848.84615302, 4220.38461532, 4156.41025621, 4148.33333313,12.0
4110.38461511, 4139.48717928, 4176.15384602, 4226.66666660, 4125.89743562, 4193.84615371, 4215.25641019, 4192.30769217, 4199.48717935, 4134.87179460, 3850.51281968, 4236.02564103, 4164.48717928, 4149.10256390,12.0
4106.66666639, 4140.25641005, 4179.87179474, 4251.02564103, 4124.48717921, 4205.25641019, 4235.38461539, 4223.58974352, 4211.66666660, 4134.87179460, 3847.30769148, 4243.58974359, 4161.15384595, 4146.66666646,12.0
4106.79487152, 4120.12820485, 4159.99999980, 4235.51282052, 4124.74358947, 4194.48717935, 4214.61538455, 4222.17948711, 4209.10256404, 4134.87179460, 3837.43589654, 4213.97435891, 4149.23076903, 4145.25641005,12.0
4108.07692280, 4114.10256383, 4146.15384595, 4212.94871788, 4124.35897408, 4178.71794858, 4197.94871781, 4202.94871788, 4201.41025634, 4134.87179460, 3827.30769141, 4186.92307679, 4148.46153826, 4146.53846133,12.0
4099.35897402, 4108.46153819, 4146.66666646, 4215.64102558, 4125.89743562, 4176.53846140, 4211.53846147, 4213.33333327, 4205.25641019, 4134.87179460, 3819.61538372, 4186.41025628, 4151.28205108, 4149.23076903,12.0
4101.41025607, 4090.64102530, 4140.64102544, 4211.66666660, 4126.53846126, 4172.82051269, 4199.87179474, 4216.41025634, 4198.97435884, 4134.87179460, 3797.82051185, 4179.61538448, 4147.82051262, 4147.05128185,12.0
4103.33333306, 4089.87179453, 4131.15384588, 4199.48717935, 4126.79487152, 4166.02564082, 4168.84615371, 4194.61538448, 4183.71794858, 4134.87179460, 3761.53846050, 4159.35897415, 4139.74358954, 4139.99999980,12.0
4101.66666632, 4105.51282024, 4135.51282031, 4209.74358968, 4126.15384588, 4175.76923063, 4182.30769217, 4195.38461525, 4191.28205115, 4134.87179460, 3740.51281940, 4167.82051262, 4139.74358954, 4141.66666646,12.0
4103.33333306, 4097.69230735, 4140.51282031, 4218.58974352, 4126.41025614, 4181.66666653, 4207.82051275, 4202.30769224, 4199.48717935, 4134.87179460, 3743.71794768, 4186.41025628, 4148.46153826, 4146.28205108,12.0
4102.30769196, 4077.17948684, 4132.30769203, 4208.33333327, 4126.79487152, 4164.99999980, 4186.79487166, 4177.82051269, 4177.05128192, 4134.87179460, 3804.87179390, 4172.69230756, 4143.84615364, 4144.35897415,12.0
4106.02564075, 4081.41025607, 4127.05128178, 4212.94871788, 4124.74358947, 4153.84615364, 4172.69230756, 4162.05128185, 4158.33333313, 4134.87179460, 3903.20512744, 4162.30769210, 4136.28205108, 4143.46153826,12.0
4104.48717921, 4094.48717914, 4127.30769203, 4223.33333327, 4125.64102537, 4157.94871774, 4187.82051269, 4167.30769210, 4152.69230749, 4134.87179460, 3917.69230700, 4168.20512807, 4140.38461518, 4143.33333313,12.0
4102.69230742, 4081.02564068, 4114.61538434, 4209.10256404, 4126.66666639, 4146.02564082, 4172.17948704, 4146.79487159, 4126.92307665, 4134.87179460, 3841.66666584, 4150.89743569, 4135.51282031, 4146.28205108,12.0
4106.53846126, 4055.89743548, 4103.84615357, 4205.38461532, 4127.56410229, 4124.87179460, 4142.56410236, 4121.53846126, 4108.33333306, 4134.87179460, 3820.89743500, 4132.30769203, 4124.48717921, 4150.12820492,12.0
4100.25640991, 4066.53846113, 4110.38461511, 4227.43589737, 4131.02564075, 4128.07692280, 4147.69230749, 4140.89743569, 4128.84615357, 4134.87179460, 3872.56410173, 4146.53846133, 4130.12820485, 4146.02564082,12.0
4101.53846119, 4084.10256376, 4114.35897408, 4233.84615385, 4126.92307665, 4138.20512800, 4166.53846133, 4165.76923056, 4151.15384595, 4134.87179460, 3882.43589668, 4156.15384595, 4138.20512800, 4143.97435877,12.0
4106.28205101, 4066.28205087, 4103.46153819, 4219.87179481, 4121.41025614, 4131.92307665, 4163.20512800, 4157.17948697, 4141.15384595, 4134.87179460, 3840.89743507, 4138.97435877, 4129.10256383, 4145.76923056,12.0
4104.74358947, 4045.51282010, 4091.53846119, 4216.28205122, 4124.48717921, 4125.89743562, 4145.38461518, 4138.20512800, 4122.56410229, 4134.87179460, 3819.74358884, 4124.10256383, 4124.23076896, 4146.53846133,12.0
4108.71794844, 4056.66666625, 4095.25640991, 4220.38461532, 4126.79487152, 4135.76923056, 4152.94871774, 4143.84615364, 4132.82051255, 4134.87179460, 3844.48717866, 4127.82051255, 4130.38461511, 4146.66666646,12.0
4106.28205101, 4057.30769189, 4103.46153819, 4216.28205122, 4128.07692280, 4142.69230749, 4175.51282038, 4167.05128185, 4159.61538441, 4134.87179460, 3877.30769155, 4133.71794844, 4127.82051255, 4146.66666646,12.0
4105.51282024, 4047.17948677, 4103.07692280, 4227.69230763, 4129.35897408, 4141.53846133, 4171.28205115, 4172.17948704, 4164.99999980, 4134.87179460, 3899.23076847, 4134.61538434, 4127.05128178, 4148.20512800,12.0
4106.28205101, 4069.23076882, 4105.89743562, 4243.84615385, 4127.56410229, 4151.53846133, 4165.76923056, 4166.02564082, 4158.33333313, 4134.87179460, 3921.53846085, 4149.23076903, 4137.56410236, 4147.05128185,12.0
4100.51282017, 4069.99999966, 4109.10256383, 4220.64102558, 4125.76923050, 4151.92307672, 4171.66666653, 4165.25641005, 4161.15384595, 4134.87179460, 3931.79487110, 4157.94871774, 4141.15384595, 4146.53846133,12.0
4103.07692280, 4057.56410215, 4110.51282024, 4211.15384609, 4125.64102537, 4136.79487159, 4164.23076903, 4167.69230749, 4161.53846133, 4134.87179460, 3935.12820444, 4157.17948697, 4136.41025621, 4147.05128185,12.0
4103.97435870, 4067.56410215, 4120.25640998, 4253.07692308, 4128.20512793, 4125.25640998, 4150.51282031, 4156.79487159, 4150.38461518, 4134.87179460, 3937.69230700, 4169.87179474, 4138.07692287, 4145.25641005,12.0
4105.12820485, 4071.79487145, 4128.84615357, 4279.10256418, 4129.10256383, 4127.69230742, 4147.17948697, 4144.74358954, 4147.05128185, 4134.99999973, 3944.10256348, 4185.89743576, 4144.35897415, 4148.07692287,12.0
4105.25640998, 4071.41025607, 4126.92307665, 4270.38461546, 4126.79487152, 4133.71794844, 4155.12820492, 4153.71794851, 4158.97435877, 4134.99999973, 3965.51281989, 4189.10256397, 4145.25641005, 4146.41025621,12.0
4099.74358940, 4076.41025607, 4122.82051255, 4263.97435898, 4125.64102537, 4131.79487152, 4169.23076910, 4168.97435884, 4160.38461518, 4134.35897408, 3987.30769176, 4183.71794858, 4142.17948697, 4141.92307672,12.0
4104.61538434, 4069.74358940, 4118.07692280, 4256.41025641, 4127.43589716, 4131.53846126, 4169.99999986, 4168.46153833, 4150.51282031, 4135.25640998, 3996.79487124, 4173.33333320, 4141.15384595, 4145.51282031,12.0
4104.99999973, 4053.71794830, 4109.10256383, 4242.94871795, 4127.69230742, 4127.30769203, 4144.74358954, 4147.56410236, 4141.66666646, 4135.12820485, 4012.94871747, 4155.51282031, 4137.69230749, 4145.25641005,12.0
4102.56410229, 4053.07692266, 4106.66666639, 4239.87179488, 4123.33333306, 4117.05128178, 4131.41025614, 4134.35897408, 4132.17948691, 4132.56410229, 4046.92307651, 4149.48717928, 4133.58974332, 4142.82051262,12.0
4106.66666639, 4057.82051241, 4115.51282024, 4245.00000000, 4126.15384588, 4123.46153819, 4159.35897415, 4150.64102544, 4146.92307672, 4132.17948691, 4086.02564068, 4166.02564082, 4138.33333313, 4144.87179467,12.0
4105.64102537, 4063.71794830, 4121.66666639, 4257.82051282, 4130.25640998, 4146.15384595, 4190.12820499, 4178.20512807, 4172.69230756, 4134.23076896, 4126.53846126, 4178.20512807, 4144.10256390, 4146.02564082,12.0
4108.97435870, 4062.69230728, 4117.43589716, 4262.69230770, 4126.02564075, 4144.10256390, 4181.02564089, 4174.74358961, 4164.23076903, 4135.51282031, 4147.43589723, 4169.74358961, 4141.41025621, 4145.51282031,12.0
4108.58974332, 4041.28205087, 4107.56410229, 4245.64102564, 4126.02564075, 4117.69230742, 4153.46153826, 4148.46153826, 4138.07692287, 4134.61538434, 4135.51282031, 4152.69230749, 4131.66666639, 4143.97435877,12.0
4104.74358947, 4033.07692259, 4101.92307658, 4240.25641026, 4127.30769203, 4113.07692280, 4151.41025621, 4144.35897415, 4133.97435870, 4132.05128178, 4135.89743569, 4148.46153826, 4129.10256383, 4144.48717928,12.0
4107.82051255, 4044.48717907, 4101.53846119, 4251.02564103, 4124.48717921, 4125.25640998, 4162.05128185, 4155.89743569, 4141.15384595, 4130.25640998, 4162.30769210, 4155.51282031, 4136.79487159, 4144.61538441,12.0
4105.25640998, 4056.66666625, 4107.30769203, 4261.79487180, 4126.79487152, 4133.84615357, 4171.02564089, 4179.35897422, 4158.07692287, 4130.64102537, 4176.92307679, 4164.74358954, 4146.02564082, 4144.74358954,12.0
4107.69230742, 4068.71794830, 4113.71794844, 4273.46153853, 4127.82051255, 4139.48717928, 4176.92307679, 4193.46153833, 4175.25641012, 4130.89743562, 4185.38461525, 4171.15384602, 4149.74358954, 4147.43589723,12.0
4108.71794844, 4056.53846113, 4102.69230742, 4261.15384616, 4127.43589716, 4128.97435870, 4159.35897415, 4161.92307672, 4155.38461518, 4129.48717921, 4190.89743576, 4155.38461518, 4147.56410236, 4147.05128185,12.0
4102.17948684, 4023.71794824, 4090.89743555, 4241.92307693, 4129.74358947, 4112.56410229, 4135.51282031, 4134.23076896, 4139.10256390, 4129.99999973, 4171.79487166, 4136.02564082, 4145.76923056, 4146.15384595,12.0
4105.38461511, 4027.30769183, 4096.15384581, 4250.00000000, 4129.48717921, 4115.76923050, 4137.69230749, 4147.05128185, 4155.25641005, 4131.15384588, 4152.05128185, 4144.10256390, 4148.33333313, 4144.74358954,12.0
4104.10256383, 4051.15384574, 4098.84615350, 4244.10256411, 4127.94871767, 4119.87179460, 4142.94871774, 4150.51282031, 4150.12820492, 4131.92307665, 4155.89743569, 4148.97435877, 4149.61538441, 4144.35897415,12.0
4104.74358947, 4043.07692266, 4096.15384581, 4232.05128199, 4128.84615357, 4122.43589716, 4145.38461518, 4145.89743569, 4129.99999973, 4131.41025614, 4156.66666646, 4145.76923056, 4152.17948697, 4146.53846133,12.0
4108.20512793, 4032.43589695, 4103.97435870, 4255.00000000, 4130.51282024, 4134.74358947, 4160.89743569, 4165.64102544, 4135.38461518, 4129.99999973, 4154.61538441, 4156.15384595, 4158.71794851, 4143.20512800,12.0
4104.23076896, 4038.84615343, 4108.07692280, 4263.97435898, 4128.84615357, 4132.17948691, 4168.58974345, 4173.20512807, 4143.84615364, 4129.74358947, 4168.58974345, 4156.15384595, 4156.53846133, 4143.97435877,12.0
4108.71794844, 4029.87179439, 4093.07692273, 4239.10256411, 4128.07692280, 4120.25640998, 4153.33333313, 4157.30769210, 4133.84615357, 4131.41025614, 4151.41025621, 4131.79487152, 4148.33333313, 4146.53846133,12.0
4108.20512793, 4024.10256362, 4084.23076889, 4235.25641026, 4131.28205101, 4123.58974332, 4151.02564082, 4158.84615364, 4136.15384595, 4129.61538434, 4096.15384581, 4122.43589716, 4148.71794851, 4145.51282031,12.0
4106.79487152, 4036.02564054, 4094.35897402, 4255.25641026, 4128.58974332, 4132.56410229, 4163.33333313, 4168.71794858, 4149.23076903, 4128.46153819, 4065.51282010, 4134.87179460, 4153.33333313, 4147.17948697,12.0
4112.69230742, 4029.23076875, 4099.99999966, 4261.53846154, 4127.43589716, 4137.30769210, 4165.38461518, 4167.94871774, 4151.15384595, 4133.71794844, 4050.51282010, 4137.94871774, 4151.41025621, 4144.99999980,12.0
4104.35897408, 4012.17948670, 4089.99999966, 4256.15384616, 4131.66666639, 4130.76923050, 4154.74358954, 4159.61538441, 4146.53846133, 4135.51282031, 4043.33333292, 4130.89743562, 4149.99999980, 4145.51282031,12.0
4109.10256383, 4008.20512772, 4076.53846119, 4242.82051282, 4131.15384588, 4114.10256383, 4144.87179467, 4144.74358954, 4127.17948691, 4131.53846126, 4084.61538427, 4113.58974332, 4147.30769210, 4144.99999980,12.0
4116.28205101, 4008.58974311, 4074.23076889, 4241.15384616, 4129.23076896, 4122.17948691, 4162.30769210, 4147.82051262, 4114.74358947, 4132.43589716, 4146.28205108, 4103.07692280, 4142.43589723, 4143.33333313,12.0
4107.94871767, 4009.87179439, 4075.76923043, 4251.28205129, 4128.97435870, 4136.79487159, 4172.56410243, 4157.17948697, 4127.05128178, 4136.15384595, 4179.35897422, 4109.99999973, 4146.79487159, 4149.23076903,12.0
4114.61538434, 4017.94871747, 4078.20512786, 4251.66666667, 4131.02564075, 4119.10256383, 4148.97435877, 4151.15384595, 4138.07692287, 4134.35897408, 4197.17948704, 4116.28205101, 4144.48717928, 4146.28205108,12.0
4109.23076896, 4031.15384567, 4091.66666632, 4263.58974359, 4128.46153819, 4110.51282024, 4144.61538441, 4158.07692287, 4143.84615364, 4132.43589716, 4213.84615378, 4134.35897408, 4146.15384595, 4146.53846133,12.0
4105.12820485, 4045.12820472, 4110.25640998, 4285.25641033, 4124.48717921, 4131.53846126, 4178.46153833, 4182.82051269, 4163.33333313, 4133.71794844, 4237.94871795, 4161.66666646, 4160.25641005, 4149.99999980,12.0
4113.07692280, 4040.12820472, 4113.71794844, 4287.56410264, 4128.07692280, 4138.20512800, 4191.53846140, 4191.02564089, 4177.05128192, 4134.23076896, 4279.61538469, 4166.15384595, 4162.43589723, 4146.28205108,12.0
4102.94871767, 4021.28205080, 4097.82051248, 4270.25641033, 4125.64102537, 4127.43589716, 4168.33333320, 4175.12820499, 4155.25641005, 4134.35897408, 4290.76923084, 4143.20512800, 4153.20512800, 4148.46153826,12.0
4109.87179460, 4022.94871747, 4086.15384581, 4262.05128206, 4123.71794844, 4127.82051255, 4151.66666646, 4151.15384595, 4126.15384588, 4134.23076896, 4254.48717949, 4116.92307665, 4139.48717928, 4144.74358954,12.0
4111.79487152, 4031.79487131, 4081.66666632, 4260.64102564, 4127.56410229, 4128.46153819, 4146.79487159, 4134.48717921, 4117.05128178, 4134.23076896, 4230.51282045, 4103.71794844, 4131.41025614, 4142.56410236,12.0
4105.76923050, 4018.97435849, 4077.05128171, 4244.61538462, 4127.82051255, 4119.87179460, 4154.23076903, 4150.25641005, 4122.05128178, 4134.35897408, 4212.94871788, 4100.25640991, 4133.97435870, 4143.84615364,12.0
4112.17948691, 4009.35897388, 4080.38461504, 4236.41025641, 4129.87179460, 4107.94871767, 4154.48717928, 4161.92307672, 4126.79487152, 4134.23076896, 4186.79487166, 4102.94871767, 4134.99999973, 4139.87179467,12.0
4101.53846119, 4018.97435849, 4087.30769196, 4247.82051282, 4130.89743562, 4097.30769196, 4134.74358947, 4142.05128185, 4124.23076896, 4134.23076896, 4204.99999993, 4116.79487152, 4137.94871774, 4145.89743569,12.0
4108.20512793, 4022.56410208, 4089.23076889, 4254.74358975, 4133.84615357, 4099.87179453, 4124.23076896, 4130.51282024, 4121.41025614, 4134.23076896, 4241.28205129, 4127.56410229, 4145.25641005, 4147.05128185,12.0
4113.71794844, 4022.94871747, 4087.17948684, 4252.43589744, 4132.69230742, 4109.87179460, 4135.89743569, 4139.87179467, 4121.41025614, 4134.23076896, 4233.33333327, 4123.84615357, 4145.51282031, 4143.84615364,12.0
4105.76923050, 4041.02564061, 4094.48717914, 4266.15384616, 4125.51282024, 4115.89743562, 4147.05128185, 4147.17948697, 4129.35897408, 4134.23076896, 4213.46153840, 4126.92307665, 4144.35897415, 4144.48717928,12.0
4115.51282024, 4047.69230728, 4099.35897402, 4277.43589751, 4128.07692280, 4115.38461511, 4141.92307672, 4140.38461518, 4128.20512793, 4134.23076896, 4203.71794865, 4129.99999973, 4142.82051262, 4139.99999980,12.0
4111.41025614, 4037.56410215, 4092.82051248, 4275.25641033, 4129.35897408, 4116.02564075, 4150.64102544, 4146.02564082, 4124.99999973, 4134.23076896, 4196.15384602, 4130.38461511, 4141.92307672, 4143.07692287,12.0
4113.07692280, 4038.46153805, 4098.71794837, 4272.69230777, 4128.84615357, 4117.43589716, 4167.17948697, 4162.94871774, 4136.92307672, 4134.23076896, 4196.92307679, 4145.25641005, 4149.48717928, 4145.12820492,12.0
4116.92307665, 4035.38461490, 4098.97435863, 4250.51282052, 4131.92307665, 4108.71794844, 4163.20512800, 4158.58974339, 4131.28205101, 4134.23076896, 4185.51282038, 4142.56410236, 4151.41025621, 4142.82051262,12.0
4111.41025614, 4019.74358926, 4077.30769196, 4225.25641019, 4128.46153819, 4097.17948684, 4139.99999980, 4126.92307665, 4096.92307658, 4134.23076896, 4156.15384595, 4105.25640998, 4135.38461518, 4146.92307672,12.0
4115.51282024, 4018.07692259, 4070.89743555, 4233.33333327, 4127.43589716, 4091.53846119, 4124.87179460, 4110.38461511, 4086.15384581, 4134.23076896, 4146.28205108, 4090.76923043, 4125.76923050, 4148.07692287,12.0
4108.71794844, 4019.74358926, 4080.25640991, 4251.79487180, 4129.23076896, 4081.66666632, 4123.07692280, 4124.35897408, 4103.33333306, 4134.23076896, 4154.35897415, 4107.82051255, 4133.97435870, 4148.07692287,12.0
4109.87179460, 4010.25640977, 4072.69230735, 4242.43589744, 4128.07692280, 4073.71794837, 4116.41025614, 4118.71794844, 4094.10256376, 4134.23076896, 4147.05128185, 4100.12820478, 4131.79487152, 4146.66666646,12.0
4111.79487152, 4002.94871740, 4063.58974318, 4216.79487173, 4128.97435870, 4079.10256376, 4117.30769203, 4113.97435870, 4086.15384581, 4134.23076896, 4139.10256390, 4081.92307658, 4126.53846126, 4145.89743569,12.0
4106.28205101, 4004.87179439, 4070.51282017, 4217.56410250, 4128.20512793, 4083.58974325, 4125.51282024, 4138.84615364, 4114.99999973, 4134.23076896, 4146.41025621, 4089.99999966, 4138.07692287, 4147.30769210,12.0
4111.79487152, 4012.69230721, 4073.58974325, 4226.15384609, 4127.56410229, 4076.15384581, 4123.71794844, 4144.23076903, 4127.30769203, 4134.23076896, 4145.89743569, 4099.99999966, 4139.61538441, 4142.94871774,12.0
4106.79487152, 4016.66666618, 4069.87179453, 4214.99999993, 4129.99999973, 4063.97435856, 4119.48717921, 4126.28205101, 4109.99999973, 4134.23076896, 4138.97435877, 4098.07692273, 4132.30769203, 4144.10256390,12.0
4106.79487152, 4013.58974311, 4077.82051248, 4208.33333327, 4130.89743562, 4072.82051248, 4132.05128178, 4132.69230742, 4112.69230742, 4134.23076896, 4158.20512800, 4110.25640998, 4137.94871774, 4146.41025621,12.0
4111.53846126, 4015.76923029, 4092.56410222, 4216.41025634, 4129.10256383, 4090.76923043, 4141.15384595, 4152.17948697, 4133.46153819, 4134.23076896, 4196.15384602, 4128.20512793, 4143.58974339, 4143.33333313,12.0
4109.87179460, 4031.92307644, 4099.99999966, 4232.43589737, 4127.94871767, 4090.64102530, 4140.38461518, 4156.66666646, 4139.74358954, 4134.23076896, 4212.17948711, 4134.87179460, 4138.58974339, 4144.23076903,12.0
4113.71794844, 4047.56410215, 4098.07692273, 4252.05128206, 4127.82051255, 4092.05128171, 4149.74358954, 4147.82051262, 4123.71794844, 4134.35897408, 4198.33333320, 4129.10256383, 4133.97435870, 4142.94871774,12.0
4112.94871767, 4029.61538413, 4087.30769196, 4241.92307693, 4128.71794844, 4092.69230735, 4140.64102544, 4119.87179460, 4094.10256376, 4134.99999973, 4180.25641012, 4108.07692280, 4134.23076896, 4142.82051262,12.0
4115.12820485, 4004.74358926, 4074.35897402, 4206.53846147, 4128.46153819, 4071.02564068, 4106.28205101, 4092.05128171, 4077.82051248, 4134.35897408, 4166.79487159, 4085.76923043, 4129.87179460, 4144.61538441,12.0
4111.53846126, 4014.23076875, 4069.87179453, 4204.23076917, 4127.17948691, 4057.82051241, 4105.25640998, 4101.15384581, 4089.23076889, 4133.20512793, 4163.71794851, 4077.56410222, 4121.02564075, 4144.10256390,12.0
4108.97435870, 4002.82051227, 4067.17948677, 4215.76923070, 4127.43589716, 4067.69230728, 4125.12820485, 4114.99999973, 4090.64102530, 4136.28205108, 4177.94871781, 4071.41025607, 4118.71794844, 4146.15384595,12.0
4117.30769203, 3995.38461483, 4072.56410222, 4217.43589737, 4128.97435870, 4075.38461504, 4120.89743562, 4113.46153819, 4084.99999966, 4133.33333306, 4186.66666653, 4081.41025607, 4128.46153819, 4147.05128185,12.0
4111.92307665, 4028.71794824, 4083.07692273, 4233.46153840, 4129.87179460, 4076.28205094, 4122.30769203, 4121.92307665, 4097.69230735, 4122.69230742, 4178.20512807, 4103.46153819, 4134.23076896, 4144.61538441,12.0
4112.56410229, 4032.43589695, 4083.97435863, 4243.20512821, 4129.99999973, 4080.38461504, 4138.33333313, 4134.99999973, 4098.07692273, 4126.15384588, 4174.87179474, 4099.99999966, 4129.61538434, 4143.84615364,12.0
4113.07692280, 3996.41025586, 4076.53846119, 4233.84615385, 4130.51282024, 4076.92307658, 4129.61538434, 4129.61538434, 4085.76923043, 4135.12820485, 4172.43589730, 4080.25640991, 4124.23076896, 4144.74358954,12.0
4104.99999973, 3996.53846099, 4078.84615350, 4233.20512814, 4128.07692280, 4072.05128171, 4110.25640998, 4127.69230742, 4097.56410222, 4131.15384588, 4162.56410236, 4086.53846119, 4121.66666639, 4147.94871774,12.0
4109.99999973, 4018.07692259, 4088.20512786, 4245.25641026, 4126.02564075, 4077.82051248, 4117.43589716, 4139.99999980, 4112.94871767, 4128.84615357, 4145.51282031, 4106.15384588, 4131.66666639, 4148.07692287,12.0
4107.94871767, 4000.76923022, 4084.48717914, 4251.41025641, 4127.82051255, 4077.94871761, 4132.43589716, 4138.71794851, 4106.53846126, 4135.64102544, 4129.61538434, 4102.17948684, 4146.53846133, 4146.92307672,12.0
4107.94871767, 3984.87179432, 4076.66666632, 4253.07692308, 4127.56410229, 4069.23076882, 4123.71794844, 4130.89743562, 4098.07692273, 4136.15384595, 4131.79487152, 4090.12820478, 4138.33333313, 4147.56410236,12.0
4113.20512793, 3988.07692252, 4077.56410222, 4247.82051282, 4129.10256383, 4067.82051241, 4106.53846126, 4124.10256383, 4091.79487145, 4132.82051255, 4116.15384588, 4087.94871761, 4114.99999973, 4144.48717928,12.0
4107.94871767, 4000.38461483, 4084.48717914, 4250.00000000, 4130.64102537, 4076.53846119, 4113.97435870, 4112.17948691, 4088.33333299, 4134.61538434, 4087.69230735, 4091.66666632, 4115.25640998, 4145.12820492,12.0
4112.56410229, 3990.76923022, 4087.43589709, 4265.76923077, 4129.10256383, 4074.48717914, 4124.87179460, 4103.33333306, 4086.53846119, 4135.64102544, 4081.66666632, 4096.28205094, 4134.87179460, 4146.53846133,12.0
4112.17948691, 3957.94871733, 4086.28205094, 4269.23076930, 4129.74358947, 4069.99999966, 4119.74358947, 4108.58974332, 4074.48717914, 4135.38461518, 4068.46153805, 4098.20512786, 4138.71794851, 4145.25641005,12.0
4108.71794844, 3974.61538406, 4097.17948684, 4282.56410264, 4129.23076896, 4089.23076889, 4141.02564082, 4126.66666639, 4086.41025607, 4134.74358947, 4050.12820472, 4109.10256383, 4134.10256383, 4146.79487159,12.0
4113.71794844, 3983.84615329, 4099.48717914, 4290.51282059, 4127.94871767, 4091.79487145, 4147.56410236, 4127.05128178, 4104.23076896, 4134.23076896, 4025.89743541, 4110.38461511, 4131.28205101, 4144.99999980,12.0
4109.48717921, 3949.23076861, 4086.79487145, 4251.28205129, 4130.64102537, 4060.64102523, 4106.92307665, 4118.33333306, 4091.79487145, 4135.38461518, 3873.84615309, 4092.30769196, 4131.28205101, 4143.20512800,12.0
4114.23076896, 3941.02564040, 4082.43589709, 4231.28205122, 4131.02564075, 4054.10256369, 4100.76923043, 4124.35897408, 4087.30769196, 4134.23076896, 3821.15384525, 4081.53846119, 4135.25640998, 4144.74358954,12.0
4115.51282024, 3950.76923015, 4085.25640991, 4265.12820513, 4128.33333306, 4072.82051248, 4128.07692280, 4132.56410229, 4105.89743562, 4133.58974332, 3956.02564040, 4084.23076889, 4137.82051262, 4145.76923056,12.0
4109.10256383, 3937.05128136, 4084.61538427, 4273.20512828, 4129.35897408, 4061.15384574, 4111.28205101, 4122.56410229, 4095.51282017, 4136.53846133, 3818.97435807, 4083.84615350, 4135.76923056, 4147.82051262,12.0
4115.25640998, 3943.20512758, 4095.51282017, 4264.61538462, 4129.10256383, 4048.07692266, 4093.33333299, 4122.17948691, 4083.97435863, 4131.53846126, 4024.99999952, 4094.23076889, 4133.97435870, 4146.92307672,12.0
4117.43589716, 3961.15384553, 4104.48717921, 4282.94871802, 4128.20512793, 4066.66666625, 4115.89743562, 4134.99999973, 4102.69230742, 4123.71794844, 5787.56410583, 4105.89743562, 4136.66666646, 4145.76923056,12.0
4127.82051255, 3948.84615322, 4087.56410222, 4276.15384623, 4128.07692280, 4070.25640991, 4116.66666639, 4119.23076896, 4094.74358940, 4127.69230742, 8187.30770065, 4083.07692273, 4128.97435870, 4147.94871774,12.0
4128.46153819, 3935.25640957, 4076.41025607, 4250.76923077, 4127.56410229, 4057.05128164, 4098.71794837, 4100.51282017, 4067.56410215, 4133.71794844, 7692.82052012, 4059.87179446, 4115.64102537, 4147.43589723,12.0
4111.79487152, 3931.79487110, 4086.79487145, 4260.38461539, 4126.41025614, 4062.43589702, 4110.51282024, 4106.92307665, 4065.51282010, 4132.94871767, 3799.87179390, 4077.17948684, 4123.97435870, 4144.87179467,12.0
4106.66666639, 3936.02564033, 4100.64102530, 4277.17948725, 4127.94871767, 4076.53846119, 4126.92307665, 4119.74358947, 4085.51282017, 4133.71794844, 690.76922327, 4108.58974332, 4138.58974339, 4144.99999980,12.0
4098.20512786, 3927.69230700, 4096.41025607, 4263.20512821, 4132.05128178, 4068.97435856, 4109.87179460, 4120.25640998, 4095.12820478, 4136.28205108, 491.02563304, 4103.84615357, 4137.56410236, 4146.02564082,12.0
4097.05128171, 3917.94871726, 4083.20512786, 4237.82051282, 4131.92307665, 4061.79487138, 4098.20512786, 4125.38461511, 4088.58974325, 4134.99999973, 889.74358266, 4080.64102530, 4133.33333306, 4143.97435877,12.0
4098.33333299, 3922.94871726, 4082.94871761, 4222.17948711, 4128.58974332, 4066.28205087, 4109.74358947, 4129.48717921, 4087.69230735, 4135.25640998, 550.12819728, 4077.82051248, 4134.48717921, 4142.56410236,12.0
4092.30769196, 3918.58974290, 4091.02564068, 4220.51282045, 4126.66666639, 4054.74358933, 4103.46153819, 4115.76923050, 4095.76923043, 4135.64102544, 550.12819728, 4086.66666632, 4136.41025621, 4146.66666646,12.0
4093.58974325, 3914.48717880, 4096.79487145, 4227.17948711, 4128.07692280, 4053.07692266, 4094.99999966, 4114.74358947, 4103.84615357, 4133.97435870, 797.82050553, 4097.30769196, 4143.20512800, 4145.25641005,12.0
4088.84615350, 3918.84615316, 4099.48717914, 4226.92307686, 4129.48717921, 4072.82051248, 4111.66666639, 4127.17948691, 4105.38461511, 4134.48717921, 813.33332604, 4104.35897408, 4142.05128185, 4142.17948697,12.0
4090.25640991, 3915.64102495, 4098.58974325, 4218.07692301, 4128.46153819, 4071.28205094, 4117.17948691, 4120.51282024, 4104.23076896, 4134.61538434, 797.43589014, 4098.71794837, 4131.53846126, 4146.15384595,12.0
4092.69230735, 3909.99999931, 4095.64102530, 4208.58974352, 4129.35897408, 4053.58974318, 4104.23076896, 4116.53846126, 4094.48717914, 4134.35897408, 805.89742861, 4091.53846119, 4131.02564075, 4145.12820492,12.0
4085.38461504, 3929.87179418, 4099.10256376, 4210.38461532, 4129.87179460, 4056.41025600, 4104.10256383, 4123.33333306, 4082.17948684, 4134.48717921, 803.84614655, 4092.05128171, 4132.82051255, 4141.02564082,12.0
4088.84615350, 3962.05128143, 4099.87179453, 4222.43589737, 4129.61538434, 4061.41025600, 4108.33333306, 4101.92307658, 4080.25640991, 4134.48717921, 803.33332604, 4087.69230735, 4129.99999973, 4143.84615364,12.0
4086.79487145, 3979.74358919, 4096.53846119, 4222.94871788, 4130.38461511, 4056.79487138, 4102.43589709, 4082.94871761, 4088.58974325, 4134.48717921, 805.25640296, 4088.71794837, 4135.25640998, 4147.56410236,12.0
4084.87179453, 3987.05128150, 4108.33333306, 4217.30769224, 4128.84615357, 4066.66666625, 4099.10256376, 4107.94871767, 4096.66666632, 4134.48717921, 804.10255681, 4108.46153819, 4140.12820492, 4145.12820492,12.0
4087.17948684, 4004.74358926, 4123.84615357, 4226.92307686, 4127.56410229, 4076.66666632, 4116.02564075, 4135.89743569, 4105.38461511, 4134.48717921, 805.76922348, 4122.94871767, 4140.76923056, 4142.43589723,12.0
4076.02564068, 4025.76923029, 4121.53846126, 4220.38461532, 4129.61538434, 4063.46153805, 4127.69230742, 4136.53846133, 4117.30769203, 4134.48717921, 804.61537732, 4118.07692280, 4148.58974339, 4145.64102544,12.0
4076.41025607, 4009.87179439, 4114.23076896, 4187.17948704, 4129.87179460, 4055.89743548, 4121.15384588, 4141.28205108, 4123.33333306, 4134.48717921, 804.74358245, 4111.53846126, 4149.35897415, 4145.89743569,12.0
4075.12820478, 3991.66666611, 4117.69230742, 4181.15384602, 4128.71794844, 4079.99999966, 4128.58974332, 4163.84615364, 4132.69230742, 4134.48717921, 803.97435168, 4115.38461511, 4136.53846133, 4142.94871774,12.0
4069.61538420, 4008.58974311, 4109.35897408, 4186.92307679, 4128.46153819, 4095.64102530, 4131.02564075, 4156.53846133, 4134.61538434, 4134.48717921, 803.46153117, 4099.87179453, 4133.71794844, 4143.84615364,12.0
4073.97435863, 4028.97435849, 4092.43589709, 4164.48717928, 4128.58974332, 4072.43589709, 4122.17948691, 4129.61538434, 4121.53846126, 4134.48717921, 799.35896707, 4075.89743555, 4138.46153826, 4145.76923056,12.0
4069.10256369, 4030.76923029, 4099.23076889, 4154.99999980, 4128.84615357, 4059.99999959, 4130.25640998, 4134.10256383, 4122.43589716, 4134.48717921, 693.84614635, 4087.43589709, 4139.48717928, 4147.17948697,12.0
4068.20512779, 4021.15384567, 4110.76923050, 4162.56410236, 4130.38461511, 4072.82051248, 4119.23076896, 4132.82051255, 4120.89743562, 4134.48717921, 471.15383817, 4099.35897402, 4137.30769210, 4145.89743569,12.0
4066.41025600, 4017.56410208, 4100.12820478, 4152.17948697, 4132.43589716, 4070.38461504, 4090.38461504, 4104.74358947, 4098.58974325, 4134.48717921, 735.51281308, 4082.82051248, 4134.35897408, 4141.28205108,12.0
4060.89743548, 4037.43589702, 4098.84615350, 4154.74358954, 4130.51282024, 4062.43589702, 4100.38461504, 4101.92307658, 4097.43589709, 4134.48717921, 715.64101814, 4084.61538427, 4136.41025621, 4142.43589723,12.0
4060.89743548, 4049.74358933, 4104.48717921, 4155.38461518, 4128.97435870, 4058.58974318, 4100.51282017, 4102.30769196, 4097.94871761, 4134.48717921, 291.41024801, 4088.58974325, 4136.79487159, 4144.10256390,12.0
4065.89743548, 4031.79487131, 4092.69230735, 4127.82051255, 4132.17948691, 4044.87179446, 4074.74358940, 4091.15384581, 4084.10256376, 4134.48717921, 2221.92307262, 4069.61538420, 4132.82051255, 4142.69230749,12.0
4092.69230735, 4040.12820472, 4102.56410229, 4136.02564082, 4131.53846126, 4054.48717907, 4104.23076896, 4124.35897408, 4112.94871767, 4134.48717921, 6313.97436336, 4089.35897402, 4135.51282031, 4144.74358954,12.0
4103.84615357, 4057.69230728, 4121.28205101, 4156.41025621, 4127.69230742, 4072.94871761, 4131.79487152, 4147.05128185, 4134.99999973, 4134.48717921, 8286.15385470, 4115.25640998, 4139.61538441, 4146.28205108,12.0
4096.92307658, 4036.28205080, 4108.20512793, 4125.38461511, 4127.69230742, 4052.82051241, 4095.51282017, 4103.84615357, 4092.82051248, 4134.74358947, 7719.35898173, 4085.76923043, 4136.41025621, 4145.89743569,12.0
4112.56410229, 4035.12820465, 4100.64102530, 4105.38461511, 4129.99999973, 4044.23076882, 4085.64102530, 4084.61538427, 4081.02564068, 4134.10256383, 7607.43590453, 4075.12820478, 4135.64102544, 4145.51282031,12.0
4115.38461511, 4064.48717907, 4112.82051255, 4122.94871767, 4129.87179460, 4067.17948677, 4109.61538434, 4113.58974332, 4123.07692280, 4134.61538434, 7942.94872580, 4105.76923050, 4138.97435877, 4144.35897415,12.0
4113.71794844, 4066.15384574, 4113.07692280, 4114.10256383, 4128.33333306, 4064.99999959, 4114.74358947, 4122.17948691, 4129.87179460, 4135.38461518, 7718.07693045, 4111.28205101, 4140.25641005, 4144.87179467,12.0
4123.58974332, 4062.94871754, 4116.41025614, 4101.53846119, 4130.64102537, 4061.92307651, 4127.56410229, 4132.17948691, 4129.10256383, 4132.82051255, 7584.10257119, 4112.69230742, 4143.46153826, 4146.02564082,12.0
4122.05128178, 4099.48717914, 4137.17948697, 4124.87179460, 4132.43589716, 4090.38461504, 4143.20512800, 4166.66666646, 4169.74358961, 4132.43589716, 7596.66667376, 4144.99999980, 4151.41025621, 4145.25641005,12.0
4126.41025614, 4124.23076896, 4141.79487159, 4124.61538434, 4128.58974332, 4099.23076889, 4121.15384588, 4164.48717928, 4182.56410243, 4134.10256383, 7601.92308401, 4149.48717928, 4158.07692287, 4143.97435877,12.0
4129.87179460, 4093.84615350, 4124.48717921, 4088.46153812, 4126.66666639, 4067.05128164, 4095.89743555, 4128.20512793, 4139.87179467, 4135.12820485, 7594.61539171, 4110.64102537, 4150.12820492, 4144.48717928,12.0
4135.64102544, 4073.97435863, 4117.94871767, 4083.58974325, 4127.30769203, 4054.61538420, 4112.05128178, 4121.92307665, 4123.20512793, 4135.89743569, 7599.74359684, 4098.33333299, 4141.53846133, 4145.76923056,12.0
4140.51282031, 4100.12820478, 4129.61538434, 4107.30769203, 4128.33333306, 4084.61538427, 4139.10256390, 4143.71794851, 4149.87179467, 4128.84615357, 7596.79487889, 4126.66666639, 4151.53846133, 4144.61538441,12.0
4133.07692280, 4114.10256383, 4134.10256383, 4103.84615357, 4128.84615357, 4097.30769196, 4145.38461518, 4148.07692287, 4148.58974339, 4124.10256383, 7597.94872504, 4134.35897408, 4153.71794851, 4144.48717928,12.0
4141.66666646, 4097.82051248, 4122.82051255, 4085.51282017, 4127.94871767, 4081.79487145, 4139.48717928, 4128.46153819, 4127.17948691, 4127.30769203, 7597.17949427, 4107.82051255, 4141.66666646, 4146.02564082,12.0
4147.30769210, 4102.56410229, 4120.12820485, 4090.12820478, 4129.48717921, 4083.07692273, 4135.76923056, 4121.92307665, 4133.07692280, 4124.48717921, 7598.97436607, 4104.61538434, 4141.79487159, 4145.89743569,12.0
4147.82051262, 4124.10256383, 4130.64102537, 4100.25640991, 4129.48717921, 4100.89743555, 4134.99999973, 4134.87179460, 4145.25641005, 4121.92307665, 7646.15385331, 4127.17948691, 4148.97435877, 4147.05128185,12.0
4158.07692287, 4120.25640998, 4130.38461511, 4091.66666632, 4125.76923050, 4099.48717914, 4127.43589716, 4128.20512793, 4141.41025621, 4133.07692280, 7813.20513578, 4124.23076896, 4141.02564082, 4146.02564082,12.0
4158.46153826, 4108.46153819, 4121.41025614, 4076.92307658, 4128.33333306, 4074.61538427, 4113.84615357, 4115.89743562, 4136.66666646, 4138.97435877, 7719.87180224, 4103.33333306, 4132.56410229, 4143.58974339,12.0
4166.02564082, 4115.89743562, 4125.12820485, 4084.10256376, 4132.05128178, 4065.76923036, 4106.41025614, 4133.58974332, 4137.94871774, 4133.46153819, 7545.64103259, 4113.58974332, 4137.17948697, 4144.10256390,12.0
4174.10256397, 4123.20512793, 4133.07692280, 4089.10256376, 4126.53846126, 4078.20512786, 4116.15384588, 4148.71794851, 4143.07692287, 4133.97435870, 7973.58975145, 4134.35897408, 4138.97435877, 4144.61538441,12.0
4170.89743576, 4116.66666639, 4131.79487152, 4065.76923036, 4124.10256383, 4084.23076889, 4128.20512793, 4140.12820492, 4148.07692287, 4135.12820485, 7135.00000612, 4127.56410229, 4128.33333306, 4145.51282031,12.0
4164.74358954, 4110.12820485, 4126.66666639, 4046.79487138, 4128.84615357, 4081.15384581, 4122.17948691, 4128.33333306, 4143.46153826, 4132.82051255, 4202.94871788, 4113.46153819, 4122.05128178, 4145.89743569,12.0
4152.30769210, 4107.82051255, 4119.35897408, 4040.12820472, 4126.92307665, 4084.74358940, 4113.58974332, 4122.94871767, 4134.61538434, 4133.33333306, 2426.66666278, 4107.82051255, 4133.46153819, 4145.89743569,12.0
4154.61538441, 4126.92307665, 4123.97435870, 4040.76923036, 4123.84615357, 4103.71794844, 4140.89743569, 4134.99999973, 4145.12820492, 4133.33333306, 2961.92307422, 4115.89743562, 4142.05128185, 4146.79487159,12.0
4153.97435877, 4154.99999980, 4137.69230749, 4051.28205087, 4127.94871767, 4114.10256383, 4168.46153833, 4147.82051262, 4159.35897415, 4133.20512793, 3282.05128004, 4129.87179460, 4136.28205108, 4146.02564082,12.0
4147.30769210, 4158.46153826, 4140.25641005, 4049.61538420, 4129.23076896, 4107.05128178, 4154.99999980, 4145.12820492, 4146.66666646, 4133.33333306, 2932.82051004, 4132.43589716, 4136.53846133, 4144.48717928,12.0
4152.30769210, 4155.64102544, 4136.28205108, 4031.79487131, 4124.87179460, 4103.84615357, 4138.58974339, 4138.58974339, 4136.79487159, 4133.33333306, 3098.20512578, 4127.56410229, 4138.58974339, 4145.51282031,12.0
4146.41025621, 4166.15384595, 4140.64102544, 4031.28205080, 4125.12820485, 4107.30769203, 4132.94871767, 4129.35897408, 4151.28205108, 4133.33333306, 3288.84615183, 4131.15384588, 4131.66666639, 4146.53846133,12.0
4149.23076903, 4181.15384602, 4149.35897415, 4039.23076882, 4127.43589716, 4105.38461511, 4133.71794844, 4124.10256383, 4160.25641005, 4133.33333306, 3265.25640818, 4143.20512800, 4133.58974332, 4145.38461518,12.0
4152.56410236, 4183.07692294, 4146.53846133, 4024.48717900, 4126.79487152, 4096.02564068, 4141.15384595, 4135.51282031, 4151.66666646, 4133.33333306, 3322.43589549, 4144.23076903, 4136.02564082, 4144.99999980,12.0
4142.82051262, 4166.66666646, 4132.30769203, 4003.33333278, 4126.53846126, 4084.35897402, 4117.69230742, 4129.10256383, 4141.15384595, 4133.33333306, 3319.23076729, 4121.28205101, 4123.46153819, 4145.12820492,12.0
4147.17948697, 4151.15384595, 4122.56410229, 3997.56410201, 4126.41025614, 4082.30769196, 4085.76923043, 4105.25640998, 4132.05128178, 4133.33333306, 3333.97435703, 4097.17948684, 4118.58974332, 4144.23076903,12.0
4147.82051262, 4164.87179467, 4128.71794844, 4011.66666618, 4126.79487152, 4099.99999966, 4118.20512793, 4123.07692280, 4136.28205108, 4133.33333306, 3349.74358787, 4107.30769203, 4127.17948691, 4144.35897415,12.0
4147.56410236, 4183.07692294, 4136.41025621, 4020.64102516, 4127.82051255, 4112.56410229, 4156.66666646, 4140.76923056, 4143.84615364, 4133.33333306, 3359.87179300, 4118.97435870, 4122.69230742, 4144.10256390,12.0
4150.51282031, 4180.64102551, 4137.17948697, 4016.41025593, 4127.82051255, 4107.82051255, 4140.76923056, 4119.23076896, 4137.82051262, 4133.33333306, 3380.12820326, 4112.69230742, 4123.71794844, 4142.17948697,12.0
4147.43589723, 4183.46153833, 4141.28205108, 4018.71794824, 4126.41025614, 4109.61538434, 4134.10256383, 4110.76923050, 4134.35897408, 4133.33333306, 3389.48717768, 4117.82051255, 4134.48717921, 4145.76923056,12.0
4151.79487159, 4191.66666653, 4141.28205108, 4020.25640977, 4126.28205101, 4112.94871767, 4146.41025621, 4118.71794844, 4136.79487159, 4133.33333306, 3382.43589563, 4122.69230742, 4125.38461511, 4149.23076903,12.0
4146.92307672, 4188.97435884, 4139.99999980, 4017.30769183, 4128.84615357, 4107.82051255, 4144.74358954, 4128.20512793, 4147.94871774, 4133.33333306, 3378.46153659, 4124.87179460, 4122.43589716, 4145.89743569,12.0
4145.76923056, 4175.89743576, 4138.84615364, 4010.64102516, 4128.46153819, 4098.07692273, 4125.12820485, 4124.74358947, 4148.84615364, 4133.33333306, 3394.48717768, 4123.58974332, 4134.87179460, 4143.84615364,12.0
4152.43589723, 4172.56410243, 4131.02564075, 4001.79487124, 4125.89743562, 4079.10256376, 4098.20512786, 4094.35897402, 4123.97435870, 4133.33333306, 3397.69230589, 4107.17948691, 4127.43589716, 4144.99999980,12.0
4143.07692287, 4185.64102551, 4128.33333306, 3998.84615329, 4126.28205101, 4071.02564068, 4090.89743555, 4072.43589709, 4109.61538434, 4133.33333306, 3392.69230589, 4099.35897402, 4116.66666639, 4145.25641005,12.0
4145.38461518, 4190.76923063, 4133.07692280, 4006.28205080, 4127.69230742, 4089.74358940, 4108.58974332, 4093.20512786, 4125.12820485, 4133.33333306, 3403.33333153, 4111.53846126, 4124.61538434, 4145.38461518,12.0
4147.43589723, 4168.33333320, 4124.35897408, 3997.17948663, 4127.43589716, 4095.25640991, 4123.46153819, 4114.10256383, 4132.43589716, 4133.33333306, 3409.23076743, 4104.35897408, 4124.35897408, 4147.43589723,12.0
4140.76923056, 4142.82051262, 4108.71794844, 3967.05128143, 4125.64102537, 4083.20512786, 4118.97435870, 4094.23076889, 4113.46153819, 4133.33333306, 3406.41025461, 4080.51282017, 4117.43589716, 4148.58974339,12.0
4142.05128185, 4145.64102544, 4108.20512793, 3968.07692246, 4124.23076896, 4094.23076889, 4117.69230742, 4079.99999966, 4101.41025607, 4133.33333306, 3412.17948538, 4075.89743555, 4120.89743562, 4145.38461518,12.0
4137.69230749, 4169.99999986, 4119.99999973, 3997.82051227, 4126.02564075, 4105.38461511, 4129.74358947, 4100.51282017, 4112.69230742, 4133.33333306, 3423.33333160, 4085.51282017, 4121.53846126, 4143.58974339,12.0
4140.76923056, 4186.79487166, 4129.99999973, 4004.74358926, 4126.28205101, 4096.15384581, 4137.17948697, 4108.58974332, 4126.66666639, 4133.33333306, 3430.89743416, 4094.48717914, 4120.25640998, 4145.25641005,12.0
4140.38461518, 4176.92307679, 4128.46153819, 3989.10256355, 4126.02564075, 4102.17948684, 4142.43589723, 4101.66666632, 4131.41025614, 4133.33333306, 3434.87179314, 4099.87179453, 4121.53846126, 4145.38461518,12.0
4135.51282031, 4170.64102551, 4125.64102537, 3993.97435842, 4129.23076896, 4111.66666639, 4142.17948697, 4121.92307665, 4134.99999973, 4133.33333306, 3438.97435724, 4102.17948684, 4122.94871767, 4145.51282031,12.0
4143.20512800, 4169.48717935, 4126.28205101, 4005.38461490, 4130.51282024, 4082.94871761, 4105.89743562, 4122.43589716, 4124.23076896, 4133.46153819, 3434.74358801, 4095.12820478, 4122.43589716, 4144.99999980,12.0
4138.58974339, 4170.51282038, 4126.79487152, 4008.97435849, 4127.94871767, 4066.66666625, 4083.71794837, 4091.15384581, 4108.20512793, 4133.97435870, 3436.66666493, 4092.43589709, 4120.38461511, 4143.71794851,12.0
4138.07692287, 4191.15384602, 4137.82051262, 4025.25640977, 4126.92307665, 4100.12820478, 4123.33333306, 4103.71794844, 4121.02564075, 4132.69230742, 3452.94871628, 4110.64102537, 4121.79487152, 4145.25641005,12.0
4142.30769210, 4184.99999986, 4142.17948697, 4018.84615336, 4128.07692280, 4104.23076896, 4136.41025621, 4122.82051255, 4125.51282024, 4132.94871767, 3450.76922911, 4109.10256383, 4122.30769203, 4146.02564082,12.0
4138.71794851, 4169.48717935, 4138.71794851, 4004.23076875, 4126.53846126, 4083.84615350, 4112.17948691, 4111.66666639, 4111.41025614, 4135.64102544, 3438.46153673, 4098.20512786, 4120.25640998, 4144.48717928,12.0
4143.46153826, 4197.17948704, 4149.61538441, 4020.12820465, 4125.12820485, 4101.79487145, 4130.64102537, 4122.69230742, 4123.07692280, 4129.10256383, 3453.20512654, 4119.87179460, 4125.89743562, 4145.64102544,12.0
4140.76923056, 4199.74358961, 4149.61538441, 4017.05128157, 4128.07692280, 4114.23076896, 4148.84615364, 4132.30769203, 4129.48717921, 4124.61538434, 3469.99999834, 4121.92307665, 4125.38461511, 4147.69230749,12.0
4140.51282031, 4169.87179474, 4135.76923056, 4004.35897388, 4127.05128178, 4114.48717921, 4137.17948697, 4123.20512793, 4121.92307665, 4131.28205101, 3469.48717782, 4102.94871767, 4117.56410229, 4146.53846133,12.0
4143.97435877, 4182.30769217, 4142.17948697, 4024.35897388, 4125.51282024, 4136.79487159, 4158.71794851, 4142.17948697, 4142.43589723, 4132.56410229, 3478.97435738, 4124.23076896, 4129.10256383, 4143.97435877,12.0
4138.58974339, 4186.53846140, 4149.35897415, 4028.97435849, 4127.82051255, 4137.43589723, 4174.74358961, 4154.35897415, 4152.43589723, 4130.25640998, 3482.56410097, 4135.64102544, 4135.89743569, 4145.12820492,12.0
4140.25641005, 4163.07692287, 4140.89743569, 4010.38461490, 4126.92307665, 4114.10256383, 4137.05128185, 4126.92307665, 4126.92307665, 4133.97435870, 3474.35897270, 4112.82051255, 4123.58974332, 4148.20512800,12.0
4135.64102544, 4181.02564089, 4145.64102544, 4023.71794824, 4124.87179460, 4108.58974332, 4114.61538434, 4124.35897408, 4126.41025614, 4132.05128178, 3482.94871635, 4123.07692280, 4127.82051255, 4147.82051262,12.0
4137.43589723, 4211.92307686, 4163.58974339, 4049.61538420, 4126.15384588, 4110.64102537, 4137.69230749, 4154.74358954, 4161.66666646, 4128.20512793, 3494.74358815, 4156.79487159, 4142.30769210, 4146.28205108,12.0
4142.05128185, 4204.35897429, 4164.48717928, 4047.30769189, 4127.82051255, 4114.99999973, 4152.30769210, 4164.10256390, 4173.84615371, 4134.48717921, 3486.28204969, 4156.02564082, 4137.69230749, 4147.43589723,12.0
4129.61538434, 4192.30769217, 4153.97435877, 4037.43589702, 4125.76923050, 4119.87179460, 4139.48717928, 4153.20512800, 4154.48717928, 4136.53846133, 3473.20512654, 4138.71794851, 4133.58974332, 4146.02564082,12.0
4133.84615357, 4184.23076910, 4150.12820492, 4040.64102523, 4124.23076896, 4121.02564075, 4135.64102544, 4149.23076903, 4141.15384595, 4132.30769203, 3465.76922911, 4134.10256383, 4139.10256390, 4144.10256390,12.0
4136.41025621, 4189.61538448, 4158.71794851, 4051.92307651, 4128.07692280, 4134.99999973, 4161.66666646, 4167.56410236, 4160.89743569, 4134.35897408, 3455.64102398, 4143.07692287, 4138.84615364, 4146.66666646,12.0
4128.58974332, 4231.66666660, 4175.12820499, 4062.05128164, 4128.07692280, 4153.97435877, 4186.53846140, 4186.15384602, 4193.46153833, 4137.94871774, 3441.02563929, 4166.02564082, 4138.97435877, 4147.82051262,12.0
4131.15384588, 4227.69230763, 4166.79487159, 4055.76923036, 4123.84615357, 4138.58974339, 4159.61538441, 4157.94871774, 4173.84615371, 4133.33333306, 3411.02563922, 4156.15384595, 4135.64102544, 4144.61538441,12.0
4128.46153819, 4160.89743569, 4138.97435877, 4038.20512779, 4125.64102537, 4111.66666639, 4116.66666639, 4115.64102537, 4129.35897408, 4127.82051255, 3373.58974172, 4112.69230742, 4123.07692280, 4142.56410236,12.0
4132.69230742, 4157.30769210, 4141.41025621, 4038.20512779, 4127.30769203, 4118.33333306, 4122.69230742, 4118.07692280, 4134.23076896, 4129.74358947, 3357.82051095, 4114.35897408, 4120.12820485, 4143.46153826,12.0
4134.99999973, 4205.51282045, 4164.23076903, 4052.69230728, 4123.58974332, 4132.05128178, 4143.97435877, 4130.25640998, 4154.99999980, 4136.02564082, 3357.17948531, 4149.10256390, 4131.79487152, 4145.89743569,12.0
4132.30769203, 4197.94871781, 4167.56410236, 4058.33333292, 4121.79487152, 4131.02564075, 4141.79487159, 4122.69230742, 4137.82051262, 4138.07692287, 3359.99999813, 4152.43589723, 4140.51282031, 4147.05128185,12.0
4138.46153826, 4168.58974345, 4161.02564082, 4054.23076882, 4125.76923050, 4126.02564075, 4133.84615357, 4123.46153819, 4124.35897408, 4129.10256383, 3375.76922890, 4142.82051262, 4138.07692287, 4145.51282031,12.0
4133.97435870, 4191.41025628, 4165.25641005, 4057.82051241, 4129.10256383, 4120.38461511, 4137.56410236, 4133.07692280, 4145.12820492, 4124.23076896, 3395.76922897, 4152.82051262, 4134.10256383, 4147.17948697,12.0
4134.87179460, 4216.79487173, 4162.69230749, 4059.48717907, 4126.53846126, 4117.69230742, 4146.02564082, 4135.25640998, 4152.43589723, 4131.02564075, 3393.84615204, 4150.76923056, 4135.12820485, 4149.35897415,12.0
4135.64102544, 4189.87179474, 4152.94871774, 4052.56410215, 4125.64102537, 4128.07692280, 4156.66666646, 4150.12820492, 4152.17948697, 4137.05128185, 3380.89743409, 4138.84615364, 4139.99999980, 4145.64102544,12.0
4127.69230742, 4158.58974339, 4146.66666646, 4054.48717907, 4127.17948691, 4133.46153819, 4153.97435877, 4161.15384595, 4164.87179467, 4136.66666646, 3373.33333146, 4129.74358947, 4135.38461518, 4142.82051262,12.0
4133.84615357, 4170.89743576, 4142.94871774, 4057.56410215, 4125.76923050, 4118.33333306, 4130.76923050, 4134.35897408, 4154.10256390, 4128.46153819, 3376.79486992, 4118.46153819, 4124.35897408, 4144.87179467,12.0
4128.71794844, 4180.64102551, 4143.97435877, 4044.87179446, 4124.87179460, 4108.33333306, 4117.94871767, 4111.41025614, 4130.64102537, 4122.56410229, 3378.20512633, 4122.56410229, 4126.79487152, 4147.56410236,12.0
4124.10256383, 4159.48717928, 4147.43589723, 4042.17948677, 4125.12820485, 4119.10256383, 4132.17948691, 4123.84615357, 4135.51282031, 4129.99999973, 3355.64102377, 4129.10256383, 4139.61538441, 4147.94871774,12.0
4130.51282024, 4160.64102544, 4151.02564082, 4064.35897395, 4123.97435870, 4132.56410229, 4150.12820492, 4134.74358947, 4151.15384595, 4137.05128185, 3336.15384421, 4130.38461511, 4137.69230749, 4145.25641005,12.0
4126.02564075, 4174.99999986, 4151.53846133, 4069.35897395, 4123.97435870, 4122.56410229, 4142.30769210, 4122.05128178, 4147.56410236, 4130.76923050, 3334.48717755, 4134.74358947, 4125.89743562, 4145.76923056,12.0
4126.02564075, 4158.84615364, 4147.94871774, 4061.92307651, 4127.17948691, 4111.41025614, 4126.79487152, 4116.28205101, 4142.56410236, 4129.87179460, 3315.51281857, 4133.07692280, 4129.61538434, 4147.17948697,12.0
4122.05128178, 4145.76923056, 4146.15384595, 4073.97435863, 4126.41025614, 4122.56410229, 4133.46153819, 4132.94871767, 4146.15384595, 4137.30769210, 3276.41025433, 4126.53846126, 4138.71794851, 4144.99999980,12.0
4122.17948691, 4154.61538441, 4147.05128185, 4087.56410222, 4122.56410229, 4128.33333306, 4144.10256390, 4142.82051262, 4139.61538441, 4134.99999973, 3263.20512612, 4124.61538434, 4135.38461518, 4143.71794851,12.0
4126.66666639, 4153.33333313, 4145.64102544, 4088.07692273, 4123.33333306, 4118.46153819, 4150.38461518, 4141.02564082, 4138.58974339, 4130.64102537, 3259.61538253, 4124.74358947, 4131.79487152, 4144.87179467,12.0
4120.76923050, 4158.71794851, 4153.07692287, 4100.76923043, 4126.53846126, 4131.02564075, 4167.82051262, 4155.12820492, 4164.61538441, 4131.02564075, 3235.89743375, 4136.66666646, 4139.61538441, 4145.51282031,12.0
4126.41025614, 4182.82051269, 4160.12820492, 4122.56410229, 4125.25640998, 4152.05128185, 4174.61538448, 4159.61538441, 4176.53846140, 4130.25640998, 3228.46153631, 4145.38461518, 4142.94871774, 4145.25641005,12.0
4127.56410229, 4179.35897422, 4150.89743569, 4122.17948691, 4124.87179460, 4143.58974339, 4171.28205115, 4137.56410236, 4150.12820492, 4130.51282024, 3222.05127990, 4125.76923050, 4134.74358947, 4143.84615364,12.0
4126.79487152, 4159.10256390, 4150.64102544, 4116.79487152, 4126.53846126, 4132.69230742, 4167.43589723, 4127.94871767, 4134.48717921, 4131.28205101, 3187.56410034, 4122.17948691, 4136.79487159, 4144.35897415,12.0
4131.79487152, 4162.69230749, 4159.87179467, 4134.23076896, 4124.99999973, 4134.10256383, 4141.53846133, 4127.56410229, 4140.76923056, 4127.43589716, 3163.97435669, 4142.30769210, 4141.53846133, 4146.79487159,12.0
4125.76923050, 4194.61538448, 4170.89743576, 4166.41025621, 4125.38461511, 4144.87179467, 4139.23076903, 4131.41025614, 4156.53846133, 4125.38461511, 3180.89743361, 4156.79487159, 4138.97435877, 4146.53846133,12.0
4127.56410229, 4211.02564096, 4178.84615371, 4164.87179467, 4124.87179460, 4148.84615364, 4161.41025621, 4135.76923056, 4162.05128185, 4132.30769203, 3192.94871573, 4164.23076903, 4142.56410236, 4143.84615364,12.0
4126.53846126, 4177.82051269, 4164.87179467, 4139.10256390, 4122.30769203, 4124.99999973, 4136.02564082, 4117.43589716, 4141.28205108, 4135.25640998, 3179.87179258, 4149.99999980, 4150.64102544, 4143.71794851,12.0
4122.05128178, 4158.97435877, 4157.17948697, 4160.64102544, 4121.53846126, 4118.84615357, 4117.17948691, 4119.99999973, 4147.69230749, 4129.23076896, 3178.46153617, 4145.89743569, 4152.43589723, 4146.92307672,12.0
4126.66666639, 4187.82051269, 4180.12820499, 4206.28205122, 4123.33333306, 4154.48717928, 4164.48717928, 4168.46153833, 4196.15384602, 4128.58974332, 3194.35897214, 4179.23076910, 4151.66666646, 4145.76923056,12.0
4120.89743562, 4197.05128192, 4187.05128192, 4208.58974352, 4125.12820485, 4169.87179474, 4185.25641012, 4191.79487166, 4205.12820506, 4130.38461511, 3200.51281829, 4188.07692294, 4153.71794851, 4143.07692287,12.0
4121.28205101, 4167.56410236, 4161.28205108, 4183.07692294, 4124.48717921, 4147.30769210, 4153.07692287, 4167.69230749, 4169.35897422, 4127.17948691, 3187.05127983, 4147.30769210, 4152.56410236, 4143.20512800,12.0
4121.28205101, 4159.99999980, 4152.82051262, 4178.20512807, 4126.02564075, 4135.25640998, 4149.23076903, 4152.30769210, 4153.84615364, 4126.02564075, 3186.28204906, 4132.17948691, 4151.15384595, 4142.94871774,12.0
4115.76923050, 4175.89743576, 4167.30769210, 4191.79487166, 4127.17948691, 4151.28205108, 4172.05128192, 4158.58974339, 4159.99999980, 4127.56410229, 3208.84615163, 4158.33333313, 4152.05128185, 4142.82051262,12.0
4121.41025614, 4171.28205115, 4169.74358961, 4196.28205115, 4125.25640998, 4167.94871774, 4170.64102551, 4150.51282031, 4165.25641005, 4126.92307665, 3223.58974144, 4160.25641005, 4147.43589723, 4144.10256390,12.0
4116.02564075, 4148.97435877, 4152.94871774, 4173.97435884, 4125.12820485, 4151.28205108, 4138.07692287, 4119.48717921, 4153.20512800, 4126.92307665, 3208.97435675, 4130.12820485, 4137.69230749, 4144.61538441,12.0
4116.92307665, 4144.99999980, 4149.35897415, 4163.84615364, 4125.76923050, 4126.92307665, 4115.12820485, 4107.17948691, 4135.51282031, 4127.05128178, 3199.99999778, 4122.05128178, 4133.58974332, 4143.71794851,12.0
4122.56410229, 4164.10256390, 4165.12820492, 4193.07692294, 4126.28205101, 4134.61538434, 4127.17948691, 4131.41025614, 4150.76923056, 4127.05128178, 3226.28204913, 4147.69230749, 4143.33333313, 4143.46153826,12.0
4116.41025614, 4181.66666653, 4175.51282038, 4220.25641019, 4126.15384588, 4152.94871774, 4145.76923056, 4152.30769210, 4177.56410243, 4127.05128178, 3252.56410048, 4170.76923063, 4154.35897415, 4145.89743569,12.0
4120.51282024, 4200.38461525, 4185.76923063, 4230.89743583, 4125.51282024, 4159.74358954, 4161.41025621, 4165.38461518, 4183.33333320, 4127.05128178, 3248.58974144, 4180.12820499, 4154.23076903, 4147.82051262,12.0
4120.25640998, 4211.02564096, 4193.20512807, 4232.17948711, 4125.12820485, 4160.51282031, 4178.33333320, 4182.94871781, 4185.38461525, 4127.05128178, 3245.51281836, 4184.87179474, 4151.15384595, 4148.71794851,12.0
4121.02564075, 4208.33333327, 4185.25641012, 4225.38461532, 4125.51282024, 4167.69230749, 4188.33333320, 4181.66666653, 4193.84615371, 4127.05128178, 3274.10256202, 4183.07692294, 4153.46153826, 4149.23076903,12.0
4123.71794844, 4215.38461532, 4183.58974345, 4230.89743583, 4125.89743562, 4190.89743576, 4197.69230756, 4179.48717935, 4205.38461532, 4127.05128178, 3294.61538260, 4186.02564089, 4157.69230749, 4147.30769210,12.0
4116.28205101, 4219.99999993, 4188.97435884, 4233.07692301, 4125.76923050, 4199.74358961, 4200.51282038, 4186.02564089, 4203.46153840, 4127.05128178, 3284.99999799, 4184.35897422, 4156.79487159, 4144.48717928,12.0
4119.99999973, 4195.89743576, 4169.61538448, 4200.12820499, 4125.25640998, 4177.43589730, 4179.35897422, 4164.87179467, 4171.02564089, 4127.05128178, 3273.71794664, 4156.53846133, 4146.92307672, 4145.76923056,12.0
4115.76923050, 4174.99999986, 4155.76923056, 4178.58974345, 4124.74358947, 4167.56410236, 4160.89743569, 4143.84615364, 4157.82051262, 4127.05128178, 3276.53845946, 4140.12820492, 4142.82051262, 4146.66666646,12.0
4111.02564075, 4186.92307679, 4171.66666653, 4197.56410243, 4125.51282024, 4175.51282038, 4158.58974339, 4148.33333313, 4174.10256397, 4127.05128178, 3285.76922876, 4153.71794851, 4150.51282031, 4143.84615364,12.0
4119.74358947, 4200.89743576, 4173.46153833, 4203.84615378, 4125.76923050, 4166.66666646, 4146.92307672, 4143.71794851, 4166.28205108, 4127.05128178, 3283.46153645, 4159.61538441, 4150.64102544, 4142.94871774,12.0
4115.89743562, 4196.66666653, 4162.82051262, 4192.30769217, 4125.12820485, 4155.12820492, 4133.46153819, 4131.41025614, 4153.33333313, 4127.05128178, 3277.43589536, 4151.15384595, 4140.25641005, 4146.79487159,12.0
4114.48717921, 4202.94871788, 4171.66666653, 4203.84615378, 4125.76923050, 4158.46153826, 4135.25640998, 4139.10256390, 4163.07692287, 4127.05128178, 3279.74358766, 4152.69230749, 4142.69230749, 4146.66666646,12.0
4112.94871767, 4217.43589737, 4179.61538448, 4218.84615378, 4128.97435870, 4159.10256390, 4138.20512800, 4153.07692287, 4164.10256390, 4127.05128178, 3283.71794671, 4158.58974339, 4154.61538441, 4143.20512800,12.0
4111.15384588, 4204.61538455, 4167.05128185, 4204.74358968, 4129.61538434, 4157.94871774, 4142.30769210, 4154.87179467, 4155.12820492, 4127.30769203, 3280.64102356, 4150.25641005, 4148.97435877, 4145.76923056,12.0
4116.41025614, 4189.23076910, 4164.35897415, 4188.84615371, 4126.15384588, 4164.61538441, 4152.82051262, 4158.84615364, 4168.33333320, 4126.53846126, 3286.15384414, 4150.25641005, 4140.38461518, 4146.53846133,12.0
4110.76923050, 4201.15384609, 4178.71794858, 4191.53846140, 4124.87179460, 4172.30769217, 4166.53846133, 4175.25641012, 4187.30769217, 4126.92307665, 3323.20512626, 4165.51282031, 4148.97435877, 4142.94871774,12.0
4113.46153819, 4213.07692301, 4182.82051269, 4189.87179474, 4124.74358947, 4182.56410243, 4185.38461525, 4185.76923063, 4191.02564089, 4128.71794844, 3372.56410069, 4172.43589730, 4156.92307672, 4143.71794851,12.0
4116.02564075, 4202.05128199, 4174.10256397, 4178.71794858, 4125.89743562, 4180.64102551, 4184.23076910, 4171.15384602, 4183.33333320, 4124.61538434, 3393.07692127, 4165.25641005, 4153.33333313, 4145.38461518,12.0
4111.92307665, 4194.48717935, 4170.51282038, 4180.12820499, 4126.28205101, 4168.97435884, 4159.74358954, 4157.82051262, 4175.51282038, 4124.74358947, 3387.30769050, 4165.64102544, 4151.79487159, 4144.10256390,12.0
4117.43589716, 4198.97435884, 4179.87179474, 4182.69230756, 4123.97435870, 4175.76923063, 4155.76923056, 4165.64102544, 4182.05128192, 4131.92307665, 3393.71794692, 4176.66666653, 4156.41025621, 4144.87179467,12.0
4112.82051255, 4189.23076910, 4176.28205115, 4161.92307672, 4125.12820485, 4172.30769217, 4161.53846133, 4157.69230749, 4183.07692294, 4131.92307665, 3400.38461358, 4164.87179467, 4152.94871774, 4147.56410236,12.0
4114.74358947, 4175.38461525, 4162.05128185, 4144.87179467, 4127.30769203, 4152.43589723, 4149.48717928, 4138.33333313, 4166.53846133, 4126.53846126, 3378.97435710, 4140.51282031, 4144.23076903, 4146.92307672,12.0
4118.46153819, 4182.69230756, 4165.12820492, 4155.12820492, 4127.43589716, 4165.76923056, 4153.46153826, 4152.69230749, 4166.53846133, 4127.69230742, 3362.82051095, 4146.28205108, 4141.41025621, 4145.12820492,12.0
4109.87179460, 4190.38461525, 4169.23076910, 4162.82051262, 4126.66666639, 4178.46153833, 4164.61538441, 4170.51282038, 4177.43589730, 4133.07692280, 3361.02563915, 4153.33333313, 4140.51282031, 4145.12820492,12.0
4115.51282024, 4180.89743576, 4155.76923056, 4147.94871774, 4126.41025614, 4158.20512800, 4152.30769210, 4150.38461518, 4159.48717928, 4133.58974332, 3350.25640838, 4127.56410229, 4139.61538441, 4147.43589723,12.0
4114.87179460, 4178.58974345, 4150.12820492, 4138.33333313, 4127.94871767, 4153.84615364, 4141.92307672, 4136.41025621, 4136.15384595, 4133.97435870, 3346.79486985, 4114.61538434, 4140.12820492, 4148.84615364,12.0
4113.97435870, 4196.02564089, 4168.07692287, 4154.10256390, 4127.30769203, 4169.61538448, 4154.10256390, 4151.79487159, 4143.71794851, 4135.89743569, 3363.20512633, 4142.30769210, 4138.84615364, 4147.05128185,12.0
4117.69230742, 4207.69230763, 4179.10256397, 4168.07692287, 4123.71794844, 4176.66666653, 4168.58974345, 4153.46153826, 4152.05128185, 4133.84615357, 3374.74358787, 4159.99999980, 4141.41025621, 4145.38461518,12.0
4110.38461511, 4197.05128192, 4173.33333320, 4159.23076903, 4123.71794844, 4173.20512807, 4157.17948697, 4132.43589716, 4140.38461518, 4129.10256383, 3375.76922890, 4147.30769210, 4150.12820492, 4145.89743569,12.0
4115.51282024, 4189.10256397, 4171.79487166, 4153.07692287, 4127.05128178, 4166.92307672, 4132.56410229, 4123.20512793, 4136.41025621, 4128.46153819, 3388.07692127, 4143.58974339, 4153.84615364, 4146.15384595,12.0
4112.30769203, 4198.97435884, 4177.94871781, 4156.66666646, 4128.20512793, 4164.23076903, 4131.41025614, 4133.84615357, 4150.89743569, 4130.76923050, 3403.33333153, 4154.99999980, 4150.64102544, 4145.25641005,12.0
4106.02564075, 4200.12820499, 4179.10256397, 4149.35897415, 4127.17948691, 4162.30769210, 4143.71794851, 4142.30769210, 4155.76923056, 4127.56410229, 3403.97435717, 4152.69230749, 4151.41025621, 4146.41025621,12.0
4112.94871767, 4198.46153833, 4174.74358961, 4148.97435877, 4126.53846126, 4165.12820492, 4155.38461518, 4149.48717928, 4153.07692287, 4125.12820485, 3405.76922897, 4149.35897415, 4154.10256390, 4145.76923056,12.0
4105.89743562, 4202.56410250, 4179.99999986, 4157.05128185, 4127.17948691, 4180.12820499, 4178.46153833, 4163.07692287, 4161.92307672, 4127.69230742, 3416.28204955, 4164.87179467, 4153.20512800, 4144.10256390,12.0
4106.66666639, 4198.97435884, 4189.74358961, 4148.97435877, 4128.20512793, 4191.15384602, 4191.92307679, 4169.74358961, 4167.82051262, 4127.30769203, 3417.82051109, 4173.97435884, 4154.10256390, 4144.99999980,12.0
4111.92307665, 4206.92307686, 4196.28205115, 4152.56410236, 4127.17948691, 4195.76923063, 4185.12820499, 4176.02564089, 4170.64102551, 4125.12820485, 3418.46153673, 4176.28205115, 4154.61538441, 4145.89743569,12.0
4108.71794844, 4224.35897429, 4198.46153833, 4167.17948697, 4124.35897408, 4204.74358968, 4187.94871781, 4181.28205115, 4178.97435884, 4129.23076896, 3433.97435724, 4182.94871781, 4153.84615364, 4144.10256390,12.0
4109.48717921, 4221.41025634, 4193.07692294, 4154.61538441, 4126.15384588, 4197.94871781, 4188.20512807, 4165.38461518, 4172.56410243, 4135.64102544, 3438.58974186, 4177.17948704, 4152.69230749, 4145.38461518,12.0
4106.15384588, 4210.38461532, 4192.05128192, 4142.43589723, 4129.74358947, 4181.79487166, 4169.61538448, 4154.87179467, 4161.41025621, 4135.89743569, 3431.53845981, 4171.15384602, 4150.89743569, 4149.99999980,12.0
4111.66666639, 4210.12820506, 4195.51282038, 4157.43589723, 4126.15384588, 4183.58974345, 4155.38461518, 4162.94871774, 4165.12820492, 4133.71794844, 3436.92307519, 4182.43589730, 4155.38461518, 4148.71794851,12.0
4113.07692280, 4200.89743576, 4186.79487166, 4156.79487159, 4124.74358947, 4181.53846140, 4149.61538441, 4153.58974339, 4157.94871774, 4134.87179460, 3443.58974186, 4177.17948704, 4153.46153826, 4144.74358954,12.0
4107.94871767, 4194.10256397, 4173.46153833, 4134.87179460, 4127.30769203, 4174.10256397, 4144.23076903, 4135.38461518, 4142.56410236, 4135.25640998, 3436.66666493, 4153.58974339, 4140.25641005, 4146.79487159,12.0
4117.69230742, 4202.05128199, 4173.97435884, 4129.23076896, 4124.23076896, 4178.71794858, 4153.20512800, 4143.71794851, 4153.07692287, 4134.48717921, 3434.99999827, 4147.17948697, 4139.61538441, 4146.53846133,12.0
4112.69230742, 4194.87179474, 4178.33333320, 4134.61538434, 4123.07692280, 4186.41025628, 4176.79487166, 4173.71794858, 4173.84615371, 4135.64102544, 3450.89743423, 4152.69230749, 4151.15384595, 4141.66666646,12.0
4108.33333306, 4185.89743576, 4174.48717935, 4129.48717921, 4126.66666639, 4194.87179474, 4189.23076910, 4194.99999986, 4178.33333320, 4135.64102544, 3463.97435731, 4151.28205108, 4155.89743569, 4144.35897415,12.0
4112.05128178, 4187.05128192, 4169.87179474, 4116.79487152, 4127.30769203, 4201.28205122, 4187.56410243, 4194.48717935, 4184.10256397, 4134.74358947, 3459.48717782, 4144.35897415, 4152.05128185, 4147.56410236,12.0
4107.05128178, 4179.99999986, 4169.74358961, 4110.38461511, 4125.51282024, 4197.30769217, 4189.61538448, 4187.94871781, 4199.48717935, 4134.35897408, 3457.56410090, 4142.56410236, 4144.99999980, 4142.17948697,12.0
4110.12820485, 4174.61538448, 4173.46153833, 4111.02564075, 4125.64102537, 4189.35897422, 4183.97435884, 4180.12820499, 4197.05128192, 4134.48717921, 3470.51281885, 4149.48717928, 4142.30769210, 4141.79487159,12.0
4107.17948691, 4185.89743576, 4176.92307679, 4110.38461511, 4127.82051255, 4190.89743576, 4177.43589730, 4176.92307679, 4188.33333320, 4134.61538434, 3476.53845987, 4156.92307672, 4151.92307672, 4147.17948697,12.0
4106.66666639, 4201.79487173, 4178.33333320, 4112.17948691, 4126.15384588, 4193.97435884, 4178.33333320, 4180.76923063, 4193.46153833, 4134.35897408, 3477.69230603, 4159.61538441, 4154.74358954, 4147.05128185,12.0
4108.07692280, 4200.89743576, 4177.94871781, 4116.79487152, 4124.35897408, 4190.38461525, 4174.35897422, 4174.61538448, 4185.51282038, 4134.61538434, 3485.64102405, 4153.84615364, 4138.71794851, 4144.23076903,12.0
4101.41025607, 4195.12820499, 4180.38461525, 4125.64102537, 4126.66666639, 4194.10256397, 4174.74358961, 4162.05128185, 4164.23076903, 4134.99999973, 3489.74358815, 4153.46153826, 4133.58974332, 4144.99999980,12.0
4106.79487152, 4196.92307679, 4186.79487166, 4140.51282031, 4126.41025614, 4201.53846147, 4180.38461525, 4164.61538441, 4167.43589723, 4133.97435870, 3494.99999841, 4169.99999986, 4147.17948697, 4145.64102544,12.0
4106.66666639, 4191.15384602, 4183.58974345, 4133.97435870, 4124.48717921, 4187.05128192, 4169.74358961, 4164.61538441, 4175.64102551, 4134.35897408, 3496.41025482, 4174.48717935, 4148.97435877, 4145.38461518,12.0
4107.43589716, 4183.71794858, 4174.99999986, 4108.33333306, 4124.61538434, 4176.53846140, 4164.74358954, 4158.33333313, 4165.12820492, 4136.02564082, 3490.64102405, 4157.82051262, 4136.66666646, 4147.17948697,12.0
4113.46153819, 4181.66666653, 4177.69230756, 4103.58974332, 4124.87179460, 4199.87179474, 4190.25641012, 4179.61538448, 4173.33333320, 4131.53846126, 3496.66666507, 4158.20512800, 4137.69230749, 4146.92307672,12.0
4107.43589716, 4177.56410243, 4181.02564089, 4113.46153819, 4125.51282024, 4202.30769224, 4189.61538448, 4183.97435884, 4181.28205115, 4128.33333306, 3507.56410097, 4170.38461525, 4142.05128185, 4145.25641005,12.0
4112.43589716, 4181.15384602, 4179.35897422, 4117.94871767, 4126.66666639, 4179.87179474, 4162.56410236, 4145.64102544, 4152.17948697, 4132.82051255, 3514.99999848, 4166.66666646, 4134.61538434, 4147.05128185,12.0
4111.79487152, 4204.87179481, 4189.10256397, 4138.33333313, 4127.30769203, 4189.99999986, 4176.28205115, 4135.89743569, 4138.58974339, 4136.02564082, 3529.48717796, 4176.28205115, 4140.89743569, 4148.07692287,12.0
4104.23076896, 4217.56410250, 4199.35897422, 4156.28205108, 4125.89743562, 4206.15384609, 4191.02564089, 4154.99999980, 4153.97435877, 4133.84615357, 3537.82051130, 4191.41025628, 4153.20512800, 4145.12820492,12.0
4106.79487152, 4194.99999986, 4186.79487166, 4136.53846133, 4126.53846126, 4188.71794858, 4163.20512800, 4149.61538441, 4154.99999980, 4133.71794844, 3530.64102412, 4172.94871781, 4142.82051262, 4143.71794851,12.0
4101.28205094, 4182.05128192, 4175.25641012, 4124.74358947, 4129.10256383, 4171.92307679, 4148.97435877, 4141.66666646, 4144.23076903, 4135.51282031, 3529.61538309, 4155.76923056, 4129.23076896, 4145.38461518,12.0
4104.87179460, 4198.33333320, 4187.30769217, 4145.38461518, 4128.20512793, 4188.46153833, 4174.87179474, 4153.46153826, 4149.61538441, 4134.74358947, 3543.84615232, 4175.12820499, 4135.12820485, 4145.51282031,12.0
4106.53846126, 4202.17948711, 4197.56410243, 4151.41025621, 4126.53846126, 4205.38461532, 4188.20512807, 4167.30769210, 4165.76923056, 4133.71794844, 3552.82051137, 4197.94871781, 4149.48717928, 4144.48717928,12.0
4100.12820478, 4198.71794858, 4195.12820499, 4142.56410236, 4127.17948691, 4202.05128199, 4184.23076910, 4179.35897422, 4174.10256397, 4133.33333306, 3553.07692162, 4199.61538448, 4152.56410236, 4145.12820492,12.0
4106.66666639, 4211.02564096, 4196.53846140, 4152.82051262, 4127.82051255, 4204.99999993, 4192.82051269, 4182.30769217, 4175.76923063, 4134.10256383, 3555.12820367, 4194.74358961, 4140.64102544, 4145.76923056,12.0
4103.46153819, 4209.61538455, 4196.53846140, 4155.12820492, 4126.41025614, 4200.51282038, 4188.33333320, 4167.94871774, 4166.53846133, 4134.74358947, 3556.15384470, 4189.61538448, 4131.15384588, 4144.48717928,12.0
4102.56410229, 4197.30769217, 4195.38461525, 4142.30769210, 4124.74358947, 4185.38461525, 4171.66666653, 4161.28205108, 4157.56410236, 4134.10256383, 3556.02563957, 4187.56410243, 4137.56410236, 4143.71794851,12.0
4104.48717921, 4205.12820506, 4198.07692294, 4148.71794851, 4125.89743562, 4185.51282038, 4172.17948704, 4165.64102544, 4160.12820492, 4134.35897408, 3562.69230624, 4188.58974345, 4141.41025621, 4146.02564082,12.0
4099.35897402, 4209.74358968, 4195.89743576, 4160.64102544, 4126.92307665, 4185.12820499, 4169.10256397, 4153.84615364, 4156.53846133, 4134.74358947, 3560.64102419, 4184.99999986, 4134.48717921, 4145.51282031,12.0
4104.87179460, 4196.66666653, 4190.51282038, 4150.12820492, 4126.15384588, 4167.82051262, 4150.25641005, 4132.30769203, 4144.23076903, 4134.23076896, 3451.02563936, 4185.12820499, 4137.43589723, 4142.82051262,12.0
4103.58974332, 4193.33333320, 4194.99999986, 4143.46153826, 4126.79487152, 4173.20512807, 4153.46153826, 4138.71794851, 4147.30769210, 4134.23076896, 3408.46153666, 4194.87179474, 4151.41025621, 4144.87179467,12.0
4106.41025614, 4209.48717942, 4209.35897429, 4164.35897415, 4125.76923050, 4209.35897429, 4190.38461525, 4170.51282038, 4168.07692287, 4135.51282031, 3622.56410125, 4210.76923070, 4156.15384595, 4148.97435877,12.0
4110.38461511, 4210.89743583, 4207.82051275, 4159.35897415, 4124.61538434, 4212.05128199, 4198.97435884, 4179.35897422, 4167.30769210, 4134.99999973, 3399.10256230, 4208.20512814, 4145.64102544, 4147.56410236,12.0
4101.79487145, 4188.58974345, 4185.51282038, 4125.76923050, 4126.02564075, 4184.48717935, 4169.35897422, 4167.69230749, 4157.17948697, 4133.71794844, 3477.82051116, 4186.02564089, 4138.07692287, 4144.23076903,12.0
4113.07692280, 4180.76923063, 4178.20512807, 4124.61538434, 4126.41025614, 4180.38461525, 4156.15384595, 4165.12820492, 4164.99999980, 4134.48717921, 5358.20513057, 4180.25641012, 4139.99999980, 4146.41025621,12.0
4125.25640998, 4190.25641012, 4188.71794858, 4139.23076903, 4126.28205101, 4189.48717935, 4173.07692294, 4168.07692287, 4167.43589723, 4134.87179460, 7558.71795574, 4191.02564089, 4140.76923056, 4148.33333313,12.0
4129.61538434, 4185.64102551, 4185.25641012, 4130.89743562, 4124.74358947, 4187.30769217, 4176.41025628, 4161.02564082, 4152.82051262, 4133.33333306, 7941.28205907, 4182.05128192, 4137.82051262, 4145.64102544,12.0
4131.92307665, 4173.33333320, 4174.23076910, 4125.89743562, 4123.58974332, 4184.10256397, 4157.05128185, 4152.43589723, 4149.48717928, 4132.94871767, 7554.61539164, 4167.05128185, 4136.66666646, 4143.71794851,12.0
4127.17948691, 4187.82051269, 4186.41025628, 4145.64102544, 4124.99999973, 4190.89743576, 4164.10256390, 4170.76923063, 4177.56410243, 4134.10256383, 7711.79487909, 4187.17948704, 4136.66666646, 4144.74358954,12.0
4135.89743569, 4208.84615378, 4202.94871788, 4151.15384595, 4124.74358947, 4189.99999986, 4179.35897422, 4180.64102551, 4188.20512807, 4132.94871767, 7778.71795623, 4212.56410250, 4144.10256390, 4144.74358954,12.0
4137.30769210, 4192.43589730, 4195.51282038, 4136.28205108, 4125.38461511, 4182.82051269, 4166.41025621, 4161.53846133, 4170.64102551, 4132.69230742, 7611.41026350, 4199.35897422, 4149.87179467, 4144.61538441,12.0
4135.64102544, 4176.41025628, 4187.17948704, 4135.12820485, 4127.05128178, 4194.10256397, 4169.48717935, 4158.97435877, 4171.02564089, 4135.64102544, 7595.00000709, 4182.82051269, 4139.74358954, 4145.76923056,12.0
4144.48717928, 4202.17948711, 4195.12820499, 4152.05128185, 4127.17948691, 4208.07692301, 4188.97435884, 4167.69230749, 4183.97435884, 4129.87179460, 7600.00000709, 4196.15384602, 4136.15384595, 4145.38461518,12.0
4143.33333313, 4212.82051275, 4194.99999986, 4152.17948697, 4126.92307665, 4192.30769217, 4176.79487166, 4150.38461518, 4174.48717935, 4123.07692280, 7599.35898145, 4196.92307679, 4145.38461518, 4145.25641005,12.0
4149.23076903, 4186.92307679, 4185.12820499, 4133.07692280, 4126.15384588, 4177.94871781, 4163.20512800, 4144.61538441, 4162.43589723, 4128.58974332, 7597.56410966, 4176.53846140, 4145.64102544, 4146.66666646,12.0
4151.92307672, 4179.35897422, 4178.07692294, 4122.43589716, 4125.76923050, 4180.89743576, 4169.87179474, 4165.25641005, 4167.43589723, 4128.07692280, 7598.07693017, 4168.58974345, 4136.79487159, 4145.38461518,12.0
4149.99999980, 4190.64102551, 4175.25641012, 4123.97435870, 4126.15384588, 4176.53846140, 4161.15384595, 4163.97435877, 4166.41025621, 4123.33333306, 7598.71795581, 4169.48717935, 4134.74358947, 4144.61538441,12.0
4159.35897415, 4189.48717935, 4184.48717935, 4133.46153819, 4126.79487152, 4183.58974345, 4164.74358954, 4168.20512807, 4173.33333320, 4131.15384588, 7600.12821222, 4177.82051269, 4145.25641005, 4146.79487159,12.0
4159.35897415, 4181.66666653, 4189.48717935, 4136.79487159, 4126.79487152, 4195.25641012, 4186.15384602, 4185.25641012, 4184.48717935, 4135.64102544, 7598.20513530, 4186.02564089, 4149.99999980, 4146.41025621,12.0
4164.61538441, 4177.17948704, 4179.99999986, 4123.33333306, 4127.56410229, 4185.25641012, 4175.64102551, 4164.48717928, 4171.92307679, 4128.33333306, 7598.20513530, 4176.15384602, 4139.87179467, 4144.23076903,12.0
4167.82051262, 4171.15384602, 4177.82051269, 4109.99999973, 4128.58974332, 4181.66666653, 4162.82051262, 4136.02564082, 4156.66666646, 4128.20512793, 7598.71795581, 4168.58974345, 4133.07692280, 4143.84615364,12.0
4162.94871774, 4179.99999986, 4191.66666653, 4118.71794844, 4127.69230742, 4197.43589730, 4177.94871781, 4149.10256390, 4165.51282031, 4131.41025614, 7598.46154555, 4190.38461525, 4146.53846133, 4145.89743569,12.0
4173.20512807, 4199.74358961, 4202.17948711, 4134.87179460, 4126.66666639, 4207.82051275, 4192.82051269, 4168.97435884, 4178.07692294, 4128.33333306, 7598.33334042, 4218.46153840, 4160.76923056, 4145.76923056,12.0
4172.17948704, 4189.10256397, 4199.23076910, 4131.66666639, 4125.89743562, 4203.33333327, 4191.53846140, 4162.43589723, 4174.99999986, 4128.97435870, 7598.46154555, 4214.74358968, 4152.05128185, 4144.61538441,12.0
4171.41025628, 4172.69230756, 4192.05128192, 4120.38461511, 4124.61538434, 4184.23076910, 4168.20512807, 4149.61538441, 4166.41025621, 4130.64102537, 7598.46154555, 4193.71794858, 4136.66666646, 4147.05128185,12.0
4176.02564089, 4184.48717935, 4189.74358961, 4125.64102537, 4124.99999973, 4168.97435884, 4156.79487159, 4158.46153826, 4170.38461525, 4129.10256383, 7598.46154555, 4191.92307679, 4139.35897415, 4146.79487159,12.0
4172.94871781, 4192.82051269, 4194.10256397, 4133.84615357, 4126.66666639, 4183.97435884, 4180.12820499, 4184.35897422, 4182.82051269, 4130.12820485, 7598.46154555, 4200.12820499, 4146.02564082, 4143.07692287,12.0
4180.25641012, 4186.15384602, 4193.84615371, 4126.28205101, 4126.79487152, 4200.38461525, 4184.61538448, 4197.30769217, 4182.69230756, 4131.66666639, 7598.46154555, 4192.82051269, 4142.94871774, 4143.33333313,12.0
4180.38461525, 4188.97435884, 4193.46153833, 4124.99999973, 4127.05128178, 4193.20512807, 4169.10256397, 4197.56410243, 4184.48717935, 4125.12820485, 7598.46154555, 4192.82051269, 4145.89743569, 4146.92307672,12.0
4181.92307679, 4192.05128192, 4196.53846140, 4132.56410229, 4128.07692280, 4187.30769217, 4174.35897422, 4187.94871781, 4193.58974345, 4119.74358947, 7598.46154555, 4201.79487173, 4149.99999980, 4145.89743569,12.0
4189.87179474, 4177.82051269, 4188.97435884, 4124.23076896, 4126.92307665, 4187.30769217, 4176.92307679, 4161.53846133, 4179.23076910, 4129.35897408, 7598.46154555, 4186.92307679, 4143.97435877, 4142.82051262,12.0
4186.66666653, 4169.61538448, 4181.41025628, 4108.97435870, 4126.92307665, 4185.25641012, 4171.92307679, 4150.89743569, 4159.48717928, 4140.89743569, 7598.46154555, 4174.61538448, 4143.20512800, 4143.84615364,12.0
4191.53846140, 4173.33333320, 4182.56410243, 4105.89743562, 4127.17948691, 4179.74358961, 4174.61538448, 4155.25641005, 4156.41025621, 4132.69230742, 7598.46154555, 4181.28205115, 4143.97435877, 4144.10256390,12.0
4193.33333320, 4173.33333320, 4183.07692294, 4109.35897408, 4126.41025614, 4174.23076910, 4167.69230749, 4147.56410236, 4153.58974339, 4119.48717921, 7598.46154555, 4180.76923063, 4136.79487159, 4142.69230749,12.0
4195.12820499, 4185.38461525, 4190.12820499, 4122.69230742, 4124.99999973, 4186.53846140, 4173.20512807, 4149.99999980, 4156.28205108, 4125.89743562, 7598.46154555, 4190.12820499, 4138.46153826, 4145.51282031,12.0
4202.69230763, 4200.51282038, 4198.33333320, 4134.87179460, 4124.48717921, 4193.71794858, 4189.48717935, 4165.51282031, 4166.41025621, 4135.89743569, 7599.10257119, 4208.58974352, 4145.38461518, 4147.69230749,12.0
4198.97435884, 4192.43589730, 4192.56410243, 4126.79487152, 4126.02564075, 4178.33333320, 4183.33333320, 4169.23076910, 4163.84615364, 4131.53846126, 7642.05128921, 4199.10256397, 4142.05128185, 4144.87179467,12.0
4209.35897429, 4190.25641012, 4192.56410243, 4128.58974332, 4126.15384588, 4193.20512807, 4188.33333320, 4182.30769217, 4169.99999986, 4126.28205101, 7869.74359739, 4187.82051269, 4142.69230749, 4143.84615364,12.0
4215.64102558, 4190.25641012, 4195.38461525, 4137.17948697, 4125.51282024, 4218.46153840, 4206.02564096, 4197.82051269, 4187.30769217, 4130.25640998, 7806.92308443, 4193.33333320, 4141.79487159, 4145.64102544,12.0
4209.48717942, 4178.07692294, 4189.23076910, 4127.05128178, 4126.41025614, 4198.97435884, 4198.97435884, 4194.48717935, 4191.02564089, 4132.17948691, 7544.10257106, 4195.25641012, 4139.23076903, 4145.89743569,12.0
4218.71794865, 4173.07692294, 4187.05128192, 4116.02564075, 4127.43589716, 4173.97435884, 4176.02564089, 4187.05128192, 4183.97435884, 4127.94871767, 8056.79487986, 4191.92307679, 4145.76923056, 4145.64102544,12.0
4214.48717942, 4176.41025628, 4188.07692294, 4119.23076896, 4126.92307665, 4176.66666653, 4161.79487159, 4177.69230756, 4177.05128192, 4128.58974332, 7299.48718595, 4191.79487166, 4153.97435877, 4146.02564082,12.0
4200.12820499, 4198.58974345, 4198.07692294, 4137.94871774, 4123.33333306, 4196.79487166, 4181.66666653, 4180.64102551, 4184.48717935, 4133.71794844, 3634.87179356, 4212.43589737, 4156.28205108, 4145.51282031,12.0
4191.66666653, 4213.97435891, 4210.76923070, 4144.74358954, 4123.58974332, 4203.71794865, 4204.99999993, 4194.74358961, 4199.48717935, 4133.84615357, 638.84614621, 4234.74358975, 4154.74358954, 4145.12820492,12.0
4188.20512807, 4193.71794858, 4203.97435891, 4125.76923050, 4126.28205101, 4185.25641012, 4184.87179474, 4186.92307679, 4189.99999986, 4128.71794844, 740.25640283, 4220.12820506, 4153.46153826, 4145.12820492,12.0
4193.20512807, 4183.20512807, 4194.23076910, 4122.05128178, 4124.74358947, 4184.61538448, 4174.10256397, 4178.46153833, 4178.58974345, 4128.71794844, 1295.89742965, 4199.61538448, 4153.20512800, 4145.89743569,12.0
4185.64102551, 4202.43589737, 4198.20512807, 4137.56410236, 4124.74358947, 4202.56410250, 4198.58974345, 4193.84615371, 4188.97435884, 4130.89743562, 992.05127518, 4205.51282045, 4151.41025621, 4146.66666646,12.0
4183.33333320, 4192.30769217, 4184.74358961, 4117.17948691, 4125.64102537, 4187.05128192, 4188.07692294, 4186.53846140, 4179.10256397, 4127.56410229, 1093.33332667, 4189.35897422, 4141.15384595, 4146.53846133,12.0
4186.79487166, 4160.12820492, 4166.15384595, 4090.76923043, 4122.82051255, 4170.38461525, 4162.94871774, 4167.94871774, 4160.64102544, 4125.89743562, 1376.92307081, 4161.79487159, 4130.12820485, 4146.66666646,12.0
4181.28205115, 4174.87179474, 4180.64102551, 4111.02564075, 4121.92307665, 4193.20512807, 4184.61538448, 4186.79487166, 4174.23076910, 4127.56410229, 1405.89742986, 4178.97435884, 4134.10256383, 4146.92307672,12.0
4184.87179474, 4201.79487173, 4188.07692294, 4124.23076896, 4124.99999973, 4200.12820499, 4196.79487166, 4186.02564089, 4172.43589730, 4127.05128178, 1460.89742999, 4188.46153833, 4139.48717928, 4146.92307672,12.0
4181.15384602, 4187.82051269, 4168.46153833, 4100.38461504, 4128.20512793, 4184.48717935, 4175.76923063, 4151.28205108, 4144.10256390, 4126.92307665, 1635.51281496, 4163.71794851, 4131.53846126, 4146.53846133,12.0
4182.43589730, 4168.71794858, 4167.30769210, 4093.33333299, 4127.30769203, 4187.56410243, 4175.25641012, 4145.12820492, 4144.99999980, 4127.05128178, 1784.61537941, 4159.99999980, 4121.92307665, 4146.41025621,12.0
4188.46153833, 4175.12820499, 4183.33333320, 4108.46153819, 4125.12820485, 4187.69230756, 4181.79487166, 4161.92307672, 4164.74358954, 4127.05128178, 1769.87178959, 4179.61538448, 4121.53846126, 4146.15384595,12.0
4179.23076910, 4188.07692294, 4190.38461525, 4116.79487152, 4124.74358947, 4184.74358961, 4180.25641012, 4174.87179474, 4173.20512807, 4127.05128178, 1737.94871260, 4194.35897422, 4122.69230742, 4146.66666646,12.0
4182.30769217, 4196.53846140, 4196.53846140, 4121.02564075, 4124.99999973, 4200.38461525, 4193.84615371, 4188.33333320, 4182.56410243, 4127.05128178, 1777.82050761, 4205.38461532, 4124.35897408, 4147.94871774,12.0
4179.74358961, 4196.28205115, 4194.99999986, 4116.79487152, 4125.64102537, 4201.66666660, 4201.92307686, 4195.76923063, 4188.46153833, 4127.17948691, 1790.89743069, 4203.46153840, 4125.64102537, 4148.07692287,12.0
4172.56410243, 4183.58974345, 4180.12820499, 4096.79487145, 4124.99999973, 4183.07692294, 4187.94871781, 4193.33333320, 4183.58974345, 4127.17948691, 1773.20512300, 4187.56410243, 4125.51282024, 4149.48717928,12.0
4177.17948704, 4179.10256397, 4177.05128192, 4086.15384581, 4125.64102537, 4184.10256397, 4189.74358961, 4197.30769217, 4186.79487166, 4125.89743562, 1795.64102043, 4183.46153833, 4125.64102537, 4148.33333313,12.0
4172.17948704, 4183.33333320, 4183.84615371, 4103.07692280, 4127.94871767, 4195.12820499, 4203.71794865, 4191.53846140, 4187.82051269, 4127.56410229, 1831.28204614, 4188.71794858, 4123.33333306, 4144.48717928,12.0
4172.17948704, 4179.61538448, 4180.12820499, 4116.15384588, 4127.56410229, 4189.74358961, 4194.23076910, 4168.33333320, 4170.25641012, 4127.69230742, 1846.15384109, 4185.12820499, 4119.87179460, 4144.99999980,12.0
4171.28205115, 4178.97435884, 4177.30769217, 4108.58974332, 4126.53846126, 4193.71794858, 4189.10256397, 4168.33333320, 4167.94871774, 4123.33333306, 1859.61537955, 4182.69230756, 4121.92307665, 4146.92307672,12.0
4166.41025621, 4181.66666653, 4180.64102551, 4102.82051255, 4126.02564075, 4201.28205122, 4189.48717935, 4176.53846140, 4176.02564089, 4126.92307665, 1888.20512321, 4185.64102551, 4122.17948691, 4145.25641005,12.0
4170.25641012, 4176.02564089, 4181.15384602, 4103.84615357, 4125.38461511, 4184.99999986, 4169.23076910, 4158.46153826, 4165.51282031, 4137.17948697, 1912.82050789, 4184.35897422, 4123.20512793, 4144.35897415,12.0
4163.07692287, 4177.56410243, 4186.41025628, 4106.79487152, 4124.99999973, 4174.87179474, 4164.99999980, 4151.28205108, 4168.58974345, 4138.58974339, 1931.15384122, 4189.48717935, 4129.74358947, 4145.89743569,12.0
4163.07692287, 4193.84615371, 4193.20512807, 4107.82051255, 4124.10256383, 4188.20512807, 4187.30769217, 4177.05128192, 4188.20512807, 4134.61538434, 1956.53845668, 4203.46153840, 4132.30769203, 4146.53846133,12.0
4166.66666646, 4192.43589730, 4191.92307679, 4102.56410229, 4124.10256383, 4193.58974345, 4194.35897422, 4193.20512807, 4183.46153833, 4135.64102544, 1976.02563623, 4205.25641019, 4127.30769203, 4144.87179467,12.0
4164.99999980, 4174.10256397, 4188.46153833, 4097.43589709, 4124.99999973, 4189.35897422, 4188.33333320, 4181.79487166, 4174.35897422, 4136.79487159, 1985.89743111, 4192.56410243, 4122.56410229, 4145.51282031,12.0
4169.87179474, 4168.97435884, 4184.35897422, 4101.66666632, 4126.02564075, 4192.69230756, 4184.10256397, 4169.48717935, 4184.87179474, 4135.25640998, 2009.61537989, 4189.48717935, 4126.02564075, 4148.84615364,12.0
4161.66666646, 4172.69230756, 4178.71794858, 4099.35897402, 4127.69230742, 4185.12820499, 4172.30769217, 4163.46153826, 4180.76923063, 4136.02564082, 2035.12820048, 4191.15384602, 4129.99999973, 4148.33333313,12.0
4160.12820492, 4169.61538448, 4177.94871781, 4094.48717914, 4126.41025614, 4176.28205115, 4167.56410236, 4160.12820492, 4163.46153826, 4135.12820485, 2045.25640560, 4184.99999986, 4123.71794844, 4146.15384595,12.0
4163.97435877, 4162.43589723, 4176.66666653, 4097.30769196, 4125.64102537, 4183.58974345, 4172.82051269, 4158.71794851, 4162.94871774, 4133.46153819, 2052.17948253, 4178.20512807, 4117.30769203, 4145.12820492,12.0
4157.69230749, 4165.25641005, 4171.79487166, 4092.43589709, 4127.82051255, 4182.94871781, 4168.07692287, 4161.02564082, 4168.97435884, 4137.56410236, 2061.66666201, 4170.38461525, 4120.51282024, 4144.35897415,12.0
4160.12820492, 4176.15384602, 4176.66666653, 4098.33333299, 4125.38461511, 4183.20512807, 4168.97435884, 4167.94871774, 4174.35897422, 4134.10256383, 2078.84614926, 4173.97435884, 4124.35897408, 4145.76923056,12.0
4153.84615364, 4171.53846140, 4179.87179474, 4110.89743562, 4124.10256383, 4181.15384602, 4171.79487166, 4168.46153833, 4175.38461525, 4123.46153819, 2094.99999542, 4182.17948704, 4122.69230742, 4146.53846133,12.0
4152.30769210, 4170.25641012, 4177.94871781, 4112.56410229, 4126.66666639, 4175.89743576, 4166.41025621, 4173.07692294, 4173.58974345, 4127.43589716, 2108.97435446, 4182.69230756, 4120.25640998, 4145.12820492,12.0
4158.20512800, 4190.51282038, 4185.76923063, 4115.89743562, 4124.10256383, 4190.12820499, 4180.64102551, 4176.53846140, 4178.71794858, 4139.10256390, 2130.25640574, 4191.02564089, 4127.05128178, 4146.02564082,12.0
4150.89743569, 4190.12820499, 4193.07692294, 4115.38461511, 4121.15384588, 4199.10256397, 4193.84615371, 4166.66666646, 4177.82051269, 4138.46153826, 2144.35896992, 4197.82051269, 4133.71794844, 4148.07692287,12.0
4153.71794851, 4153.46153826, 4176.53846140, 4093.97435863, 4125.38461511, 4174.99999986, 4157.82051262, 4140.89743569, 4155.89743569, 4134.35897408, 2147.30768786, 4177.43589730, 4122.69230742, 4145.64102544,12.0
4152.56410236, 4136.92307672, 4157.43589723, 4071.92307658, 4129.35897408, 4157.94871774, 4124.99999973, 4129.74358947, 4142.94871774, 4136.79487159, 2159.87179043, 4154.87179467, 4113.71794844, 4143.20512800,12.0
4146.66666646, 4153.33333313, 4168.07692287, 4076.92307658, 4126.79487152, 4175.25641012, 4148.07692287, 4149.87179467, 4160.76923056, 4137.05128185, 2181.28204691, 4166.15384595, 4123.20512793, 4145.76923056,12.0
4148.58974339, 4158.84615364, 4182.05128192, 4090.51282017, 4124.61538434, 4183.97435884, 4175.64102551, 4168.97435884, 4173.46153833, 4135.76923056, 2197.82050845, 4184.99999986, 4128.46153819, 4146.53846133,12.0
4142.30769210, 4153.97435877, 4174.35897422, 4092.05128171, 4125.76923050, 4174.35897422, 4171.28205115, 4163.97435877, 4165.51282031, 4135.76923056, 2212.82050852, 4180.12820499, 4122.17948691, 4145.25641005,12.0
4146.92307672, 4155.51282031, 4167.69230749, 4085.89743555, 4127.56410229, 4174.48717935, 4160.89743569, 4144.61538441, 4157.82051262, 4134.48717921, 2226.15384185, 4167.82051262, 4122.30769203, 4146.53846133,12.0
4148.84615364, 4162.69230749, 4177.56410243, 4095.51282017, 4126.41025614, 4188.33333320, 4165.51282031, 4153.20512800, 4168.58974345, 4135.12820485, 2237.30768807, 4178.71794858, 4126.41025614, 4145.64102544,12.0
4145.51282031, 4167.43589723, 4181.15384602, 4102.82051255, 4124.10256383, 4191.92307679, 4176.02564089, 4172.43589730, 4174.87179474, 4135.12820485, 2245.38461115, 4189.74358961, 4124.48717921, 4143.84615364,12.0
4149.61538441, 4155.25641005, 4166.41025621, 4077.94871761, 4125.12820485, 4170.25641012, 4166.41025621, 4153.46153826, 4150.89743569, 4134.87179460, 2248.58973935, 4164.74358954, 4119.23076896, 4143.58974339,12.0
4140.76923056, 4138.33333313, 4154.48717928, 4064.48717907, 4126.53846126, 4154.35897415, 4145.64102544, 4130.89743562, 4133.46153819, 4135.25640998, 2260.12820089, 4142.05128185, 4118.20512793, 4143.97435877,12.0
4144.10256390, 4135.89743569, 4159.87179467, 4078.33333299, 4123.20512793, 4162.30769210, 4143.71794851, 4142.30769210, 4147.82051262, 4135.12820485, 2279.61538045, 4152.05128185, 4121.53846126, 4145.12820492,12.0
4148.71794851, 4147.43589723, 4167.69230749, 4085.76923043, 4121.41025614, 4173.84615371, 4157.94871774, 4154.61538441, 4158.33333313, 4134.35897408, 2296.66666250, 4162.17948697, 4121.02564075, 4145.51282031,12.0
4142.17948697, 4158.58974339, 4169.61538448, 4087.05128171, 4123.20512793, 4177.43589730, 4171.28205115, 4154.10256390, 4157.05128185, 4136.15384595, 2314.10256001, 4167.94871774, 4122.69230742, 4145.51282031,12.0
4146.66666646, 4153.71794851, 4168.20512807, 4084.48717914, 4122.56410229, 4173.07692294, 4166.66666646, 4160.51282031, 4160.25641005, 4134.99999973, 2327.43589334, 4170.89743576, 4124.74358947, 4146.28205108,12.0
4141.15384595, 4140.38461518, 4164.74358954, 4081.28205094, 4123.97435870, 4167.94871774, 4149.87179467, 4159.48717928, 4163.58974339, 4130.64102537, 2335.25640623, 4163.46153826, 4120.64102537, 4145.12820492,12.0
4139.10256390, 4145.38461518, 4169.10256397, 4091.02564068, 4126.53846126, 4175.51282038, 4154.87179467, 4155.12820492, 4168.07692287, 4132.30769203, 2355.76922674, 4168.71794858, 4120.51282024, 4144.10256390,12.0
4139.99999980, 4152.30769210, 4171.79487166, 4093.71794837, 4126.41025614, 4184.10256397, 4174.74358961, 4163.07692287, 4171.41025628, 4136.53846133, 2373.46153450, 4174.35897422, 4123.58974332, 4146.41025621,12.0
4131.79487152, 4140.76923056, 4161.41025621, 4077.05128171, 4125.64102537, 4176.79487166, 4171.28205115, 4160.76923056, 4161.15384595, 4135.64102544, 2374.23076527, 4156.15384595, 4122.82051255, 4146.92307672,12.0
4136.41025621, 4141.41025621, 4163.33333313, 4081.15384581, 4125.76923050, 4178.20512807, 4162.05128185, 4156.02564082, 4162.43589723, 4133.20512793, 2383.07691912, 4153.20512800, 4123.07692280, 4144.99999980,12.0
4136.28205108, 4153.97435877, 4177.17948704, 4099.74358940, 4126.02564075, 4190.12820499, 4171.28205115, 4173.33333320, 4178.20512807, 4133.84615357, 2399.87179098, 4172.30769217, 4124.48717921, 4144.35897415,12.0
4136.02564082, 4153.46153826, 4173.33333320, 4094.48717914, 4122.05128178, 4190.64102551, 4174.99999986, 4177.56410243, 4169.48717935, 4135.51282031, 2401.02563714, 4164.48717928, 4120.89743562, 4145.25641005,12.0
4137.82051262, 4140.76923056, 4158.84615364, 4076.53846119, 4120.51282024, 4178.71794858, 4160.25641005, 4148.07692287, 4147.82051262, 4130.38461511, 2399.48717560, 4140.51282031, 4117.82051255, 4145.12820492,12.0
4129.87179460, 4133.58974332, 4160.64102544, 4074.10256376, 4124.23076896, 4170.38461525, 4149.35897415, 4141.28205108, 4153.20512800, 4122.69230742, 2417.17948329, 4143.07692287, 4119.99999973, 4145.12820492,12.0
4133.97435870, 4141.41025621, 4168.07692287, 4084.23076889, 4125.38461511, 4177.43589730, 4155.38461518, 4162.17948697, 4168.71794858, 4126.66666639, 2442.56409875, 4158.84615364, 4124.35897408, 4144.74358954,12.0
4132.94871767, 4141.02564082, 4162.69230749, 4082.82051248, 4124.87179460, 4179.10256397, 4157.43589723, 4159.87179467, 4162.56410236, 4136.66666646, 2452.94871413, 4156.02564082, 4122.43589716, 4142.94871774,12.0
4130.38461511, 4127.43589716, 4159.61538441, 4077.69230735, 4125.12820485, 4166.92307672, 4148.20512800, 4143.46153826, 4149.87179467, 4136.02564082, 2458.71794490, 4149.61538441, 4118.07692280, 4143.84615364,12.0
4136.41025621, 4122.17948691, 4167.94871774, 4082.17948684, 4124.74358947, 4171.41025628, 4154.61538441, 4154.99999980, 4156.02564082, 4133.58974332, 2478.97435523, 4161.79487159, 4126.66666639, 4145.51282031,12.0
4131.79487152, 4131.28205101, 4168.84615371, 4083.71794837, 4125.12820485, 4182.82051269, 4173.07692294, 4171.92307679, 4163.97435877, 4136.79487159, 2497.17948350, 4165.51282031, 4131.15384588, 4145.89743569,12.0
4135.38461518, 4131.66666639, 4157.43589723, 4075.51282017, 4123.33333306, 4165.76923056, 4160.89743569, 4151.41025621, 4156.92307672, 4135.76923056, 2498.46153478, 4145.25641005, 4121.66666639, 4146.92307672,12.0
4133.97435870, 4120.25640998, 4151.53846133, 4068.33333292, 4120.76923050, 4150.64102544, 4137.56410236, 4129.87179460, 4150.25641005, 4132.56410229, 2506.92307324, 4136.28205108, 4117.56410229, 4146.53846133,12.0
4126.66666639, 4120.25640998, 4153.71794851, 4067.69230728, 4123.33333306, 4168.07692287, 4143.84615364, 4142.17948697, 4153.07692287, 4136.28205108, 2523.71794504, 4143.07692287, 4121.92307665, 4145.38461518,12.0
4130.51282024, 4121.41025614, 4151.66666646, 4067.82051241, 4125.64102537, 4176.92307679, 4151.41025621, 4149.99999980, 4152.05128185, 4133.97435870, 2527.82050921, 4137.69230749, 4121.53846126, 4145.38461518,12.0
4121.79487152, 4109.35897408, 4143.84615364, 4060.89743548, 4123.20512793, 4154.87179467, 4130.38461511, 4130.25640998, 4137.69230749, 4122.17948691, 2533.46153485, 4120.38461511, 4113.97435870, 4144.87179467,12.0
4122.05128178, 4096.53846119, 4136.66666646, 4045.76923036, 4124.35897408, 4135.89743569, 4106.79487152, 4108.33333306, 4116.02564075, 4122.82051255, 2546.79486819, 4110.89743562, 4109.10256383, 4144.87179467,12.0
4127.17948691, 4096.66666632, 4139.74358954, 4047.56410215, 4128.33333306, 4146.41025621, 4122.05128178, 4115.76923050, 4118.20512793, 4136.02564082, 2553.46153485, 4118.71794844, 4111.53846126, 4144.48717928,12.0
4122.05128178, 4112.17948691, 4152.43589723, 4075.38461504, 4124.74358947, 4166.92307672, 4153.84615364, 4144.23076903, 4148.71794851, 4138.46153826, 2570.25640672, 4138.84615364, 4119.87179460, 4143.71794851,12.0
4127.05128178, 4127.82051255, 4156.41025621, 4088.97435863, 4121.53846126, 4168.97435884, 4154.10256390, 4152.43589723, 4157.69230749, 4133.33333306, 2595.51281704, 4148.58974339, 4126.15384588, 4144.61538441,12.0
4123.20512793, 4122.94871767, 4146.28205108, 4068.97435856, 4124.10256383, 4155.89743569, 4136.92307672, 4133.71794844, 4139.61538441, 4134.87179460, 2600.12820166, 4134.74358947, 4118.58974332, 4145.76923056,12.0
4122.17948691, 4104.61538434, 4138.97435877, 4047.94871754, 4123.33333306, 4150.25641005, 4132.69230742, 4123.58974332, 4134.10256383, 4137.05128185, 2598.33332986, 4116.15384588, 4109.87179460, 4147.56410236,12.0
4123.58974332, 4096.28205094, 4138.07692287, 4046.15384574, 4122.30769203, 4154.61538441, 4137.69230749, 4129.61538434, 4134.99999973, 4136.02564082, 2608.97435550, 4109.87179460, 4112.30769203, 4145.38461518,12.0
4117.69230742, 4101.92307658, 4136.28205108, 4051.66666625, 4124.10256383, 4155.89743569, 4141.92307672, 4135.38461518, 4131.79487152, 4136.15384595, 2620.25640679, 4114.48717921, 4115.25640998, 4141.53846133,12.0
4123.84615357, 4107.43589716, 4136.02564082, 4057.30769189, 4124.48717921, 4151.79487159, 4139.10256390, 4138.84615364, 4135.25640998, 4136.15384595, 2630.64102224, 4116.79487152, 4112.82051255, 4142.94871774,12.0
4121.02564075, 4101.53846119, 4135.89743569, 4051.92307651, 4126.66666639, 4145.38461518, 4124.35897408, 4137.69230749, 4134.10256383, 4136.15384595, 2641.92307352, 4106.79487152, 4109.61538434, 4146.79487159,12.0
4120.12820485, 4101.41025607, 4136.66666646, 4047.43589702, 4127.05128178, 4146.66666646, 4123.71794844, 4139.10256390, 4133.07692280, 4136.15384595, 2655.76922737, 4102.17948684, 4111.53846126, 4147.43589723,12.0
4124.23076896, 4120.64102537, 4144.61538441, 4063.20512779, 4124.35897408, 4158.46153826, 4151.02564082, 4151.15384595, 4152.43589723, 4136.15384595, 2675.12820180, 4121.28205101, 4117.94871767, 4146.02564082,12.0
4119.35897408, 4130.89743562, 4150.76923056, 4074.87179453, 4123.58974332, 4167.05128185, 4162.69230749, 4152.30769210, 4159.74358954, 4136.15384595, 2689.61538128, 4134.35897408, 4119.87179460, 4146.28205108,12.0
4125.12820485, 4124.35897408, 4147.43589723, 4067.56410215, 4123.46153819, 4165.64102544, 4151.41025621, 4136.92307672, 4138.07692287, 4136.15384595, 2694.10256084, 4123.84615357, 4113.20512793, 4146.02564082,12.0
4120.64102537, 4116.15384588, 4144.74358954, 4062.94871754, 4123.97435870, 4158.71794851, 4152.82051262, 4135.76923056, 4130.51282024, 4136.15384595, 2703.33333007, 4121.28205101, 4112.82051255, 4145.64102544,12.0
4115.38461511, 4114.87179460, 4147.69230749, 4070.76923043, 4125.38461511, 4158.07692287, 4155.64102544, 4142.94871774, 4143.84615364, 4136.15384595, 2718.33333007, 4132.05128178, 4122.69230742, 4147.17948697,12.0
4122.94871767, 4122.30769203, 4149.10256390, 4075.76923043, 4123.84615357, 4160.38461518, 4138.46153826, 4138.84615364, 4147.56410236, 4136.15384595, 2727.43589424, 4133.71794844, 4123.46153819, 4146.41025621,12.0
4116.02564075, 4122.94871767, 4151.15384595, 4070.25640991, 4120.12820485, 4155.25641005, 4137.56410236, 4148.20512800, 4151.15384595, 4136.15384595, 2738.71794553, 4133.58974332, 4120.38461511, 4142.82051262,12.0
4115.25640998, 4120.64102537, 4162.30769210, 4069.99999966, 4121.41025614, 4158.07692287, 4157.69230749, 4168.84615371, 4164.23076903, 4136.15384595, 2758.84615072, 4150.12820492, 4122.17948691, 4144.35897415,12.0
4118.20512793, 4121.02564075, 4162.43589723, 4075.12820478, 4125.89743562, 4162.69230749, 4150.89743569, 4165.25641005, 4164.35897415, 4136.15384595, 2771.53845842, 4158.20512800, 4123.33333306, 4146.79487159,12.0
4115.64102537, 4104.87179460, 4144.48717928, 4066.28205087, 4124.74358947, 4145.12820492, 4127.17948691, 4141.92307672, 4149.74358954, 4136.15384595, 2768.71794559, 4136.79487159, 4121.53846126, 4145.76923056,12.0
4115.38461511, 4095.64102530, 4143.20512800, 4053.33333292, 4123.84615357, 4139.74358954, 4136.92307672, 4141.92307672, 4146.02564082, 4136.15384595, 2769.99999688, 4123.20512793, 4117.17948691, 4146.28205108,12.0
4108.84615357, 4121.66666639, 4158.58974339, 4064.10256369, 4125.25640998, 4162.69230749, 4165.51282031, 4162.69230749, 4152.82051262, 4136.15384595, 2788.97435585, 4139.87179467, 4117.05128178, 4144.35897415,12.0
4112.69230742, 4130.12820485, 4154.74358954, 4076.28205094, 4123.33333306, 4169.10256397, 4163.84615364, 4159.10256390, 4142.94871774, 4136.15384595, 2802.05127900, 4141.66666646, 4122.05128178, 4142.30769210,12.0
4112.05128178, 4102.30769196, 4139.74358954, 4061.53846113, 4123.71794844, 4161.92307672, 4147.43589723, 4141.28205108, 4130.64102537, 4136.15384595, 2802.56409951, 4118.33333306, 4121.53846126, 4144.10256390,12.0
4108.07692280, 4102.56410229, 4146.79487159, 4054.23076882, 4123.84615357, 4172.17948704, 4156.53846133, 4147.82051262, 4147.69230749, 4136.15384595, 2813.07692002, 4126.41025614, 4116.53846126, 4145.12820492,12.0
4118.46153819, 4122.05128178, 4153.46153826, 4066.66666625, 4121.15384588, 4167.05128185, 4160.76923056, 4153.07692287, 4154.23076903, 4136.15384595, 2828.58974061, 4146.15384595, 4115.51282024, 4142.94871774,12.0
4115.51282024, 4108.71794844, 4143.07692287, 4062.82051241, 4125.76923050, 4142.05128185, 4140.12820492, 4137.69230749, 4132.56410229, 4136.15384595, 2829.87179189, 4132.69230742, 4119.35897408, 4145.64102544,12.0
4113.97435870, 4097.94871761, 4146.66666646, 4053.07692266, 4126.15384588, 4143.97435877, 4136.02564082, 4138.33333313, 4132.56410229, 4136.15384595, 2835.64102266, 4123.84615357, 4122.17948691, 4147.69230749,12.0
4113.71794844, 4112.94871767, 4153.46153826, 4063.71794830, 4120.25640998, 4149.35897415, 4141.02564082, 4144.35897415, 4149.23076903, 4136.15384595, 2854.23076625, 4132.82051255, 4121.15384588, 4144.10256390,12.0
4107.56410229, 4118.84615357, 4142.56410236, 4067.82051241, 4121.15384588, 4142.82051262, 4134.61538434, 4139.35897415, 4145.76923056, 4136.15384595, 2863.71794580, 4129.35897408, 4118.46153819, 4143.97435877,12.0
4114.74358947, 4107.56410229, 4136.92307672, 4057.30769189, 4125.51282024, 4155.89743569, 4146.79487159, 4150.76923056, 4143.71794851, 4136.15384595, 2868.71794580, 4120.76923050, 4119.74358947, 4145.12820492,12.0
4110.51282024, 4097.56410222, 4141.15384595, 4059.35897395, 4125.12820485, 4162.82051262, 4153.58974339, 4160.64102544, 4151.02564082, 4136.15384595, 2875.76922785, 4122.82051255, 4119.87179460, 4144.87179467,12.0
4107.17948691, 4107.30769203, 4140.89743569, 4065.76923036, 4122.43589716, 4149.74358954, 4138.58974339, 4147.17948697, 4142.17948697, 4136.15384595, 2884.35897144, 4124.23076896, 4115.89743562, 4146.41025621,12.0
4109.10256383, 4119.35897408, 4141.28205108, 4062.56410215, 4123.46153819, 4152.94871774, 4146.41025621, 4142.05128185, 4134.48717921, 4136.15384595, 2899.99999715, 4126.28205101, 4118.58974332, 4146.66666646,12.0
4103.58974332, 4109.48717921, 4141.92307672, 4064.99999959, 4125.89743562, 4164.61538441, 4156.28205108, 4145.89743569, 4138.46153826, 4136.15384595, 2912.56409972, 4133.97435870, 4121.92307665, 4145.38461518,12.0
4111.41025614, 4108.46153819, 4140.76923056, 4077.05128171, 4125.76923050, 4162.17948697, 4145.76923056, 4137.94871774, 4144.74358954, 4136.15384595, 2918.33333049, 4139.74358954, 4118.84615357, 4145.12820492,12.0
4108.07692280, 4126.53846126, 4145.76923056, 4077.82051248, 4123.58974332, 4161.53846133, 4151.02564082, 4140.89743569, 4157.43589723, 4136.15384595, 2928.33333056, 4141.02564082, 4121.79487152, 4144.48717928,12.0
4103.97435870, 4115.76923050, 4146.02564082, 4064.74358933, 4123.07692280, 4164.10256390, 4154.35897415, 4150.38461518, 4157.17948697, 4136.15384595, 2940.12820235, 4133.20512793, 4126.02564075, 4144.99999980,12.0
4111.02564075, 4085.51282017, 4132.56410229, 4057.82051241, 4125.38461511, 4152.69230749, 4138.20512800, 4143.46153826, 4139.74358954, 4136.15384595, 2941.02563825, 4122.05128178, 4123.84615357, 4145.51282031,12.0
4105.25640998, 4090.76923043, 4128.20512793, 4059.87179446, 4124.35897408, 4142.69230749, 4137.69230749, 4141.02564082, 4137.82051262, 4136.15384595, 2948.33333056, 4124.23076896, 4122.56410229, 4143.07692287,12.0
4107.69230742, 4107.56410229, 4136.79487159, 4062.17948677, 4123.46153819, 4149.61538441, 4145.76923056, 4154.23076903, 4149.74358954, 4136.15384595, 2964.74358704, 4129.87179460, 4121.79487152, 4143.33333313,12.0
4107.43589716, 4098.97435863, 4132.69230742, 4064.61538420, 4126.28205101, 4152.56410236, 4139.48717928, 4162.05128185, 4155.64102544, 4136.15384595, 2969.10256140, 4123.20512793, 4118.71794844, 4144.61538441,12.0
4105.89743562, 4099.87179453, 4124.35897408, 4063.33333292, 4125.25640998, 4145.89743569, 4136.28205108, 4157.17948697, 4154.10256390, 4136.15384595, 2971.41025370, 4119.74358947, 4120.12820485, 4144.48717928,12.0
4112.69230742, 4110.76923050, 4129.87179460, 4057.69230728, 4122.82051255, 4151.02564082, 4143.58974339, 4147.43589723, 4147.30769210, 4136.15384595, 2985.89743319, 4128.33333306, 4122.69230742, 4144.23076903,12.0
4108.20512793, 4093.07692273, 4128.46153819, 4053.97435856, 4124.87179460, 4146.41025621, 4133.46153819, 4129.23076896, 4134.61538434, 4136.15384595, 2993.07692044, 4118.58974332, 4121.15384588, 4144.35897415,12.0
4113.97435870, 4084.87179453, 4122.94871767, 4060.38461497, 4125.12820485, 4134.23076896, 4121.92307665, 4115.25640998, 4127.69230742, 4136.15384595, 2995.12820249, 4108.33333306, 4122.43589716, 4144.74358954,12.0
4114.61538434, 4116.28205101, 4137.69230749, 4080.64102530, 4124.35897408, 4155.64102544, 4142.17948697, 4134.23076896, 4138.20512800, 4136.15384595, 3013.71794608, 4135.25640998, 4126.66666639, 4144.48717928,12.0
4105.12820485, 4123.33333306, 4146.41025621, 4085.38461504, 4126.28205101, 4177.17948704, 4160.38461518, 4151.41025621, 4145.89743569, 4136.15384595, 3028.71794615, 4148.07692287, 4125.38461511, 4146.02564082,12.0
4107.94871767, 4100.38461504, 4130.38461511, 4065.64102523, 4122.43589716, 4156.02564082, 4144.48717928, 4134.99999973, 4136.15384595, 4136.15384595, 3023.58974102, 4119.10256383, 4121.79487152, 4144.99999980,12.0
4100.51282017, 4100.76923043, 4123.58974332, 4060.51282010, 4118.71794844, 4136.02564082, 4132.17948691, 4135.25640998, 4137.69230749, 4136.15384595, 3024.87179230, 4114.10256383, 4123.07692280, 4142.94871774,12.0
4100.51282017, 4108.46153819, 4136.53846133, 4076.53846119, 4120.89743562, 4148.33333313, 4146.02564082, 4160.76923056, 4155.25641005, 4136.15384595, 3039.35897179, 4141.41025621, 4126.79487152, 4146.79487159,12.0
4105.12820485, 4101.28205094, 4139.23076903, 4080.25640991, 4120.12820485, 4160.38461518, 4155.64102544, 4165.89743569, 4157.17948697, 4136.15384595, 3044.35897179, 4146.02564082, 4125.25640998, 4147.43589723,12.0
4099.23076889, 4109.10256383, 4131.79487152, 4079.23076889, 4119.35897408, 4158.58974339, 4156.79487159, 4160.64102544, 4153.58974339, 4136.15384595, 3040.12820256, 4135.12820485, 4124.23076896, 4144.61538441,12.0
4102.17948684, 4116.28205101, 4127.30769203, 4079.74358940, 4126.53846126, 4154.99999980, 4149.61538441, 4152.17948697, 4154.35897415, 4136.15384595, 3039.61538205, 4130.64102537, 4123.84615357, 4144.99999980,12.0
4099.61538427, 4096.41025607, 4122.43589716, 4061.53846113, 4128.07692280, 4148.71794851, 4133.71794844, 4133.20512793, 4143.20512800, 4136.15384595, 3040.64102307, 4119.10256383, 4120.38461511, 4144.23076903,12.0
4103.07692280, 4093.20512786, 4125.89743562, 4061.92307651, 4119.87179460, 4152.05128185, 4134.99999973, 4132.43589716, 4141.92307672, 4136.15384595, 3041.53845897, 4119.61538434, 4121.53846126, 4141.66666646,12.0
4104.48717921, 4106.66666639, 4136.28205108, 4082.17948684, 4119.87179460, 4159.61538441, 4143.33333313, 4143.07692287, 4153.46153826, 4136.15384595, 3040.76922820, 4135.76923056, 4124.23076896, 4143.20512800,12.0
4093.97435863, 4104.87179460, 4136.66666646, 4078.71794837, 4124.23076896, 4155.51282031, 4141.53846133, 4137.17948697, 4148.46153826, 4136.15384595, 3036.41025384, 4136.66666646, 4121.92307665, 4146.15384595,12.0
4100.38461504, 4109.74358947, 4133.71794844, 4073.07692273, 4123.97435870, 4150.64102544, 4142.17948697, 4128.84615357, 4142.82051262, 4136.15384595, 3029.23076666, 4133.20512793, 4122.56410229, 4145.64102544,12.0
4101.41025607, 4110.12820485, 4135.89743569, 4081.79487145, 4124.87179460, 4152.05128185, 4148.07692287, 4135.89743569, 4149.48717928, 4136.15384595, 3021.66666410, 4139.35897415, 4122.30769203, 4144.61538441,12.0
4100.64102530, 4100.76923043, 4139.61538441, 4081.92307658, 4123.71794844, 4156.79487159, 4147.82051262, 4149.48717928, 4154.23076903, 4136.15384595, 3010.25640762, 4144.99999980, 4121.53846126, 4144.35897415,12.0
4106.02564075, 4105.51282024, 4137.69230749, 4076.28205094, 4121.79487152, 4160.38461518, 4149.48717928, 4161.92307672, 4163.20512800, 4136.15384595, 2997.17948454, 4146.15384595, 4132.43589716, 4144.87179467,12.0
4100.38461504, 4112.17948691, 4134.48717921, 4085.25640991, 4124.35897408, 4161.92307672, 4159.23076903, 4172.82051269, 4178.07692294, 4136.15384595, 2993.46153582, 4139.87179467, 4135.25640998, 4146.79487159,12.0
4103.33333306, 4113.84615357, 4132.05128178, 4090.89743555, 4125.51282024, 4161.02564082, 4158.97435877, 4171.28205115, 4172.56410243, 4136.15384595, 2991.41025377, 4130.76923050, 4117.30769203, 4146.15384595,12.0
4100.25640991, 4106.28205101, 4128.20512793, 4075.64102530, 4124.23076896, 4153.33333313, 4149.74358954, 4160.51282031, 4157.82051262, 4136.15384595, 2979.23076652, 4127.17948691, 4111.41025614, 4144.61538441,12.0
4096.15384581, 4091.92307658, 4124.74358947, 4069.23076882, 4124.35897408, 4150.64102544, 4151.28205108, 4152.69230749, 4156.41025621, 4136.15384595, 2977.69230499, 4126.53846126, 4123.84615357, 4148.07692287,12.0
4102.43589709, 4089.10256376, 4122.56410229, 4073.33333299, 4123.97435870, 4156.28205108, 4150.89743569, 4145.51282031, 4151.53846133, 4136.15384595, 2986.92307429, 4123.07692280, 4124.61538434, 4148.84615364,12.0
4093.58974325, 4106.15384588, 4126.53846126, 4074.48717914, 4122.94871767, 4154.61538441, 4139.23076903, 4135.25640998, 4145.12820492, 4136.15384595, 2988.33333070, 4129.74358947, 4118.84615357, 4143.84615364,12.0
4094.74358940, 4118.58974332, 4136.28205108, 4079.99999966, 4122.30769203, 4148.20512800, 4133.46153819, 4125.25640998, 4144.99999980, 4136.15384595, 2996.53845890, 4143.33333313, 4122.69230742, 4144.35897415,12.0
4098.07692273, 4108.46153819, 4136.79487159, 4084.74358940, 4123.84615357, 4150.89743569, 4138.97435877, 4121.15384588, 4141.92307672, 4136.15384595, 3007.56409993, 4143.33333313, 4122.94871767, 4147.30769210,12.0
4092.56410222, 4105.25640998, 4130.25640998, 4089.23076889, 4124.23076896, 4154.10256390, 4143.71794851, 4134.10256383, 4142.05128185, 4136.15384595, 3010.76922813, 4139.35897415, 4120.64102537, 4144.61538441,12.0
4097.56410222, 4114.23076896, 4128.97435870, 4093.07692273, 4122.05128178, 4154.48717928, 4146.79487159, 4157.82051262, 4148.84615364, 4136.15384595, 3021.53845897, 4140.38461518, 4122.56410229, 4142.82051262,12.0
4096.02564068, 4107.82051255, 4129.74358947, 4086.53846119, 4120.38461511, 4164.99999980, 4161.15384595, 4167.30769210, 4148.84615364, 4136.15384595, 3034.74358718, 4134.74358947, 4121.92307665, 4146.53846133,12.0
4100.38461504, 4093.58974325, 4124.87179460, 4070.38461504, 4120.12820485, 4167.82051262, 4171.41025628, 4161.28205108, 4144.35897415, 4136.15384595, 3037.17948461, 4119.23076896, 4116.92307665, 4147.17948697,12.0
4098.71794837, 4091.41025607, 4116.79487152, 4059.35897395, 4122.82051255, 4150.51282031, 4154.87179467, 4147.30769210, 4139.48717928, 4136.15384595, 3042.30768974, 4105.38461511, 4114.74358947, 4143.71794851,12.0
4090.64102530, 4091.41025607, 4115.25640998, 4060.89743548, 4124.87179460, 4142.82051262, 4134.61538434, 4132.56410229, 4128.20512793, 4136.15384595, 3059.61538212, 4106.79487152, 4119.48717921, 4144.99999980,12.0
4099.74358940, 4086.15384581, 4118.58974332, 4068.97435856, 4123.58974332, 4152.94871774, 4140.76923056, 4130.64102537, 4127.69230742, 4136.15384595, 3077.30768981, 4119.10256383, 4124.35897408, 4146.92307672,12.0
4098.07692273, 4086.66666632, 4116.02564075, 4073.07692273, 4122.94871767, 4148.71794851, 4147.05128185, 4132.05128178, 4139.74358954, 4136.15384595, 3085.76922834, 4120.12820485, 4118.84615357, 4146.15384595,12.0
4096.92307658, 4090.89743555, 4116.02564075, 4074.35897402, 4122.94871767, 4142.69230749, 4135.25640998, 4125.89743562, 4144.35897415, 4136.15384595, 3091.92307449, 4113.07692280, 4113.58974332, 4147.56410236,12.0
4098.33333299, 4106.79487152, 4127.05128178, 4088.33333299, 4124.23076896, 4155.12820492, 4142.17948697, 4142.43589723, 4152.69230749, 4136.15384595, 3102.82051039, 4127.82051255, 4119.87179460, 4146.79487159,12.0
4093.97435863, 4129.48717921, 4138.46153826, 4100.51282017, 4125.89743562, 4158.71794851, 4163.33333313, 4172.56410243, 4166.28205108, 4136.15384595, 3107.05127962, 4154.10256390, 4121.53846126, 4144.74358954,12.0
4100.64102530, 4119.61538434, 4137.82051262, 4093.33333299, 4123.71794844, 4156.79487159, 4160.12820492, 4163.20512800, 4156.92307672, 4136.15384595, 3111.66666424, 4153.71794851, 4116.79487152, 4146.02564082,12.0
4094.35897402, 4091.53846119, 4126.79487152, 4083.71794837, 4123.58974332, 4155.76923056, 4140.25641005, 4132.94871767, 4133.46153819, 4136.15384595, 3131.92307456, 4131.02564075, 4118.07692280, 4146.53846133,12.0
4090.51282017, 4095.25640991, 4120.64102537, 4079.74358940, 4125.12820485, 4142.05128185, 4134.61538434, 4132.56410229, 4126.92307665, 4136.15384595, 3147.17948482, 4121.79487152, 4121.53846126, 4147.82051262,12.0
4096.53846119, 4102.56410229, 4120.76923050, 4068.07692266, 4124.74358947, 4134.61538434, 4139.99999980, 4146.66666646, 4131.79487152, 4136.15384595, 3150.89743361, 4125.51282024, 4120.76923050, 4148.97435877,12.0
4089.74358940, 4085.89743555, 4114.74358947, 4051.02564061, 4123.84615357, 4142.82051262, 4133.58974332, 4135.76923056, 4126.41025614, 4136.15384595, 3164.48717720, 4118.71794844, 4114.87179460, 4145.12820492,12.0
4091.92307658, 4085.51282017, 4110.25640998, 4045.38461497, 4123.46153819, 4141.41025621, 4121.79487152, 4116.66666639, 4114.74358947, 4136.15384595, 3181.66666438, 4108.84615357, 4110.51282024, 4142.43589723,12.0
4093.33333299, 4103.07692280, 4117.05128178, 4053.46153805, 4124.61538434, 4132.30769203, 4121.92307665, 4124.61538434, 4118.07692280, 4136.15384595, 3183.84615163, 4115.38461511, 4115.51282024, 4145.25641005,12.0
4091.92307658, 4108.84615357, 4121.79487152, 4062.30769189, 4126.28205101, 4137.43589723, 4124.61538434, 4136.92307672, 4131.28205101, 4136.15384595, 3183.46153617, 4124.61538434, 4121.79487152, 4146.66666646,12.0
4094.10256376, 4101.15384581, 4118.58974332, 4058.46153805, 4126.15384588, 4139.74358954, 4123.20512793, 4128.33333306, 4134.48717921, 4136.15384595, 3188.97435675, 4121.53846126, 4117.05128178, 4144.35897415,12.0
4088.07692273, 4091.92307658, 4116.28205101, 4056.53846113, 4124.61538434, 4134.99999973, 4129.99999973, 4128.84615357, 4133.20512793, 4136.15384595, 3196.41025419, 4119.10256383, 4115.12820485, 4143.33333313,12.0
4093.07692273, 4098.97435863, 4121.15384588, 4068.33333292, 4124.35897408, 4147.43589723, 4147.56410236, 4146.41025621, 4138.20512800, 4136.15384595, 3206.28204906, 4126.41025614, 4123.07692280, 4143.71794851,12.0
4092.05128171, 4115.76923050, 4127.30769203, 4071.79487145, 4124.74358947, 4154.23076903, 4147.94871774, 4146.66666646, 4140.89743569, 4136.15384595, 3214.99999778, 4131.15384588, 4122.30769203, 4142.94871774,12.0
4090.64102530, 4112.30769203, 4126.92307665, 4067.82051241, 4124.48717921, 4133.07692280, 4119.23076896, 4131.92307665, 4136.02564082, 4136.15384595, 3221.28204913, 4124.10256383, 4115.76923050, 4145.76923056,12.0
4098.58974325, 4108.58974332, 4127.56410229, 4078.71794837, 4123.33333306, 4123.97435870, 4111.53846126, 4136.02564082, 4144.99999980, 4136.15384595, 3227.94871580, 4129.10256383, 4119.23076896, 4147.56410236,12.0
4092.82051248, 4116.79487152, 4130.12820485, 4086.79487145, 4122.94871767, 4145.25641005, 4143.46153826, 4147.82051262, 4153.07692287, 4136.15384595, 3232.82051067, 4143.97435877, 4125.51282024, 4143.33333313,12.0
4095.64102530, 4119.23076896, 4133.97435870, 4086.41025607, 4123.84615357, 4160.12820492, 4164.61538441, 4147.30769210, 4145.12820492, 4136.15384595, 3242.82051067, 4147.94871774, 4123.84615357, 4141.15384595,12.0
4096.02564068, 4117.17948691, 4140.51282031, 4089.61538427, 4124.87179460, 4151.41025621, 4151.53846133, 4150.25641005, 4143.84615364, 4136.15384595, 3253.33333125, 4150.38461518, 4121.02564075, 4145.25641005,12.0
4090.89743555, 4107.30769203, 4132.82051255, 4074.99999966, 4123.84615357, 4134.48717921, 4126.79487152, 4147.69230749, 4137.43589723, 4136.15384595, 3242.69230554, 4140.64102544, 4119.48717921, 4148.07692287,12.0
4100.12820478, 4095.51282017, 4118.58974332, 4061.41025600, 4122.43589716, 4125.76923050, 4116.41025614, 4132.30769203, 4122.82051255, 4136.15384595, 3232.05127990, 4119.23076896, 4117.30769203, 4147.05128185,12.0
4091.79487145, 4097.43589709, 4121.15384588, 4078.46153812, 4122.17948691, 4120.89743562, 4118.46153819, 4126.41025614, 4121.66666639, 4136.15384595, 3242.05127990, 4117.17948691, 4119.35897408, 4147.69230749,12.0
4087.30769196, 4105.64102537, 4123.97435870, 4081.92307658, 4122.30769203, 4113.20512793, 4118.07692280, 4125.64102537, 4126.41025614, 4136.15384595, 3239.61538247, 4121.79487152, 4119.48717921, 4148.71794851,12.0
4095.12820478, 4103.71794844, 4113.58974332, 4068.97435856, 4124.35897408, 4120.38461511, 4123.84615357, 4133.84615357, 4132.30769203, 4136.15384595, 3228.71794657, 4113.33333306, 4117.17948691, 4144.87179467,12.0
4091.66666632, 4100.12820478, 4113.84615357, 4076.53846119, 4124.61538434, 4141.41025621, 4142.94871774, 4150.64102544, 4143.97435877, 4136.15384595, 3238.33333118, 4114.48717921, 4118.97435870, 4143.20512800,12.0
4092.17948684, 4099.10256376, 4119.10256383, 4076.66666632, 4123.46153819, 4142.43589723, 4140.12820492, 4133.71794844, 4130.76923050, 4136.15384595, 3247.69230554, 4117.17948691, 4118.33333306, 4146.28205108,12.0
4088.84615350, 4097.43589709, 4112.69230742, 4073.97435863, 4123.84615357, 4128.97435870, 4123.07692280, 4104.10256383, 4106.53846126, 4136.15384595, 3246.15384400, 4111.66666639, 4115.89743562, 4145.64102544,12.0
4091.41025607, 4108.07692280, 4115.89743562, 4092.17948684, 4123.20512793, 4135.76923056, 4135.51282031, 4119.23076896, 4117.17948691, 4136.15384595, 3249.61538253, 4121.79487152, 4121.92307665, 4144.10256390,12.0
4093.33333299, 4100.12820478, 4119.23076896, 4085.51282017, 4123.71794844, 4139.74358954, 4143.84615364, 4136.28205108, 4124.99999973, 4136.15384595, 3247.05127990, 4118.58974332, 4119.87179460, 4144.23076903,12.0
4083.97435863, 4076.66666632, 4107.43589716, 4060.51282010, 4124.99999973, 4123.46153819, 4127.05128178, 4120.51282024, 4108.97435870, 4136.15384595, 3243.20512605, 4092.56410222, 4103.20512793, 4145.12820492,12.0
4091.66666632, 4081.41025607, 4103.20512793, 4062.30769189, 4122.94871767, 4116.79487152, 4115.51282024, 4110.76923050, 4102.05128171, 4136.15384595, 3256.41025433, 4088.58974325, 4104.61538434, 4147.94871774,12.0
4091.92307658, 4096.28205094, 4107.05128178, 4071.28205094, 4122.69230742, 4119.87179460, 4111.79487152, 4115.64102537, 4107.94871767, 4136.15384595, 3260.64102356, 4101.79487145, 4113.71794844, 4148.33333313,12.0
4089.48717914, 4090.12820478, 4110.12820485, 4073.97435863, 4125.76923050, 4125.76923050, 4117.05128178, 4125.76923050, 4121.79487152, 4136.15384595, 3256.41025433, 4106.53846126, 4109.35897408, 4145.64102544,12.0
4094.48717914, 4084.23076889, 4115.64102537, 4080.89743555, 4124.35897408, 4128.46153819, 4128.46153819, 4137.82051262, 4132.82051255, 4136.15384595, 3270.12820305, 4108.97435870, 4109.99999973, 4143.97435877,12.0
4086.92307658, 4105.12820485, 4126.79487152, 4088.07692273, 4124.35897408, 4130.89743562, 4141.41025621, 4151.41025621, 4139.61538441, 4136.15384595, 3293.33333132, 4127.30769203, 4123.58974332, 4145.64102544,12.0
4093.20512786, 4119.99999973, 4134.74358947, 4096.15384581, 4125.38461511, 4137.82051262, 4149.48717928, 4163.46153826, 4149.10256390, 4136.15384595, 3306.15384414, 4145.89743569, 4129.87179460, 4147.82051262,12.0
4094.99999966, 4100.51282017, 4126.79487152, 4094.10256376, 4123.97435870, 4128.71794844, 4131.53846126, 4152.56410236, 4144.99999980, 4136.15384595, 3309.10256209, 4136.79487159, 4123.58974332, 4144.74358954,12.0
4088.20512786, 4086.92307658, 4120.64102537, 4085.25640991, 4123.84615357, 4114.35897408, 4108.20512793, 4128.58974332, 4125.38461511, 4136.15384595, 3311.28204927, 4127.30769203, 4121.15384588, 4142.05128185,12.0
4094.48717914, 4101.02564068, 4130.76923050, 4094.35897402, 4123.46153819, 4135.51282031, 4133.46153819, 4133.46153819, 4129.35897408, 4136.15384595, 3317.17948524, 4144.35897415, 4123.58974332, 4145.25641005,12.0
4089.99999966, 4108.84615357, 4133.71794844, 4108.71794844, 4121.15384588, 4161.15384595, 4162.94871774, 4152.05128185, 4150.38461518, 4136.15384595, 3327.69230575, 4150.89743569, 4120.12820485, 4148.20512800,12.0
4088.58974325, 4112.30769203, 4122.30769203, 4110.12820485, 4120.12820485, 4141.15384595, 4134.74358947, 4136.79487159, 4132.05128178, 4136.15384595, 3327.94871601, 4131.28205101, 4117.30769203, 4145.25641005,12.0
4088.97435863, 4120.51282024, 4115.76923050, 4107.94871767, 4123.07692280, 4116.15384588, 4115.64102537, 4110.51282024, 4101.15384581, 4136.15384595, 3312.94871594, 4121.41025614, 4119.74358947, 4143.71794851,12.0
