AF3,F7,F3,FC5,T7,P7,O1,O2,P8,T8,FC6,F4,F8,AF4,Label
4224.10256404, 3943.46153784, 4056.92307651, 3899.35897360, 4113.58974332, 4088.58974325, 4127.56410229, 4125.76923050, 4142.69230749, 4130.25640998, 6113.20513217, 4098.33333299, 4132.43589716, 4145.51282031,12.0
4226.92307686, 4024.61538413, 4094.61538427, 3977.05128150, 4113.97435870, 4133.07692280, 4163.71794851, 4178.84615371, 4210.12820506, 4130.25640998, 6103.20513210, 4151.92307672, 4141.53846133, 4147.56410236,12.0
4224.10256404, 4036.02564054, 4111.28205101, 4042.69230728, 4114.99999973, 4146.15384595, 4189.35897422, 4206.66666660, 4241.28205129, 4130.25640998, 6075.76923466, 4180.25641012, 4156.15384595, 4148.46153826,12.0
4224.99999993, 3949.74358912, 4092.69230735, 4017.30769183, 4115.64102537, 4130.89743562, 4200.89743576, 4173.07692294, 4196.15384602, 4130.25640998, 5976.79487548, 4154.10256390, 4145.38461518, 4145.76923056,12.0
4223.46153840, 3922.43589674, 4074.74358940, 3955.64102502, 4114.61538434, 4117.56410229, 4185.38461525, 4140.89743569, 4164.48717928, 4130.25640998, 5862.30769572, 4126.53846126, 4130.89743562, 4146.92307672,12.0
4222.69230763, 3975.38461483, 4082.05128171, 3976.79487124, 4113.97435870, 4106.53846126, 4171.02564089, 4132.56410229, 4151.53846133, 4130.25640998, 5881.28205476, 4129.35897408, 4139.74358954, 4148.33333313,12.0
4224.10256404, 4003.58974304, 4087.56410222, 4048.20512779, 4115.89743562, 4108.84615357, 4179.99999986, 4118.20512793, 4120.51282024, 4130.25640998, 5844.35897777, 4122.05128178, 4138.46153826, 4145.89743569,12.0
4222.94871788, 3990.89743535, 4081.92307658, 4039.87179446, 4114.99999973, 4138.58974339, 4200.89743576, 4121.41025614, 4126.66666639, 4130.25640998, 5685.64102870, 4113.84615357, 4129.10256383, 4147.82051262,12.0
4228.58974352, 3947.43589681, 4098.71794837, 3998.33333278, 4113.07692280, 4167.43589723, 4218.33333327, 4153.71794851, 4171.28205115, 4130.25640998, 6147.82051685, 4149.48717928, 4140.64102544, 4150.12820492,12.0
4232.05128199, 3904.48717873, 4105.64102537, 4022.05128157, 4114.74358947, 4151.15384595, 4193.33333320, 4143.97435877, 4156.92307672, 4130.25640998, 7238.71795505, 4155.51282031, 4140.38461518, 4148.20512800,12.0
4231.02564096, 3940.12820451, 4086.92307658, 4055.89743548, 4113.33333306, 4127.69230742, 4168.07692287, 4117.17948691, 4129.87179460, 4130.25640998, 7796.41026392, 4123.20512793, 4130.51282024, 4147.82051262,12.0
4232.82051275, 3973.58974304, 4082.43589709, 4032.56410208, 4113.97435870, 4142.30769210, 4185.25641012, 4142.17948697, 4162.17948697, 4130.25640998, 7629.10257126, 4123.71794844, 4139.61538441, 4149.99999980,12.0
4236.28205129, 3897.82051206, 4076.02564068, 4023.46153798, 4116.53846126, 4147.94871774, 4183.07692294, 4149.87179467, 4160.76923056, 4130.25640998, 7587.17949427, 4113.84615357, 4132.43589716, 4150.89743569,12.0
4243.20512821, 3833.97435807, 4056.92307651, 4058.20512779, 4113.20512793, 4128.71794844, 4159.87179467, 4111.28205101, 4114.74358947, 4130.25640998, 7698.33334063, 4076.53846119, 4107.43589716, 4148.20512800,12.0
4244.23076923, 3863.33333250, 4082.05128171, 4073.71794837, 4110.64102537, 4136.92307672, 4181.28205115, 4128.84615357, 4135.38461518, 4130.25640998, 7630.51282767, 4110.64102537, 4122.82051255, 4147.69230749,12.0
4247.69230770, 3884.48717873, 4107.94871767, 4059.23076882, 4111.79487152, 4164.61538441, 4197.56410243, 4170.64102551, 4174.61538448, 4130.25640998, 7590.25641735, 4151.92307672, 4144.99999980, 4150.64102544,12.0
4251.92307693, 3858.20512738, 4067.43589702, 4060.64102523, 4114.35897408, 4150.76923056, 4165.38461518, 4144.61538441, 4146.92307672, 4130.25640998, 7604.35898145, 4097.05128171, 4126.79487152, 4150.64102544,12.0
4249.61538462, 3834.10256320, 4040.25640984, 4059.35897395, 4115.76923050, 4124.35897408, 4154.23076903, 4119.87179460, 4133.46153819, 4130.25640998, 7596.41026350, 4060.38461497, 4114.87179460, 4148.33333313,12.0
4255.00000000, 3822.30769141, 4052.43589702, 4010.76923029, 4114.87179460, 4125.89743562, 4151.79487159, 4114.10256383, 4132.43589716, 4130.25640998, 7600.12821222, 4075.64102530, 4122.69230742, 4148.71794851,12.0
4259.87179488, 3811.15384525, 4051.28205087, 4010.38461490, 4115.12820485, 4130.51282024, 4135.89743569, 4088.33333299, 4100.25640991, 4130.25640998, 7597.56410966, 4071.79487145, 4119.48717921, 4147.94871774,12.0
4260.76923077, 3833.58974269, 4052.43589702, 4071.53846119, 4115.89743562, 4139.74358954, 4152.05128185, 4096.41025607, 4116.92307665, 4130.25640998, 7599.23077632, 4080.38461504, 4122.05128178, 4147.69230749,12.0
4263.58974359, 3858.97435814, 4064.10256369, 4078.71794837, 4115.38461511, 4140.89743569, 4167.82051262, 4129.74358947, 4156.28205108, 4130.25640998, 7600.12821222, 4102.94871767, 4135.89743569, 4149.61538441,12.0
4265.00000000, 3846.53846071, 4063.20512779, 4057.94871754, 4115.12820485, 4127.17948691, 4153.33333313, 4129.23076896, 4144.61538441, 4130.25640998, 7598.97436607, 4100.64102530, 4136.28205108, 4149.10256390,12.0
4270.00000007, 3829.48717859, 4051.92307651, 4055.76923036, 4114.99999973, 4123.46153819, 4136.02564082, 4106.15384588, 4122.05128178, 4130.25640998, 7598.46154555, 4083.84615350, 4126.79487152, 4147.94871774,12.0
4271.41025648, 3832.05128115, 4036.66666618, 4039.61538420, 4116.28205101, 4117.82051255, 4113.84615357, 4083.46153812, 4100.76923043, 4130.25640998, 7598.20513530, 4056.02564061, 4112.56410229, 4149.23076903,12.0
4272.17948725, 3864.87179404, 4048.84615343, 4050.12820472, 4116.66666639, 4117.56410229, 4126.15384588, 4094.87179453, 4103.20512793, 4130.25640998, 7598.58975068, 4067.05128164, 4114.10256383, 4151.02564082,12.0
4277.56410264, 3912.30769162, 4096.15384581, 4102.69230742, 4113.84615357, 4155.76923056, 4193.07692294, 4160.76923056, 4182.69230756, 4130.25640998, 7598.33334042, 4146.15384595, 4147.43589723, 4149.99999980,12.0
4278.20512828, 3920.51281982, 4097.56410222, 4093.33333299, 4115.89743562, 4170.51282038, 4199.61538448, 4183.07692294, 4214.23076917, 4130.25640998, 7598.20513530, 4153.20512800, 4151.79487159, 4148.71794851,12.0
4282.17948725, 3909.48717880, 4057.69230728, 4053.97435856, 4116.92307665, 4132.43589716, 4139.61538441, 4123.07692280, 4137.43589723, 4130.25640998, 7598.33334042, 4078.84615350, 4120.12820485, 4149.10256390,12.0
4286.92307700, 3949.35897374, 4064.99999959, 4060.76923036, 4114.23076896, 4131.15384588, 4150.12820492, 4107.30769203, 4126.28205101, 4130.25640998, 7598.33334042, 4086.66666632, 4122.56410229, 4146.92307672,12.0
4286.92307700, 3986.79487124, 4085.25640991, 4047.30769189, 4113.58974332, 4148.20512800, 4182.94871781, 4142.56410236, 4179.99999986, 4130.25640998, 7598.33334042, 4136.79487159, 4147.69230749, 4146.92307672,12.0
4290.76923084, 3996.28205073, 4069.48717907, 4011.15384567, 4114.87179460, 4114.87179460, 4160.76923056, 4139.48717928, 4167.56410236, 4130.25640998, 7598.33334042, 4118.71794844, 4139.61538441, 4149.74358954,12.0
4292.30769238, 4056.92307651, 4077.56410222, 3994.48717894, 4117.43589716, 4103.07692280, 4174.74358961, 4131.28205101, 4142.69230749, 4130.25640998, 7598.33334042, 4111.66666639, 4127.94871767, 4148.46153826,12.0
4294.74358982, 4124.61538434, 4106.02564075, 3970.38461476, 4117.05128178, 4130.12820485, 4216.53846147, 4154.74358954, 4172.17948704, 4130.25640998, 7598.33334042, 4152.17948697, 4142.05128185, 4148.33333313,12.0
4298.20512828, 4121.66666639, 4085.76923043, 3943.20512758, 4114.35897408, 4118.58974332, 4182.82051269, 4153.33333313, 4178.97435884, 4130.25640998, 7598.33334042, 4139.10256390, 4146.66666646, 4150.12820492,12.0
4298.58974366, 4139.87179467, 4055.76923036, 3936.79487110, 4113.97435870, 4092.30769196, 4141.41025621, 4125.76923050, 4137.94871774, 4130.25640998, 7598.33334042, 4093.97435863, 4130.76923050, 4150.51282031,12.0
4303.07692322, 4210.76923070, 4074.74358940, 3937.69230700, 4117.30769203, 4102.94871767, 4173.71794858, 4133.07692280, 4128.97435870, 4130.25640998, 7598.33334042, 4113.07692280, 4125.38461511, 4151.41025621,12.0
4302.05128219, 4220.51282045, 4088.84615350, 3928.46153777, 4117.17948691, 4111.02564075, 4192.30769217, 4155.38461518, 4156.66666646, 4130.25640998, 7598.33334042, 4146.15384595, 4135.51282031, 4149.61538441,12.0
4302.43589758, 4187.69230756, 4067.56410215, 3917.30769162, 4113.20512793, 4097.43589709, 4152.56410236, 4141.02564082, 4162.43589723, 4130.25640998, 7598.33334042, 4123.97435870, 4134.48717921, 4148.07692287,12.0
4308.07692322, 4201.53846147, 4061.66666625, 3903.33333257, 4116.02564075, 4097.17948684, 4137.05128185, 4121.15384588, 4154.74358954, 4130.25640998, 7598.33334042, 4103.84615357, 4126.41025614, 4149.61538441,12.0
4306.28205142, 4238.20512821, 4073.20512786, 3910.64102495, 4118.20512793, 4103.97435870, 4154.10256390, 4124.35897408, 4148.20512800, 4130.25640998, 7598.33334042, 4122.30769203, 4126.41025614, 4150.25641005,12.0
4309.35897450, 4237.17948718, 4079.10256376, 3911.53846085, 4116.28205101, 4102.82051255, 4163.33333313, 4135.38461518, 4154.35897415, 4130.25640998, 7598.33334042, 4145.76923056, 4136.15384595, 4149.23076903,12.0
4314.10256425, 4221.15384609, 4085.12820478, 3899.74358898, 4117.17948691, 4101.53846119, 4165.64102544, 4136.28205108, 4169.48717935, 4130.25640998, 7598.33334042, 4150.64102544, 4142.30769210, 4148.84615364,12.0
4313.46153860, 4247.17948718, 4086.92307658, 3923.20512751, 4115.25640998, 4108.07692280, 4169.10256397, 4131.02564075, 4162.94871774, 4130.25640998, 7598.33334042, 4142.30769210, 4138.97435877, 4150.89743569,12.0
4313.84615399, 4265.64102564, 4081.53846119, 3918.46153777, 4112.94871767, 4114.99999973, 4172.56410243, 4140.89743569, 4161.41025621, 4130.25640998, 7598.33334042, 4142.05128185, 4139.48717928, 4151.28205108,12.0
4314.61538476, 4206.66666660, 4073.33333299, 3882.94871719, 4118.46153819, 4101.41025607, 4160.51282031, 4138.58974339, 4165.12820492, 4130.25640998, 7598.33334042, 4138.71794851, 4138.84615364, 4148.20512800,12.0
4321.02564117, 4233.07692301, 4071.79487145, 3906.66666598, 4120.12820485, 4096.28205094, 4148.20512800, 4119.10256383, 4151.92307672, 4130.25640998, 7598.33334042, 4128.33333306, 4135.51282031, 4147.05128185,12.0
4323.71794886, 4455.38461581, 4084.74358940, 3928.20512751, 4116.02564075, 4119.10256383, 4174.61538448, 4135.51282031, 4157.82051262, 4130.25640998, 7598.33334042, 4141.02564082, 4135.12820485, 4147.05128185,12.0
4321.53846168, 4596.92307769, 4091.02564068, 3880.64102488, 4116.15384588, 4119.48717921, 4199.87179474, 4160.12820492, 4174.10256397, 4130.25640998, 7598.33334042, 4152.94871774, 4136.53846133, 4147.17948697,12.0
4323.97435912, 4549.61538524, 4073.71794837, 3874.48717873, 4118.84615357, 4093.07692273, 4167.05128185, 4135.76923056, 4158.07692287, 4130.25640998, 7598.33334042, 4131.15384588, 4136.15384595, 4147.17948697,12.0
4328.58974373, 4531.66666730, 4060.89743548, 3916.92307623, 4117.56410229, 4091.79487145, 4131.92307665, 4112.30769203, 4146.53846133, 4130.25640998, 7598.33334042, 4108.46153819, 4128.07692280, 4147.56410236,12.0
4334.48717970, 4557.94871858, 4073.58974325, 3887.43589668, 4113.97435870, 4113.71794844, 4159.74358954, 4138.71794851, 4169.74358961, 4130.25640998, 7598.33334042, 4124.10256383, 4129.23076896, 4150.25641005,12.0
4331.66666681, 4539.87179550, 4084.74358940, 3854.87179404, 4115.51282024, 4120.51282024, 4192.69230756, 4162.43589723, 4176.66666653, 4130.25640998, 7598.33334042, 4150.51282031, 4141.53846133, 4150.25641005,12.0
4327.17948732, 4550.25641089, 4077.82051248, 3897.94871719, 4116.28205101, 4106.28205101, 4175.25641012, 4147.56410236, 4166.53846133, 4130.25640998, 7598.33334042, 4148.97435877, 4138.71794851, 4147.17948697,12.0
4334.87179508, 4565.64102634, 4066.66666625, 3919.23076854, 4113.97435870, 4090.12820478, 4160.38461518, 4123.07692280, 4160.76923056, 4130.25640998, 7598.33334042, 4122.56410229, 4122.69230742, 4146.53846133,12.0
4337.43589765, 4504.23076979, 4059.10256369, 3879.35897360, 4114.61538434, 4091.53846119, 4180.64102551, 4123.71794844, 4150.64102544, 4130.25640998, 7598.33334042, 4104.61538434, 4119.23076896, 4150.76923056,12.0
4336.02564124, 4491.41025690, 4066.66666625, 3861.79487096, 4114.10256383, 4112.17948691, 4188.84615371, 4135.89743569, 4149.10256390, 4130.25640998, 7598.33334042, 4124.99999973, 4133.71794844, 4152.82051262,12.0
4337.69230790, 4528.20512876, 4074.23076889, 3889.10256334, 4114.99999973, 4122.69230742, 4176.15384602, 4132.94871767, 4157.17948697, 4130.25640998, 7598.33334042, 4139.35897415, 4142.05128185, 4148.58974339,12.0
4337.05128226, 4494.74359023, 4052.17948677, 3909.23076854, 4116.02564075, 4102.82051255, 4174.10256397, 4122.82051255, 4143.58974339, 4130.25640998, 7598.33334042, 4101.66666632, 4123.20512793, 4149.10256390,12.0
4337.05128226, 4494.74359023, 4052.17948677, 3909.23076854, 4116.02564075, 4102.82051255, 4174.10256397, 4122.82051255, 4143.58974339, 4130.25640998, 7598.33334042, 4101.66666632, 4123.20512793, 4149.10256390,12.0
4342.82051303, 4413.20512856, 4012.56410208, 3854.48717866, 4115.12820485, 4054.99999959, 4133.58974332, 4077.30769196, 4082.94871761, 4130.25640998, 7598.33334042, 4038.20512779, 4092.82051248, 4150.64102544,12.0
4341.53846175, 4412.94871830, 4017.17948670, 3823.84615295, 4114.87179460, 4039.74358933, 4094.87179453, 4048.71794830, 4066.66666625, 4130.25640998, 7598.33334042, 4043.07692266, 4097.82051248, 4148.58974339,12.0
4338.46153867, 4507.69230825, 4077.30769196, 3950.25640963, 4113.71794844, 4106.92307665, 4161.79487159, 4117.05128178, 4151.92307672, 4130.25640998, 7598.33334042, 4134.35897408, 4135.64102544, 4149.23076903,12.0
4348.46153867, 4541.53846217, 4104.61538434, 4042.30769189, 4114.35897408, 4157.30769210, 4227.30769224, 4173.20512807, 4201.41025634, 4130.25640998, 7598.33334042, 4175.64102551, 4145.51282031, 4150.12820492,12.0
4344.61538483, 4469.87179536, 4073.58974325, 3955.89743528, 4114.61538434, 4111.79487152, 4179.61538448, 4136.79487159, 4159.48717928, 4130.25640998, 7598.33334042, 4131.66666639, 4129.23076896, 4150.38461518,12.0
4346.02564124, 4432.69230811, 4063.71794830, 3918.20512751, 4116.15384588, 4083.20512786, 4141.02564082, 4113.33333306, 4150.64102544, 4130.25640998, 7598.33334042, 4116.79487152, 4127.69230742, 4144.10256390,12.0
4351.53846175, 4472.30769280, 4083.84615350, 3984.99999945, 4115.76923050, 4117.56410229, 4179.99999986, 4143.07692287, 4186.92307679, 4130.25640998, 7598.33334042, 4142.17948697, 4134.87179460, 4141.02564082,12.0
4344.74358996, 4460.12820555, 4070.25640991, 3965.64102502, 4112.82051255, 4104.35897408, 4180.89743576, 4128.07692280, 4165.25641005, 4130.25640998, 7598.33334042, 4122.05128178, 4127.56410229, 4146.79487159,12.0
4354.35897457, 4393.71794900, 4039.61538420, 3910.89743521, 4117.43589716, 4062.05128164, 4122.17948691, 4073.46153812, 4105.25640998, 4130.25640998, 7598.33334042, 4070.89743555, 4107.17948691, 4146.92307672,12.0
4352.56410278, 4382.05128233, 4045.51282010, 3929.48717880, 4118.20512793, 4086.79487145, 4134.87179460, 4098.71794837, 4122.69230742, 4130.25640998, 7598.33334042, 4077.69230735, 4110.89743562, 4148.71794851,12.0
4348.07692329, 4395.89743618, 4050.12820472, 3941.41025579, 4113.71794844, 4109.74358947, 4181.66666653, 4127.69230742, 4141.28205108, 4130.25640998, 7598.33334042, 4087.56410222, 4122.30769203, 4146.41025621,12.0
4359.48717970, 4378.97435926, 4016.66666618, 3926.79487110, 4116.28205101, 4058.58974318, 4118.71794844, 4037.69230728, 4049.48717907, 4130.25640998, 7598.33334042, 4026.79487131, 4092.69230735, 4144.23076903,12.0
4356.15384637, 4396.28205156, 4018.84615336, 3975.38461483, 4117.30769203, 4044.23076882, 4055.38461497, 3988.71794817, 4021.66666618, 4130.25640998, 7598.33334042, 4026.53846106, 4084.35897402, 4151.41025621,12.0
4361.28205149, 4474.10256459, 4085.51282017, 4051.41025600, 4116.28205101, 4112.05128178, 4131.53846126, 4092.05128171, 4142.05128185, 4130.25640998, 7598.33334042, 4136.02564082, 4127.05128178, 4147.69230749,12.0
4364.35897457, 4490.00000049, 4101.28205094, 4041.15384574, 4115.89743562, 4136.66666646, 4193.33333320, 4154.74358954, 4195.89743576, 4130.25640998, 7598.33334042, 4167.30769210, 4142.17948697, 4144.61538441,12.0
4361.41025662, 4456.41025683, 4056.66666625, 4009.61538413, 4114.48717921, 4100.12820478, 4144.74358954, 4103.84615357, 4139.10256390, 4130.25640998, 7598.33334042, 4102.69230742, 4117.94871767, 4148.58974339,12.0
4368.71794900, 4459.35897478, 4051.15384574, 4022.17948670, 4115.51282024, 4093.58974325, 4128.07692280, 4087.56410222, 4132.94871767, 4130.25640998, 7598.33334042, 4093.20512786, 4114.35897408, 4149.48717928,12.0
4366.02564131, 4461.02564145, 4062.17948677, 4013.33333285, 4115.25640998, 4108.58974332, 4161.15384595, 4111.15384588, 4152.69230749, 4130.25640998, 7598.33334042, 4112.05128178, 4126.02564075, 4150.64102544,12.0
4369.74359003, 4451.53846196, 4045.89743548, 3999.99999945, 4116.15384588, 4100.51282017, 4154.10256390, 4098.20512786, 4122.69230742, 4130.25640998, 7598.33334042, 4083.84615350, 4112.43589716, 4148.07692287,12.0
4369.74359003, 4454.74359016, 4034.10256362, 4018.07692259, 4119.23076896, 4091.41025607, 4134.10256383, 4082.82051248, 4104.61538434, 4130.25640998, 7598.33334042, 4061.02564061, 4098.33333299, 4148.46153826,12.0
4365.00000021, 4440.89743632, 4037.82051241, 3997.43589688, 4116.02564075, 4096.28205094, 4139.23076903, 4083.84615350, 4106.53846126, 4130.25640998, 7598.33334042, 4069.87179453, 4103.58974332, 4150.25641005,12.0
4372.05128233, 4427.82051317, 4045.64102523, 3982.05128150, 4114.23076896, 4102.82051255, 4154.61538441, 4081.28205094, 4096.66666632, 4130.25640998, 7598.33334042, 4087.56410222, 4114.35897408, 4146.15384595,12.0
4369.87179515, 4445.51282093, 4052.43589702, 4016.41025593, 4116.41025614, 4096.41025607, 4149.10256390, 4080.38461504, 4091.92307658, 4130.25640998, 7598.33334042, 4100.76923043, 4116.53846126, 4148.46153826,12.0
4372.43589772, 4441.92307734, 4057.69230728, 4001.92307637, 4118.84615357, 4087.30769196, 4132.82051255, 4082.94871761, 4106.53846126, 4130.25640998, 7598.33334042, 4100.38461504, 4110.64102537, 4151.15384595,12.0
4373.71794900, 4406.02564138, 4053.58974318, 3953.33333271, 4118.33333306, 4089.87179453, 4129.87179460, 4076.41025607, 4108.20512793, 4130.25640998, 7598.33334042, 4086.53846119, 4106.92307665, 4147.82051262,12.0
4370.25641054, 4395.89743618, 4047.94871754, 3956.02564040, 4115.12820485, 4094.10256376, 4136.15384595, 4075.64102530, 4104.48717921, 4130.25640998, 7598.33334042, 4082.43589709, 4109.10256383, 4147.30769210,12.0
4375.64102592, 4406.53846189, 4049.35897395, 3969.74358912, 4116.15384588, 4094.10256376, 4142.43589723, 4085.89743555, 4116.15384588, 4130.25640998, 7598.33334042, 4087.43589709, 4116.15384588, 4146.28205108,12.0
4373.97435926, 4403.33333368, 4040.64102523, 3935.25640957, 4116.92307665, 4085.89743555, 4133.97435870, 4087.17948684, 4105.51282024, 4130.25640998, 7598.33334042, 4066.53846113, 4106.79487152, 4145.12820492,12.0
4376.02564131, 4408.46153881, 4032.17948670, 3882.94871719, 4116.41025614, 4077.56410222, 4122.56410229, 4083.33333299, 4092.30769196, 4130.25640998, 7598.33334042, 4048.20512779, 4094.87179453, 4146.53846133,12.0
4377.17948746, 4408.58974394, 4035.76923029, 3823.07692218, 4117.05128178, 4077.56410222, 4124.87179460, 4079.87179453, 4106.53846126, 4130.25640998, 7598.33334042, 4064.35897395, 4104.48717921, 4147.17948697,12.0
4373.97435926, 4380.38461567, 4032.05128157, 3778.46153749, 4115.38461511, 4068.33333292, 4111.66666639, 4056.41025600, 4098.46153812, 4130.25640998, 7598.33334042, 4064.87179446, 4109.87179460, 4145.89743569,12.0
4379.35897464, 4366.15384644, 4016.02564054, 3786.92307595, 4116.92307665, 4055.25640984, 4082.43589709, 4019.23076875, 4044.87179446, 4130.25640998, 7598.33334042, 4030.25640977, 4092.82051248, 4146.66666646,12.0
4381.28205156, 4379.10256438, 4009.23076875, 3780.51281954, 4116.41025614, 4057.69230728, 4089.23076889, 4020.64102516, 4032.30769183, 4130.25640998, 7598.33334042, 4024.61538413, 4083.07692273, 4151.02564082,12.0
4382.43589772, 4397.17948746, 4012.69230721, 3735.51281940, 4113.07692280, 4058.33333292, 4115.25640998, 4045.12820472, 4082.56410222, 4130.25640998, 7598.33334042, 4050.89743548, 4093.46153812, 4148.58974339,12.0
4382.05128233, 4405.76923112, 4009.23076875, 3709.23076812, 4114.61538434, 4046.15384574, 4105.76923050, 4044.23076882, 4089.35897402, 4130.25640998, 7598.33334042, 4052.69230728, 4098.33333299, 4146.15384595,12.0
4382.94871823, 4396.28205156, 4007.56410208, 3696.53846036, 4113.71794844, 4049.10256369, 4095.89743555, 4044.99999959, 4059.99999959, 4130.25640998, 7598.33334042, 4046.92307651, 4093.58974325, 4147.43589723,12.0
4387.82051310, 4382.69230797, 4016.92307644, 3682.43589626, 4112.05128178, 4069.10256369, 4124.23076896, 4063.33333292, 4075.51282017, 4130.25640998, 7598.33334042, 4061.66666625, 4092.56410222, 4144.99999980,12.0
4385.25641054, 4397.82051310, 4025.89743541, 3707.17948600, 4113.58974332, 4082.17948684, 4144.35897415, 4067.94871754, 4100.64102530, 4130.25640998, 7598.33334042, 4073.71794837, 4106.28205101, 4151.15384595,12.0
4387.56410285, 4404.35897471, 4029.10256362, 3714.48717838, 4113.20512793, 4092.05128171, 4139.87179467, 4068.97435856, 4093.58974325, 4130.25640998, 7598.33334042, 4079.87179453, 4113.33333306, 4153.71794851,12.0
4388.84615413, 4367.94871823, 4024.61538413, 3668.07692183, 4111.41025614, 4094.61538427, 4138.46153826, 4078.71794837, 4099.61538427, 4130.25640998, 7598.33334042, 4076.41025607, 4096.66666632, 4149.23076903,12.0
4387.43589772, 4339.74358996, 4014.61538413, 3649.87179362, 4111.92307665, 4092.43589709, 4142.94871774, 4080.12820478, 4116.15384588, 4130.25640998, 7598.33334042, 4062.30769189, 4094.61538427, 4151.92307672,12.0
4387.94871823, 4319.10256425, 4017.17948670, 3645.76922952, 4113.20512793, 4091.53846119, 4143.71794851, 4082.05128171, 4113.07692280, 4130.25640998, 7598.33334042, 4073.84615350, 4118.46153819, 4151.79487159,12.0
4385.89743618, 4282.56410264, 4021.28205080, 3651.15384491, 4113.58974332, 4074.23076889, 4122.69230742, 4064.48717907, 4091.28205094, 4130.25640998, 7598.33334042, 4077.43589709, 4109.99999973, 4149.61538441,12.0
4390.89743618, 4248.20512821, 4007.94871747, 3672.94871670, 4114.61538434, 4058.46153805, 4102.82051255, 4027.69230721, 4062.17948677, 4130.25640998, 7599.10257119, 4046.41025600, 4084.74358940, 4150.76923056,12.0
4389.23076951, 4270.00000007, 4015.12820465, 3682.82051164, 4114.10256383, 4081.41025607, 4131.02564075, 4046.66666625, 4082.69230735, 4130.51282024, 7647.17949441, 4068.07692266, 4104.48717921, 4150.89743569,12.0
4390.89743618, 4307.17948732, 4044.99999959, 3700.64102446, 4114.87179460, 4106.66666639, 4167.30769210, 4084.35897402, 4125.25640998, 4133.07692280, 7884.61539233, 4123.07692280, 4134.61538434, 4152.05128185,12.0
4398.58974394, 4279.23076930, 4042.05128164, 3727.69230658, 4116.02564075, 4096.41025607, 4150.89743569, 4065.12820472, 4101.41025607, 4133.97435870, 7799.48718700, 4111.41025614, 4119.35897408, 4152.94871774,12.0
4387.94871823, 4265.76923077, 4028.71794824, 3731.41025530, 4113.58974332, 4091.53846119, 4142.94871774, 4056.66666625, 4096.02564068, 4128.84615357, 7567.56410959, 4084.74358940, 4084.99999966, 4150.89743569,12.0
4403.71794907, 4288.84615392, 4043.58974318, 3722.05128094, 4117.94871767, 4104.99999973, 4173.58974345, 4083.97435863, 4151.66666646, 4134.35897408, 8077.43590557, 4098.20512786, 4092.30769196, 4152.17948697,12.0
4403.20512856, 4247.56410257, 4032.82051234, 3722.05128094, 4116.41025614, 4088.20512786, 4145.25641005, 4061.28205087, 4127.94871767, 4132.69230742, 7217.30769857, 4091.79487145, 4140.64102544, 4146.02564082,12.0
4311.53846168, 4185.25641012, 3977.56410201, 3727.30769120, 4080.12820478, 4039.99999959, 4065.38461497, 3995.25640970, 4022.05128157, 4087.94871761, 3441.66666493, 4039.99999959, 4120.25640998, 4107.30769203,12.0
4221.15384609, 4197.94871781, 3941.28205066, 3721.02563992, 4036.41025593, 4008.20512772, 4039.74358933, 3964.10256348, 3983.33333278, 4042.56410215, 384.23076104, 3988.33333278, 4024.74358926, 4063.07692266,12.0
4212.30769224, 4243.33333334, 3944.35897374, 3724.48717838, 4032.43589695, 4010.25640977, 4066.41025600, 3979.74358919, 4012.43589695, 4044.48717907, 422.30768418, 3972.56410201, 3999.74358919, 4060.38461497,12.0
4231.53846147, 4256.53846154, 3949.74358912, 3783.07692211, 4042.94871754, 4019.87179439, 4067.94871754, 3988.46153791, 4021.15384567, 4055.38461497, 885.12819797, 3983.46153791, 4046.79487138, 4077.17948684,12.0
4219.74358968, 4231.66666660, 3938.97435835, 3846.79487096, 4036.41025593, 4012.05128157, 4032.82051234, 3964.35897374, 4013.20512772, 4046.53846113, 517.69229977, 3980.64102509, 4046.66666625, 4074.61538427,12.0
4205.76923070, 4190.38461525, 3930.25640957, 3863.71794789, 4036.92307651, 3994.23076868, 4017.30769183, 3946.28205066, 4009.61538413, 4050.51282010, 578.71794094, 3957.17948656, 4011.66666618, 4069.61538420,12.0
4209.87179481, 4173.84615371, 3929.74358905, 3909.48717880, 4041.79487138, 3986.53846099, 4024.23076875, 3942.56410194, 3989.10256355, 4059.99999959, 807.82050553, 3938.84615322, 3998.07692252, 4072.56410222,12.0
4204.48717942, 4147.17948697, 3928.97435828, 3964.61538399, 4038.07692266, 3987.69230714, 4023.84615336, 3945.64102502, 3980.76923022, 4054.35897395, 810.25640296, 3947.69230707, 4011.15384567, 4075.12820478,12.0
4200.25641012, 4104.99999973, 3927.82051213, 3979.23076868, 4039.35897395, 3989.99999945, 4012.56410208, 3951.28205066, 3999.35897381, 4051.28205087, 797.82050553, 3956.53846092, 4031.66666618, 4078.46153812,12.0
4196.41025628, 4109.10256383, 3932.17948649, 4020.51282003, 4041.66666625, 3997.56410201, 4026.41025593, 3959.23076861, 4008.71794824, 4053.07692266, 807.94871066, 3947.82051220, 4029.61538413, 4075.25640991,12.0
4186.92307679, 4089.99999966, 3936.66666598, 4047.82051241, 4039.99999959, 4009.87179439, 4057.94871754, 3976.41025586, 4022.43589695, 4055.64102523, 802.82050553, 3958.71794810, 4023.58974311, 4074.61538427,12.0
4186.92307679, 4089.99999966, 3936.66666598, 4047.82051241, 4039.99999959, 4009.87179439, 4057.94871754, 3976.41025586, 4022.43589695, 4055.64102523, 802.82050553, 3958.71794810, 4023.58974311, 4074.61538427,12.0
4186.41025628, 4067.43589702, 3936.53846085, 4032.94871747, 4039.87179446, 4009.74358926, 4041.28205087, 3964.99999938, 4027.43589695, 4055.51282010, 803.46153117, 3973.46153791, 4034.35897388, 4079.99999966,12.0
4180.89743576, 4105.89743562, 3930.51281982, 4057.82051241, 4043.20512779, 3987.30769176, 3995.38461483, 3926.66666598, 3985.76923022, 4052.43589702, 805.25640296, 3942.43589681, 4012.82051234, 4077.94871761,12.0
4171.66666653, 4073.46153812, 3920.38461469, 4087.56410222, 4045.51282010, 3972.30769176, 3989.48717894, 3916.28205059, 3963.97435835, 4053.58974318, 804.35896707, 3914.99999931, 3985.51281996, 4075.51282017,12.0
4172.69230756, 4007.43589695, 3919.87179418, 4081.92307658, 4047.30769189, 3989.23076868, 4012.43589695, 3931.53846085, 4003.33333278, 4057.56410215, 804.61537732, 3926.02564033, 4004.61538413, 4078.97435863,12.0
4167.17948697, 4049.61538420, 3923.46153777, 4082.43589709, 4047.56410215, 3995.64102509, 4001.79487124, 3930.89743521, 4012.17948670, 4056.28205087, 803.20512091, 3926.15384546, 4007.82051234, 4080.25640991,12.0
4160.76923056, 4086.28205094, 3924.10256341, 4085.64102530, 4043.97435856, 3979.35897381, 3978.84615329, 3919.74358905, 3986.92307637, 4051.15384574, 803.97435168, 3917.56410187, 3995.38461483, 4078.07692273,12.0
4157.17948697, 4028.07692259, 3925.76923008, 4104.10256383, 4044.35897395, 3981.92307637, 3995.64102509, 3926.28205059, 3990.38461483, 4051.53846113, 803.84614655, 3926.92307623, 4046.41025600, 4082.94871761,12.0
4149.99999980, 4024.61538413, 3941.66666605, 4141.66666646, 4047.05128164, 3997.94871740, 4020.89743541, 3956.02564040, 4009.48717900, 4055.76923036, 803.71794143, 3944.74358912, 4120.76923050, 4086.66666632,12.0
4148.97435877, 4053.84615343, 3949.87179425, 4126.02564075, 4048.97435856, 3995.38461483, 4014.61538413, 3963.84615322, 4012.69230721, 4059.74358933, 803.71794143, 3953.07692246, 4140.12820492, 4079.87179453,12.0
4143.71794851, 4006.66666618, 3928.97435828, 4082.17948684, 4049.10256369, 3984.35897381, 3993.84615329, 3926.02564033, 3986.53846099, 4059.99999959, 803.84614655, 3939.10256348, 4127.17948691, 4076.92307658,12.0
4138.84615364, 3979.99999945, 3916.92307623, 4090.76923043, 4047.43589702, 3982.82051227, 3991.41025586, 3913.46153777, 3964.74358912, 4058.97435856, 803.71794143, 3919.74358905, 4122.56410229, 4079.74358940,12.0
4140.12820492, 3982.82051227, 3930.64102495, 4129.35897408, 4050.38461497, 3991.02564047, 4012.56410208, 3951.28205066, 3996.15384560, 4062.30769189, 803.71794143, 3926.53846085, 4117.43589716, 4080.76923043,12.0
4133.71794844, 3961.41025579, 3946.53846092, 4159.10256390, 4051.79487138, 4008.84615336, 4034.23076875, 3972.17948663, 4030.89743541, 4063.46153805, 803.84614655, 3949.99999938, 4119.35897408, 4081.15384581,12.0
4131.79487152, 3903.20512744, 3945.89743528, 4155.76923056, 4048.20512779, 4017.17948670, 4035.12820465, 3958.97435835, 4021.79487131, 4061.02564061, 803.84614655, 3946.41025579, 4128.33333306, 4082.56410222,12.0
4128.71794844, 3809.87179397, 3937.82051213, 4141.02564082, 4047.05128164, 4009.23076875, 4024.74358926, 3960.12820451, 4022.05128157, 4062.17948677, 803.84614655, 3929.35897367, 4124.74358947, 4082.30769196,12.0
4122.82051255, 3729.35897325, 3928.84615316, 4151.53846133, 4048.97435856, 3999.99999945, 4009.99999952, 3956.15384553, 4015.51282003, 4066.28205087, 803.71794143, 3918.84615316, 4110.38461511, 4080.38461504,12.0
4123.20512793, 3698.33333216, 3928.46153777, 4162.94871774, 4051.92307651, 3995.25640970, 3998.84615329, 3930.76923008, 3986.02564047, 4065.76923036, 803.71794143, 3926.15384546, 4121.02564075, 4081.92307658,12.0
4116.02564075, 3675.25640901, 3938.33333264, 4144.61538441, 4053.33333292, 3998.20512765, 4010.76923029, 3935.38461469, 4008.07692259, 4061.79487138, 803.84614655, 3955.64102502, 4155.76923056, 4083.97435863,12.0
4112.30769203, 3654.48717824, 3934.61538392, 4145.25641005, 4051.41025600, 4004.99999952, 4017.94871747, 3949.61538399, 4027.56410208, 4063.46153805, 803.84614655, 3949.74358912, 4143.33333313, 4081.79487145,12.0
4112.69230742, 3676.41025523, 3929.10256341, 4154.87179467, 4049.10256369, 4009.35897388, 4011.28205080, 3947.94871733, 4004.87179439, 4067.94871754, 803.84614655, 3924.48717880, 4109.74358947, 4083.46153812,12.0
4108.33333306, 3699.35897318, 3942.69230707, 4131.79487152, 4047.82051241, 4020.64102516, 4035.51282003, 3962.56410194, 4020.76923029, 4067.43589702, 803.71794143, 3956.41025579, 4131.66666639, 4087.56410222,12.0
4107.56410229, 3715.51281940, 3959.48717887, 4151.02564082, 4049.48717907, 4037.17948677, 4056.15384574, 3971.15384553, 4045.51282010, 4065.25640984, 803.71794143, 3994.74358919, 4151.79487159, 4085.64102530,12.0
4100.64102530, 3727.05128094, 3943.33333271, 4187.94871781, 4053.07692266, 4029.48717900, 4012.94871747, 3939.74358912, 4007.69230721, 4065.76923036, 803.84614655, 3951.53846092, 4126.41025614, 4085.76923043,12.0
4096.53846119, 3728.97435787, 3926.15384546, 4166.15384595, 4051.66666625, 4015.76923029, 3981.28205073, 3924.99999931, 3988.84615329, 4067.69230728, 803.84614655, 3924.99999931, 4111.79487152, 4087.30769196,12.0
4093.58974325, 3740.38461428, 3944.87179425, 4153.46153826, 4049.87179446, 4024.35897388, 4007.05128157, 3951.41025579, 4023.97435849, 4068.58974318, 803.84614655, 3972.05128150, 4123.71794844, 4084.48717914,12.0
4085.51282017, 3769.10256306, 3958.33333271, 4171.66666653, 4053.97435856, 4036.92307651, 4024.61538413, 3963.46153784, 4035.51282003, 4066.41025600, 803.71794143, 3985.51281996, 4133.71794844, 4084.99999966,12.0
4086.02564068, 3794.87179390, 3948.58974297, 4161.15384595, 4055.64102523, 4035.76923029, 4021.53846106, 3948.97435835, 4023.84615336, 4065.76923036, 803.71794143, 3954.74358912, 4122.30769203, 4086.66666632,12.0
4081.53846119, 3783.46153749, 3940.76923015, 4153.84615364, 4054.10256369, 4027.69230721, 4021.02564054, 3937.17948649, 4011.79487131, 4067.30769189, 803.84614655, 3953.07692246, 4118.07692280, 4088.07692273,12.0
4078.20512786, 3776.15384518, 3944.10256348, 4159.61538441, 4055.12820472, 4025.12820465, 4018.97435849, 3941.28205066, 4013.84615336, 4067.30769189, 803.84614655, 3969.10256348, 4135.89743569, 4088.84615350,12.0
4076.79487145, 3864.23076840, 3952.69230707, 4156.15384595, 4057.56410215, 4027.94871747, 4026.53846106, 3958.58974297, 4033.07692259, 4066.79487138, 803.84614655, 3977.05128150, 4131.79487152, 4086.92307658,12.0
4069.48717907, 4016.66666618, 3966.28205066, 4177.43589730, 4057.43589702, 4035.89743541, 4036.66666618, 3964.61538399, 4029.10256362, 4067.05128164, 803.71794143, 3994.48717894, 4118.71794844, 4087.17948684,12.0
4072.43589709, 4074.23076889, 3975.76923022, 4166.41025621, 4058.33333292, 4043.33333292, 4038.33333292, 3959.99999938, 4026.15384567, 4066.79487138, 803.71794143, 4011.02564054, 4134.48717921, 4088.33333299,12.0
4067.43589702, 4026.79487131, 3970.12820451, 4137.82051262, 4059.35897395, 4037.56410215, 4035.25640977, 3960.25640963, 4034.99999952, 4067.69230728, 803.84614655, 4010.76923029, 4148.71794851, 4088.58974325,12.0
4061.92307651, 4012.43589695, 3963.71794810, 4190.51282038, 4057.30769189, 4026.02564054, 4025.64102516, 3956.79487117, 4032.69230721, 4067.17948677, 803.84614655, 4005.51282003, 4129.74358947, 4089.48717914,12.0
4066.02564061, 4029.87179439, 3967.05128143, 4203.71794865, 4057.94871754, 4029.35897388, 4031.28205080, 3965.25640963, 4045.38461497, 4065.76923036, 803.84614655, 4006.79487131, 4131.92307665, 4088.46153812,12.0
4059.10256369, 4026.66666618, 3964.10256348, 4120.12820485, 4058.84615343, 4037.17948677, 4043.97435856, 3977.05128150, 4051.66666625, 4071.28205094, 803.71794143, 3999.23076868, 4139.74358954, 4088.71794837,12.0
4056.28205087, 4014.10256362, 3953.71794810, 4129.23076896, 4059.99999959, 4032.30769183, 4029.99999952, 3958.84615322, 4022.17948670, 4072.05128171, 803.71794143, 3980.12820458, 4110.64102537, 4091.92307658,12.0
4056.53846113, 3997.43589688, 3952.56410194, 4178.71794858, 4061.79487138, 4023.33333285, 4011.53846106, 3950.64102502, 4024.10256362, 4066.92307651, 803.84614655, 3981.92307637, 4102.56410229, 4092.82051248,12.0
4054.74358933, 3986.28205073, 3960.64102502, 4159.48717928, 4060.51282010, 4011.15384567, 4017.05128157, 3964.74358912, 4047.05128164, 4068.33333292, 803.84614655, 3993.46153791, 4120.64102537, 4089.48717914,12.0
4052.30769189, 3998.97435842, 3963.20512758, 4165.12820492, 4060.12820472, 4008.97435849, 4026.92307644, 3962.43589681, 4029.23076875, 4071.53846119, 803.84614655, 3991.15384560, 4123.97435870, 4087.94871761,12.0
4047.82051241, 4017.69230721, 3963.97435835, 4160.12820492, 4061.02564061, 4021.28205080, 4028.58974311, 3966.66666605, 4027.69230721, 4072.43589709, 803.71794143, 4001.28205073, 4115.12820485, 4093.33333299,12.0
4049.61538420, 4022.05128157, 3971.79487124, 4147.05128185, 4061.41025600, 4024.74358926, 4029.48717900, 3981.02564047, 4036.79487131, 4071.41025607, 803.71794143, 4020.89743541, 4117.94871767, 4095.25640991,12.0
4045.76923036, 3998.46153791, 3965.64102502, 4185.12820499, 4061.79487138, 4019.48717900, 4022.43589695, 3969.74358912, 4013.71794824, 4069.61538420, 803.84614655, 3997.82051227, 4108.97435870, 4093.97435863,12.0
4038.20512779, 3906.53846085, 3950.25640963, 4191.53846140, 4063.33333292, 4017.43589695, 4010.89743541, 3954.10256348, 4023.07692259, 4070.38461504, 803.84614655, 3964.74358912, 4087.43589709, 4095.89743555,12.0
4036.41025593, 3792.94871698, 3954.74358912, 4154.10256390, 4063.20512779, 4011.79487131, 4004.99999952, 3953.20512758, 4043.20512779, 4071.53846119, 803.84614655, 3974.99999945, 4089.61538427, 4095.38461504,12.0
4033.58974311, 3765.25640922, 3971.15384553, 4159.99999980, 4063.84615343, 4015.76923029, 4020.12820465, 3964.48717887, 4024.23076875, 4072.30769196, 803.71794143, 4002.82051227, 4112.82051255, 4093.58974325,12.0
4033.97435849, 3775.25640929, 3969.87179425, 4180.51282038, 4063.71794830, 4030.12820465, 4027.69230721, 3970.64102502, 4012.43589695, 4074.23076889, 803.71794143, 4005.12820465, 4114.35897408, 4091.28205094,12.0
4026.92307644, 3750.25640922, 3955.64102502, 4164.48717928, 4063.46153805, 4019.10256362, 4005.76923029, 3952.43589681, 4018.07692259, 4075.89743555, 803.84614655, 3981.92307637, 4082.17948684, 4091.28205094,12.0
4021.66666618, 3725.89743479, 3959.99999938, 4174.23076910, 4064.48717907, 4008.97435849, 4009.10256362, 3950.51281989, 4032.17948670, 4075.89743555, 803.84614655, 3980.38461483, 4083.33333299, 4094.48717914,12.0
4027.17948670, 3741.41025530, 3972.30769176, 4202.69230763, 4063.46153805, 4021.66666618, 4032.05128157, 3971.92307637, 4041.92307651, 4075.12820478, 803.84614655, 4001.53846099, 4112.82051255, 4092.82051248,12.0
4021.66666618, 3760.64102460, 3968.71794810, 4188.58974345, 4064.10256369, 4016.28205080, 4021.66666618, 3971.28205073, 4018.46153798, 4072.05128171, 803.71794143, 3993.58974304, 4094.74358940, 4093.58974325,12.0
4019.61538413, 3750.51281947, 3959.61538399, 4148.33333313, 4065.64102523, 4003.71794817, 4012.05128157, 3960.76923015, 4000.89743535, 4072.94871761, 803.71794143, 3967.30769169, 4062.30769189, 4096.15384581,12.0
4021.02564054, 3753.46153742, 3961.02564040, 4157.94871774, 4066.41025600, 4015.76923029, 4025.76923029, 3966.66666605, 4024.99999952, 4079.23076889, 803.84614655, 3972.69230714, 4083.58974325, 4095.38461504,12.0
4012.94871747, 3787.69230672, 3971.66666611, 4191.53846140, 4066.41025600, 4031.79487131, 4031.41025593, 3975.64102509, 4046.15384574, 4078.84615350, 803.84614655, 3999.87179432, 4119.23076896, 4096.02564068,12.0
4012.43589695, 3777.56410160, 3968.07692246, 4163.71794851, 4065.38461497, 4021.79487131, 4016.66666618, 3962.94871733, 4024.61538413, 4076.28205094, 803.84614655, 3989.87179432, 4096.79487145, 4095.76923043,12.0
4012.82051234, 3719.61538351, 3953.46153784, 4143.46153826, 4067.17948677, 4003.07692252, 4004.61538413, 3946.28205066, 4005.51282003, 4077.82051248, 803.71794143, 3956.66666605, 4059.23076882, 4094.87179453,12.0
4010.64102516, 3746.28205024, 3963.46153784, 4188.58974345, 4068.97435856, 4014.35897388, 4019.99999952, 3958.84615322, 4016.92307644, 4080.12820478, 803.71794143, 3973.84615329, 4071.79487145, 4095.76923043,12.0
4010.25640977, 3817.82051192, 3986.02564047, 4186.79487166, 4067.82051241, 4040.38461497, 4048.46153805, 3988.71794817, 4034.74358926, 4082.30769196, 803.84614655, 4012.69230721, 4100.38461504, 4095.25640991,12.0
4008.84615336, 3792.69230672, 3979.23076868, 4164.48717928, 4068.46153805, 4034.10256362, 4037.05128164, 3991.41025586, 4038.71794830, 4081.02564068, 803.84614655, 3994.99999945, 4092.43589709, 4094.99999966,12.0
4009.35897388, 3745.12820409, 3965.12820451, 4196.92307679, 4069.74358940, 4007.69230721, 3998.33333278, 3961.66666605, 4024.99999952, 4078.20512786, 803.84614655, 3969.48717887, 4080.51282017, 4097.56410222,12.0
4004.23076875, 3784.99999903, 3980.12820458, 4194.10256397, 4068.58974318, 4012.17948670, 4002.69230714, 3954.10256348, 4019.23076875, 4077.43589709, 803.71794143, 3995.25640970, 4093.97435863, 4101.28205094,12.0
4004.74358926, 3836.92307602, 4001.28205073, 4156.79487159, 4066.41025600, 4036.41025593, 4038.46153805, 3978.84615329, 4031.53846106, 4079.10256376, 803.71794143, 4033.33333285, 4109.48717921, 4101.41025607,12.0
4007.56410208, 3824.23076833, 3993.97435842, 4169.10256397, 4066.79487138, 4030.25640977, 4034.99999952, 3989.99999945, 4036.92307651, 4083.07692273, 803.84614655, 4025.64102516, 4099.10256376, 4100.89743555,12.0
3999.10256355, 3797.94871698, 3973.97435842, 4204.74358968, 4071.02564068, 4009.99999952, 4005.64102516, 3981.53846099, 4032.05128157, 4082.56410222, 803.84614655, 3990.89743535, 4077.82051248, 4101.15384581,12.0
3997.82051227, 3801.66666570, 3974.74358919, 4209.87179481, 4071.15384581, 4009.23076875, 4004.99999952, 3973.58974304, 4033.46153798, 4080.76923043, 803.84614655, 3986.15384560, 4079.23076889, 4100.76923043,12.0
3995.64102509, 3809.48717859, 3989.10256355, 4193.33333320, 4068.46153805, 4013.46153798, 4020.64102516, 3966.28205066, 4026.41025593, 4083.07692273, 803.71794143, 4012.43589695, 4096.15384581, 4098.71794837,12.0
3988.97435842, 3797.30769134, 3990.12820458, 4171.28205115, 4069.35897395, 4015.51282003, 4019.48717900, 3969.74358912, 4016.66666618, 4083.84615350, 803.71794143, 4023.58974311, 4095.89743555, 4096.79487145,12.0
3989.87179432, 3791.92307595, 3980.76923022, 4159.99999980, 4071.41025607, 4029.23076875, 4013.97435849, 3986.41025586, 4037.56410215, 4081.79487145, 803.84614655, 4004.10256362, 4076.53846119, 4099.74358940,12.0
3987.05128150, 3819.35897346, 3976.53846099, 4177.56410243, 4071.92307658, 4036.66666618, 4019.48717900, 3983.84615329, 4052.94871754, 4081.92307658, 803.84614655, 3989.61538406, 4069.35897395, 4101.15384581,12.0
3989.23076868, 3849.99999917, 3986.15384560, 4202.17948711, 4072.43589709, 4036.92307651, 4039.61538420, 3984.48717894, 4042.05128164, 4082.17948684, 803.84614655, 4009.61538413, 4086.41025607, 4097.82051248,12.0
3987.56410201, 3835.89743500, 3996.92307637, 4205.51282045, 4073.33333299, 4042.17948677, 4051.41025600, 4013.58974311, 4048.97435856, 4082.05128171, 803.71794143, 4030.89743541, 4097.94871761, 4098.46153812,12.0
3979.99999945, 3803.33333236, 3993.46153791, 4170.12820499, 4072.43589709, 4031.53846106, 4036.15384567, 4019.48717900, 4069.74358940, 4082.30769196, 803.71794143, 4024.35897388, 4088.07692273, 4101.41025607,12.0
3981.66666611, 3818.33333243, 3990.38461483, 4145.12820492, 4075.89743555, 4024.48717900, 4029.23076875, 3993.07692252, 4054.35897395, 4081.79487145, 803.84614655, 4019.35897388, 4086.92307658, 4099.74358940,12.0
3978.71794817, 3839.10256320, 3990.76923022, 4193.58974345, 4078.71794837, 4030.38461490, 4028.84615336, 3970.89743528, 4009.87179439, 4082.30769196, 803.84614655, 4015.12820465, 4088.71794837, 4096.92307658,12.0
3978.58974304, 3834.35897346, 3982.17948663, 4240.76923077, 4073.84615350, 4023.07692259, 4002.43589688, 3956.53846092, 3993.97435842, 4084.35897402, 803.84614655, 3995.25640970, 4075.12820478, 4102.05128171,12.0
3979.35897381, 3832.82051192, 3985.64102509, 4206.41025634, 4074.10256376, 4014.99999952, 3998.07692252, 3964.74358912, 4021.02564054, 4084.74358940, 803.71794143, 4006.92307644, 4086.28205094, 4108.58974332,12.0
3976.02564047, 3829.23076833, 3999.48717894, 4157.82051262, 4078.58974325, 4020.89743541, 4026.92307644, 3988.33333278, 4043.46153805, 4083.58974325, 803.71794143, 4033.84615336, 4099.35897402, 4105.12820485,12.0
3979.35897381, 3859.48717866, 4008.97435849, 4178.71794858, 4077.43589709, 4030.64102516, 4032.94871747, 3990.76923022, 4044.74358933, 4082.43589709, 803.84614655, 4040.51282010, 4086.41025607, 4101.53846119,12.0
3975.89743535, 3913.46153777, 4017.69230721, 4216.15384609, 4076.15384581, 4037.30769189, 4029.10256362, 3998.20512765, 4061.41025600, 4082.56410222, 803.84614655, 4051.41025600, 4098.84615350, 4103.33333306,12.0
3972.69230714, 3880.38461462, 4008.97435849, 4172.56410243, 4075.51282017, 4034.99999952, 4034.61538413, 4016.92307644, 4078.20512786, 4083.46153812, 803.84614655, 4043.20512779, 4113.58974332, 4104.61538434,12.0
3975.38461483, 3815.12820423, 3995.12820458, 4125.25640998, 4073.97435863, 4034.61538413, 4038.84615343, 4019.87179439, 4079.74358940, 4082.82051248, 803.71794143, 4027.43589695, 4092.69230735, 4104.99999973,12.0
3974.10256355, 3868.71794789, 4003.84615329, 4182.56410243, 4076.15384581, 4048.71794830, 4043.46153805, 4015.64102516, 4068.58974318, 4084.87179453, 803.71794143, 4034.99999952, 4076.66666632, 4106.66666639,12.0
3973.33333278, 3924.99999931, 4014.35897388, 4219.10256404, 4077.17948684, 4054.10256369, 4048.84615343, 4023.07692259, 4072.05128171, 4084.87179453, 803.84614655, 4042.56410215, 4086.79487145, 4106.79487152,12.0
3969.23076861, 3885.25640950, 4009.10256362, 4173.84615371, 4074.74358940, 4048.20512779, 4049.48717907, 4028.46153798, 4090.64102530, 4083.20512786, 803.84614655, 4046.15384574, 4101.15384581, 4107.82051255,12.0
3970.89743528, 3877.43589668, 4010.25640977, 4158.33333313, 4074.35897402, 4054.74358933, 4047.94871754, 4020.76923029, 4082.56410222, 4086.92307658, 803.84614655, 4051.66666625, 4103.07692280, 4111.28205101,12.0
3972.30769176, 3915.12820444, 4021.92307644, 4172.82051269, 4076.41025607, 4055.89743548, 4050.51282010, 4022.82051234, 4080.76923043, 4087.69230735, 803.71794143, 4056.15384574, 4098.71794837, 4111.02564075,12.0
3961.92307630, 3911.28205059, 4017.30769183, 4178.58974345, 4076.15384581, 4037.82051241, 4035.12820465, 4012.05128157, 4079.10256376, 4084.99999966, 803.71794143, 4047.94871754, 4091.28205094, 4106.28205101,12.0
3963.07692246, 3888.20512744, 4005.38461490, 4162.56410236, 4076.79487145, 4026.53846106, 4013.33333285, 3997.17948663, 4052.82051241, 4084.61538427, 803.84614655, 4039.35897395, 4090.64102530, 4104.99999973,12.0
3964.10256348, 3898.20512744, 4014.74358926, 4118.84615357, 4079.10256376, 4035.51282003, 4029.10256362, 4020.51282003, 4056.79487138, 4084.74358940, 803.84614655, 4056.28205087, 4107.43589716, 4109.35897408,12.0
3955.76923015, 3928.20512751, 4029.61538413, 4135.12820485, 4079.74358940, 4059.23076882, 4064.10256369, 4038.07692266, 4081.79487145, 4085.89743555, 803.84614655, 4077.05128171, 4116.92307665, 4107.94871767,12.0
3958.07692246, 3941.15384553, 4017.69230721, 4179.74358961, 4082.30769196, 4069.35897395, 4062.30769189, 4017.94871747, 4069.74358940, 4087.56410222, 803.71794143, 4052.56410215, 4092.56410222, 4103.33333306,12.0
3957.30769169, 3930.51281982, 4008.71794824, 4138.84615364, 4083.07692273, 4055.38461497, 4053.07692266, 4024.87179439, 4068.71794830, 4087.17948684, 803.71794143, 4037.69230728, 4074.74358940, 4104.87179460,12.0
3955.76923015, 3923.58974290, 4019.23076875, 4105.12820485, 4079.23076889, 4039.35897395, 4051.02564061, 4035.25640977, 4082.82051248, 4086.79487145, 803.84614655, 4061.53846113, 4093.20512786, 4107.05128178,12.0
3953.97435835, 3937.30769162, 4016.28205080, 4125.12820485, 4079.74358940, 4034.35897388, 4026.92307644, 4002.56410201, 4054.87179446, 4090.38461504, 803.84614655, 4054.23076882, 4096.15384581, 4107.17948691,12.0
3950.12820451, 3949.35897374, 4013.71794824, 4103.20512793, 4081.79487145, 4047.17948677, 4029.61538413, 4004.48717900, 4043.97435856, 4091.15384581, 803.84614655, 4045.76923036, 4085.76923043, 4107.56410229,12.0
3953.84615322, 3931.66666598, 4017.69230721, 4074.23076889, 4079.35897402, 4061.53846113, 4051.02564061, 4024.87179439, 4052.43589702, 4089.35897402, 803.71794143, 4056.28205087, 4093.33333299, 4108.46153819,12.0
3952.30769169, 3914.87179418, 4010.12820465, 4095.12820478, 4076.92307658, 4049.99999959, 4030.76923029, 4009.48717900, 4032.17948670, 4089.74358940, 803.71794143, 4041.53846113, 4089.61538427, 4108.97435870,12.0
3951.92307630, 3930.51281982, 4012.43589695, 4101.53846119, 4078.33333299, 4032.69230721, 4013.07692259, 4009.48717900, 4035.89743541, 4089.99999966, 803.84614655, 4039.48717907, 4078.71794837, 4108.46153819,12.0
3952.69230707, 3948.84615322, 4029.48717900, 4089.99999966, 4079.48717914, 4041.66666625, 4032.69230721, 4026.15384567, 4068.58974318, 4090.12820478, 803.84614655, 4071.53846119, 4085.12820478, 4108.20512793,12.0
3949.48717887, 3954.10256348, 4034.74358926, 4097.30769196, 4079.35897402, 4055.38461497, 4042.17948677, 4019.61538413, 4071.15384581, 4089.35897402, 803.84614655, 4082.05128171, 4083.84615350, 4107.30769203,12.0
3955.64102502, 3961.02564040, 4029.35897388, 4113.20512793, 4080.12820478, 4050.25640984, 4028.97435849, 4008.33333285, 4048.07692266, 4089.74358940, 803.71794143, 4061.92307651, 4072.94871761, 4106.02564075,12.0
3954.35897374, 3971.66666611, 4036.28205080, 4101.53846119, 4081.41025607, 4048.84615343, 4042.30769189, 4029.74358926, 4052.82051241, 4091.28205094, 803.71794143, 4074.10256376, 4092.43589709, 4107.82051255,12.0
3951.92307630, 3971.02564040, 4052.17948677, 4085.64102530, 4082.05128171, 4062.69230728, 4066.53846113, 4053.20512779, 4091.41025607, 4091.66666632, 803.84614655, 4111.28205101, 4118.71794844, 4109.74358947,12.0
3953.97435835, 3985.64102509, 4049.48717907, 4102.05128171, 4083.20512786, 4068.71794830, 4053.20512779, 4027.05128157, 4084.61538427, 4090.76923043, 803.84614655, 4100.64102530, 4093.46153812, 4110.64102537,12.0
3947.69230707, 4007.82051234, 4030.89743541, 4087.43589709, 4081.79487145, 4061.79487138, 4033.33333285, 4009.48717900, 4052.30769189, 4091.28205094, 803.84614655, 4063.07692266, 4067.17948677, 4111.66666639,12.0
3944.99999938, 3982.56410201, 4026.41025593, 4058.71794830, 4080.12820478, 4058.71794830, 4044.61538420, 4046.53846113, 4076.66666632, 4092.56410222, 803.71794143, 4061.41025600, 4082.30769196, 4110.64102537,12.0
3943.84615322, 3951.79487117, 4029.10256362, 4083.84615350, 4084.23076889, 4050.64102523, 4046.15384574, 4055.38461497, 4096.02564068, 4092.05128171, 803.71794143, 4073.58974325, 4093.58974325, 4111.41025614,12.0
3944.74358912, 3971.53846099, 4025.89743541, 4085.38461504, 4084.23076889, 4046.15384574, 4031.79487131, 4019.23076875, 4070.12820478, 4090.89743555, 803.84614655, 4069.61538420, 4084.61538427, 4113.46153819,12.0
3945.76923015, 3987.30769176, 4029.35897388, 4063.97435856, 4079.74358940, 4059.23076882, 4035.12820465, 4015.64102516, 4060.51282010, 4088.84615350, 803.84614655, 4071.15384581, 4086.41025607, 4113.07692280,12.0
3939.61538399, 3965.76923015, 4037.43589702, 4077.17948684, 4083.07692273, 4065.64102523, 4041.15384574, 4049.23076882, 4085.76923043, 4089.74358940, 803.84614655, 4081.92307658, 4099.10256376, 4112.30769203,12.0
3942.56410194, 3986.53846099, 4048.97435856, 4101.66666632, 4085.64102530, 4066.53846113, 4053.33333292, 4068.84615343, 4100.64102530, 4093.20512786, 803.71794143, 4098.07692273, 4097.17948684, 4113.71794844,12.0
3944.74358912, 4025.89743541, 4053.97435856, 4108.97435870, 4081.79487145, 4070.64102530, 4064.61538420, 4054.23076882, 4083.33333299, 4091.28205094, 803.71794143, 4097.43589709, 4082.69230735, 4115.12820485,12.0
3941.41025579, 3995.12820458, 4041.28205087, 4076.41025607, 4081.79487145, 4063.58974318, 4051.02564061, 4036.66666618, 4071.79487145, 4090.51282017, 803.84614655, 4075.76923043, 4078.84615350, 4113.07692280,12.0
3941.28205066, 3961.66666605, 4034.74358926, 4038.71794830, 4086.79487145, 4062.82051241, 4049.61538420, 4050.12820472, 4089.23076889, 4092.56410222, 803.84614655, 4078.20512786, 4094.35897402, 4110.38461511,12.0
3935.76923008, 3981.15384560, 4028.97435849, 4066.28205087, 4087.69230735, 4073.71794837, 4058.20512779, 4043.58974318, 4069.48717907, 4092.56410222, 803.84614655, 4066.28205087, 4087.82051248, 4112.69230742,12.0
3938.84615322, 4009.48717900, 4028.97435849, 4115.25640998, 4084.99999966, 4076.92307658, 4066.41025600, 4017.30769183, 4035.25640977, 4093.07692273, 803.71794143, 4046.53846113, 4068.71794830, 4112.56410229,12.0
3941.28205066, 3997.56410201, 4045.64102523, 4084.35897402, 4086.15384581, 4073.58974325, 4085.89743555, 4044.74358933, 4073.20512786, 4095.89743555, 803.71794143, 4077.56410222, 4083.07692273, 4107.05128178,12.0
3934.23076854, 3986.02564047, 4047.82051241, 4031.41025593, 4087.17948684, 4069.61538420, 4073.07692273, 4070.64102530, 4100.12820478, 4098.84615350, 803.84614655, 4093.97435863, 4094.99999966, 4107.30769203,12.0
3938.46153784, 4006.28205080, 4031.15384567, 4048.97435856, 4084.48717914, 4058.58974318, 4028.97435849, 4036.79487131, 4068.97435856, 4097.17948684, 803.84614655, 4064.23076882, 4083.84615350, 4112.43589716,12.0
3938.07692239, 4015.25640977, 4033.97435849, 4085.64102530, 4084.23076889, 4052.30769189, 4028.20512772, 4033.20512772, 4071.66666632, 4094.10256376, 803.84614655, 4066.02564061, 4079.61538427, 4112.82051255,12.0
3934.23076854, 4020.38461490, 4052.56410215, 4102.94871767, 4084.10256376, 4064.74358933, 4054.35897395, 4068.84615343, 4097.43589709, 4092.17948684, 803.71794143, 4095.25640991, 4092.05128171, 4114.10256383,12.0
3935.89743521, 4030.76923029, 4054.10256369, 4098.46153812, 4083.97435863, 4072.05128171, 4056.02564061, 4070.25640991, 4096.02564068, 4091.28205094, 803.71794143, 4093.46153812, 4095.76923043, 4114.74358947,12.0
3936.79487110, 4032.17948670, 4052.05128164, 4083.07692273, 4088.20512786, 4067.94871754, 4056.79487138, 4060.38461497, 4093.58974325, 4090.89743555, 803.84614655, 4090.38461504, 4091.15384581, 4113.71794844,12.0
3938.07692239, 4038.97435856, 4059.87179446, 4083.07692273, 4089.35897402, 4076.02564068, 4064.48717907, 4065.25640984, 4093.58974325, 4093.20512786, 803.84614655, 4102.43589709, 4090.76923043, 4120.38461511,12.0
3933.84615316, 4036.92307651, 4059.48717907, 4095.89743555, 4085.51282017, 4083.71794837, 4059.99999959, 4058.46153805, 4081.28205094, 4096.15384581, 803.84614655, 4095.89743555, 4084.48717914, 4121.92307665,12.0
3938.46153784, 4014.23076875, 4044.23076882, 4086.28205094, 4084.99999966, 4069.61538420, 4046.53846113, 4033.20512772, 4065.76923036, 4095.76923043, 803.71794143, 4071.53846119, 4076.02564068, 4116.66666639,12.0
3941.28205066, 4016.15384567, 4035.12820465, 4064.35897395, 4088.84615350, 4059.74358933, 4032.69230721, 4017.30769183, 4051.15384574, 4099.87179453, 803.71794143, 4059.35897395, 4076.02564068, 4119.10256383,12.0
3931.66666598, 4042.82051241, 4045.12820472, 4074.10256376, 4089.74358940, 4070.64102530, 4033.97435849, 4024.99999952, 4043.58974318, 4100.76923043, 803.84614655, 4067.94871754, 4084.48717914, 4119.23076896,12.0
3934.23076854, 4030.64102516, 4049.10256369, 4071.28205094, 4087.56410222, 4073.20512786, 4050.89743548, 4037.94871754, 4055.51282010, 4098.20512786, 803.84614655, 4073.97435863, 4088.33333299, 4116.15384588,12.0
3936.15384546, 4033.58974311, 4048.71794830, 4059.23076882, 4087.94871761, 4072.94871761, 4065.51282010, 4054.74358933, 4089.23076889, 4099.87179453, 803.84614655, 4082.05128171, 4092.69230735, 4117.82051255,12.0
3932.43589674, 4059.99999959, 4057.56410215, 4075.51282017, 4087.30769196, 4086.15384581, 4064.35897395, 4061.53846113, 4099.61538427, 4099.23076889, 803.71794143, 4091.28205094, 4092.69230735, 4117.56410229,12.0
3928.84615316, 4053.33333292, 4057.43589702, 4091.02564068, 4086.79487145, 4085.64102530, 4049.99999959, 4045.38461497, 4071.92307658, 4098.46153812, 803.71794143, 4077.69230735, 4077.30769196, 4115.51282024,12.0
3924.48717880, 4118.84615357, 4055.89743548, 4072.69230735, 4089.10256376, 4081.79487145, 4056.92307651, 4054.48717907, 4086.92307658, 4098.84615350, 803.84614655, 4082.56410222, 4078.84615350, 4115.51282024,12.0
3930.51281982, 4275.00000007, 4071.15384581, 4054.61538420, 4090.12820478, 4098.33333299, 4087.17948684, 4099.35897402, 4136.28205108, 4098.58974325, 803.71794143, 4118.71794844, 4093.33333299, 4116.41025614,12.0
3930.38461469, 4345.25641047, 4074.61538427, 4069.99999966, 4091.28205094, 4102.56410229, 4088.71794837, 4102.05128171, 4125.12820485, 4098.71794837, 790.64101835, 4115.51282024, 4081.66666632, 4117.17948691,12.0
3926.79487110, 4306.41025655, 4061.28205087, 4076.53846119, 4090.89743555, 4085.89743555, 4063.58974318, 4069.23076882, 4092.82051248, 4098.71794837, 635.38460774, 4085.76923043, 4060.76923036, 4117.05128178,12.0
3929.61538392, 4300.51282066, 4059.87179446, 4060.51282010, 4088.58974325, 4078.97435863, 4044.35897395, 4058.07692266, 4091.41025607, 4098.71794837, 488.46153047, 4085.64102530, 4056.41025600, 4116.66666639,12.0
3926.66666598, 4327.69230784, 4070.51282017, 4050.64102523, 4090.12820478, 4082.05128171, 4059.10256369, 4070.76923043, 4101.53846119, 4098.71794837, 806.15383886, 4103.20512793, 4056.53846113, 4115.12820485,12.0
3927.94871726, 4327.30769245, 4077.30769196, 4026.92307644, 4091.79487145, 4088.07692273, 4097.43589709, 4089.10256376, 4111.53846126, 4098.71794837, 575.25640248, 4114.48717921, 4059.61538420, 4115.64102537,12.0
3929.35897367, 4331.41025655, 4071.66666632, 4001.28205073, 4089.87179453, 4094.35897402, 4091.02564068, 4081.79487145, 4093.07692273, 4098.71794837, 461.28204329, 4105.89743562, 4068.33333292, 4117.82051255,12.0
3935.64102495, 4342.94871816, 4065.89743548, 4006.41025593, 4090.12820478, 4090.38461504, 4063.46153805, 4072.43589709, 4084.48717914, 4098.84615350, 3123.46153610, 4089.10256376, 4072.17948684, 4118.97435870,12.0
3951.28205066, 4342.05128226, 4069.87179453, 3985.12820458, 4092.43589709, 4092.94871761, 4087.43589709, 4100.25640991, 4128.84615357, 4098.71794837, 7036.02564694, 4097.56410222, 4080.64102530, 4118.97435870,12.0
3957.43589681, 4364.87179508, 4074.99999966, 3956.66666605, 4091.92307658, 4107.56410229, 4119.48717921, 4108.07692280, 4138.84615364, 4098.58974325, 8241.28205976, 4114.61538434, 4089.23076889, 4117.94871767,12.0
3962.94871733, 4412.17948753, 4087.94871761, 3978.46153791, 4088.33333299, 4114.99999973, 4117.82051255, 4087.30769196, 4110.12820485, 4098.46153812, 7603.97436607, 4128.20512793, 4090.25640991, 4118.07692280,12.0
3966.41025579, 4418.20512856, 4097.69230735, 3986.02564047, 4088.33333299, 4111.92307665, 4118.33333306, 4100.12820478, 4123.33333306, 4098.46153812, 7711.28205858, 4140.38461518, 4093.46153812, 4118.97435870,12.0
3968.07692246, 4390.00000028, 4082.82051248, 3978.71794817, 4091.92307658, 4099.74358940, 4103.84615357, 4107.17948691, 4128.46153819, 4098.71794837, 7922.05128984, 4125.25640998, 4089.74358940, 4119.61538434,12.0
3973.97435842, 4379.35897464, 4066.02564061, 3990.51281996, 4091.53846119, 4094.23076889, 4061.41025600, 4073.71794837, 4095.25640991, 4098.71794837, 7662.43590467, 4097.56410222, 4077.43589709, 4120.89743562,12.0
3971.15384553, 4372.69230797, 4078.71794837, 3965.89743528, 4089.10256376, 4107.56410229, 4057.69230728, 4072.17948684, 4106.28205101, 4098.84615350, 7587.94872504, 4116.79487152, 4085.64102530, 4120.38461511,12.0
3977.43589688, 4376.53846182, 4092.69230735, 3956.41025579, 4090.89743555, 4108.58974332, 4077.05128171, 4087.82051248, 4128.46153819, 4098.71794837, 7597.82051991, 4147.17948697, 4104.23076896, 4118.71794844,12.0
3987.82051227, 4401.66666702, 4090.51282017, 4010.64102516, 4093.58974325, 4100.38461504, 4084.61538427, 4085.64102530, 4110.38461511, 4098.71794837, 7600.38462248, 4136.92307672, 4100.76923043, 4120.38461511,12.0
3986.15384560, 4405.64102599, 4097.69230735, 4018.33333285, 4091.28205094, 4117.43589716, 4106.92307665, 4090.12820478, 4103.33333306, 4099.35897402, 7595.00000709, 4135.89743569, 4097.17948684, 4119.74358947,12.0
3989.23076868, 4380.76923105, 4109.87179460, 3972.30769176, 4089.61538427, 4128.20512793, 4126.92307665, 4105.51282024, 4134.99999973, 4098.46153812, 7600.51282760, 4165.25641005, 4112.82051255, 4119.10256383,12.0
3991.15384560, 4378.20512849, 4108.46153819, 3970.38461476, 4091.53846119, 4113.33333306, 4119.10256383, 4130.89743562, 4158.20512800, 4099.99999966, 7596.79487889, 4173.71794858, 4115.64102537, 4122.17948691,12.0
3993.07692252, 4399.10256445, 4103.71794844, 3976.28205073, 4090.51282017, 4114.74358947, 4116.28205101, 4129.74358947, 4139.74358954, 4102.30769196, 7597.56410966, 4154.23076903, 4102.17948684, 4121.02564075,12.0
3998.46153791, 4404.61538497, 4106.53846126, 3961.15384553, 4089.99999966, 4133.46153819, 4124.61538434, 4094.10256376, 4128.46153819, 4099.48717914, 7597.30769940, 4149.61538441, 4096.28205094, 4118.58974332,12.0
4000.38461483, 4391.79487208, 4105.12820485, 3955.38461476, 4093.33333299, 4132.56410229, 4113.07692280, 4092.82051248, 4144.10256390, 4099.10256376, 7598.33334042, 4154.35897415, 4095.64102530, 4119.74358947,12.0
4007.56410208, 4375.76923105, 4094.35897402, 3926.66666598, 4092.17948684, 4119.10256383, 4103.07692280, 4119.99999973, 4145.89743569, 4100.25640991, 7598.58975068, 4140.89743569, 4089.74358940, 4119.23076896,12.0
4010.51282003, 4375.25641054, 4092.43589709, 3898.20512744, 4088.20512786, 4124.10256383, 4111.92307665, 4120.25640998, 4134.74358947, 4099.35897402, 7598.07693017, 4128.07692280, 4082.43589709, 4118.58974332,12.0
4011.15384567, 4395.64102592, 4104.61538434, 3930.64102495, 4090.12820478, 4140.76923056, 4104.87179460, 4108.07692280, 4129.23076896, 4101.15384581, 7598.33334042, 4137.94871774, 4084.74358940, 4121.53846126,12.0
4015.25640977, 4398.07692343, 4117.05128178, 3936.79487110, 4093.46153812, 4149.74358954, 4106.41025614, 4123.84615357, 4150.38461518, 4102.56410229, 7598.33334042, 4168.07692287, 4103.58974332, 4121.53846126,12.0
4015.38461490, 4375.00000028, 4116.53846126, 3901.53846078, 4091.92307658, 4143.84615364, 4130.51282024, 4135.89743569, 4165.25641005, 4099.10256376, 7598.33334042, 4173.46153833, 4107.17948691, 4117.94871767,12.0
4022.17948670, 4390.51282079, 4112.94871767, 3925.51281982, 4090.76923043, 4137.30769210, 4121.79487152, 4118.07692280, 4143.46153826, 4097.56410222, 7598.20513530, 4150.89743569, 4083.07692273, 4118.33333306,12.0
4026.79487131, 4423.71794907, 4119.23076896, 3955.64102502, 4094.23076889, 4134.10256383, 4100.51282017, 4115.38461511, 4135.76923056, 4099.99999966, 7598.20513530, 4155.38461518, 4079.48717914, 4122.56410229,12.0
4028.84615336, 4411.41025676, 4128.33333306, 3940.89743528, 4092.56410222, 4137.17948697, 4127.05128178, 4145.25641005, 4171.02564089, 4099.61538427, 7598.20513530, 4182.94871781, 4108.20512793, 4124.10256383,12.0
4036.02564054, 4397.05128233, 4128.46153819, 3941.92307630, 4091.28205094, 4158.71794851, 4155.89743569, 4157.30769210, 4189.23076910, 4097.82051248, 7598.33334042, 4183.46153833, 4108.07692280, 4121.53846126,12.0
4035.64102516, 4404.35897471, 4119.74358947, 3935.25640957, 4095.51282017, 4163.58974339, 4132.43589716, 4140.25641005, 4171.02564089, 4100.76923043, 7598.33334042, 4159.10256390, 4057.43589702, 4120.89743562,12.0
4038.07692266, 4403.97435933, 4118.20512793, 3908.71794803, 4096.15384581, 4140.12820492, 4125.38461511, 4138.07692287, 4173.33333320, 4104.61538434, 7598.20513530, 4158.07692287, 4019.48717900, 4122.05128178,12.0
4039.35897395, 4397.56410285, 4132.30769203, 3921.79487110, 4093.97435863, 4137.82051262, 4169.23076910, 4162.30769210, 4189.61538448, 4103.46153819, 7598.20513530, 4181.15384602, 4027.69230721, 4122.82051255,12.0
4037.43589702, 4403.58974394, 4136.41025621, 3949.35897374, 4092.69230735, 4164.23076903, 4170.64102551, 4164.87179467, 4177.56410243, 4102.82051255, 7598.20513530, 4180.25641012, 4034.23076875, 4122.69230742,12.0
4043.46153805, 4405.12820548, 4125.76923050, 3930.89743521, 4092.17948684, 4161.28205108, 4119.10256383, 4141.02564082, 4168.33333320, 4103.20512793, 7598.33334042, 4158.97435877, 4024.35897388, 4120.12820485,12.0
4043.71794830, 4400.00000035, 4122.94871767, 3912.56410187, 4093.84615350, 4133.20512793, 4102.30769196, 4129.87179460, 4169.23076910, 4100.76923043, 7598.33334042, 4156.92307672, 4026.92307644, 4120.25640998,12.0
4047.05128164, 4408.33333368, 4132.43589716, 3937.69230700, 4095.76923043, 4140.76923056, 4129.10256383, 4131.28205101, 4152.69230749, 4101.92307658, 7598.20513530, 4172.82051269, 4037.05128164, 4124.35897408,12.0
4049.61538420, 4400.00000035, 4136.92307672, 3946.15384553, 4095.51282017, 4150.38461518, 4141.41025621, 4138.46153826, 4156.79487159, 4104.61538434, 7598.33334042, 4180.25641012, 4041.02564061, 4125.12820485,12.0
4044.10256369, 4390.76923105, 4132.94871767, 3913.07692239, 4094.23076889, 4136.41025621, 4140.89743569, 4161.02564082, 4195.38461525, 4102.56410229, 7599.23077632, 4176.66666653, 4043.97435856, 4123.20512793,12.0
4049.87179446, 4402.69230804, 4125.51282024, 3914.74358905, 4095.25640991, 4135.51282031, 4127.43589716, 4155.51282031, 4182.17948704, 4101.79487145, 7600.89744299, 4158.33333313, 4035.51282003, 4122.69230742,12.0
4055.25640984, 4380.00000028, 4115.64102537, 3937.17948649, 4097.05128171, 4135.89743569, 4094.99999966, 4120.25640998, 4142.30769210, 4104.61538434, 7599.48718658, 4142.05128185, 4029.99999952, 4125.25640998,12.0
4056.15384574, 4346.02564124, 4123.20512793, 3915.64102495, 4095.12820478, 4137.05128185, 4116.66666639, 4136.28205108, 4171.02564089, 4105.76923050, 7601.02564812, 4166.79487159, 4050.25640984, 4124.99999973,12.0
4056.41025600, 4375.64102592, 4142.30769210, 3917.56410187, 4093.71794837, 4166.92307672, 4182.82051269, 4177.56410243, 4204.61538455, 4104.23076896, 7607.05128914, 4191.79487166, 4058.46153805, 4120.51282024,12.0
4054.48717907, 4393.58974387, 4129.10256383, 3953.46153784, 4096.15384581, 4174.74358961, 4165.64102544, 4158.58974339, 4174.10256397, 4102.56410229, 7591.15385325, 4160.89743569, 4042.94871754, 4120.89743562,12.0
4063.58974318, 4366.66666695, 4117.94871767, 3934.61538392, 4096.02564068, 4141.66666646, 4121.79487152, 4134.10256383, 4158.97435877, 4103.58974332, 7558.07693010, 4150.12820492, 4047.82051241, 4123.20512793,12.0
4065.12820472, 4396.79487208, 4153.33333313, 3913.33333264, 4093.97435863, 4154.61538441, 4175.64102551, 4158.84615364, 4194.48717935, 4107.17948691, 7542.43590439, 4199.99999986, 4064.48717907, 4124.74358947,12.0
4061.41025600, 4400.25641061, 4165.64102544, 3957.69230707, 4093.07692273, 4191.79487166, 4200.25641012, 4166.41025621, 4189.61538448, 4106.41025614, 7518.97436593, 4201.28205122, 4058.20512779, 4127.94871767,12.0
4067.56410215, 4324.87179501, 4117.94871767, 3965.89743528, 4093.33333299, 4167.43589723, 4119.23076896, 4132.69230742, 4133.97435870, 4104.61538434, 7458.07692989, 4137.30769210, 4040.51282010, 4126.02564075,12.0
4068.46153805, 4304.23076937, 4100.64102530, 3924.87179418, 4093.97435863, 4116.02564075, 4090.38461504, 4127.56410229, 4134.74358947, 4105.51282024, 7395.89744257, 4129.23076896, 4045.76923036, 4123.71794844,12.0
4070.89743555, 4332.69230790, 4140.25641005, 3953.97435835, 4094.10256376, 4121.66666639, 4143.71794851, 4156.41025621, 4181.15384602, 4106.15384588, 7357.17949378, 4176.79487166, 4059.61538420, 4125.12820485,12.0
4072.30769196, 4282.82051289, 4160.64102544, 4036.41025593, 4095.38461504, 4169.23076910, 4167.94871774, 4179.35897422, 4192.43589730, 4105.76923050, 7296.02564749, 4194.61538448, 4060.76923036, 4126.02564075,12.0
4072.56410222, 4237.17948718, 4156.28205108, 4102.43589709, 4095.38461504, 4181.41025628, 4145.38461518, 4184.61538448, 4190.51282038, 4104.10256383, 7206.15385241, 4197.56410243, 4067.30769189, 4127.56410229,12.0
4076.02564068, 4230.89743583, 4163.71794851, 4149.35897415, 4095.25640991, 4148.84615364, 4134.35897408, 4182.17948704, 4204.35897429, 4102.94871767, 7144.61539073, 4210.38461532, 4077.69230735, 4128.71794844,12.0
4072.69230735, 4104.87179460, 4163.46153826, 4163.20512800, 4096.02564068, 4139.61538441, 4148.58974339, 4192.30769217, 4201.66666660, 4103.20512793, 7082.56410854, 4199.87179474, 4065.51282010, 4127.56410229,12.0
4076.53846119, 3935.38461469, 4146.79487159, 4150.64102544, 4096.41025607, 4164.74358954, 4152.30769210, 4186.66666653, 4179.35897422, 4104.61538434, 6989.10256987, 4172.69230756, 4049.87179446, 4126.53846126,12.0
4079.23076889, 3874.99999924, 4137.05128185, 4161.02564082, 4096.79487145, 4163.20512800, 4137.82051262, 4157.43589723, 4174.99999986, 4105.51282024, 6906.53846717, 4158.71794851, 4059.10256369, 4127.30769203,12.0
4078.58974325, 3866.15384532, 4136.15384595, 4195.38461525, 4096.41025607, 4143.33333313, 4133.58974332, 4148.33333313, 4176.02564089, 4104.87179460, 6818.97436440, 4152.69230749, 4060.89743548, 4126.92307665,12.0
4082.69230735, 3849.61538379, 4130.25640998, 4207.43589737, 4094.87179453, 4151.53846133, 4126.53846126, 4142.56410236, 4148.07692287, 4103.71794844, 6715.89744111, 4144.87179467, 4048.33333292, 4126.02564075,12.0
4077.82051248, 3837.56410166, 4129.10256383, 4214.23076917, 4095.51282017, 4158.33333313, 4113.20512793, 4133.20512793, 4128.58974332, 4104.74358947, 6651.02564610, 4145.38461518, 4054.23076882, 4127.17948691,12.0
4078.71794837, 3826.41025551, 4136.41025621, 4221.28205122, 4097.30769196, 4141.41025621, 4126.41025614, 4147.94871774, 4154.87179467, 4106.15384588, 6624.23077424, 4155.89743569, 4062.43589702, 4126.15384588,12.0
4082.05128171, 3841.79487096, 4144.35897415, 4218.71794865, 4098.84615350, 4147.17948697, 4145.38461518, 4164.87179467, 4171.66666653, 4105.51282024, 6588.58974853, 4172.30769217, 4061.28205087, 4125.76923050,12.0
4079.10256376, 3874.35897360, 4152.17948697, 4230.76923070, 4098.71794837, 4180.38461525, 4142.43589723, 4165.12820492, 4157.94871774, 4107.43589716, 6529.87179967, 4186.66666653, 4069.48717907, 4127.05128178,12.0
4082.69230735, 3869.35897353, 4152.30769210, 4241.79487180, 4096.41025607, 4178.71794858, 4131.79487152, 4166.28205108, 4162.56410236, 4107.43589716, 6459.74359440, 4179.61538448, 4076.28205094, 4125.12820485,12.0
4083.07692273, 3855.38461455, 4143.07692287, 4227.43589737, 4097.05128171, 4140.51282031, 4117.69230742, 4159.48717928, 4168.84615371, 4102.94871767, 6391.66667119, 4163.07692287, 4063.58974318, 4124.10256383,12.0
4084.74358940, 3843.20512738, 4145.38461518, 4223.97435891, 4099.87179453, 4128.97435870, 4123.20512793, 4152.82051262, 4162.05128185, 4103.20512793, 6338.97436343, 4171.02564089, 4060.76923036, 4125.25640998,12.0
4088.07692273, 3837.30769141, 4152.05128185, 4239.48717949, 4100.51282017, 4152.56410236, 4140.64102544, 4162.69230749, 4163.71794851, 4106.79487152, 6289.23077354, 4179.87179474, 4076.02564068, 4126.66666639,12.0
4085.38461504, 3854.48717866, 4144.61538441, 4225.76923070, 4098.58974325, 4157.56410236, 4137.82051262, 4172.82051269, 4162.43589723, 4107.30769203, 6217.69231187, 4167.56410236, 4076.15384581, 4128.58974332,12.0
4088.58974325, 3860.89743507, 4142.56410236, 4209.61538455, 4095.76923043, 4148.58974339, 4126.28205101, 4166.41025621, 4153.07692287, 4106.53846126, 6129.87179884, 4161.53846133, 4064.87179446, 4127.43589716,12.0
4091.66666632, 3859.48717866, 4149.23076903, 4235.12820513, 4098.58974325, 4153.07692287, 4123.07692280, 4151.15384595, 4151.02564082, 4107.56410229, 6058.33333716, 4167.56410236, 4064.35897395, 4125.25640998,12.0
4093.07692273, 3859.99999917, 4148.46153826, 4237.30769231, 4101.53846119, 4155.38461518, 4128.20512793, 4156.28205108, 4158.58974339, 4107.17948691, 6005.25641394, 4168.84615371, 4072.05128171, 4127.17948691,12.0
4093.97435863, 3864.35897353, 4146.28205108, 4217.82051275, 4098.97435863, 4148.33333313, 4135.38461518, 4173.97435884, 4167.69230749, 4105.51282024, 5933.46154201, 4166.28205108, 4072.56410222, 4129.48717921,12.0
4092.05128171, 3896.15384539, 4151.41025621, 4233.58974352, 4100.89743555, 4153.33333313, 4137.82051262, 4166.02564082, 4164.74358954, 4106.15384588, 5859.87179828, 4167.69230749, 4069.35897395, 4129.23076896,12.0
4095.76923043, 3931.79487110, 4153.33333313, 4256.92307693, 4101.79487145, 4154.74358954, 4116.53846126, 4133.84615357, 4133.84615357, 4108.20512793, 5803.84615712, 4165.51282031, 4069.48717907, 4128.46153819,12.0
4093.33333299, 3913.71794803, 4134.87179460, 4233.84615385, 4098.33333299, 4127.94871767, 4080.12820478, 4114.99999973, 4106.41025614, 4107.17948691, 5732.05128518, 4145.25641005, 4065.12820472, 4130.89743562,12.0
4093.71794837, 3896.79487103, 4132.43589716, 4198.07692294, 4098.71794837, 4130.89743562, 4102.17948684, 4133.71794844, 4125.76923050, 4105.89743562, 5672.69231068, 4147.69230749, 4068.20512779, 4131.53846126,12.0
4101.53846119, 3932.43589674, 4167.82051262, 4222.69230763, 4100.12820478, 4164.35897415, 4162.17948697, 4162.05128185, 4159.74358954, 4106.79487152, 5649.10256709, 4199.35897422, 4087.17948684, 4129.61538434,12.0
4096.41025607, 3960.38461476, 4176.79487166, 4256.02564103, 4099.10256376, 4154.48717928, 4138.07692287, 4153.46153826, 4146.15384595, 4107.94871767, 5598.46154131, 4209.99999993, 4089.35897402, 4130.25640998,12.0
4096.28205094, 3944.10256348, 4144.10256390, 4229.35897429, 4099.35897402, 4119.35897408, 4071.41025607, 4133.46153819, 4123.71794844, 4109.23076896, 5526.53846425, 4163.58974339, 4074.74358940, 4130.25640998,12.0
4098.33333299, 3939.87179425, 4133.84615357, 4201.92307686, 4101.66666632, 4122.43589716, 4084.99999966, 4142.43589723, 4143.07692287, 4109.10256383, 5482.56410521, 4151.79487159, 4074.99999966, 4128.33333306,12.0
4093.46153812, 3966.41025579, 4148.97435877, 4220.76923070, 4102.17948684, 4146.53846133, 4122.94871767, 4147.05128185, 4144.74358954, 4108.07692280, 5432.17948968, 4161.66666646, 4072.43589709, 4128.20512793,12.0
4096.66666632, 3958.58974297, 4148.07692287, 4221.02564096, 4102.30769196, 4152.43589723, 4113.71794844, 4143.97435877, 4136.41025621, 4107.56410229, 5388.58974603, 4158.46153826, 4070.25640991, 4129.35897408,12.0
4095.64102530, 3932.05128136, 4141.41025621, 4187.05128192, 4101.15384581, 4148.46153826, 4108.58974332, 4160.38461518, 4162.82051262, 4107.69230742, 5370.76923314, 4164.35897415, 4082.05128171, 4129.99999973,12.0
4096.92307658, 3963.97435835, 4147.56410236, 4183.58974345, 4096.53846119, 4156.02564082, 4131.28205101, 4172.69230756, 4169.99999986, 4109.61538434, 5319.23077153, 4171.66666653, 4083.46153812, 4132.17948691,12.0
4098.97435863, 4010.12820465, 4153.84615364, 4211.92307686, 4097.82051248, 4175.12820499, 4150.51282031, 4175.89743576, 4154.10256390, 4111.02564075, 5253.20513036, 4170.25641012, 4079.48717914, 4132.05128178,12.0
4095.89743555, 4016.79487131, 4154.10256390, 4221.66666660, 4104.10256383, 4176.02564089, 4159.35897415, 4189.35897422, 4166.66666646, 4110.12820485, 5213.46154048, 4168.58974345, 4083.33333299, 4127.82051255,12.0
4100.76923043, 4029.87179439, 4150.64102544, 4180.25641012, 4103.58974332, 4162.17948697, 4158.07692287, 4196.28205115, 4179.99999986, 4107.43589716, 5159.61538656, 4164.87179467, 4082.17948684, 4126.92307665,12.0
4098.33333299, 4054.87179446, 4144.35897415, 4155.25641005, 4100.12820478, 4152.82051262, 4126.15384588, 4173.58974345, 4147.30769210, 4107.69230742, 5101.02564284, 4155.76923056, 4076.66666632, 4129.10256383,12.0
4096.02564068, 4065.51282010, 4141.79487159, 4177.69230756, 4100.76923043, 4139.35897415, 4090.76923043, 4144.23076903, 4120.51282024, 4109.10256383, 5082.05128379, 4152.94871774, 4077.56410222, 4127.94871767,12.0
4101.92307658, 4086.53846119, 4150.64102544, 4182.82051269, 4101.41025607, 4141.15384595, 4110.64102537, 4150.89743569, 4144.23076903, 4106.66666639, 5073.07692482, 4165.51282031, 4088.84615350, 4126.66666639,12.0
4103.07692280, 4111.66666639, 4148.71794851, 4162.05128185, 4101.28205094, 4156.79487159, 4126.02564075, 4158.97435877, 4147.94871774, 4105.89743562, 5034.10256577, 4157.82051262, 4085.64102530, 4129.10256383,12.0
4106.15384588, 4109.10256383, 4133.33333306, 4157.69230749, 4100.12820478, 4146.15384595, 4092.82051248, 4135.89743569, 4114.74358947, 4107.69230742, 4994.10256570, 4133.20512793, 4063.97435856, 4130.51282024,12.0
4106.79487152, 4105.51282024, 4139.87179467, 4157.69230749, 4100.76923043, 4130.12820485, 4097.30769196, 4136.79487159, 4117.17948691, 4108.46153819, 4983.07692461, 4148.97435877, 4069.61538420, 4128.58974332,12.0
4105.76923050, 4130.76923050, 4150.89743569, 4164.23076903, 4105.12820485, 4141.41025621, 4117.94871767, 4142.05128185, 4125.12820485, 4109.87179460, 4963.58974512, 4166.92307672, 4091.15384581, 4129.48717921,12.0
4106.28205101, 4144.61538441, 4140.38461518, 4190.64102551, 4104.10256383, 4150.64102544, 4098.46153812, 4114.10256383, 4092.30769196, 4111.28205101, 4913.84615524, 4140.25641005, 4076.92307658, 4135.51282031,12.0
4104.10256383, 4125.76923050, 4141.41025621, 4166.66666646, 4099.99999966, 4151.02564082, 4108.97435870, 4133.33333306, 4111.28205101, 4111.92307665, 4892.94871934, 4145.12820492, 4071.66666632, 4135.89743569,12.0
4107.17948691, 4109.10256383, 4149.99999980, 4128.97435870, 4100.12820478, 4154.23076903, 4136.53846133, 4178.46153833, 4162.43589723, 4111.28205101, 4882.17948850, 4171.15384602, 4094.35897402, 4134.61538434,12.0
4102.82051255, 4113.84615357, 4143.20512800, 4164.87179467, 4101.02564068, 4154.87179467, 4119.87179460, 4175.25641012, 4152.30769210, 4111.53846126, 4822.82051401, 4152.94871774, 4088.46153812, 4137.30769210,12.0
4101.15384581, 4130.38461511, 4147.56410236, 4190.89743576, 4101.53846119, 4166.28205108, 4129.74358947, 4188.84615371, 4153.71794851, 4112.17948691, 4770.64102676, 4153.84615364, 4077.94871761, 4136.28205108,12.0
4109.87179460, 4137.05128185, 4160.25641005, 4160.76923056, 4105.51282024, 4166.02564082, 4160.25641005, 4213.20512814, 4181.79487166, 4109.74358947, 4751.53846258, 4177.30769217, 4089.35897402, 4132.05128178,12.0
4106.41025614, 4137.30769210, 4160.64102544, 4162.82051262, 4107.94871767, 4143.97435877, 4141.41025621, 4184.87179474, 4162.94871774, 4108.07692280, 4746.66666771, 4176.02564089, 4093.20512786, 4131.15384588,12.0
4103.33333306, 4142.69230749, 4159.35897415, 4188.58974345, 4104.35897408, 4144.10256390, 4110.89743562, 4156.92307672, 4136.53846133, 4111.15384588, 4753.20512925, 4173.84615371, 4089.99999966, 4131.53846126,12.0
4104.23076896, 4146.15384595, 4155.89743569, 4185.12820499, 4102.82051255, 4149.23076903, 4099.99999966, 4154.87179467, 4132.43589716, 4117.17948691, 4726.15384720, 4168.71794858, 4088.84615350, 4131.41025614,12.0
4104.10256383, 4160.12820492, 4164.23076903, 4181.41025628, 4104.87179460, 4151.28205108, 4118.84615357, 4160.64102544, 4136.66666646, 4115.25640998, 4678.07692398, 4174.99999986, 4094.74358940, 4132.69230742,12.0
4106.02564075, 4153.20512800, 4176.66666653, 4170.51282038, 4105.64102537, 4165.64102544, 4140.12820492, 4169.10256397, 4145.64102544, 4108.33333306, 4655.12820597, 4187.56410243, 4099.99999966, 4130.64102537,12.0
4100.76923043, 4109.74358947, 4160.76923056, 4145.89743569, 4107.56410229, 4160.76923056, 4134.87179460, 4174.23076910, 4149.23076903, 4108.84615357, 4627.30769308, 4169.87179474, 4095.12820478, 4129.74358947,12.0
4105.51282024, 4109.74358947, 4138.46153826, 4151.66666646, 4107.69230742, 4148.20512800, 4127.17948691, 4164.10256390, 4136.53846133, 4111.02564075, 4572.56410326, 4141.92307672, 4086.15384581, 4131.28205101,12.0
4108.97435870, 4136.02564082, 4140.89743569, 4157.43589723, 4104.99999973, 4157.30769210, 4128.46153819, 4152.05128185, 4128.07692280, 4106.66666639, 4533.97435960, 4139.74358954, 4084.61538427, 4128.97435870,12.0
4100.12820478, 4114.23076896, 4144.61538441, 4141.15384595, 4104.23076896, 4155.38461518, 4123.33333306, 4154.48717928, 4136.02564082, 4105.51282024, 4508.07692364, 4139.23076903, 4084.48717914, 4128.33333306,12.0
4104.35897408, 4109.35897408, 4141.53846133, 4157.82051262, 4105.76923050, 4140.64102544, 4113.84615357, 4149.48717928, 4124.99999973, 4114.99999973, 4469.74359023, 4130.64102537, 4078.46153812, 4131.92307665,12.0
4111.41025614, 4140.51282031, 4153.58974339, 4169.23076910, 4107.43589716, 4154.74358954, 4127.82051255, 4154.61538441, 4116.79487152, 4118.33333306, 4452.94871837, 4151.15384595, 4088.97435863, 4133.33333306,12.0
4112.17948691, 4140.12820492, 4165.38461518, 4150.38461518, 4105.51282024, 4168.46153833, 4146.28205108, 4189.99999986, 4147.17948697, 4112.05128178, 4451.92307734, 4177.17948704, 4102.17948684, 4131.15384588,12.0
4112.30769203, 4140.89743569, 4164.48717928, 4164.74358954, 4103.71794844, 4153.84615364, 4141.66666646, 4201.79487173, 4165.76923056, 4113.58974332, 4432.43589786, 4175.51282038, 4094.23076889, 4132.94871767,12.0
4109.23076896, 4143.46153826, 4161.15384595, 4173.46153833, 4103.71794844, 4143.58974339, 4115.38461511, 4171.02564089, 4144.35897415, 4115.51282024, 4409.61538497, 4167.30769210, 4092.30769196, 4134.35897408,12.0
4111.79487152, 4124.87179460, 4161.02564082, 4160.25641005, 4104.87179460, 4144.23076903, 4096.28205094, 4159.23076903, 4135.25640998, 4111.92307665, 4393.97435926, 4169.99999986, 4105.12820485, 4134.10256383,12.0
4111.92307665, 4141.02564082, 4170.12820499, 4180.25641012, 4106.79487152, 4147.43589723, 4114.48717921, 4177.56410243, 4152.69230749, 4112.69230742, 4369.87179515, 4180.64102551, 4105.12820485, 4135.89743569,12.0
4111.66666639, 4160.38461518, 4177.43589730, 4186.41025628, 4105.12820485, 4154.10256390, 4136.15384595, 4173.07692294, 4149.74358954, 4114.35897408, 4350.12820534, 4186.66666653, 4097.69230735, 4136.28205108,12.0
4112.43589716, 4140.64102544, 4162.43589723, 4160.12820492, 4104.61538434, 4155.89743569, 4128.58974332, 4149.48717928, 4127.43589716, 4113.97435870, 4339.61538483, 4172.56410243, 4099.61538427, 4136.02564082,12.0
4108.71794844, 4131.02564075, 4143.33333313, 4175.89743576, 4106.66666639, 4162.43589723, 4122.82051255, 4150.89743569, 4122.94871767, 4112.69230742, 4300.25641040, 4145.89743569, 4093.71794837, 4134.87179460,12.0
4113.71794844, 4142.17948697, 4151.02564082, 4180.25641012, 4106.92307665, 4174.48717935, 4144.23076903, 4173.20512807, 4141.15384595, 4112.30769203, 4253.58974359, 4148.20512800, 4086.79487145, 4134.35897408,12.0
4111.92307665, 4143.33333313, 4162.17948697, 4149.87179467, 4106.92307665, 4162.69230749, 4149.87179467, 4180.76923063, 4153.58974339, 4113.20512793, 4241.53846154, 4166.02564082, 4097.94871761, 4135.51282031,12.0
4107.82051255, 4131.92307665, 4155.25641005, 4167.94871774, 4107.94871767, 4140.38461518, 4122.05128178, 4166.41025621, 4139.10256390, 4113.97435870, 4226.53846147, 4160.89743569, 4101.92307658, 4135.38461518,12.0
4113.20512793, 4118.71794844, 4146.28205108, 4176.15384602, 4108.33333306, 4151.15384595, 4116.79487152, 4163.33333313, 4129.35897408, 4116.41025614, 4190.64102551, 4147.94871774, 4091.41025607, 4133.07692280,12.0
4109.61538434, 4130.89743562, 4150.12820492, 4151.66666646, 4107.56410229, 4163.46153826, 4129.48717921, 4176.28205115, 4140.12820492, 4121.02564075, 4171.92307679, 4151.53846133, 4093.58974325, 4131.02564075,12.0
4109.23076896, 4157.05128185, 4156.41025621, 4176.92307679, 4107.30769203, 4147.56410236, 4112.43589716, 4165.25641005, 4137.82051262, 4120.25640998, 4173.33333320, 4158.71794851, 4105.12820485, 4133.33333306,12.0
4110.12820485, 4135.12820485, 4149.10256390, 4196.79487166, 4110.12820485, 4143.71794851, 4099.74358940, 4148.58974339, 4119.10256383, 4114.74358947, 4153.07692287, 4148.46153826, 4097.05128171, 4136.53846133,12.0
4105.89743562, 4115.64102537, 4148.58974339, 4162.82051262, 4110.12820485, 4160.76923056, 4128.07692280, 4168.84615371, 4125.89743562, 4114.87179460, 4120.12820485, 4144.48717928, 4084.23076889, 4136.28205108,12.0
4108.07692280, 4137.94871774, 4167.17948697, 4157.56410236, 4105.89743562, 4169.23076910, 4147.82051262, 4189.10256397, 4158.20512800, 4117.17948691, 4112.82051255, 4162.30769210, 4098.84615350, 4134.87179460,12.0
4107.43589716, 4133.07692280, 4162.82051262, 4185.51282038, 4105.89743562, 4161.15384595, 4124.10256383, 4172.82051269, 4154.87179467, 4114.10256383, 4105.51282024, 4158.07692287, 4109.10256383, 4135.51282031,12.0
4108.33333306, 4108.71794844, 4143.46153826, 4160.89743569, 4108.46153819, 4152.17948697, 4117.05128178, 4167.30769210, 4135.89743569, 4112.05128178, 4086.66666632, 4139.74358954, 4100.38461504, 4132.94871767,12.0
4111.15384588, 4115.12820485, 4153.97435877, 4131.66666639, 4108.20512793, 4157.82051262, 4144.87179467, 4184.99999986, 4150.25641005, 4114.74358947, 4071.15384581, 4155.51282031, 4102.94871767, 4130.12820485,12.0
4109.99999973, 4134.74358947, 4160.12820492, 4170.38461525, 4107.17948691, 4163.71794851, 4143.58974339, 4165.51282031, 4139.35897415, 4115.51282024, 4034.10256362, 4154.74358954, 4102.43589709, 4133.71794844,12.0
4113.07692280, 4134.74358947, 4137.30769210, 4191.02564089, 4108.33333306, 4151.02564082, 4116.92307665, 4132.82051255, 4108.84615357, 4114.48717921, 3988.84615329, 4117.30769203, 4088.46153812, 4137.30769210,12.0
4111.66666639, 4115.25640998, 4132.05128178, 4157.17948697, 4109.87179460, 4135.25640998, 4113.46153819, 4148.71794851, 4129.10256383, 4115.12820485, 3974.74358919, 4119.99999973, 4092.56410222, 4137.17948697,12.0
4112.30769203, 4108.33333306, 4157.43589723, 4154.74358954, 4108.58974332, 4146.79487159, 4129.61538434, 4171.92307679, 4154.10256390, 4113.71794844, 3976.28205073, 4160.51282031, 4110.51282024, 4135.25640998,12.0
4114.23076896, 4113.46153819, 4167.94871774, 4156.15384595, 4105.89743562, 4153.84615364, 4128.20512793, 4161.53846133, 4133.58974332, 4113.07692280, 3956.53846092, 4168.33333320, 4109.48717921, 4135.51282031,12.0
4112.69230742, 4121.41025614, 4151.28205108, 4141.15384595, 4105.51282024, 4135.76923056, 4105.12820485, 4150.89743569, 4120.25640998, 4114.35897408, 3935.51281982, 4146.79487159, 4103.46153819, 4135.38461518,12.0
4115.38461511, 4132.56410229, 4149.48717928, 4167.94871774, 4105.64102537, 4144.74358954, 4102.56410229, 4154.87179467, 4132.69230742, 4112.43589716, 3923.20512751, 4143.58974339, 4106.02564075, 4136.02564082,12.0
4110.76923050, 4134.74358947, 4160.51282031, 4186.02564089, 4107.17948691, 4165.76923056, 4127.56410229, 4164.23076903, 4143.46153826, 4113.71794844, 3900.38461462, 4152.69230749, 4106.02564075, 4138.71794851,12.0
4111.02564075, 4116.28205101, 4153.58974339, 4151.66666646, 4107.82051255, 4147.17948697, 4130.38461511, 4168.46153833, 4139.35897415, 4117.30769203, 3880.76923001, 4151.41025621, 4109.61538434, 4137.30769210,12.0
4114.48717921, 4086.66666632, 4133.97435870, 4139.48717928, 4106.15384588, 4127.43589716, 4108.20512793, 4148.33333313, 4116.41025614, 4115.64102537, 3860.38461455, 4129.23076896, 4105.38461511, 4135.25640998,12.0
4107.30769203, 4079.23076889, 4124.99999973, 4159.61538441, 4107.56410229, 4138.07692287, 4108.97435870, 4133.71794844, 4099.99999966, 4116.66666639, 3831.92307602, 4103.84615357, 4083.84615350, 4136.79487159,12.0
4111.28205101, 4107.05128178, 4136.28205108, 4167.69230749, 4108.07692280, 4150.76923056, 4127.94871767, 4158.46153826, 4113.71794844, 4118.20512793, 3826.66666577, 4116.66666639, 4083.58974325, 4137.05128185,12.0
4112.56410229, 4113.46153819, 4154.35897415, 4149.87179467, 4106.15384588, 4150.89743569, 4133.97435870, 4182.82051269, 4129.99999973, 4114.48717921, 3833.33333243, 4150.89743569, 4106.28205101, 4135.64102544,12.0
4106.92307665, 4094.87179453, 4162.17948697, 4133.84615357, 4107.05128178, 4143.20512800, 4124.87179460, 4172.82051269, 4126.02564075, 4115.51282024, 3812.94871705, 4158.58974339, 4107.82051255, 4134.99999973,12.0
4109.87179460, 4091.92307658, 4153.07692287, 4159.23076903, 4109.87179460, 4123.84615357, 4102.05128171, 4153.97435877, 4116.79487152, 4117.43589716, 3789.61538365, 4139.99999980, 4097.94871761, 4134.23076896,12.0
4107.43589716, 4090.12820478, 4144.35897415, 4183.58974345, 4110.38461511, 4119.23076896, 4091.28205094, 4155.38461518, 4111.41025614, 4115.25640998, 3781.53846057, 4133.97435870, 4099.74358940, 4134.35897408,12.0
4107.17948691, 4077.30769196, 4147.82051262, 4176.66666653, 4109.99999973, 4131.28205101, 4096.28205094, 4159.61538441, 4112.05128178, 4116.79487152, 3766.28205024, 4141.15384595, 4098.84615350, 4135.76923056,12.0
4108.58974332, 4077.43589709, 4149.48717928, 4172.94871781, 4111.41025614, 4125.76923050, 4085.12820478, 4149.48717928, 4112.69230742, 4120.12820485, 3759.35897332, 4137.30769210, 4096.41025607, 4135.51282031,12.0
4106.02564075, 4067.56410215, 4143.58974339, 4164.99999980, 4109.99999973, 4118.07692280, 4078.33333299, 4139.10256390, 4106.02564075, 4118.84615357, 3760.76922973, 4126.28205101, 4100.25640991, 4135.76923056,12.0
4107.43589716, 4063.46153805, 4137.17948697, 4173.84615371, 4111.79487152, 4119.61538434, 4093.84615350, 4127.17948691, 4084.35897402, 4118.46153819, 3733.71794761, 4116.41025614, 4094.87179453, 4136.02564082,12.0
4104.99999973, 4089.99999966, 4139.48717928, 4183.71794858, 4115.38461511, 4128.84615357, 4111.02564075, 4128.07692280, 4074.74358940, 4117.82051255, 3709.61538351, 4118.07692280, 4087.94871761, 4136.79487159,12.0
4110.38461511, 4082.43589709, 4141.53846133, 4143.07692287, 4111.92307665, 4142.17948697, 4117.43589716, 4145.76923056, 4093.97435863, 4117.30769203, 3716.15384505, 4121.79487152, 4092.30769196, 4139.23076903,12.0
4115.12820485, 4053.07692266, 4137.17948697, 4139.10256390, 4109.87179460, 4136.28205108, 4106.02564075, 4150.12820492, 4099.99999966, 4119.35897408, 3710.89743479, 4112.94871767, 4093.71794837, 4139.10256390,12.0
4111.66666639, 4065.12820472, 4134.10256383, 4194.48717935, 4110.64102537, 4114.48717921, 4088.46153812, 4139.99999980, 4083.97435863, 4119.48717921, 3682.43589626, 4099.35897402, 4087.82051248, 4135.25640998,12.0
4113.58974332, 4073.71794837, 4130.89743562, 4178.97435884, 4110.51282024, 4106.66666639, 4092.30769196, 4140.12820492, 4083.46153812, 4118.46153819, 3665.89743465, 4097.56410222, 4086.79487145, 4135.38461518,12.0
4112.56410229, 4058.97435856, 4128.84615357, 4137.17948697, 4112.05128178, 4112.43589716, 4093.71794837, 4148.46153826, 4095.38461504, 4120.12820485, 3663.97435773, 4102.56410229, 4091.15384581, 4136.53846133,12.0
4112.43589716, 4043.71794830, 4129.74358947, 4157.43589723, 4111.66666639, 4107.94871767, 4068.71794830, 4145.76923056, 4097.69230735, 4119.87179460, 3658.46153721, 4099.87179453, 4093.84615350, 4135.25640998,12.0
4112.82051255, 4043.97435856, 4144.35897415, 4158.58974339, 4110.76923050, 4121.41025614, 4087.94871761, 4163.58974339, 4130.12820485, 4118.07692280, 3663.07692183, 4124.87179460, 4104.48717921, 4135.89743569,12.0
4109.10256383, 4057.94871754, 4154.99999980, 4140.25641005, 4113.71794844, 4137.69230749, 4127.30769203, 4179.74358961, 4151.28205108, 4117.05128178, 3664.61538337, 4149.99999980, 4111.92307665, 4136.79487159,12.0
4113.71794844, 4059.48717907, 4135.38461518, 4160.89743569, 4113.46153819, 4116.02564075, 4093.84615350, 4143.20512800, 4089.10256376, 4117.17948691, 3636.02563971, 4115.51282024, 4093.46153812, 4136.02564082,12.0
4108.97435870, 4065.51282010, 4128.71794844, 4172.05128192, 4110.64102537, 4098.07692273, 4062.69230728, 4120.25640998, 4052.94871754, 4119.35897408, 3608.07692169, 4091.41025607, 4081.28205094, 4134.35897408,12.0
4103.58974332, 4097.94871761, 4154.61538441, 4166.53846133, 4111.28205101, 4115.51282024, 4100.76923043, 4144.87179467, 4102.69230742, 4119.74358947, 3612.17948586, 4128.84615357, 4095.12820478, 4133.71794844,12.0
4110.51282024, 4090.38461504, 4154.99999980, 4177.05128192, 4113.84615357, 4126.28205101, 4108.07692280, 4135.25640998, 4106.66666639, 4117.17948691, 3612.05128073, 4135.38461518, 4098.58974325, 4138.07692287,12.0
4108.58974332, 4054.35897395, 4129.74358947, 4188.58974345, 4114.10256383, 4104.48717921, 4057.94871754, 4089.99999966, 4037.69230728, 4118.20512793, 3589.10256272, 4093.84615350, 4084.48717914, 4139.48717928,12.0
4106.02564075, 4079.23076889, 4138.97435877, 4176.41025628, 4111.28205101, 4102.56410229, 4061.66666625, 4102.69230742, 4038.84615343, 4118.20512793, 3587.43589605, 4104.35897408, 4089.87179453, 4135.76923056,12.0
4104.10256383, 4090.51282017, 4155.12820492, 4151.02564082, 4111.28205101, 4119.23076896, 4103.71794844, 4143.71794851, 4092.69230735, 4115.38461511, 3592.69230631, 4134.99999973, 4102.43589709, 4137.05128185,12.0
4102.43589709, 4040.64102523, 4133.71794844, 4148.33333313, 4115.64102537, 4106.15384588, 4083.58974325, 4128.46153819, 4079.35897402, 4117.17948691, 3564.10256265, 4103.84615357, 4090.89743555, 4139.35897415,12.0
4105.38461511, 4038.07692266, 4117.17948691, 4158.46153826, 4115.76923050, 4092.05128171, 4053.46153805, 4102.43589709, 4042.17948677, 4120.89743562, 3540.64102412, 4073.71794837, 4079.99999966, 4134.23076896,12.0
4103.71794844, 4090.64102530, 4133.33333306, 4148.97435877, 4111.02564075, 4106.02564075, 4084.99999966, 4126.02564075, 4067.17948677, 4117.82051255, 3561.66666521, 4103.84615357, 4092.94871761, 4134.61538434,12.0
4106.66666639, 4082.94871761, 4142.82051262, 4139.99999980, 4111.66666639, 4104.61538434, 4093.58974325, 4140.64102544, 4092.05128171, 4116.15384588, 3565.12820367, 4122.94871767, 4100.25640991, 4140.38461518,12.0
4107.69230742, 4025.64102516, 4132.17948691, 4143.84615364, 4114.74358947, 4083.84615350, 4060.89743548, 4122.43589716, 4073.07692273, 4120.25640998, 3535.64102412, 4101.53846119, 4092.17948684, 4138.84615364,12.0
4106.15384588, 4025.51282003, 4141.15384595, 4116.79487152, 4111.79487152, 4097.94871761, 4087.94871761, 4142.82051262, 4091.66666632, 4120.38461511, 3538.20512668, 4116.92307665, 4098.84615350, 4135.89743569,12.0
4108.33333306, 4051.28205087, 4152.56410236, 4110.38461511, 4109.74358947, 4117.05128178, 4117.05128178, 4164.10256390, 4115.64102537, 4119.10256383, 3542.05128053, 4139.74358954, 4106.41025614, 4136.53846133,12.0
4105.89743562, 4059.99999959, 4132.05128178, 4162.82051262, 4110.12820485, 4093.20512786, 4064.10256369, 4113.97435870, 4060.76923036, 4120.25640998, 3504.35897276, 4097.17948684, 4089.35897402, 4137.43589723,12.0
4109.99999973, 4065.12820472, 4120.38461511, 4173.33333320, 4107.69230742, 4084.48717914, 4036.79487131, 4071.41025607, 4018.71794824, 4120.38461511, 3488.20512661, 4070.51282017, 4078.84615350, 4137.82051262,12.0
4112.05128178, 4048.71794830, 4132.82051255, 4139.74358954, 4108.58974332, 4107.43589716, 4071.53846119, 4097.56410222, 4057.43589702, 4117.30769203, 3516.41025489, 4107.43589716, 4096.53846119, 4138.58974339,12.0
4103.58974332, 4051.28205087, 4139.10256390, 4147.56410236, 4113.20512793, 4109.99999973, 4082.82051248, 4125.51282024, 4079.23076889, 4117.82051255, 3516.41025489, 4123.71794844, 4106.79487152, 4137.30769210,12.0
4104.48717921, 4086.15384581, 4132.56410229, 4154.10256390, 4114.99999973, 4101.28205094, 4073.97435863, 4117.56410229, 4054.87179446, 4119.74358947, 3489.99999841, 4099.87179453, 4091.79487145, 4137.94871774,12.0
4106.02564075, 4052.17948677, 4116.15384588, 4119.48717921, 4113.84615357, 4094.10256376, 4061.66666625, 4104.10256383, 4044.35897395, 4118.07692280, 3480.89743430, 4077.17948684, 4080.38461504, 4139.99999980,12.0
4107.17948691, 3997.94871740, 4106.53846126, 4112.43589716, 4111.41025614, 4087.94871761, 4046.28205087, 4100.12820478, 4047.17948677, 4117.82051255, 3472.30769064, 4068.97435856, 4081.28205094, 4137.69230749,12.0
4108.46153819, 4038.84615343, 4124.10256383, 4136.41025621, 4112.05128178, 4096.92307658, 4066.92307651, 4111.66666639, 4057.69230728, 4120.38461511, 3464.99999834, 4081.53846119, 4084.61538427, 4137.56410236,12.0
4101.66666632, 4060.89743548, 4135.25640998, 4136.92307672, 4113.07692280, 4101.66666632, 4086.41025607, 4126.41025614, 4073.71794837, 4121.53846126, 3471.02563936, 4097.17948684, 4089.74358940, 4140.89743569,12.0
4103.84615357, 4030.12820465, 4121.02564075, 4128.58974332, 4111.41025614, 4088.84615350, 4062.94871754, 4113.46153819, 4063.84615343, 4119.35897408, 3466.15384449, 4090.12820478, 4093.07692273, 4140.38461518,12.0
4105.25640998, 4043.20512779, 4124.23076896, 4126.15384588, 4111.41025614, 4087.30769196, 4063.46153805, 4107.05128178, 4049.23076882, 4118.07692280, 3453.58974193, 4093.33333299, 4091.66666632, 4137.17948697,12.0
4103.71794844, 4063.33333292, 4141.66666646, 4123.46153819, 4113.07692280, 4107.05128178, 4099.48717914, 4129.23076896, 4068.58974318, 4118.20512793, 3458.46153680, 4116.02564075, 4094.99999966, 4137.05128185,12.0
4103.84615357, 4056.53846113, 4129.10256383, 4128.33333306, 4113.33333306, 4101.53846119, 4079.74358940, 4114.23076896, 4064.74358933, 4119.87179460, 3448.71794705, 4095.51282017, 4091.41025607, 4139.10256390,12.0
4099.10256376, 4046.53846113, 4104.74358947, 4109.10256383, 4112.17948691, 4073.84615350, 4031.66666618, 4078.84615350, 4035.76923029, 4119.74358947, 3424.10256237, 4055.12820472, 4080.12820478, 4138.84615364,12.0
4104.23076896, 4037.05128164, 4121.79487152, 4083.33333299, 4110.51282024, 4085.76923043, 4069.23076882, 4111.02564075, 4066.02564061, 4119.35897408, 3431.66666493, 4082.43589709, 4088.97435863, 4137.69230749,12.0
4103.84615357, 4041.02564061, 4139.74358954, 4106.15384588, 4112.17948691, 4118.20512793, 4114.23076896, 4147.82051262, 4094.74358940, 4121.28205101, 3435.12820339, 4111.41025614, 4095.12820478, 4138.84615364,12.0
4097.56410222, 4058.07692266, 4122.56410229, 4142.82051262, 4113.20512793, 4113.46153819, 4079.35897402, 4122.17948691, 4067.94871754, 4120.89743562, 3423.46153673, 4084.48717914, 4086.02564068, 4139.10256390,12.0
4099.61538427, 4061.92307651, 4122.30769203, 4137.82051262, 4111.66666639, 4100.25640991, 4067.43589702, 4111.28205101, 4064.87179446, 4120.12820485, 3431.66666493, 4083.71794837, 4092.43589709, 4135.64102544,12.0
4098.07692273, 4054.48717907, 4133.71794844, 4127.82051255, 4113.33333306, 4114.35897408, 4097.05128171, 4133.58974332, 4083.97435863, 4119.99999973, 3431.66666493, 4104.87179460, 4098.07692273, 4133.58974332,12.0
4103.46153819, 4069.99999966, 4128.97435870, 4142.43589723, 4114.48717921, 4119.48717921, 4089.35897402, 4129.99999973, 4077.05128171, 4119.23076896, 3419.23076750, 4096.02564068, 4088.33333299, 4136.92307672,12.0
4104.99999973, 4100.76923043, 4134.35897408, 4145.64102544, 4111.41025614, 4104.99999973, 4071.53846119, 4113.46153819, 4070.76923043, 4119.74358947, 3431.92307519, 4097.30769196, 4096.66666632, 4140.12820492,12.0
4097.82051248, 4088.84615350, 4141.66666646, 4134.99999973, 4108.33333306, 4100.64102530, 4082.05128171, 4110.51282024, 4066.79487138, 4119.99999973, 3432.43589570, 4107.30769203, 4109.74358947, 4138.71794851,12.0
4101.92307658, 4064.23076882, 4132.17948691, 4122.94871767, 4109.23076896, 4110.89743562, 4086.02564068, 4114.10256383, 4064.10256369, 4118.46153819, 3411.79486999, 4101.79487145, 4101.53846119, 4136.02564082,12.0
4104.10256383, 4082.30769196, 4129.35897408, 4129.99999973, 4113.07692280, 4113.97435870, 4073.07692273, 4114.74358947, 4070.51282017, 4118.71794844, 3406.79486999, 4100.51282017, 4095.25640991, 4139.35897415,12.0
4102.82051255, 4077.56410222, 4121.79487152, 4155.64102544, 4112.05128178, 4089.87179453, 4046.66666625, 4088.46153812, 4042.43589702, 4119.35897408, 3378.97435710, 4076.02564068, 4083.84615350, 4143.46153826,12.0
4100.89743555, 4046.28205087, 4106.92307665, 4138.97435877, 4109.61538434, 4074.35897402, 4039.48717907, 4074.23076889, 4027.69230721, 4117.30769203, 3361.92307505, 4057.43589702, 4078.20512786, 4141.92307672,12.0
4099.99999966, 4077.56410222, 4121.53846126, 4114.35897408, 4112.17948691, 4092.69230735, 4072.69230735, 4104.99999973, 4070.89743555, 4117.56410229, 3402.17948538, 4094.74358940, 4099.10256376, 4138.71794851,12.0
4104.10256383, 4104.23076896, 4133.71794844, 4133.20512793, 4114.10256383, 4103.97435870, 4082.82051248, 4117.30769203, 4078.07692273, 4119.61538434, 3409.35897256, 4108.20512793, 4103.97435870, 4138.58974339,12.0
4099.87179453, 4068.20512779, 4122.30769203, 4142.82051262, 4113.97435870, 4091.66666632, 4069.48717907, 4109.61538434, 4051.41025600, 4119.61538434, 3373.58974172, 4084.48717914, 4090.89743555, 4139.23076903,12.0
4099.74358940, 4052.82051241, 4117.82051255, 4118.20512793, 4115.12820485, 4081.92307658, 4073.71794837, 4114.99999973, 4057.17948677, 4120.51282024, 3370.25640838, 4083.97435863, 4094.10256376, 4138.84615364,12.0
4102.17948684, 4067.05128164, 4114.35897408, 4114.35897408, 4113.97435870, 4079.35897402, 4062.43589702, 4106.28205101, 4058.07692266, 4120.89743562, 3374.10256223, 4080.76923043, 4097.17948684, 4139.23076903,12.0
4094.87179453, 4071.15384581, 4108.84615357, 4140.76923056, 4111.02564075, 4080.25640991, 4040.38461497, 4090.64102530, 4050.51282010, 4118.97435870, 3367.82051095, 4071.92307658, 4092.82051248, 4138.07692287,12.0
4097.05128171, 4091.79487145, 4132.05128178, 4145.64102544, 4113.20512793, 4099.10256376, 4067.94871754, 4114.23076896, 4085.12820478, 4118.97435870, 3386.92307512, 4108.58974332, 4106.02564075, 4137.69230749,12.0
4096.79487145, 4111.02564075, 4151.66666646, 4133.20512793, 4116.02564075, 4113.20512793, 4098.58974325, 4138.33333313, 4112.17948691, 4120.51282024, 3388.97435717, 4135.25640998, 4109.87179460, 4139.10256390,12.0
4093.46153812, 4096.53846119, 4131.41025614, 4143.07692287, 4113.71794844, 4102.17948684, 4076.66666632, 4124.48717921, 4094.87179453, 4119.35897408, 3371.41025454, 4106.02564075, 4094.23076889, 4137.43589723,12.0
4099.99999966, 4071.66666632, 4116.92307665, 4159.87179467, 4111.79487152, 4095.38461504, 4067.17948677, 4122.17948691, 4091.15384581, 4119.10256383, 3371.28204941, 4088.33333299, 4096.41025607, 4138.07692287,12.0
4100.12820478, 4083.46153812, 4131.41025614, 4150.12820492, 4114.87179460, 4110.12820485, 4093.58974325, 4143.97435877, 4115.51282024, 4120.25640998, 3374.61538274, 4103.58974332, 4108.58974332, 4139.23076903,12.0
4099.23076889, 4106.92307665, 4131.41025614, 4127.30769203, 4116.66666639, 4119.87179460, 4093.97435863, 4131.41025614, 4110.51282024, 4120.12820485, 3364.23076736, 4099.23076889, 4104.48717921, 4136.41025621,12.0
4096.15384581, 4093.97435863, 4114.87179460, 4121.41025614, 4115.38461511, 4110.51282024, 4078.71794837, 4106.15384588, 4077.94871761, 4118.71794844, 3344.48717755, 4079.74358940, 4093.58974325, 4136.41025621,12.0
4093.97435863, 4077.05128171, 4119.23076896, 4127.43589716, 4113.84615357, 4104.87179460, 4082.69230735, 4115.76923050, 4072.05128171, 4119.99999973, 3342.17948524, 4085.25640991, 4095.76923043, 4141.28205108,12.0
4099.23076889, 4075.76923043, 4129.35897408, 4129.74358947, 4113.33333306, 4102.94871767, 4086.02564068, 4124.35897408, 4091.28205094, 4121.79487152, 3366.15384428, 4099.35897402, 4108.71794844, 4140.12820492,12.0
4099.61538427, 4081.15384581, 4123.07692280, 4137.05128185, 4112.82051255, 4097.56410222, 4073.46153812, 4109.35897408, 4081.79487145, 4119.99999973, 3366.53845967, 4093.58974325, 4105.76923050, 4135.38461518,12.0
4102.43589709, 4104.10256383, 4115.38461511, 4141.41025621, 4111.79487152, 4089.10256376, 4053.07692266, 4087.69230735, 4045.76923036, 4118.07692280, 3336.28204934, 4075.89743555, 4087.69230735, 4136.66666646,12.0
4102.69230742, 4095.38461504, 4122.17948691, 4109.35897408, 4113.97435870, 4087.17948684, 4061.28205087, 4094.99999966, 4063.46153805, 4120.64102537, 3353.58974172, 4090.38461504, 4097.43589709, 4139.10256390,12.0
4101.66666632, 4059.99999959, 4137.43589723, 4101.53846119, 4114.87179460, 4103.71794844, 4090.51282017, 4121.53846126, 4100.76923043, 4122.56410229, 3382.05128025, 4126.28205101, 4118.07692280, 4138.84615364,12.0
4103.84615357, 4066.53846113, 4129.10256383, 4157.82051262, 4113.84615357, 4103.20512793, 4067.05128164, 4100.64102530, 4057.43589702, 4119.87179460, 3338.84615190, 4100.25640991, 4097.82051248, 4137.17948697,12.0
4097.69230735, 4083.97435863, 4104.35897408, 4144.87179467, 4116.79487152, 4084.10256376, 4039.23076882, 4076.41025607, 4019.99999952, 4119.35897408, 3310.51281850, 4053.97435856, 4078.33333299, 4139.87179467,12.0
4098.71794837, 4079.23076889, 4108.20512793, 4072.30769196, 4115.12820485, 4089.87179453, 4079.35897402, 4112.94871767, 4068.71794830, 4122.56410229, 3344.61538267, 4079.61538427, 4100.12820478, 4143.46153826,12.0
4100.89743555, 4094.61538427, 4132.17948691, 4102.17948684, 4111.53846126, 4114.35897408, 4110.25640998, 4142.94871774, 4101.15384581, 4122.43589716, 3363.97435710, 4121.28205101, 4113.33333306, 4139.48717928,12.0
4094.35897402, 4098.07692273, 4128.97435870, 4148.58974339, 4115.76923050, 4116.66666639, 4094.23076889, 4124.10256383, 4071.28205094, 4119.23076896, 3345.25640831, 4102.30769196, 4099.61538427, 4133.58974332,12.0
4097.82051248, 4052.69230728, 4113.46153819, 4100.38461504, 4120.51282024, 4108.33333306, 4094.35897402, 4117.17948691, 4064.61538420, 4118.58974332, 3334.74358780, 4078.33333299, 4092.69230735, 4136.28205108,12.0
4097.05128171, 4045.51282010, 4115.89743562, 4090.51282017, 4117.30769203, 4115.51282024, 4102.56410229, 4131.15384588, 4085.25640991, 4119.61538434, 3343.20512626, 4086.79487145, 4097.56410222, 4141.28205108,12.0
4093.84615350, 4078.58974325, 4120.25640998, 4123.46153819, 4112.82051255, 4114.74358947, 4087.43589709, 4125.89743562, 4083.58974325, 4119.87179460, 3347.43589549, 4087.82051248, 4101.92307658, 4139.48717928,12.0
4093.97435863, 4064.87179446, 4116.15384588, 4092.82051248, 4111.28205101, 4096.92307658, 4073.20512786, 4111.79487152, 4073.58974325, 4120.38461511, 3348.71794685, 4084.10256376, 4102.30769196, 4138.20512800,12.0
4090.76923043, 4058.97435856, 4114.99999973, 4090.12820478, 4112.05128178, 4087.43589709, 4073.46153812, 4110.51282024, 4076.41025607, 4120.38461511, 3354.35897249, 4092.30769196, 4104.35897408, 4141.02564082,12.0
4095.64102530, 4093.46153812, 4120.64102537, 4134.87179460, 4113.97435870, 4093.33333299, 4073.84615350, 4105.25640998, 4077.69230735, 4119.10256383, 3353.07692120, 4094.10256376, 4108.07692280, 4140.12820492,12.0
4094.35897402, 4074.35897402, 4116.15384588, 4109.10256383, 4115.76923050, 4094.87179453, 4066.15384574, 4089.99999966, 4065.51282010, 4119.48717921, 3345.64102370, 4079.99999966, 4102.17948684, 4138.71794851,12.0
4094.35897402, 4074.35897402, 4116.15384588, 4109.10256383, 4115.76923050, 4094.87179453, 4066.15384574, 4089.99999966, 4065.51282010, 4119.48717921, 3345.64102370, 4079.99999966, 4102.17948684, 4138.71794851,12.0
4092.69230735, 4034.61538413, 4105.89743562, 4086.66666632, 4117.17948691, 4094.74358940, 4061.92307651, 4091.28205094, 4064.48717907, 4120.51282024, 3347.17948524, 4072.30769196, 4096.41025607, 4139.74358954,12.0
4097.43589709, 4055.51282010, 4109.35897408, 4119.48717921, 4118.33333306, 4098.58974325, 4071.66666632, 4115.12820485, 4087.56410222, 4121.02564075, 3361.92307505, 4080.64102530, 4103.20512793, 4139.48717928,12.0
4093.07692273, 4076.53846119, 4116.15384588, 4103.46153819, 4115.25640998, 4096.92307658, 4085.89743555, 4135.64102544, 4101.92307658, 4120.25640998, 3362.05128018, 4087.30769196, 4108.33333306, 4141.53846133,12.0
4092.82051248, 4078.97435863, 4118.84615357, 4081.53846119, 4113.46153819, 4105.25640998, 4092.30769196, 4137.69230749, 4089.35897402, 4119.10256383, 3349.87179300, 4091.92307658, 4104.23076896, 4143.20512800,12.0
4093.84615350, 4079.48717914, 4118.33333306, 4121.79487152, 4115.76923050, 4111.66666639, 4090.12820478, 4129.74358947, 4070.64102530, 4119.61538434, 3348.58974172, 4092.43589709, 4101.53846119, 4141.28205108,12.0
4095.64102530, 4055.51282010, 4113.46153819, 4114.87179460, 4115.51282024, 4104.48717921, 4087.94871761, 4127.82051255, 4078.20512786, 4121.02564075, 3373.07692120, 4092.56410222, 4105.51282024, 4141.02564082,12.0
4101.66666632, 4061.28205087, 4117.56410229, 4074.35897402, 4114.99999973, 4103.71794844, 4088.84615350, 4127.94871767, 4095.76923043, 4120.51282024, 3402.43589563, 4105.89743562, 4112.56410229, 4142.56410236,12.0
4098.20512786, 4087.30769196, 4120.38461511, 4107.05128178, 4116.41025614, 4099.23076889, 4071.15384581, 4108.71794844, 4074.99999966, 4119.74358947, 3379.74358787, 4099.61538427, 4105.12820485, 4142.43589723,12.0
4098.20512786, 4067.43589702, 4117.30769203, 4130.25640998, 4114.10256383, 4098.58974325, 4072.56410222, 4107.94871767, 4065.64102523, 4120.51282024, 3357.43589556, 4089.23076889, 4097.05128171, 4138.07692287,12.0
4098.20512786, 4067.43589702, 4117.30769203, 4130.25640998, 4114.10256383, 4098.58974325, 4072.56410222, 4107.94871767, 4065.64102523, 4120.51282024, 3357.43589556, 4089.23076889, 4097.05128171, 4138.07692287,12.0
4098.84615350, 4066.02564061, 4122.43589716, 4112.56410229, 4113.71794844, 4110.38461511, 4102.82051255, 4135.76923056, 4101.92307658, 4120.64102537, 3399.61538281, 4109.74358947, 4110.38461511, 4137.94871774,12.0
4095.51282017, 4085.38461504, 4120.25640998, 4120.38461511, 4116.92307665, 4100.76923043, 4082.94871761, 4125.12820485, 4104.61538434, 4119.74358947, 3424.10256237, 4110.38461511, 4116.92307665, 4143.20512800,12.0
4096.53846119, 4064.61538420, 4104.10256383, 4121.92307665, 4117.30769203, 4073.97435863, 4037.30769189, 4086.79487145, 4060.89743548, 4120.25640998, 3381.53845974, 4074.48717914, 4099.99999966, 4143.33333313,12.0
4090.12820478, 4062.82051241, 4116.66666639, 4105.64102537, 4114.74358947, 4084.35897402, 4072.56410222, 4112.69230742, 4077.30769196, 4120.89743562, 3381.92307512, 4096.15384581, 4104.74358947, 4142.43589723,12.0
4091.92307658, 4090.76923043, 4143.07692287, 4117.17948691, 4115.12820485, 4116.41025614, 4122.69230742, 4153.46153826, 4121.02564075, 4120.51282024, 3432.82051109, 4149.61538441, 4124.74358947, 4143.33333313,12.0
4096.28205094, 4078.20512786, 4129.61538434, 4138.97435877, 4117.94871767, 4118.97435870, 4093.33333299, 4121.41025614, 4082.30769196, 4120.51282024, 3419.23076750, 4124.87179460, 4111.66666639, 4142.82051262,12.0
4089.61538427, 4052.56410215, 4112.05128178, 4114.87179460, 4116.41025614, 4108.71794844, 4077.69230735, 4102.30769196, 4054.10256369, 4120.64102537, 3392.94871615, 4091.41025607, 4102.56410229, 4139.87179467,12.0
4088.33333299, 4069.61538420, 4124.48717921, 4091.02564068, 4112.43589716, 4113.46153819, 4114.99999973, 4137.56410236, 4102.56410229, 4120.51282024, 3424.99999827, 4120.12820485, 4119.35897408, 4140.12820492,12.0
4087.56410222, 4097.43589709, 4132.05128178, 4123.84615357, 4114.35897408, 4114.48717921, 4112.94871767, 4137.43589723, 4105.25640998, 4120.51282024, 3428.84615211, 4126.15384588, 4114.48717921, 4142.05128185,12.0
4091.28205094, 4099.10256376, 4126.53846126, 4147.82051262, 4115.38461511, 4109.87179460, 4089.10256376, 4113.84615357, 4071.02564068, 4120.64102537, 3406.28204948, 4102.69230742, 4099.61538427, 4141.02564082,12.0
4093.20512786, 4077.82051248, 4121.15384588, 4113.71794844, 4113.58974332, 4121.53846126, 4104.74358947, 4131.66666639, 4099.74358940, 4120.38461511, 3425.76922904, 4107.43589716, 4110.51282024, 4140.64102544,12.0
4089.23076889, 4058.84615343, 4115.12820485, 4096.02564068, 4115.12820485, 4120.89743562, 4104.10256383, 4138.71794851, 4113.71794844, 4120.76923050, 3433.07692134, 4105.38461511, 4113.20512793, 4139.87179467,12.0
4095.76923043, 4080.25640991, 4115.25640998, 4130.64102537, 4115.89743562, 4096.02564068, 4071.41025607, 4106.15384588, 4073.97435863, 4121.02564075, 3407.43589563, 4089.61538427, 4100.25640991, 4137.30769210,12.0
4096.66666632, 4099.99999966, 4118.97435870, 4134.35897408, 4117.43589716, 4094.48717914, 4074.10256376, 4109.61538434, 4082.82051248, 4121.02564075, 3411.41025461, 4098.46153812, 4111.02564075, 4141.53846133,12.0
4092.94871761, 4067.05128164, 4114.48717921, 4094.23076889, 4118.71794844, 4108.58974332, 4089.87179453, 4133.71794844, 4108.97435870, 4122.05128178, 3433.20512647, 4103.20512793, 4123.07692280, 4146.53846133,12.0
4094.35897402, 4036.53846106, 4106.15384588, 4088.46153812, 4115.64102537, 4097.05128171, 4073.71794837, 4113.07692280, 4079.74358940, 4121.92307665, 3427.43589570, 4082.94871761, 4110.64102537, 4142.05128185,12.0
4093.84615350, 4066.66666625, 4104.74358947, 4111.28205101, 4115.89743562, 4086.92307658, 4070.64102530, 4096.66666632, 4068.33333292, 4120.89743562, 3413.20512640, 4077.05128171, 4099.48717914, 4140.51282031,12.0
4098.71794837, 4094.61538427, 4113.84615357, 4124.87179460, 4117.94871767, 4105.51282024, 4096.02564068, 4122.17948691, 4099.87179453, 4121.41025614, 3425.12820339, 4100.51282017, 4110.64102537, 4143.58974339,12.0
4098.20512786, 4083.07692273, 4123.07692280, 4133.46153819, 4117.43589716, 4116.41025614, 4093.71794837, 4133.33333306, 4098.20512786, 4121.92307665, 3444.87179314, 4114.99999973, 4125.51282024, 4142.17948697,12.0
4094.23076889, 4073.20512786, 4124.35897408, 4123.33333306, 4118.33333306, 4110.76923050, 4080.25640991, 4124.35897408, 4086.79487145, 4120.76923050, 3441.79487006, 4112.30769203, 4119.23076896, 4140.89743569,12.0
4098.07692273, 4077.43589709, 4124.61538434, 4113.46153819, 4118.84615357, 4103.84615357, 4090.76923043, 4122.94871767, 4099.61538427, 4119.48717921, 3424.87179314, 4113.97435870, 4105.25640998, 4141.53846133,12.0
4095.89743555, 4099.23076889, 4129.10256383, 4140.76923056, 4113.20512793, 4098.58974325, 4100.76923043, 4121.28205101, 4091.02564068, 4120.76923050, 3428.84615211, 4123.71794844, 4109.61538434, 4143.20512800,12.0
4094.99999966, 4105.51282024, 4126.66666639, 4167.30769210, 4111.28205101, 4098.33333299, 4088.07692273, 4114.74358947, 4072.05128171, 4121.66666639, 3447.30769064, 4122.43589716, 4121.92307665, 4143.97435877,12.0
4092.30769196, 4092.94871761, 4120.51282024, 4137.17948697, 4118.07692280, 4103.97435870, 4088.20512786, 4129.61538434, 4099.10256376, 4120.51282024, 3457.82051116, 4118.20512793, 4122.05128178, 4143.33333313,12.0
4089.48717914, 4100.25640991, 4120.76923050, 4114.87179460, 4119.35897408, 4107.17948691, 4107.69230742, 4141.02564082, 4122.56410229, 4122.43589716, 3458.58974193, 4120.89743562, 4117.56410229, 4142.82051262,12.0
4091.92307658, 4099.23076889, 4120.64102537, 4143.46153826, 4115.25640998, 4108.07692280, 4104.61538434, 4114.99999973, 4091.53846119, 4124.74358947, 3446.92307526, 4115.12820485, 4115.25640998, 4143.33333313,12.0
4087.82051248, 4088.20512786, 4122.69230742, 4131.41025614, 4116.66666639, 4115.25640998, 4096.53846119, 4104.87179460, 4080.64102530, 4122.82051255, 3446.41025475, 4115.89743562, 4116.79487152, 4142.05128185,12.0
4089.61538427, 4095.51282017, 4124.10256383, 4105.25640998, 4116.53846126, 4106.79487152, 4092.17948684, 4112.30769203, 4093.46153812, 4120.64102537, 3449.23076757, 4118.33333306, 4117.05128178, 4140.76923056,12.0
4090.76923043, 4109.87179460, 4117.56410229, 4127.82051255, 4114.10256383, 4089.99999966, 4076.53846119, 4102.17948684, 4081.41025607, 4120.12820485, 3431.92307519, 4104.74358947, 4113.84615357, 4141.66666646,12.0
4087.94871761, 4099.99999966, 4116.02564075, 4129.61538434, 4118.33333306, 4107.43589716, 4075.76923043, 4112.82051255, 4087.17948684, 4121.79487152, 3444.23076750, 4107.30769203, 4122.17948691, 4141.66666646,12.0
4092.43589709, 4087.30769196, 4117.56410229, 4111.28205101, 4121.41025614, 4118.97435870, 4094.10256376, 4134.48717921, 4108.46153819, 4123.71794844, 3468.33333167, 4114.74358947, 4123.20512793, 4140.25641005,12.0
4093.33333299, 4093.71794837, 4137.30769210, 4127.30769203, 4119.23076896, 4100.12820478, 4118.46153819, 4157.17948697, 4135.76923056, 4122.05128178, 3502.05128046, 4149.23076903, 4136.02564082, 4142.82051262,12.0
4093.71794837, 4096.66666632, 4130.76923050, 4133.46153819, 4117.69230742, 4085.12820478, 4091.92307658, 4129.23076896, 4117.82051255, 4120.76923050, 3482.30769071, 4135.12820485, 4124.74358947, 4142.82051262,12.0
4089.10256376, 4095.38461504, 4109.99999973, 4122.94871767, 4117.56410229, 4087.05128171, 4052.94871754, 4082.30769196, 4067.17948677, 4120.38461511, 3457.69230603, 4098.84615350, 4116.02564075, 4143.58974339,12.0
4097.56410222, 4092.94871761, 4109.23076896, 4109.74358947, 4120.25640998, 4103.46153819, 4081.79487145, 4095.64102530, 4070.76923043, 4121.53846126, 3456.02563936, 4093.97435863, 4113.84615357, 4143.97435877,12.0
4097.82051248, 4096.79487145, 4119.74358947, 4109.87179460, 4120.38461511, 4106.28205101, 4118.84615357, 4128.07692280, 4103.84615357, 4122.56410229, 3475.38461372, 4112.56410229, 4109.99999973, 4142.69230749,12.0
4091.41025607, 4088.33333299, 4111.15384588, 4131.02564075, 4118.71794844, 4091.41025607, 4096.41025607, 4117.05128178, 4097.94871761, 4120.76923050, 3489.23076764, 4103.84615357, 4108.20512793, 4143.07692287,12.0
4094.35897402, 4073.46153812, 4103.97435870, 4122.43589716, 4118.20512793, 4086.79487145, 4082.56410222, 4101.79487145, 4079.35897402, 4119.61538434, 3477.56410090, 4090.51282017, 4109.10256383, 4145.12820492,12.0
4090.76923043, 4093.07692273, 4109.35897408, 4084.35897402, 4118.97435870, 4098.46153812, 4107.17948691, 4114.61538434, 4083.97435863, 4121.92307665, 3467.43589577, 4096.53846119, 4106.02564075, 4144.87179467,12.0
4088.71794837, 4103.71794844, 4107.05128178, 4098.71794837, 4118.20512793, 4111.92307665, 4111.79487152, 4124.99999973, 4083.20512786, 4122.43589716, 3473.46153680, 4096.66666632, 4108.58974332, 4144.48717928,12.0
4086.92307658, 4063.97435856, 4098.71794837, 4120.76923050, 4116.79487152, 4107.30769203, 4098.58974325, 4124.99999973, 4075.12820478, 4122.05128178, 3474.87179321, 4092.56410222, 4117.05128178, 4146.02564082,12.0
4084.74358940, 4068.20512779, 4107.56410229, 4104.10256383, 4116.92307665, 4088.58974325, 4100.89743555, 4127.43589716, 4091.66666632, 4122.94871767, 3487.56410097, 4111.79487152, 4119.35897408, 4144.48717928,12.0
4088.46153812, 4118.07692280, 4123.84615357, 4122.56410229, 4117.30769203, 4093.46153812, 4102.30769196, 4126.15384588, 4110.12820485, 4123.71794844, 3511.41025482, 4132.30769203, 4120.12820485, 4141.28205108,12.0
4088.33333299, 4122.69230742, 4133.58974332, 4153.20512800, 4115.51282024, 4116.15384588, 4112.69230742, 4139.61538441, 4118.46153819, 4123.20512793, 3513.58974206, 4136.41025621, 4123.84615357, 4141.92307672,12.0
4090.89743555, 4117.82051255, 4144.74358954, 4138.58974339, 4114.99999973, 4117.30769203, 4128.97435870, 4157.82051262, 4133.20512793, 4121.15384588, 3517.05128053, 4149.61538441, 4130.38461511, 4141.66666646,12.0
4090.38461504, 4122.69230742, 4141.02564082, 4134.35897408, 4117.69230742, 4098.20512786, 4108.46153819, 4132.17948691, 4121.15384588, 4120.51282024, 3531.92307540, 4149.74358954, 4130.51282024, 4140.64102544,12.0
4088.07692273, 4096.92307658, 4125.89743562, 4138.58974339, 4119.23076896, 4100.76923043, 4094.48717914, 4106.92307665, 4101.15384581, 4122.30769203, 3518.46153694, 4129.99999973, 4122.05128178, 4142.17948697,12.0
4091.02564068, 4093.33333299, 4127.69230742, 4127.43589716, 4119.99999973, 4119.87179460, 4114.10256383, 4121.66666639, 4112.30769203, 4122.56410229, 3498.71794712, 4127.94871767, 4118.97435870, 4142.56410236,12.0
4087.05128171, 4123.71794844, 4134.10256383, 4137.82051262, 4120.76923050, 4121.66666639, 4126.92307665, 4139.99999980, 4121.02564075, 4121.02564075, 3502.56410097, 4132.30769203, 4122.05128178, 4142.43589723,12.0
4091.41025607, 4104.99999973, 4121.92307665, 4121.28205101, 4118.71794844, 4110.64102537, 4123.07692280, 4144.23076903, 4118.58974332, 4119.87179460, 3513.20512668, 4122.17948691, 4122.82051255, 4144.35897415,12.0
4096.79487145, 4082.69230735, 4109.10256383, 4089.87179453, 4118.58974332, 4106.15384588, 4106.53846126, 4136.79487159, 4116.92307665, 4120.38461511, 3522.69230617, 4111.79487152, 4119.99999973, 4145.51282031,12.0
4089.74358940, 4102.69230742, 4112.30769203, 4114.23076896, 4120.12820485, 4106.28205101, 4090.12820478, 4119.61538434, 4095.38461504, 4123.07692280, 3511.28204969, 4109.23076896, 4112.94871767, 4142.94871774,12.0
4091.02564068, 4110.25640998, 4125.76923050, 4144.87179467, 4116.79487152, 4112.17948691, 4109.48717921, 4118.71794844, 4086.79487145, 4123.84615357, 3504.87179328, 4123.20512793, 4113.20512793, 4141.28205108,12.0
4090.89743555, 4085.89743555, 4132.17948691, 4130.38461511, 4115.38461511, 4118.20512793, 4129.23076896, 4134.61538434, 4115.89743562, 4121.79487152, 3532.69230617, 4141.28205108, 4123.46153819, 4143.58974339,12.0
4088.97435863, 4082.69230735, 4116.92307665, 4114.10256383, 4118.58974332, 4103.07692280, 4100.25640991, 4125.12820485, 4110.89743562, 4122.56410229, 3540.76922924, 4124.61538434, 4121.66666639, 4145.51282031,12.0
4091.92307658, 4106.15384588, 4111.53846126, 4111.53846126, 4119.23076896, 4093.33333299, 4093.20512786, 4123.84615357, 4098.58974325, 4123.97435870, 3527.17948565, 4114.35897408, 4119.10256383, 4145.89743569,12.0
4089.35897402, 4109.99999973, 4129.61538434, 4111.79487152, 4119.48717921, 4106.53846126, 4125.51282024, 4153.33333313, 4129.48717921, 4122.30769203, 3541.02563950, 4139.23076903, 4126.79487152, 4144.87179467,12.0
4092.43589709, 4106.92307665, 4134.61538434, 4137.05128185, 4118.84615357, 4116.53846126, 4127.69230742, 4151.02564082, 4127.69230742, 4120.76923050, 3546.79487034, 4141.53846133, 4120.89743562, 4142.69230749,12.0
4089.48717914, 4089.99999966, 4124.48717921, 4151.92307672, 4116.66666639, 4113.33333306, 4119.61538434, 4132.94871767, 4104.99999973, 4121.28205101, 3535.38461386, 4130.38461511, 4113.97435870, 4143.84615364,12.0
4086.41025607, 4079.48717914, 4118.97435870, 4131.28205101, 4116.28205101, 4105.64102537, 4118.97435870, 4137.05128185, 4115.89743562, 4121.79487152, 3544.61538316, 4134.23076896, 4123.46153819, 4144.10256390,12.0
4091.66666632, 4094.35897402, 4120.25640998, 4113.84615357, 4116.66666639, 4105.12820485, 4115.12820485, 4139.74358954, 4118.71794844, 4121.92307665, 3543.33333181, 4125.89743562, 4121.15384588, 4142.17948697,12.0
4087.05128171, 4099.74358940, 4124.48717921, 4115.64102537, 4115.89743562, 4108.07692280, 4121.02564075, 4143.58974339, 4109.99999973, 4123.33333306, 3538.33333181, 4119.35897408, 4111.79487152, 4145.12820492,12.0
4087.82051248, 4098.97435863, 4127.05128178, 4131.15384588, 4116.53846126, 4105.51282024, 4118.97435870, 4146.53846133, 4117.94871767, 4124.10256383, 3560.12820367, 4134.48717921, 4120.51282024, 4147.17948697,12.0
