AF3,F7,F3,FC5,T7,P7,O1,O2,P8,T8,FC6,F4,F8,AF4,Label
4108.33333306, 4235.76923077, 4154.74358954, 4268.20512828, 4126.53846126, 4209.74358968, 4184.87179474, 4174.99999986, 4186.79487166, 4135.12820485, 2479.74358600, 4175.89743576, 4151.92307672, 4145.51282031,12.0
4106.53846126, 4190.76923063, 4123.58974332, 4235.76923077, 4126.15384588, 4163.71794851, 4120.89743562, 4134.74358947, 4153.58974339, 4131.79487152, 2472.56409882, 4129.48717921, 4132.82051255, 4146.28205108,12.0
4104.87179460, 4175.89743576, 4119.23076896, 4217.56410250, 4124.10256383, 4149.87179467, 4128.20512793, 4130.64102537, 4147.69230749, 4129.48717921, 2482.30768856, 4115.76923050, 4131.02564075, 4148.97435877,12.0
4103.71794844, 4207.82051275, 4144.23076903, 4242.69230770, 4123.71794844, 4182.69230756, 4167.82051262, 4164.87179467, 4174.87179474, 4133.58974332, 2516.41025273, 4154.23076903, 4145.76923056, 4150.64102544,12.0
4103.71794844, 4223.84615378, 4144.87179467, 4252.82051282, 4129.74358947, 4178.58974345, 4152.30769210, 4155.12820492, 4175.25641012, 4133.07692280, 2526.02563735, 4153.33333313, 4139.99999980, 4150.51282031,12.0
4102.05128171, 4219.48717942, 4131.15384588, 4237.05128206, 4129.48717921, 4170.12820499, 4151.53846133, 4140.89743569, 4169.61538448, 4128.46153819, 2527.69230408, 4131.15384588, 4130.25640998, 4147.94871774,12.0
4103.84615357, 4203.58974352, 4124.48717921, 4219.48717942, 4128.20512793, 4175.38461525, 4154.87179467, 4146.79487159, 4163.84615364, 4128.46153819, 2550.64102203, 4126.79487152, 4137.30769210, 4148.20512800,12.0
4105.38461511, 4173.84615371, 4116.53846126, 4196.15384602, 4127.56410229, 4147.82051262, 4130.51282024, 4130.51282024, 4147.05128185, 4131.79487152, 2572.82050928, 4120.64102537, 4137.94871774, 4148.84615364,12.0
4101.02564068, 4160.25641005, 4111.53846126, 4174.23076910, 4122.05128178, 4133.07692280, 4130.12820485, 4119.99999973, 4159.87179467, 4134.99999973, 2591.92307338, 4121.66666639, 4136.02564082, 4146.53846133,12.0
4099.23076889, 4178.33333320, 4118.84615357, 4162.69230749, 4122.05128178, 4163.46153826, 4139.74358954, 4142.94871774, 4191.53846140, 4137.17948697, 2619.87179140, 4138.20512800, 4147.82051262, 4147.56410236,12.0
4099.23076889, 4186.79487166, 4122.82051255, 4153.07692287, 4123.71794844, 4168.07692287, 4128.71794844, 4148.07692287, 4181.15384602, 4136.02564082, 2649.23076583, 4149.48717928, 4154.74358954, 4148.58974339,12.0
4100.76923043, 4163.97435877, 4121.02564075, 4139.99999980, 4123.97435870, 4147.43589723, 4143.20512800, 4141.41025621, 4163.20512800, 4132.17948691, 2673.46153513, 4156.66666646, 4152.69230749, 4149.10256390,12.0
4102.05128171, 4154.61538441, 4128.33333306, 4136.92307672, 4125.89743562, 4168.84615371, 4171.02564089, 4170.38461525, 4190.89743576, 4132.43589716, 2692.43589417, 4171.92307679, 4161.53846133, 4149.48717928,12.0
4100.76923043, 4171.28205115, 4129.87179460, 4133.71794844, 4125.64102537, 4191.28205115, 4154.61538441, 4180.12820499, 4199.61538448, 4132.69230742, 2699.10256084, 4174.35897422, 4168.84615371, 4147.05128185,12.0
4100.25640991, 4176.66666653, 4119.99999973, 4115.51282024, 4127.17948691, 4162.56410236, 4135.89743569, 4151.02564082, 4172.43589730, 4130.64102537, 2699.87179161, 4156.53846133, 4157.05128185, 4146.66666646,12.0
4098.20512786, 4162.30769210, 4114.87179460, 4102.05128171, 4126.66666639, 4137.43589723, 4141.53846133, 4145.12820492, 4177.17948704, 4132.56410229, 2712.56409930, 4145.25641005, 4148.20512800, 4146.15384595,12.0
4099.87179453, 4147.69230749, 4119.10256383, 4105.76923050, 4124.48717921, 4146.15384595, 4131.92307665, 4150.64102544, 4185.76923063, 4133.84615357, 2727.82050963, 4150.25641005, 4155.51282031, 4147.43589723,12.0
4101.53846119, 4144.74358954, 4118.84615357, 4117.30769203, 4125.64102537, 4146.28205108, 4117.17948691, 4129.48717921, 4152.94871774, 4130.38461511, 2732.94871476, 4149.99999980, 4155.89743569, 4149.48717928,12.0
4098.71794837, 4157.56410236, 4112.30769203, 4121.41025614, 4123.07692280, 4135.64102544, 4130.76923050, 4113.33333306, 4140.51282031, 4131.28205101, 2738.33333014, 4139.87179467, 4149.61538441, 4148.07692287,12.0
4099.10256376, 4173.58974345, 4115.89743562, 4112.94871767, 4121.66666639, 4147.30769210, 4147.43589723, 4130.12820485, 4165.12820492, 4136.53846133, 2758.71794559, 4138.84615364, 4152.43589723, 4149.48717928,12.0
4098.46153812, 4156.41025621, 4115.12820485, 4099.61538427, 4121.53846126, 4159.99999980, 4130.51282024, 4132.82051255, 4155.25641005, 4135.51282031, 2773.97435585, 4132.43589716, 4153.71794851, 4149.10256390,12.0
4097.05128171, 4152.30769210, 4117.69230742, 4107.30769203, 4122.17948691, 4162.94871774, 4132.05128178, 4128.07692280, 4148.46153826, 4133.33333306, 2783.84615072, 4139.61538441, 4153.71794851, 4146.92307672,12.0
4096.92307658, 4176.66666653, 4129.23076896, 4121.53846126, 4124.87179460, 4161.41025621, 4150.12820492, 4144.99999980, 4172.30769217, 4135.25640998, 2806.79486874, 4160.38461518, 4152.17948697, 4149.48717928,12.0
4091.41025607, 4163.46153826, 4124.35897408, 4115.89743562, 4123.97435870, 4135.89743569, 4134.99999973, 4149.35897415, 4172.43589730, 4135.12820485, 2818.33333028, 4147.69230749, 4135.38461518, 4147.94871774,12.0
4093.71794837, 4147.82051262, 4125.89743562, 4114.23076896, 4126.15384588, 4128.84615357, 4134.23076896, 4152.82051262, 4166.15384595, 4132.56410229, 2817.30768925, 4141.41025621, 4126.28205101, 4144.74358954,12.0
4098.97435863, 4182.69230756, 4141.02564082, 4127.94871767, 4126.92307665, 4161.02564082, 4153.20512800, 4167.30769210, 4178.33333320, 4130.64102537, 2833.97435599, 4167.05128185, 4144.87179467, 4146.79487159,12.0
4093.97435863, 4188.33333320, 4136.15384595, 4128.46153819, 4125.76923050, 4169.74358961, 4139.10256390, 4153.71794851, 4174.48717935, 4131.28205101, 2853.58974061, 4161.53846133, 4157.69230749, 4146.92307672,12.0
4091.28205094, 4149.61538441, 4125.89743562, 4119.61538434, 4129.48717921, 4146.28205108, 4129.74358947, 4136.41025621, 4167.05128185, 4136.66666646, 2859.35897144, 4139.87179467, 4153.97435877, 4146.79487159,12.0
4093.71794837, 4156.41025621, 4134.87179460, 4120.64102537, 4126.79487152, 4141.41025621, 4152.82051262, 4149.74358954, 4179.48717935, 4135.64102544, 2864.87179196, 4154.35897415, 4155.76923056, 4146.28205108,12.0
4093.58974325, 4180.38461525, 4139.99999980, 4121.02564075, 4124.23076896, 4154.35897415, 4148.97435877, 4146.66666646, 4171.79487166, 4123.71794844, 2874.35897144, 4159.61538441, 4148.71794851, 4147.56410236,12.0
4090.38461504, 4179.35897422, 4142.43589723, 4128.97435870, 4125.76923050, 4160.64102544, 4146.41025621, 4141.02564082, 4162.69230749, 4123.46153819, 2886.79486888, 4158.46153826, 4136.92307672, 4150.51282031,12.0
4091.66666632, 4202.94871788, 4158.71794851, 4139.74358954, 4123.46153819, 4168.97435884, 4180.89743576, 4167.05128185, 4180.25641012, 4135.76923056, 2907.56409972, 4185.89743576, 4136.15384595, 4148.84615364,12.0
4097.30769196, 4212.56410250, 4149.99999980, 4122.05128178, 4125.25640998, 4167.82051262, 4165.51282031, 4155.89743569, 4171.15384602, 4135.25640998, 2916.28204844, 4171.79487166, 4132.17948691, 4148.20512800,12.0
4095.64102530, 4163.58974339, 4119.74358947, 4099.61538427, 4127.30769203, 4144.74358954, 4116.41025614, 4111.92307665, 4137.94871774, 4127.69230742, 2908.20512536, 4123.58974332, 4127.56410229, 4148.58974339,12.0
4095.12820478, 4145.76923056, 4124.10256383, 4109.87179460, 4123.71794844, 4120.64102537, 4129.61538434, 4117.17948691, 4133.97435870, 4133.33333306, 2911.41025357, 4130.64102537, 4138.20512800, 4148.46153826,12.0
4096.41025607, 4188.84615371, 4146.02564082, 4117.82051255, 4122.94871767, 4132.94871767, 4152.69230749, 4135.76923056, 4137.69230749, 4139.74358954, 2925.38461261, 4158.20512800, 4135.89743569, 4147.56410236,12.0
4092.56410222, 4210.64102558, 4149.10256390, 4122.56410229, 4126.02564075, 4174.23076910, 4142.30769210, 4138.33333313, 4154.99999980, 4133.07692280, 2944.74358697, 4161.66666646, 4129.61538434, 4147.43589723,12.0
4091.15384581, 4180.12820499, 4145.38461518, 4135.38461518, 4128.84615357, 4175.51282038, 4143.97435877, 4157.82051262, 4181.53846140, 4127.94871767, 2961.53845883, 4163.97435877, 4150.38461518, 4148.97435877,12.0
4088.97435863, 4142.05128185, 4131.53846126, 4113.97435870, 4124.99999973, 4124.10256383, 4130.12820485, 4142.05128185, 4142.69230749, 4132.30769203, 2959.23076652, 4141.28205108, 4144.74358954, 4149.10256390,12.0
4088.07692273, 4165.64102544, 4131.53846126, 4112.05128178, 4122.43589716, 4116.41025614, 4118.07692280, 4104.87179460, 4108.71794844, 4133.58974332, 2971.02563832, 4130.89743562, 4126.41025614, 4150.76923056,12.0
4089.48717914, 4230.64102558, 4167.56410236, 4182.82051269, 4126.79487152, 4178.33333320, 4162.56410236, 4141.53846133, 4164.10256390, 4130.76923050, 3012.05127941, 4184.61538448, 4154.10256390, 4149.87179467,12.0
4088.07692273, 4214.74358968, 4172.43589730, 4193.97435884, 4127.82051255, 4179.74358961, 4162.94871774, 4157.69230749, 4171.66666653, 4131.66666639, 3031.53845897, 4193.58974345, 4163.71794851, 4148.07692287,12.0
4089.99999966, 4170.25641012, 4143.33333313, 4128.07692280, 4128.20512793, 4117.82051255, 4106.79487152, 4091.28205094, 4097.17948684, 4133.07692280, 3027.56410000, 4146.66666646, 4147.82051262, 4151.02564082,12.0
4090.25640991, 4234.61538462, 4160.89743569, 4156.15384595, 4128.84615357, 4120.64102537, 4115.25640998, 4087.30769196, 4095.12820478, 4131.53846126, 3045.64102307, 4169.48717935, 4176.66666653, 4149.35897415,12.0
4088.71794837, 4260.89743590, 4185.25641012, 4213.71794865, 4127.43589716, 4154.48717928, 4139.10256390, 4144.23076903, 4147.69230749, 4134.48717921, 3084.35897186, 4195.25641012, 4194.99999986, 4144.99999980,12.0
4089.48717914, 4196.92307679, 4172.17948704, 4208.84615378, 4126.53846126, 4140.38461518, 4124.48717921, 4149.35897415, 4141.28205108, 4136.92307672, 3104.74358732, 4165.76923056, 4202.30769224, 4146.02564082,12.0
4089.61538427, 4249.23076923, 4186.15384602, 4257.56410257, 4124.35897408, 4141.28205108, 4141.15384595, 4137.82051262, 4133.97435870, 4132.82051255, 3085.51281808, 4184.10256397, 4229.87179481, 4145.64102544,12.0
4089.61538427, 4313.46153860, 4199.23076910, 4288.58974366, 4126.15384588, 4168.58974345, 4144.35897415, 4142.69230749, 4160.38461518, 4134.23076896, 3024.74358718, 4188.46153833, 4194.87179474, 4145.38461518,12.0
4089.23076889, 4203.07692301, 4154.35897415, 4199.87179474, 4127.82051255, 4143.97435877, 4102.43589709, 4119.48717921, 4144.99999980, 4138.71794851, 2994.74358711, 4111.28205101, 4244.48717949, 4147.56410236,12.0
4090.12820478, 4144.48717928, 4139.74358954, 4167.69230749, 4127.05128178, 4117.43589716, 4098.33333299, 4092.56410222, 4103.46153819, 4132.82051255, 3052.05127948, 4099.10256376, 4517.94871851, 4146.53846133,12.0
4090.64102530, 4210.64102558, 4170.38461525, 4221.92307686, 4128.20512793, 4140.12820492, 4120.38461511, 4103.07692280, 4111.66666639, 4128.58974332, 3108.07692065, 4142.69230749, 4690.38461629, 4145.89743569,12.0
4087.56410222, 4196.53846140, 4165.12820492, 4242.56410257, 4126.79487152, 4143.97435877, 4112.69230742, 4119.35897408, 4137.17948697, 4132.43589716, 3104.23076680, 4122.05128178, 4620.76923154, 4147.69230749,12.0
4087.43589709, 4167.30769210, 4148.46153826, 4285.25641033, 4129.61538434, 4123.20512793, 4106.28205101, 4119.23076896, 4131.41025614, 4132.56410229, 3135.51281815, 4097.05128171, 4592.30769301, 4149.61538441,12.0
4088.97435863, 4224.23076917, 4173.71794858, 4362.43589765, 4130.51282024, 4158.46153826, 4147.94871774, 4143.07692287, 4158.71794851, 4131.28205101, 3229.74358759, 4145.51282031, 4655.76923161, 4150.76923056,12.0
4088.46153812, 4260.00000000, 4199.74358961, 4395.25641054, 4124.87179460, 4214.23076917, 4189.99999986, 4177.56410243, 4207.82051275, 4130.64102537, 3292.69230568, 4192.69230756, 4650.12820597, 4149.10256390,12.0
4088.58974325, 4222.56410250, 4191.66666653, 4382.94871823, 4127.30769203, 4199.10256397, 4168.20512807, 4159.48717928, 4180.51282038, 4127.43589716, 3340.76922883, 4180.76923063, 4633.71794956, 4147.69230749,12.0
4086.66666632, 4160.12820492, 4171.15384602, 4348.20512842, 4128.58974332, 4160.51282031, 4124.10256383, 4122.05128178, 4123.20512793, 4130.25640998, 3386.41025461, 4142.30769210, 4648.71794956, 4145.64102544,12.0
4086.41025607, 4155.64102544, 4163.33333313, 4345.25641047, 4126.92307665, 4155.51282031, 4123.58974332, 4123.71794844, 4134.23076896, 4133.97435870, 3354.61538274, 4123.84615357, 4643.97435981, 4146.79487159,12.0
4087.56410222, 4225.76923070, 4175.64102551, 4389.10256438, 4127.56410229, 4168.07692287, 4150.51282031, 4141.02564082, 4176.02564089, 4130.76923050, 3313.07692107, 4147.82051262, 4664.23077014, 4150.12820492,12.0
4087.56410222, 4244.48717949, 4184.99999986, 4400.76923112, 4127.05128178, 4179.23076910, 4152.43589723, 4135.76923056, 4174.61538448, 4131.15384588, 3352.05128018, 4173.20512807, 4707.05128303, 4149.35897415,12.0
4089.35897402, 4190.25641012, 4174.99999986, 4373.97435926, 4127.56410229, 4166.28205108, 4134.35897408, 4126.15384588, 4149.35897415, 4135.76923056, 3382.05128025, 4158.46153826, 4710.00000098, 4149.74358954,12.0
4086.66666632, 4183.07692294, 4162.30769210, 4368.84615413, 4126.41025614, 4142.56410236, 4131.02564075, 4122.82051255, 4136.41025621, 4134.23076896, 3361.53845967, 4136.53846133, 4692.94871886, 4149.48717928,12.0
4087.30769196, 4206.66666660, 4157.17948697, 4373.07692336, 4127.43589716, 4146.53846133, 4129.87179460, 4109.23076896, 4134.10256383, 4133.20512793, 3376.15384428, 4131.66666639, 4700.64102662, 4148.46153826,12.0
4088.97435863, 4228.84615378, 4169.87179474, 4382.56410285, 4129.99999973, 4169.48717935, 4129.35897408, 4118.46153819, 4141.41025621, 4136.66666646, 3422.17948545, 4152.17948697, 4725.12820610, 4151.15384595,12.0
4086.28205094, 4246.15384616, 4189.10256397, 4390.00000028, 4126.79487152, 4164.23076903, 4145.25641005, 4151.02564082, 4149.23076903, 4135.51282031, 3423.97435724, 4184.61538448, 4743.58974464, 4148.58974339,12.0
4089.61538427, 4219.61538455, 4176.79487166, 4377.30769259, 4126.02564075, 4148.46153826, 4137.69230749, 4133.71794844, 4140.76923056, 4131.66666639, 3397.43589563, 4168.97435884, 4735.89743694, 4146.92307672,12.0
4091.15384581, 4193.46153833, 4148.71794851, 4362.94871816, 4126.66666639, 4164.74358954, 4116.41025614, 4089.74358940, 4133.84615357, 4132.17948691, 3415.64102391, 4122.17948691, 4692.17948809, 4149.10256390,12.0
4091.28205094, 4209.48717942, 4159.61538441, 4349.10256431, 4127.56410229, 4178.07692294, 4138.58974339, 4101.28205094, 4152.69230749, 4133.33333306, 3452.69230603, 4139.35897415, 4693.20512911, 4147.94871774,12.0
4089.87179453, 4214.99999993, 4184.74358961, 4337.56410278, 4129.10256383, 4167.43589723, 4152.82051262, 4137.56410236, 4160.64102544, 4132.30769203, 3448.84615218, 4184.74358961, 4735.25641130, 4149.10256390,12.0
4088.20512786, 4223.71794865, 4184.35897422, 4358.07692329, 4124.99999973, 4169.35897422, 4122.94871767, 4131.79487152, 4147.56410236, 4131.92307665, 3449.23076757, 4184.10256397, 4717.56410354, 4147.82051262,12.0
4093.20512786, 4242.30769231, 4177.17948704, 4374.61538490, 4126.02564075, 4178.71794858, 4109.74358947, 4105.12820485, 4136.79487159, 4132.05128178, 3473.84615218, 4164.23076903, 4672.43589834, 4146.41025621,12.0
4092.05128171, 4225.89743583, 4178.07692294, 4356.53846175, 4128.97435870, 4171.15384602, 4129.23076896, 4113.46153819, 4144.87179467, 4133.71794844, 3490.51281892, 4168.33333320, 4687.05128296, 4146.66666646,12.0
4091.66666632, 4208.97435891, 4183.33333320, 4358.46153867, 4126.92307665, 4180.25641012, 4142.43589723, 4142.43589723, 4170.51282038, 4130.76923050, 3498.71794712, 4184.10256397, 4716.92307790, 4142.82051262,12.0
4092.05128171, 4220.12820506, 4188.20512807, 4375.25641054, 4126.66666639, 4208.46153840, 4162.17948697, 4158.71794851, 4178.07692294, 4125.12820485, 3496.53845994, 4185.89743576, 4693.84615482, 4145.64102544,12.0
4087.43589709, 4222.94871788, 4182.43589730, 4351.15384637, 4125.64102537, 4200.76923063, 4174.87179474, 4150.51282031, 4156.79487159, 4128.46153819, 3486.79487020, 4170.38461525, 4659.74359058, 4148.46153826,12.0
4090.12820478, 4215.89743583, 4181.15384602, 4333.58974380, 4128.20512793, 4191.66666653, 4155.25641005, 4133.84615357, 4153.46153826, 4135.89743569, 3500.64102405, 4165.38461518, 4652.30769315, 4147.43589723,12.0
4088.07692273, 4215.51282045, 4182.43589730, 4361.02564124, 4129.23076896, 4211.02564096, 4131.02564075, 4128.58974332, 4166.28205108, 4132.56410229, 3510.51281892, 4167.30769210, 4647.69230853, 4149.23076903,12.0
4087.43589709, 4225.76923070, 4176.41025628, 4376.79487208, 4126.79487152, 4208.33333327, 4122.43589716, 4121.28205101, 4152.43589723, 4123.84615357, 3499.87179328, 4159.61538441, 4647.05128289, 4147.05128185,12.0
4091.53846119, 4236.15384616, 4183.58974345, 4364.87179508, 4129.61538434, 4192.82051269, 4142.56410236, 4133.58974332, 4154.10256390, 4126.92307665, 3507.69230610, 4171.92307679, 4661.53846245, 4149.48717928,12.0
4087.17948684, 4233.20512814, 4191.92307679, 4366.41025669, 4130.38461511, 4199.61538448, 4154.10256390, 4152.69230749, 4182.82051269, 4133.46153819, 3529.61538309, 4188.33333320, 4656.15384699, 4153.58974339,12.0
4089.35897402, 4228.97435891, 4193.58974345, 4380.64102592, 4128.84615357, 4208.20512814, 4150.38461518, 4150.89743569, 4181.79487166, 4134.99999973, 3543.97435745, 4183.46153833, 4632.17948802, 4149.61538441,12.0
4090.89743555, 4234.23076923, 4197.30769217, 4368.97435926, 4127.94871767, 4193.71794858, 4160.38461518, 4148.58974339, 4164.23076903, 4136.92307672, 3545.38461393, 4186.41025628, 4647.94871879, 4148.84615364,12.0
4088.97435863, 4226.53846147, 4189.61538448, 4340.51282073, 4128.84615357, 4179.23076910, 4156.66666646, 4144.61538441, 4160.38461518, 4131.41025614, 3534.61538309, 4186.02564089, 4663.20512911, 4149.10256390,12.0
4088.33333299, 4227.30769224, 4186.28205115, 4353.97435919, 4130.25640998, 4198.71794858, 4147.43589723, 4141.79487159, 4167.05128185, 4125.25640998, 3554.87179342, 4183.71794858, 4639.10256494, 4148.46153826,12.0
4086.53846119, 4256.28205129, 4200.89743576, 4387.30769259, 4127.82051255, 4222.69230763, 4162.56410236, 4149.99999980, 4178.07692294, 4130.38461511, 3587.82051143, 4204.61538455, 4643.71794956, 4149.35897415,12.0
4092.56410222, 4252.69230770, 4197.94871781, 4365.76923105, 4128.84615357, 4200.64102551, 4161.15384595, 4143.20512800, 4175.89743576, 4131.02564075, 3578.20512682, 4197.43589730, 4647.30769315, 4149.74358954,12.0
4092.05128171, 4227.56410250, 4183.46153833, 4345.64102585, 4130.12820485, 4180.51282038, 4138.97435877, 4133.71794844, 4166.79487159, 4125.25640998, 3581.28204990, 4171.41025628, 4625.76923154, 4150.64102544,12.0
4088.46153812, 4236.41025641, 4191.02564089, 4366.66666695, 4127.69230742, 4188.33333320, 4153.20512800, 4150.64102544, 4172.17948704, 4131.02564075, 3605.12820374, 4186.53846140, 4635.38461622, 4149.23076903,12.0
4091.53846119, 4244.74358975, 4193.58974345, 4355.25641047, 4129.87179460, 4184.61538448, 4166.66666646, 4154.99999980, 4166.79487159, 4137.94871774, 3596.15384477, 4188.84615371, 4645.76923161, 4148.71794851,12.0
4089.48717914, 4231.79487173, 4183.97435884, 4328.84615399, 4128.20512793, 4183.97435884, 4149.99999980, 4140.89743569, 4166.92307672, 4132.56410229, 3590.76922938, 4169.48717935, 4612.69230846, 4148.84615364,12.0
4089.10256376, 4221.15384609, 4184.61538448, 4337.69230790, 4126.66666639, 4191.53846140, 4143.58974339, 4141.15384595, 4184.99999986, 4130.51282024, 3607.43589605, 4175.64102551, 4594.87179564, 4146.53846133,12.0
4088.97435863, 4219.74358968, 4178.58974345, 4327.69230784, 4132.56410229, 4170.76923063, 4131.28205101, 4131.41025614, 4162.56410236, 4132.82051255, 3601.66666528, 4172.43589730, 4610.00000077, 4147.17948697,12.0
4087.05128171, 4229.87179481, 4180.76923063, 4309.74358989, 4131.15384588, 4160.38461518, 4128.07692280, 4121.02564075, 4135.64102544, 4131.53846126, 3610.51281920, 4175.38461525, 4619.87179564, 4147.17948697,12.0
4089.87179453, 4237.17948718, 4195.76923063, 4320.51282066, 4126.92307665, 4188.33333320, 4153.46153826, 4134.99999973, 4160.38461518, 4135.12820485, 3644.87179362, 4192.56410243, 4610.51282128, 4147.82051262,12.0
4086.92307658, 4217.43589737, 4180.76923063, 4306.79487194, 4126.41025614, 4190.51282038, 4154.99999980, 4135.25640998, 4172.56410243, 4136.79487159, 3634.48717817, 4168.20512807, 4585.76923147, 4147.43589723,12.0
4084.99999966, 4221.79487173, 4175.51282038, 4305.89743604, 4128.20512793, 4177.69230756, 4146.41025621, 4133.20512793, 4154.48717928, 4132.30769203, 3605.38461400, 4165.76923056, 4587.43589813, 4145.76923056,12.0
4089.87179453, 4253.58974359, 4203.07692301, 4347.17948739, 4132.43589716, 4190.25641012, 4156.15384595, 4150.12820492, 4160.76923056, 4132.17948691, 3626.53846022, 4211.02564096, 4618.20512897, 4149.10256390,12.0
4088.97435863, 4244.74358975, 4194.99999986, 4335.89743611, 4130.89743562, 4186.41025628, 4137.69230749, 4132.82051255, 4164.74358954, 4134.10256383, 3652.69230645, 4195.64102551, 4603.07692385, 4148.84615364,12.0
4087.17948684, 4231.53846147, 4173.33333320, 4279.61538469, 4130.51282024, 4158.20512800, 4117.56410229, 4107.82051255, 4142.69230749, 4133.33333306, 3634.10256279, 4160.38461518, 4566.53846224, 4147.82051262,12.0
4087.05128171, 4221.66666660, 4171.66666653, 4262.30769231, 4131.15384588, 4142.82051262, 4123.58974332, 4106.41025614, 4130.89743562, 4134.74358947, 3613.46153715, 4159.23076903, 4560.51282114, 4149.61538441,12.0
4089.23076889, 4165.12820492, 4144.87179467, 4251.66666667, 4129.99999973, 4124.10256383, 4083.84615350, 4071.15384581, 4100.51282017, 4132.56410229, 3617.69230638, 4113.71794844, 4551.66666730, 4146.79487159,12.0
4092.30769196, 4128.58974332, 4120.38461511, 4218.58974352, 4131.41025614, 4096.41025607, 4048.58974318, 4052.05128164, 4070.89743555, 4126.02564075, 3625.76922945, 4074.87179453, 4532.56410319, 4144.87179467,12.0
4089.99999966, 4161.66666646, 4139.10256390, 4227.30769224, 4129.61538434, 4101.15384581, 4075.89743555, 4088.97435863, 4094.61538427, 4129.23076896, 3628.20512689, 4110.76923050, 4532.69230832, 4146.41025621,12.0
4088.46153812, 4173.33333320, 4148.71794851, 4253.84615385, 4128.97435870, 4119.35897408, 4087.56410222, 4097.30769196, 4115.25640998, 4136.92307672, 3627.94871663, 4126.28205101, 4537.94871858, 4149.87179467,12.0
4091.15384581, 4160.12820492, 4143.33333313, 4261.02564103, 4129.10256383, 4137.56410236, 4094.87179453, 4089.74358940, 4116.41025614, 4134.10256383, 3640.12820381, 4116.66666639, 4533.07692371, 4150.38461518,12.0
4091.41025607, 4205.64102558, 4163.33333313, 4264.10256411, 4125.64102537, 4164.10256390, 4133.97435870, 4117.94871767, 4135.51282031, 4131.53846126, 3661.15384491, 4149.74358954, 4529.35897499, 4148.33333313,12.0
4088.20512786, 4226.66666660, 4174.35897422, 4261.28205129, 4126.92307665, 4154.87179467, 4134.10256383, 4122.69230742, 4145.51282031, 4134.48717921, 3680.51281934, 4165.76923056, 4528.20512876, 4151.53846133,12.0
4086.79487145, 4181.79487166, 4155.89743569, 4263.97435898, 4129.74358947, 4115.38461511, 4099.87179453, 4095.64102530, 4116.41025614, 4130.25640998, 3686.53846036, 4134.87179460, 4529.61538524, 4150.12820492,12.0
4089.10256376, 4162.17948697, 4143.07692287, 4259.48717949, 4130.76923050, 4117.30769203, 4089.23076889, 4092.94871761, 4096.02564068, 4128.20512793, 3668.07692183, 4117.69230742, 4544.10256473, 4147.30769210,12.0
4088.58974325, 4167.69230749, 4143.71794851, 4229.99999993, 4128.33333306, 4148.46153826, 4100.25640991, 4102.05128171, 4117.05128178, 4134.35897408, 3661.15384491, 4122.17948691, 4534.48718012, 4149.35897415,12.0
4085.76923043, 4184.87179474, 4158.07692287, 4239.23076923, 4125.12820485, 4160.89743569, 4134.74358947, 4124.23076896, 4151.02564082, 4134.74358947, 3703.84615267, 4146.92307672, 4514.23076979, 4146.28205108,12.0
4086.92307658, 4204.23076917, 4167.82051262, 4284.48717956, 4130.38461511, 4160.25641005, 4141.53846133, 4143.84615364, 4151.41025621, 4133.71794844, 3720.51281940, 4163.58974339, 4521.53846210, 4146.15384595,12.0
4088.58974325, 4176.41025628, 4146.92307672, 4261.41025641, 4132.82051255, 4138.07692287, 4098.84615350, 4110.12820485, 4115.38461511, 4135.64102544, 3678.97435780, 4128.97435870, 4519.74359030, 4149.99999980,12.0
4088.97435863, 4153.46153826, 4138.58974339, 4222.82051275, 4129.35897408, 4124.10256383, 4107.82051255, 4097.82051248, 4115.64102537, 4127.82051255, 3683.71794754, 4112.05128178, 4499.10256466, 4147.94871774,12.0
4088.58974325, 4173.46153833, 4154.35897415, 4246.02564103, 4131.92307665, 4141.02564082, 4136.15384595, 4131.79487152, 4133.71794844, 4123.84615357, 3713.58974248, 4136.02564082, 4501.79487235, 4146.02564082,12.0
4089.10256376, 4170.89743576, 4142.56410236, 4255.89743590, 4132.82051255, 4134.23076896, 4090.25640991, 4106.53846126, 4114.61538434, 4132.05128178, 3697.56410139, 4120.76923050, 4497.30769287, 4147.05128185,12.0
4091.79487145, 4153.71794851, 4127.69230742, 4233.07692301, 4131.66666639, 4106.79487152, 4067.30769189, 4065.25640984, 4108.97435870, 4130.89743562, 3693.07692190, 4098.58974325, 4475.51282100, 4149.87179467,12.0
4089.35897402, 4159.35897415, 4137.30769210, 4227.43589737, 4130.38461511, 4111.53846126, 4104.23076896, 4090.38461504, 4129.99999973, 4127.94871767, 3714.35897325, 4113.46153819, 4480.25641075, 4149.87179467,12.0
4089.48717914, 4163.20512800, 4146.02564082, 4244.87179488, 4129.35897408, 4134.74358947, 4113.97435870, 4117.05128178, 4138.58974339, 4130.38461511, 3729.10256299, 4123.46153819, 4485.76923126, 4148.07692287,12.0
4094.10256376, 4159.10256390, 4144.35897415, 4250.38461539, 4130.51282024, 4135.51282031, 4101.02564068, 4104.87179460, 4127.82051255, 4129.35897408, 3731.15384505, 4120.25640998, 4475.25641075, 4150.12820492,12.0
4092.05128171, 4158.46153826, 4138.58974339, 4235.89743590, 4128.84615357, 4115.12820485, 4090.76923043, 4086.53846119, 4110.64102537, 4128.71794844, 3731.79487069, 4118.84615357, 4476.66666716, 4149.74358954,12.0
4090.12820478, 4169.74358961, 4147.43589723, 4233.97435898, 4130.12820485, 4116.15384588, 4099.61538427, 4100.64102530, 4115.76923050, 4130.25640998, 3754.48717845, 4135.12820485, 4483.97435946, 4148.46153826,12.0
4091.79487145, 4187.94871781, 4163.20512800, 4254.61538462, 4132.05128178, 4137.30769210, 4120.64102537, 4132.30769203, 4141.66666646, 4128.97435870, 3774.99999903, 4156.66666646, 4481.66666716, 4149.48717928,12.0
4092.56410222, 4192.05128192, 4157.56410236, 4260.76923077, 4132.17948691, 4131.79487152, 4114.35897408, 4117.69230742, 4139.10256390, 4131.41025614, 3751.28205024, 4147.82051262, 4467.94871844, 4148.20512800,12.0
4091.02564068, 4203.33333327, 4158.46153826, 4263.07692308, 4133.58974332, 4134.99999973, 4122.56410229, 4110.38461511, 4141.02564082, 4135.76923056, 3740.64102453, 4147.94871774, 4461.15384657, 4148.33333313,12.0
4086.02564068, 4215.38461532, 4172.56410243, 4270.12820520, 4129.48717921, 4158.46153826, 4147.94871774, 4145.64102544, 4171.02564089, 4133.33333306, 3764.48717845, 4170.51282038, 4466.41025690, 4148.84615364,12.0
4086.02564068, 4180.76923063, 4154.99999980, 4233.58974352, 4127.82051255, 4136.02564082, 4111.79487152, 4122.05128178, 4147.05128185, 4134.99999973, 3749.35897332, 4141.02564082, 4457.43589786, 4150.38461518,12.0
4090.89743555, 4165.12820492, 4140.38461518, 4200.38461525, 4130.12820485, 4110.25640998, 4074.99999966, 4082.05128171, 4106.92307665, 4140.12820492, 3734.74358864, 4108.33333306, 4437.56410298, 4150.51282031,12.0
4090.51282017, 4186.79487166, 4156.53846133, 4198.07692294, 4127.94871767, 4122.69230742, 4101.15384581, 4104.23076896, 4118.58974332, 4133.07692280, 3748.07692204, 4130.51282024, 4431.79487222, 4144.99999980,12.0
4087.30769196, 4183.97435884, 4165.38461518, 4188.71794858, 4128.58974332, 4129.61538434, 4117.82051255, 4117.69230742, 4136.92307672, 4124.74358947, 3741.02563992, 4146.66666646, 4429.10256445, 4146.02564082,12.0
4088.20512786, 4185.89743576, 4176.15384602, 4181.41025628, 4130.76923050, 4140.64102544, 4121.92307665, 4120.38461511, 4144.99999980, 4128.84615357, 3745.64102460, 4162.30769210, 4424.48717984, 4147.17948697,12.0
4091.15384581, 4196.92307679, 4186.28205115, 4155.25641005, 4132.43589716, 4151.66666646, 4130.64102537, 4134.87179460, 4142.43589723, 4131.02564075, 3767.56410153, 4177.17948704, 4422.30769266, 4144.10256390,12.0
4090.76923043, 4175.12820499, 4165.25641005, 4093.58974325, 4131.92307665, 4125.51282024, 4108.97435870, 4111.92307665, 4118.20512793, 4128.33333306, 3756.66666563, 4149.23076903, 4411.02564138, 4148.07692287,12.0
4090.76923043, 4162.82051262, 4154.10256390, 4071.92307658, 4128.07692280, 4115.76923050, 4101.28205094, 4099.10256376, 4111.41025614, 4128.71794844, 3737.17948607, 4137.17948697, 4401.66666702, 4150.51282031,12.0
4090.51282017, 4179.35897422, 4167.56410236, 4093.97435863, 4127.56410229, 4136.41025621, 4120.12820485, 4127.05128178, 4127.17948691, 4129.10256383, 3740.76922966, 4156.15384595, 4403.20512856, 4149.23076903,12.0
4087.30769196, 4176.02564089, 4161.02564082, 4088.46153812, 4128.58974332, 4127.94871767, 4108.71794844, 4120.51282024, 4123.07692280, 4130.38461511, 3746.41025537, 4147.82051262, 4399.74359009, 4147.56410236,12.0
4089.87179453, 4191.41025628, 4169.74358961, 4107.94871767, 4129.35897408, 4136.92307672, 4128.20512793, 4122.30769203, 4146.41025621, 4129.87179460, 3761.15384512, 4163.84615364, 4399.10256445, 4147.56410236,12.0
4090.12820478, 4207.69230763, 4189.61538448, 4133.20512793, 4130.89743562, 4160.64102544, 4162.05128185, 4153.46153826, 4165.76923056, 4127.56410229, 3761.92307588, 4190.25641012, 4394.10256438, 4148.46153826,12.0
4089.48717914, 4166.79487159, 4169.61538448, 4097.69230735, 4130.38461511, 4131.28205101, 4124.10256383, 4128.20512793, 4119.48717921, 4130.51282024, 3732.05128094, 4158.07692287, 4380.12820541, 4147.30769210,12.0
4095.51282017, 4146.41025621, 4155.89743569, 4080.25640991, 4132.17948691, 4108.20512793, 4096.02564068, 4096.92307658, 4099.74358940, 4133.97435870, 3723.97435787, 4141.28205108, 4369.23076951, 4148.97435877,12.0
4092.05128171, 4168.84615371, 4173.20512807, 4106.66666639, 4130.89743562, 4130.64102537, 4125.76923050, 4118.71794844, 4129.61538434, 4129.74358947, 3729.87179376, 4171.15384602, 4346.02564124, 4148.58974339,12.0
4087.82051248, 4178.07692294, 4183.20512807, 4124.74358947, 4128.58974332, 4152.17948697, 4149.23076903, 4143.33333313, 4139.61538441, 4131.92307665, 3727.43589633, 4190.12820499, 4315.00000014, 4148.33333313,12.0
4091.92307658, 4166.92307672, 4176.02564089, 4123.33333306, 4132.43589716, 4153.58974339, 4151.28205108, 4147.82051262, 4131.02564075, 4136.02564082, 3731.41025530, 4181.15384602, 4296.15384623, 4149.61538441,12.0
4090.76923043, 4146.02564082, 4158.46153826, 4109.61538434, 4130.76923050, 4136.92307672, 4134.99999973, 4132.43589716, 4122.56410229, 4128.46153819, 3726.66666556, 4152.82051262, 4278.46153853, 4144.48717928,12.0
4089.23076889, 4129.99999973, 4145.12820492, 4102.05128171, 4129.99999973, 4118.46153819, 4110.76923050, 4109.48717921, 4116.79487152, 4124.23076896, 3725.12820402, 4128.07692280, 4264.74358975, 4143.97435877,12.0
4090.89743555, 4132.17948691, 4148.33333313, 4113.46153819, 4131.79487152, 4114.87179460, 4114.10256383, 4112.69230742, 4120.76923050, 4128.84615357, 3748.20512717, 4132.05128178, 4268.33333341, 4147.82051262,12.0
4090.25640991, 4134.99999973, 4152.43589723, 4118.46153819, 4127.82051255, 4115.12820485, 4124.87179460, 4127.17948691, 4122.17948691, 4133.97435870, 3748.97435794, 4144.99999980, 4271.66666674, 4146.53846133,12.0
4087.69230735, 4140.25641005, 4157.05128185, 4123.58974332, 4129.35897408, 4124.87179460, 4130.89743562, 4137.30769210, 4125.51282024, 4134.87179460, 3728.71794761, 4154.61538441, 4267.94871802, 4146.28205108,12.0
4088.84615350, 4147.94871774, 4163.97435877, 4135.64102544, 4131.41025614, 4134.87179460, 4136.92307672, 4143.46153826, 4139.23076903, 4130.89743562, 3734.48717838, 4167.30769210, 4270.64102571, 4147.69230749,12.0
4094.61538427, 4125.38461511, 4152.43589723, 4112.05128178, 4128.46153819, 4110.64102537, 4110.89743562, 4123.58974332, 4131.41025614, 4133.46153819, 3733.58974248, 4152.94871774, 4266.53846154, 4148.46153826,12.0
4095.12820478, 4117.17948691, 4150.38461518, 4105.25640998, 4125.51282024, 4108.20512793, 4109.87179460, 4122.82051255, 4120.76923050, 4136.53846133, 3723.71794761, 4147.56410236, 4250.51282052, 4145.38461518,12.0
4092.30769196, 4134.74358947, 4160.64102544, 4131.92307665, 4126.28205101, 4137.43589723, 4146.15384595, 4151.66666646, 4123.58974332, 4133.07692280, 3728.84615274, 4158.84615364, 4228.84615378, 4142.82051262,12.0
4093.33333299, 4117.05128178, 4146.53846133, 4118.97435870, 4129.87179460, 4126.28205101, 4136.79487159, 4139.35897415, 4113.07692280, 4135.25640998, 3719.23076812, 4134.23076896, 4201.92307686, 4148.84615364,12.0
4092.17948684, 4089.35897402, 4129.23076896, 4093.71794837, 4126.53846126, 4103.71794844, 4107.43589716, 4105.12820485, 4099.99999966, 4137.30769210, 3708.84615274, 4107.43589716, 4181.02564089, 4148.97435877,12.0
4090.76923043, 4085.25640991, 4128.20512793, 4094.10256376, 4123.71794844, 4106.02564075, 4111.28205101, 4095.64102530, 4097.30769196, 4126.28205101, 3721.79487069, 4103.58974332, 4166.79487159, 4146.15384595,12.0
4092.30769196, 4088.07692273, 4127.94871767, 4094.87179453, 4128.20512793, 4106.02564075, 4120.89743562, 4105.38461511, 4092.69230735, 4122.43589716, 3729.35897325, 4106.02564075, 4171.92307679, 4149.48717928,12.0
4090.76923043, 4097.82051248, 4138.58974339, 4097.69230735, 4130.51282024, 4105.64102537, 4127.43589716, 4127.82051255, 4102.94871767, 4133.33333306, 3726.15384505, 4127.17948691, 4197.43589730, 4147.56410236,12.0
4090.12820478, 4090.89743555, 4151.02564082, 4102.17948684, 4130.64102537, 4112.30769203, 4136.92307672, 4139.48717928, 4125.25640998, 4138.84615364, 3737.30769120, 4143.46153826, 4194.99999986, 4146.02564082,12.0
4090.76923043, 4086.92307658, 4146.41025621, 4099.61538427, 4126.79487152, 4121.28205101, 4137.43589723, 4130.51282024, 4123.20512793, 4133.58974332, 3756.02563999, 4139.87179467, 4169.99999986, 4147.17948697,12.0
4089.99999966, 4111.79487152, 4147.82051262, 4103.07692280, 4124.48717921, 4114.10256383, 4134.87179460, 4131.02564075, 4111.02564075, 4127.82051255, 3756.66666563, 4153.46153826, 4184.99999986, 4144.99999980,12.0
4089.87179453, 4083.58974325, 4140.76923056, 4086.53846119, 4128.20512793, 4078.07692273, 4113.97435870, 4122.94871767, 4100.38461504, 4127.82051255, 3738.46153735, 4146.41025621, 4196.66666653, 4146.66666646,12.0
4089.87179453, 4036.92307651, 4127.82051255, 4064.74358933, 4127.05128178, 4068.46153805, 4099.48717914, 4103.84615357, 4095.51282017, 4131.41025614, 3733.20512710, 4117.05128178, 4158.58974339, 4150.38461518,12.0
4089.99999966, 4068.33333292, 4144.99999980, 4093.84615350, 4125.76923050, 4108.33333306, 4129.74358947, 4124.87179460, 4117.94871767, 4134.99999973, 3753.58974255, 4137.43589723, 4145.12820492, 4151.66666646,12.0
4090.64102530, 4096.02564068, 4147.43589723, 4104.87179460, 4126.15384588, 4106.28205101, 4130.76923050, 4137.05128185, 4121.92307665, 4134.48717921, 3755.25640922, 4146.41025621, 4169.48717935, 4149.35897415,12.0
4093.07692273, 4063.58974318, 4117.43589716, 4051.53846113, 4126.28205101, 4055.25640984, 4091.15384581, 4098.71794837, 4083.20512786, 4128.33333306, 3736.79487069, 4102.43589709, 4172.82051269, 4145.76923056,12.0
4091.92307658, 4026.66666618, 4108.33333306, 4016.15384567, 4128.97435870, 4046.28205087, 4089.10256376, 4082.94871761, 4068.97435856, 4128.20512793, 3734.61538351, 4081.02564068, 4163.71794851, 4147.69230749,12.0
4087.82051248, 4005.25640977, 4104.48717921, 4026.15384567, 4128.84615357, 4057.05128164, 4084.61538427, 4081.92307658, 4070.25640991, 4133.58974332, 3736.15384505, 4071.28205094, 4149.10256390, 4147.94871774,12.0
4089.99999966, 4045.64102523, 4104.48717921, 4050.12820472, 4129.61538434, 4063.97435856, 4079.23076889, 4081.41025607, 4056.53846113, 4133.20512793, 3732.43589633, 4075.12820478, 4138.33333313, 4148.20512800,12.0
4092.56410222, 4115.89743562, 4140.51282031, 4079.99999966, 4129.10256383, 4098.58974325, 4136.28205108, 4130.64102537, 4089.87179453, 4130.64102537, 3754.48717845, 4143.58974339, 4160.76923056, 4147.94871774,12.0
4091.15384581, 4068.20512779, 4144.23076903, 4063.20512779, 4128.58974332, 4085.51282017, 4129.87179460, 4134.99999973, 4115.76923050, 4133.20512793, 3766.66666563, 4158.46153826, 4169.10256397, 4146.79487159,12.0
4091.66666632, 3981.66666611, 4092.43589709, 3991.79487124, 4131.92307665, 4008.97435849, 4027.56410208, 4050.89743548, 4048.97435856, 4133.71794844, 3732.05128094, 4069.48717907, 4135.25640998, 4149.99999980,12.0
4092.82051248, 4011.41025593, 4079.74358940, 3970.89743528, 4127.69230742, 3998.71794817, 4020.76923029, 4031.41025593, 4011.92307644, 4130.25640998, 3743.84615281, 4050.51282010, 4128.97435870, 4149.87179467,12.0
4091.79487145, 4053.97435856, 4116.41025614, 4011.92307644, 4123.58974332, 4051.28205087, 4097.30769196, 4095.12820478, 4059.87179446, 4127.56410229, 3823.46153756, 4113.46153819, 4155.38461518, 4149.48717928,12.0
4093.84615350, 4055.12820472, 4135.89743569, 4039.87179446, 4125.25640998, 4066.02564061, 4110.89743562, 4119.48717921, 4092.82051248, 4128.97435870, 3857.94871712, 4135.89743569, 4170.25641012, 4148.71794851,12.0
4095.12820478, 4070.76923043, 4124.23076896, 4032.94871747, 4125.89743562, 4048.84615343, 4082.69230735, 4098.46153812, 4078.84615350, 4129.48717921, 3844.48717866, 4117.56410229, 4163.33333313, 4146.28205108,12.0
4090.76923043, 4053.58974318, 4104.74358947, 3998.07692252, 4128.20512793, 4029.87179439, 4063.20512779, 4074.99999966, 4051.41025600, 4127.56410229, 3853.84615302, 4092.43589709, 4145.89743569, 4147.05128185,12.0
4089.48717914, 4028.46153798, 4107.30769203, 3986.41025586, 4128.20512793, 4032.94871747, 4069.61538420, 4068.46153805, 4054.35897395, 4129.61538434, 3878.71794796, 4090.76923043, 4151.79487159, 4146.53846133,12.0
4092.56410222, 4057.30769189, 4130.76923050, 4014.87179439, 4126.28205101, 4056.92307651, 4105.25640998, 4090.64102530, 4090.12820478, 4133.97435870, 3895.25640950, 4124.48717921, 4170.12820499, 4147.82051262,12.0
4091.15384581, 4053.97435856, 4124.23076896, 4008.33333285, 4124.99999973, 4038.20512779, 4096.41025607, 4092.05128171, 4082.94871761, 4131.02564075, 3907.56410187, 4121.28205101, 4157.30769210, 4147.56410236,12.0
4089.48717914, 3993.97435842, 4096.28205094, 3969.35897374, 4124.23076896, 3997.30769176, 4038.97435856, 4053.46153805, 4041.66666625, 4128.07692280, 3917.94871726, 4076.15384581, 4135.64102544, 4145.25641005,12.0
4092.43589709, 3995.38461483, 4099.87179453, 3972.43589688, 4126.79487152, 4005.25640977, 4023.46153798, 4043.07692266, 4047.82051241, 4134.87179460, 3926.28205059, 4078.84615350, 4147.56410236, 4147.94871774,12.0
4091.02564068, 4047.82051241, 4117.30769203, 3997.05128150, 4128.07692280, 4026.53846106, 4051.79487138, 4070.38461504, 4073.46153812, 4134.61538434, 3931.41025572, 4113.46153819, 4169.99999986, 4147.69230749,12.0
4089.61538427, 4049.74358933, 4113.97435870, 3998.46153791, 4126.79487152, 4023.71794824, 4064.61538420, 4080.25640991, 4061.28205087, 4130.64102537, 3934.10256341, 4110.25640998, 4166.15384595, 4146.02564082,12.0
4092.82051248, 4039.10256369, 4113.97435870, 4007.82051234, 4126.41025614, 4039.23076882, 4072.56410222, 4085.76923043, 4064.74358933, 4134.87179460, 3951.41025579, 4106.15384588, 4162.30769210, 4148.46153826,12.0
4091.92307658, 4052.82051241, 4118.97435870, 4017.69230721, 4126.79487152, 4043.33333292, 4072.94871761, 4089.35897402, 4087.43589709, 4133.20512793, 3960.89743528, 4114.23076896, 4157.43589723, 4147.69230749,12.0
4092.82051248, 4051.28205087, 4107.43589716, 3993.84615329, 4128.58974332, 4007.05128157, 4047.43589702, 4065.51282010, 4071.92307658, 4125.64102537, 3938.84615322, 4092.17948684, 4141.66666646, 4146.15384595,12.0
4095.12820478, 4028.07692259, 4097.56410222, 3979.87179432, 4125.89743562, 3999.48717894, 4039.99999959, 4056.66666625, 4050.89743548, 4128.07692280, 3927.82051213, 4074.23076889, 4146.92307672, 4145.38461518,12.0
4092.43589709, 4034.99999952, 4111.79487152, 4004.35897388, 4123.58974332, 4024.74358926, 4074.48717914, 4086.28205094, 4070.38461504, 4132.94871767, 3944.61538399, 4107.56410229, 4185.64102551, 4146.28205108,12.0
4092.43589709, 4050.76923036, 4117.94871767, 4007.69230721, 4128.58974332, 4012.17948670, 4082.17948684, 4092.17948684, 4076.02564068, 4129.48717921, 3947.05128143, 4118.71794844, 4194.48717935, 4148.07692287,12.0
4094.87179453, 4052.17948677, 4116.02564075, 4008.71794824, 4127.69230742, 4011.79487131, 4065.89743548, 4078.07692273, 4071.92307658, 4125.89743562, 3940.25640963, 4106.79487152, 4183.46153833, 4145.64102544,12.0
4094.35897402, 4093.33333299, 4144.87179467, 4061.02564061, 4126.41025614, 4067.30769189, 4094.74358940, 4110.51282024, 4117.82051255, 4123.84615357, 3955.38461476, 4156.66666646, 4233.33333327, 4147.56410236,12.0
4091.79487145, 4099.23076889, 4151.41025621, 4068.58974318, 4126.92307665, 4066.15384574, 4100.64102530, 4121.66666639, 4125.64102537, 4126.28205101, 3964.35897374, 4175.76923063, 4255.00000000, 4150.76923056,12.0
4092.94871761, 4030.89743541, 4105.76923050, 3994.23076868, 4125.38461511, 3998.07692252, 4050.64102523, 4063.58974318, 4056.79487138, 4131.28205101, 3957.17948656, 4099.74358940, 4194.48717935, 4150.12820492,12.0
4095.25640991, 4004.10256362, 4083.58974325, 3965.38461476, 4127.05128178, 3984.35897381, 4036.66666618, 4039.61538420, 4033.58974311, 4127.56410229, 3958.84615322, 4059.35897395, 4182.94871781, 4149.48717928,12.0
4091.28205094, 4038.84615343, 4101.53846119, 4008.07692259, 4126.92307665, 4011.53846106, 4052.30769189, 4064.35897395, 4059.74358933, 4126.66666639, 3965.76923015, 4092.17948684, 4223.58974352, 4146.92307672,12.0
4092.30769196, 4079.23076889, 4128.20512793, 4045.25640984, 4127.69230742, 4032.56410208, 4072.69230735, 4091.41025607, 4076.92307658, 4138.46153826, 3995.38461483, 4135.64102544, 4231.41025634, 4147.43589723,12.0
4097.94871761, 4110.25640998, 4149.23076903, 4058.97435856, 4128.46153819, 4063.33333292, 4114.99999973, 4122.30769203, 4100.64102530, 4139.48717928, 4031.28205080, 4167.56410236, 4227.43589737, 4147.94871774,12.0
4094.99999966, 4098.58974325, 4141.92307672, 4053.33333292, 4126.66666639, 4063.33333292, 4115.89743562, 4118.20512793, 4110.38461511, 4132.05128178, 4026.53846106, 4157.05128185, 4239.48717949, 4145.12820492,12.0
4092.82051248, 4043.07692266, 4108.33333306, 4022.56410208, 4126.28205101, 4020.25640977, 4057.17948677, 4063.20512779, 4069.48717907, 4137.17948697, 4003.20512765, 4103.33333306, 4240.76923077, 4147.69230749,12.0
4096.15384581, 4031.02564054, 4098.97435863, 4002.43589688, 4123.20512793, 4003.84615329, 4043.58974318, 4034.99999952, 4041.02564061, 4138.07692287, 4003.71794817, 4092.05128171, 4249.87179488, 4147.82051262,12.0
4096.79487145, 4073.71794837, 4125.25640998, 4027.94871747, 4124.48717921, 4033.58974311, 4092.17948684, 4073.20512786, 4075.38461504, 4125.76923050, 4022.94871747, 4133.58974332, 4266.66666674, 4143.84615364,12.0
4093.58974325, 4108.46153819, 4147.30769210, 4064.48717907, 4126.28205101, 4061.79487138, 4123.71794844, 4117.30769203, 4115.64102537, 4123.20512793, 4033.84615336, 4162.43589723, 4272.05128212, 4144.87179467,12.0
4095.38461504, 4095.25640991, 4133.33333306, 4052.56410215, 4123.58974332, 4044.23076882, 4103.58974332, 4105.76923050, 4102.17948684, 4134.23076896, 4029.23076875, 4144.61538441, 4270.89743597, 4144.99999980,12.0
4099.99999966, 4074.99999966, 4117.17948691, 4033.58974311, 4125.64102537, 4032.69230721, 4090.51282017, 4095.12820478, 4090.25640991, 4136.28205108, 4033.20512772, 4125.89743562, 4260.76923077, 4145.89743569,12.0
4098.20512786, 4110.89743562, 4138.20512800, 4065.64102523, 4124.87179460, 4065.51282010, 4123.07692280, 4138.97435877, 4126.15384588, 4130.89743562, 4046.92307651, 4156.28205108, 4250.76923077, 4147.30769210,12.0
4097.17948684, 4117.30769203, 4142.43589723, 4068.84615343, 4122.56410229, 4060.51282010, 4113.71794844, 4135.38461518, 4122.05128178, 4132.17948691, 4040.89743548, 4157.05128185, 4256.79487180, 4147.43589723,12.0
4097.56410222, 4059.61538420, 4112.05128178, 4020.12820465, 4127.30769203, 4019.99999952, 4065.38461497, 4080.76923043, 4077.69230735, 4133.58974332, 4030.25640977, 4108.58974332, 4261.79487180, 4147.69230749,12.0
4096.53846119, 4065.89743548, 4119.87179460, 4026.02564054, 4127.82051255, 4040.25640984, 4100.64102530, 4101.41025607, 4098.07692273, 4127.05128178, 4043.84615343, 4124.35897408, 4259.87179488, 4147.43589723,12.0
4098.58974325, 4105.51282024, 4145.76923056, 4057.94871754, 4123.71794844, 4069.10256369, 4141.02564082, 4136.28205108, 4127.56410229, 4124.99999973, 4053.33333292, 4164.61538441, 4257.30769231, 4149.10256390,12.0
4097.69230735, 4077.43589709, 4127.56410229, 4037.69230728, 4122.69230742, 4045.64102523, 4096.15384581, 4097.43589709, 4091.02564068, 4130.38461511, 4045.38461497, 4138.07692287, 4249.74358975, 4147.30769210,12.0
4095.89743555, 4061.53846113, 4113.97435870, 4019.99999952, 4125.89743562, 4035.51282003, 4076.79487145, 4078.97435863, 4081.53846119, 4131.66666639, 4043.97435856, 4119.35897408, 4249.23076923, 4145.38461518,12.0
4098.33333299, 4088.71794837, 4131.28205101, 4032.94871747, 4127.94871767, 4042.82051241, 4099.10256376, 4109.35897408, 4112.56410229, 4133.97435870, 4049.48717907, 4140.76923056, 4253.20512821, 4149.23076903,12.0
4096.53846119, 4082.30769196, 4126.41025614, 4030.51282003, 4124.48717921, 4026.02564054, 4080.25640991, 4099.99999966, 4097.56410222, 4132.82051255, 4049.35897395, 4129.87179460, 4241.79487180, 4148.20512800,12.0
4093.07692273, 4061.15384574, 4111.15384588, 4015.64102516, 4123.97435870, 4017.43589695, 4072.94871761, 4080.51282017, 4071.15384581, 4124.87179460, 4046.53846113, 4108.07692280, 4232.94871788, 4147.43589723,12.0
4094.87179453, 4064.10256369, 4119.74358947, 4014.74358926, 4126.79487152, 4034.99999952, 4112.69230742, 4114.23076896, 4092.56410222, 4126.53846126, 4042.56410215, 4123.46153819, 4235.25641026, 4148.20512800,12.0
4096.15384581, 4077.43589709, 4129.23076896, 4015.38461490, 4127.69230742, 4052.17948677, 4118.97435870, 4135.89743569, 4116.15384588, 4134.74358947, 4034.48717900, 4139.48717928, 4227.94871788, 4145.51282031,12.0
4094.74358940, 4094.74358940, 4129.35897408, 4018.46153798, 4126.28205101, 4054.87179446, 4100.76923043, 4118.97435870, 4121.66666639, 4134.48717921, 4040.12820472, 4137.94871774, 4223.46153840, 4146.66666646,12.0
4094.99999966, 4090.64102530, 4124.87179460, 4016.79487131, 4122.43589716, 4037.56410215, 4094.23076889, 4102.30769196, 4113.58974332, 4128.33333306, 4055.12820472, 4128.58974332, 4226.28205122, 4147.43589723,12.0
4096.28205094, 4050.64102523, 4110.38461511, 3998.20512765, 4124.35897408, 4011.41025593, 4071.79487145, 4092.82051248, 4081.53846119, 4124.10256383, 4045.25640984, 4105.76923050, 4211.15384609, 4145.89743569,12.0
4095.76923043, 4056.79487138, 4115.64102537, 4006.79487131, 4125.76923050, 4030.89743541, 4083.07692273, 4106.41025614, 4092.56410222, 4126.66666639, 4046.53846113, 4115.89743562, 4202.43589737, 4144.87179467,12.0
4098.58974325, 4111.15384588, 4148.20512800, 4045.64102523, 4122.17948691, 4080.25640991, 4135.51282031, 4135.38461518, 4151.02564082, 4131.28205101, 4080.25640991, 4173.07692294, 4227.05128199, 4144.99999980,12.0
4100.76923043, 4090.89743555, 4145.38461518, 4040.12820472, 4123.97435870, 4060.51282010, 4115.51282024, 4118.33333306, 4125.12820485, 4130.38461511, 4074.61538427, 4170.89743576, 4232.30769224, 4146.79487159,12.0
4097.56410222, 4053.07692266, 4117.30769203, 4011.66666618, 4122.94871767, 4012.05128157, 4072.43589709, 4095.89743555, 4074.99999966, 4127.94871767, 4045.51282010, 4126.15384588, 4202.94871788, 4145.38461518,12.0
4096.41025607, 4090.51282017, 4126.66666639, 4029.48717900, 4122.17948691, 4036.02564054, 4113.46153819, 4127.56410229, 4118.84615357, 4126.79487152, 4060.64102523, 4144.74358954, 4198.20512807, 4146.92307672,12.0
4096.28205094, 4099.61538427, 4134.61538434, 4040.38461497, 4126.79487152, 4064.61538420, 4132.82051255, 4138.20512800, 4139.74358954, 4127.43589716, 4072.05128171, 4160.89743569, 4211.02564096, 4148.71794851,12.0
4098.07692273, 4073.20512786, 4125.64102537, 4034.99999952, 4125.76923050, 4048.58974318, 4099.99999966, 4124.48717921, 4109.87179460, 4129.61538434, 4064.10256369, 4144.87179467, 4209.10256404, 4148.20512800,12.0
4099.87179453, 4087.05128171, 4133.97435870, 4049.23076882, 4124.23076896, 4041.79487138, 4097.43589709, 4135.51282031, 4122.82051255, 4129.35897408, 4079.74358940, 4154.99999980, 4203.33333327, 4149.61538441,12.0
4097.30769196, 4093.84615350, 4130.89743562, 4042.17948677, 4122.56410229, 4045.89743548, 4098.97435863, 4130.12820485, 4131.41025614, 4128.97435870, 4084.10256376, 4153.97435877, 4196.66666653, 4146.02564082,12.0
4097.17948684, 4075.51282017, 4119.23076896, 4034.48717900, 4122.05128178, 4050.25640984, 4102.82051255, 4123.07692280, 4117.94871767, 4136.41025621, 4056.41025600, 4140.51282031, 4203.20512814, 4146.02564082,12.0
4096.41025607, 4076.66666632, 4116.92307665, 4052.05128164, 4125.38461511, 4050.51282010, 4115.25640998, 4124.74358947, 4120.25640998, 4136.15384595, 4052.69230728, 4140.89743569, 4204.61538455, 4150.51282031,12.0
4093.46153812, 4084.10256376, 4104.87179460, 4041.53846113, 4126.28205101, 4029.35897388, 4094.35897402, 4099.35897402, 4109.48717921, 4127.17948691, 4077.94871761, 4121.02564075, 4174.23076910, 4147.56410236,12.0
4095.51282017, 4055.51282010, 4090.76923043, 4007.82051234, 4125.76923050, 4019.35897388, 4068.46153805, 4078.07692273, 4094.99999966, 4129.87179460, 4078.58974325, 4091.92307658, 4155.51282031, 4146.15384595,12.0
4097.43589709, 4041.66666625, 4105.89743562, 4027.56410208, 4123.97435870, 4050.64102523, 4094.87179453, 4107.56410229, 4109.10256383, 4134.99999973, 4057.82051241, 4119.99999973, 4186.15384602, 4146.66666646,12.0
4097.05128171, 4063.33333292, 4121.02564075, 4048.97435856, 4124.61538434, 4055.51282010, 4109.99999973, 4125.38461511, 4109.74358947, 4133.33333306, 4057.30769189, 4146.92307672, 4199.74358961, 4145.64102544,12.0
4096.92307658, 4059.99999959, 4101.28205094, 4011.15384567, 4127.56410229, 4015.38461490, 4068.07692266, 4086.66666632, 4084.74358940, 4133.20512793, 4075.25640991, 4108.71794844, 4159.35897415, 4147.56410236,12.0
4097.82051248, 4033.20512772, 4086.02564068, 3989.74358919, 4126.41025614, 3989.87179432, 4037.17948677, 4053.71794830, 4065.89743548, 4133.58974332, 4075.25640991, 4089.61538427, 4150.38461518, 4147.43589723,12.0
4099.48717914, 4060.76923036, 4114.48717921, 4032.82051234, 4125.64102537, 4013.33333285, 4082.05128171, 4088.71794837, 4087.82051248, 4133.07692280, 4074.10256376, 4143.20512800, 4189.23076910, 4146.79487159,12.0
4099.35897402, 4112.05128178, 4143.20512800, 4076.66666632, 4123.33333306, 4058.58974318, 4136.92307672, 4143.46153826, 4130.89743562, 4133.84615357, 4091.28205094, 4181.15384602, 4194.10256397, 4147.56410236,12.0
4100.89743555, 4078.58974325, 4123.46153819, 4057.05128164, 4121.28205101, 4057.82051241, 4111.79487152, 4123.46153819, 4112.30769203, 4129.61538434, 4087.82051248, 4142.82051262, 4167.69230749, 4147.56410236,12.0
4103.58974332, 4051.53846113, 4114.74358947, 4058.33333292, 4125.25640998, 4046.28205087, 4101.15384581, 4106.15384588, 4092.05128171, 4123.46153819, 4087.82051248, 4134.35897408, 4185.12820499, 4148.07692287,12.0
4103.33333306, 4085.64102530, 4136.41025621, 4098.46153812, 4124.74358947, 4057.56410215, 4131.41025614, 4142.43589723, 4124.99999973, 4128.46153819, 4108.58974332, 4171.66666653, 4211.79487173, 4147.69230749,12.0
4102.17948684, 4066.79487138, 4122.05128178, 4077.56410222, 4124.23076896, 4039.99999959, 4097.69230735, 4125.38461511, 4118.84615357, 4136.41025621, 4092.17948684, 4142.17948697, 4184.48717935, 4148.84615364,12.0
4101.41025607, 4042.43589702, 4100.25640991, 4047.30769189, 4126.28205101, 4023.33333285, 4065.25640984, 4087.94871761, 4099.48717914, 4133.07692280, 4065.51282010, 4100.38461504, 4154.10256390, 4149.10256390,12.0
4101.53846119, 4093.33333299, 4123.33333306, 4082.56410222, 4124.23076896, 4048.71794830, 4100.89743555, 4112.56410229, 4127.17948691, 4124.23076896, 4110.64102537, 4139.87179467, 4172.30769217, 4147.94871774,12.0
4101.15384581, 4116.66666639, 4135.38461518, 4097.82051248, 4125.51282024, 4040.25640984, 4097.17948684, 4116.41025614, 4117.05128178, 4124.48717921, 4151.53846133, 4167.43589723, 4202.30769224, 4150.89743569,12.0
4099.74358940, 4064.99999959, 4105.76923050, 4061.79487138, 4126.28205101, 3986.41025586, 4039.74358933, 4061.79487138, 4060.76923036, 4128.97435870, 4114.61538434, 4121.66666639, 4194.23076910, 4148.33333313,12.0
4101.15384581, 4053.20512779, 4113.07692280, 4077.30769196, 4126.15384588, 4002.30769176, 4067.43589702, 4071.15384581, 4080.89743555, 4131.79487152, 4104.74358947, 4127.69230742, 4184.23076910, 4144.99999980,12.0
4102.43589709, 4082.17948684, 4142.43589723, 4110.12820485, 4127.05128178, 4054.74358933, 4123.84615357, 4124.61538434, 4124.23076896, 4135.25640998, 4151.92307672, 4178.71794858, 4199.99999986, 4147.94871774,12.0
4103.33333306, 4100.51282017, 4132.69230742, 4101.79487145, 4125.25640998, 4060.51282010, 4112.17948691, 4119.87179460, 4107.94871767, 4130.51282024, 4168.46153833, 4168.33333320, 4200.12820499, 4148.33333313,12.0
4103.84615357, 4107.05128178, 4122.43589716, 4104.99999973, 4123.97435870, 4056.28205087, 4107.17948691, 4107.82051255, 4105.64102537, 4123.84615357, 4163.20512800, 4141.02564082, 4186.92307679, 4147.69230749,12.0
4099.74358940, 4083.07692273, 4118.07692280, 4105.12820485, 4120.89743562, 4045.64102523, 4111.15384588, 4103.46153819, 4108.07692280, 4127.69230742, 4180.25641012, 4129.61538434, 4174.48717935, 4146.28205108,12.0
4099.48717914, 4083.20512786, 4109.23076896, 4092.05128171, 4120.38461511, 4035.89743541, 4097.43589709, 4090.51282017, 4092.17948684, 4129.48717921, 4189.35897422, 4119.74358947, 4160.76923056, 4146.53846133,12.0
4103.20512793, 4115.25640998, 4122.94871767, 4109.74358947, 4124.99999973, 4053.58974318, 4107.69230742, 4108.07692280, 4108.71794844, 4127.30769203, 4192.30769217, 4138.20512800, 4165.38461518, 4146.92307672,12.0
4102.43589709, 4086.92307658, 4129.23076896, 4123.84615357, 4125.38461511, 4046.28205087, 4108.97435870, 4113.07692280, 4117.05128178, 4127.82051255, 4200.89743576, 4150.89743569, 4185.89743576, 4144.48717928,12.0
4101.28205094, 4062.94871754, 4118.97435870, 4124.87179460, 4123.33333306, 4031.53846106, 4085.89743555, 4088.97435863, 4101.53846119, 4127.82051255, 4206.28205122, 4140.25641005, 4193.46153833, 4148.58974339,12.0
4103.46153819, 4107.94871767, 4130.25640998, 4162.56410236, 4123.07692280, 4062.82051241, 4100.25640991, 4109.74358947, 4116.66666639, 4128.33333306, 4228.84615378, 4157.94871774, 4183.84615371, 4150.25641005,12.0
4107.17948691, 4106.41025614, 4127.56410229, 4176.15384602, 4124.23076896, 4056.41025600, 4104.48717921, 4123.07692280, 4109.48717921, 4130.38461511, 4242.94871795, 4152.17948697, 4166.66666646, 4146.15384595,12.0
4105.89743562, 4091.53846119, 4117.69230742, 4165.89743569, 4123.20512793, 4034.61538413, 4097.69230735, 4110.38461511, 4101.66666632, 4129.23076896, 4230.25641019, 4133.58974332, 4166.66666646, 4145.25641005,12.0
4102.56410229, 4130.51282024, 4141.02564082, 4204.61538455, 4120.38461511, 4074.87179453, 4133.58974332, 4130.64102537, 4151.66666646, 4130.51282024, 4243.97435898, 4171.66666653, 4191.02564089, 4143.97435877,12.0
4103.58974332, 4121.66666639, 4148.07692287, 4217.56410250, 4124.74358947, 4078.46153812, 4129.74358947, 4129.99999973, 4148.20512800, 4136.92307672, 4262.56410257, 4183.07692294, 4205.51282045, 4144.48717928,12.0
4103.46153819, 4088.71794837, 4127.94871767, 4189.35897422, 4125.51282024, 4033.46153798, 4100.76923043, 4103.97435870, 4097.82051248, 4133.58974332, 4239.74358975, 4146.15384595, 4179.23076910, 4144.87179467,12.0
4104.61538434, 4123.33333306, 4140.12820492, 4214.99999993, 4121.41025614, 4050.25640984, 4136.28205108, 4125.25640998, 4124.87179460, 4126.28205101, 4229.10256404, 4162.94871774, 4157.05128185, 4144.61538441,12.0
4107.17948691, 4138.97435877, 4155.64102544, 4239.10256411, 4124.74358947, 4087.69230735, 4157.56410236, 4152.82051262, 4163.58974339, 4128.33333306, 4242.69230770, 4196.28205115, 4183.20512807, 4146.28205108,12.0
4103.58974332, 4097.56410222, 4132.17948691, 4216.28205122, 4126.15384588, 4065.76923036, 4112.30769203, 4126.02564075, 4133.20512793, 4131.53846126, 4232.69230763, 4169.74358961, 4200.38461525, 4145.25641005,12.0
4100.38461504, 4092.94871761, 4112.17948691, 4217.05128199, 4125.89743562, 4030.38461490, 4085.25640991, 4091.92307658, 4098.97435863, 4135.12820485, 4222.05128199, 4133.07692280, 4158.20512800, 4146.41025621,12.0
4101.41025607, 4109.61538434, 4111.92307665, 4220.38461532, 4125.89743562, 4030.25640977, 4094.10256376, 4086.66666632, 4097.17948684, 4135.51282031, 4217.69230763, 4128.20512793, 4138.97435877, 4146.79487159,12.0
4103.20512793, 4090.76923043, 4118.46153819, 4208.84615378, 4125.25640998, 4049.48717907, 4103.33333306, 4096.53846119, 4107.94871767, 4128.84615357, 4211.53846147, 4146.41025621, 4179.74358961, 4144.87179467,12.0
4104.23076896, 4092.69230735, 4137.43589723, 4236.28205129, 4127.17948691, 4068.58974318, 4127.56410229, 4122.56410229, 4131.53846126, 4124.99999973, 4231.41025634, 4174.10256397, 4189.74358961, 4146.92307672,12.0
4103.20512793, 4122.69230742, 4146.28205108, 4257.94871795, 4125.12820485, 4073.71794837, 4141.28205108, 4134.74358947, 4143.71794851, 4128.33333306, 4247.30769231, 4179.48717935, 4165.64102544, 4145.38461518,12.0
4104.48717921, 4099.10256376, 4120.89743562, 4218.97435891, 4124.10256383, 4056.79487138, 4111.79487152, 4106.41025614, 4115.76923050, 4128.20512793, 4225.89743583, 4140.38461518, 4149.99999980, 4143.84615364,12.0
4107.30769203, 4057.94871754, 4106.79487152, 4200.89743576, 4125.38461511, 4043.71794830, 4097.94871761, 4089.48717914, 4093.84615350, 4127.30769203, 4222.94871788, 4118.71794844, 4142.05128185, 4146.79487159,12.0
4105.64102537, 4083.58974325, 4126.92307665, 4228.58974352, 4124.10256383, 4057.56410215, 4120.89743562, 4114.10256383, 4113.58974332, 4129.87179460, 4234.23076923, 4148.07692287, 4163.46153826, 4146.66666646,12.0
4104.99999973, 4103.07692280, 4124.48717921, 4225.12820506, 4126.02564075, 4061.15384574, 4117.05128178, 4118.84615357, 4126.15384588, 4128.58974332, 4219.87179481, 4150.89743569, 4179.74358961, 4146.66666646,12.0
4106.15384588, 4074.87179453, 4104.74358947, 4207.94871788, 4125.64102537, 4045.89743548, 4091.02564068, 4098.33333299, 4117.56410229, 4126.79487152, 4214.48717942, 4127.05128178, 4154.61538441, 4147.69230749,12.0
4106.92307665, 4089.61538427, 4118.71794844, 4221.66666660, 4124.99999973, 4050.51282010, 4103.46153819, 4107.94871767, 4122.82051255, 4128.20512793, 4233.20512814, 4138.97435877, 4139.23076903, 4148.84615364,12.0
4107.69230742, 4135.51282031, 4139.61538441, 4242.43589744, 4127.56410229, 4075.25640991, 4138.71794851, 4136.79487159, 4140.89743569, 4130.76923050, 4236.02564103, 4170.76923063, 4172.82051269, 4148.20512800,12.0
4107.05128178, 4122.56410229, 4129.74358947, 4239.23076923, 4125.25640998, 4074.61538427, 4130.76923050, 4125.38461511, 4138.71794851, 4131.15384588, 4230.89743583, 4169.10256397, 4182.69230756, 4145.25641005,12.0
4106.92307665, 4073.97435863, 4110.38461511, 4212.05128199, 4125.64102537, 4051.79487138, 4093.97435863, 4081.53846119, 4106.92307665, 4129.48717921, 4234.35897436, 4128.71794844, 4145.38461518, 4146.41025621,12.0
4104.23076896, 4067.56410215, 4104.87179460, 4199.61538448, 4126.41025614, 4049.23076882, 4091.92307658, 4073.07692273, 4083.33333299, 4129.35897408, 4230.76923070, 4106.28205101, 4129.99999973, 4146.53846133,12.0
4103.46153819, 4092.69230735, 4111.66666639, 4220.12820506, 4124.10256383, 4065.12820472, 4115.25640998, 4098.71794837, 4097.69230735, 4127.69230742, 4231.53846147, 4126.28205101, 4147.69230749, 4145.38461518,12.0
4107.43589716, 4104.74358947, 4124.87179460, 4235.89743590, 4122.69230742, 4075.64102530, 4126.53846126, 4116.66666639, 4121.15384588, 4123.46153819, 4242.82051282, 4151.02564082, 4161.02564082, 4146.41025621,12.0
4108.20512793, 4088.71794837, 4118.07692280, 4210.51282045, 4120.76923050, 4058.46153805, 4109.23076896, 4102.69230742, 4113.20512793, 4126.92307665, 4246.53846154, 4134.23076896, 4148.07692287, 4144.61538441,12.0
4104.48717921, 4070.12820478, 4097.82051248, 4186.28205115, 4124.87179460, 4032.94871747, 4081.15384581, 4081.15384581, 4087.82051248, 4137.43589723, 4235.51282052, 4102.30769196, 4130.76923050, 4146.02564082,12.0
4102.05128171, 4098.58974325, 4112.82051255, 4218.07692301, 4127.56410229, 4056.41025600, 4106.02564075, 4108.07692280, 4109.48717921, 4134.74358947, 4224.35897429, 4128.46153819, 4146.53846133, 4146.92307672,12.0
4106.53846126, 4137.17948697, 4140.76923056, 4250.12820513, 4125.51282024, 4093.20512786, 4154.87179467, 4148.33333313, 4157.17948697, 4130.89743562, 4260.25641026, 4176.02564089, 4174.23076910, 4146.28205108,12.0
4111.02564075, 4102.69230742, 4119.48717921, 4206.79487173, 4126.66666639, 4060.38461497, 4114.99999973, 4112.30769203, 4124.48717921, 4135.64102544, 4301.41025655, 4141.92307672, 4155.51282031, 4148.46153826,12.0
4109.61538434, 4051.79487138, 4085.64102530, 4155.25641005, 4125.38461511, 4014.61538413, 4043.46153805, 4044.99999959, 4052.56410215, 4133.46153819, 4272.43589751, 4089.23076889, 4123.20512793, 4146.41025621,12.0
4110.12820485, 4069.61538420, 4099.35897402, 4183.58974345, 4124.87179460, 4036.15384567, 4055.89743548, 4050.64102523, 4064.35897395, 4131.79487152, 4224.87179481, 4117.17948691, 4140.64102544, 4146.79487159,12.0
4110.64102537, 4086.02564068, 4109.48717921, 4199.35897422, 4125.38461511, 4043.20512779, 4078.71794837, 4068.58974318, 4092.05128171, 4136.15384595, 4224.61538455, 4132.69230742, 4143.46153826, 4148.58974339,12.0
4107.82051255, 4085.51282017, 4106.92307665, 4184.48717935, 4126.15384588, 4044.23076882, 4092.94871761, 4070.38461504, 4086.66666632, 4134.35897408, 4236.28205129, 4123.46153819, 4120.76923050, 4145.76923056,12.0
4107.17948691, 4106.79487152, 4121.15384588, 4212.30769224, 4129.23076896, 4093.33333299, 4136.92307672, 4104.35897408, 4105.64102537, 4131.53846126, 4228.97435891, 4150.64102544, 4121.79487152, 4146.92307672,12.0
4107.94871767, 4086.15384581, 4105.51282024, 4201.53846147, 4125.51282024, 4086.92307658, 4122.17948691, 4103.71794844, 4103.20512793, 4133.20512793, 4213.97435891, 4132.17948691, 4128.71794844, 4147.43589723,12.0
4107.17948691, 4044.10256369, 4076.92307658, 4144.48717928, 4124.74358947, 4024.61538413, 4070.25640991, 4070.89743555, 4068.20512779, 4128.71794844, 4187.56410243, 4079.87179453, 4122.30769203, 4148.20512800,12.0
4105.25640998, 4041.92307651, 4075.89743555, 4129.10256383, 4127.69230742, 4013.33333285, 4069.99999966, 4074.74358940, 4070.38461504, 4126.66666639, 4179.10256397, 4076.53846119, 4103.46153819, 4151.02564082,12.0
4106.92307665, 4062.30769189, 4089.10256376, 4132.94871767, 4124.48717921, 4048.20512779, 4094.35897402, 4104.10256383, 4109.99999973, 4131.02564075, 4201.15384609, 4104.48717921, 4100.12820478, 4149.48717928,12.0
4108.07692280, 4102.30769196, 4115.89743562, 4134.61538434, 4124.87179460, 4086.53846119, 4127.30769203, 4146.66666646, 4156.66666646, 4128.97435870, 4221.41025634, 4147.30769210, 4124.23076896, 4147.94871774,12.0
4104.10256383, 4121.79487152, 4125.89743562, 4134.74358947, 4127.69230742, 4087.17948684, 4141.41025621, 4156.79487159, 4161.02564082, 4127.05128178, 4218.33333327, 4159.61538441, 4130.51282024, 4147.69230749,12.0
4106.41025614, 4082.43589709, 4101.28205094, 4118.58974332, 4127.56410229, 4061.79487138, 4117.43589716, 4116.15384588, 4118.33333306, 4132.17948691, 4206.66666660, 4125.51282024, 4106.41025614, 4149.74358954,12.0
4108.71794844, 4054.61538420, 4089.61538427, 4109.48717921, 4124.48717921, 4069.74358940, 4105.76923050, 4095.51282017, 4102.30769196, 4132.05128178, 4203.97435891, 4113.97435870, 4097.17948684, 4150.76923056,12.0
4104.35897408, 4064.87179446, 4095.76923043, 4110.76923050, 4124.23076896, 4077.56410222, 4100.38461504, 4094.35897402, 4103.71794844, 4130.89743562, 4187.94871781, 4119.61538434, 4103.71794844, 4147.56410236,12.0
4107.17948691, 4071.02564068, 4096.66666632, 4101.02564068, 4126.92307665, 4058.97435856, 4099.23076889, 4090.64102530, 4090.38461504, 4139.35897415, 4182.43589730, 4117.82051255, 4104.48717921, 4145.89743569,12.0
4111.41025614, 4059.10256369, 4095.64102530, 4095.64102530, 4124.74358947, 4058.71794830, 4116.66666639, 4098.58974325, 4091.66666632, 4138.71794851, 4204.74358968, 4122.56410229, 4091.92307658, 4143.58974339,12.0
4109.10256383, 4031.02564054, 4080.64102530, 4083.71794837, 4123.97435870, 4054.23076882, 4099.87179453, 4082.30769196, 4087.05128171, 4127.94871767, 4207.69230763, 4096.41025607, 4064.74358933, 4144.74358954,12.0
4108.33333306, 4051.41025600, 4086.53846119, 4098.33333299, 4126.53846126, 4069.23076882, 4101.53846119, 4099.87179453, 4101.92307658, 4127.17948691, 4208.58974352, 4098.84615350, 4075.64102530, 4148.58974339,12.0
4108.84615357, 4096.02564068, 4113.71794844, 4132.69230742, 4124.23076896, 4106.66666639, 4141.92307672, 4156.15384595, 4143.46153826, 4133.20512793, 4225.51282045, 4149.61538441, 4108.71794844, 4147.05128185,12.0
4109.74358947, 4054.23076882, 4089.87179453, 4088.58974325, 4123.46153819, 4067.69230728, 4106.66666639, 4114.87179460, 4112.43589716, 4135.25640998, 4210.64102558, 4114.35897408, 4087.17948684, 4146.02564082,12.0
4109.74358947, 4019.23076875, 4064.99999959, 4045.64102523, 4123.58974332, 4033.46153798, 4070.76923043, 4061.66666625, 4067.05128164, 4131.28205101, 4187.43589730, 4066.79487138, 4063.84615343, 4145.76923056,12.0
4109.74358947, 4073.20512786, 4098.20512786, 4087.69230735, 4124.10256383, 4091.66666632, 4121.79487152, 4111.79487152, 4108.46153819, 4131.02564075, 4202.17948711, 4124.23076896, 4086.28205094, 4147.30769210,12.0
4110.51282024, 4066.92307651, 4097.82051248, 4080.89743555, 4126.28205101, 4099.61538427, 4118.58974332, 4118.33333306, 4117.17948691, 4134.99999973, 4194.99999986, 4128.71794844, 4083.07692273, 4151.53846133,12.0
4112.05128178, 3994.23076868, 4052.56410215, 4021.15384567, 4123.84615357, 4043.97435856, 4058.58974318, 4053.46153805, 4060.12820472, 4131.28205101, 4160.64102544, 4054.99999959, 4057.43589702, 4148.58974339,12.0
4114.99999973, 4011.28205080, 4061.79487138, 4039.10256369, 4124.10256383, 4061.15384574, 4082.43589709, 4064.23076882, 4070.76923043, 4124.99999973, 4169.10256397, 4072.69230735, 4076.15384581, 4146.28205108,12.0
4111.92307665, 4074.10256376, 4100.12820478, 4088.46153812, 4126.41025614, 4103.33333306, 4140.76923056, 4119.99999973, 4117.30769203, 4131.53846126, 4197.05128192, 4141.15384595, 4095.64102530, 4148.33333313,12.0
4107.94871767, 4056.79487138, 4094.10256376, 4078.71794837, 4123.46153819, 4083.71794837, 4134.35897408, 4114.35897408, 4106.15384588, 4135.64102544, 4193.58974345, 4128.97435870, 4073.84615350, 4148.97435877,12.0
4109.23076896, 4014.10256362, 4079.35897402, 4062.82051241, 4124.10256383, 4076.15384581, 4113.46153819, 4102.82051255, 4099.48717914, 4130.64102537, 4182.56410243, 4098.07692273, 4064.48717907, 4148.84615364,12.0
4107.82051255, 4021.79487131, 4083.46153812, 4070.12820478, 4123.84615357, 4099.48717914, 4117.56410229, 4122.69230742, 4120.51282024, 4129.74358947, 4184.10256397, 4110.89743562, 4078.07692273, 4146.02564082,12.0
4106.92307665, 4013.84615336, 4072.94871761, 4049.10256369, 4123.84615357, 4074.87179453, 4095.25640991, 4109.35897408, 4096.15384581, 4129.48717921, 4166.53846133, 4094.23076889, 4062.05128164, 4145.89743569,12.0
4108.71794844, 3986.15384560, 4059.99999959, 4031.28205080, 4126.92307665, 4045.12820472, 4073.07692273, 4085.89743555, 4070.89743555, 4127.30769203, 4148.71794851, 4064.23076882, 4043.33333292, 4146.92307672,12.0
4107.30769203, 4017.05128157, 4077.17948684, 4063.71794830, 4126.02564075, 4080.76923043, 4111.28205101, 4105.25640998, 4098.20512786, 4131.15384588, 4162.82051262, 4096.53846119, 4065.89743548, 4147.17948697,12.0
4108.33333306, 4054.61538420, 4096.15384581, 4087.69230735, 4124.87179460, 4117.56410229, 4143.46153826, 4121.79487152, 4115.51282024, 4133.58974332, 4177.82051269, 4130.38461511, 4084.99999966, 4149.23076903,12.0
4113.07692280, 4035.64102516, 4092.82051248, 4076.92307658, 4122.69230742, 4102.43589709, 4123.71794844, 4110.76923050, 4106.66666639, 4131.53846126, 4192.05128192, 4113.71794844, 4067.56410215, 4146.15384595,12.0
4113.71794844, 4009.10256362, 4086.28205094, 4064.74358933, 4122.69230742, 4076.28205094, 4104.48717921, 4099.87179453, 4103.07692280, 4132.82051255, 4216.28205122, 4099.74358940, 4053.07692266, 4147.56410236,12.0
4112.30769203, 4004.61538413, 4082.43589709, 4054.99999959, 4124.87179460, 4066.66666625, 4101.15384581, 4094.10256376, 4095.76923043, 4134.23076896, 4214.10256404, 4104.99999973, 4058.71794830, 4150.64102544,12.0
4113.84615357, 4006.53846106, 4079.23076889, 4049.61538420, 4122.30769203, 4061.79487138, 4094.99999966, 4091.41025607, 4086.92307658, 4131.53846126, 4192.69230756, 4099.99999966, 4057.43589702, 4147.17948697,12.0
4114.87179460, 4017.43589695, 4083.20512786, 4056.53846113, 4122.43589716, 4066.79487138, 4104.23076896, 4102.56410229, 4094.87179453, 4132.30769203, 4196.41025628, 4099.48717914, 4048.97435856, 4149.87179467,12.0
4113.07692280, 4017.05128157, 4082.17948684, 4060.25640984, 4122.56410229, 4086.28205094, 4118.07692280, 4111.15384588, 4101.15384581, 4135.12820485, 4198.07692294, 4102.30769196, 4053.71794830, 4151.15384595,12.0
4112.17948691, 3997.94871740, 4076.53846119, 4057.17948677, 4122.43589716, 4105.76923050, 4112.05128178, 4107.94871767, 4102.69230742, 4131.66666639, 4179.23076910, 4093.07692273, 4058.97435856, 4147.17948697,12.0
4112.56410229, 3982.82051227, 4073.46153812, 4042.17948677, 4123.71794844, 4119.48717921, 4093.46153812, 4102.56410229, 4099.23076889, 4126.02564075, 4171.66666653, 4076.79487145, 4047.82051241, 4147.56410236,12.0
4114.10256383, 3985.76923022, 4070.51282017, 4033.46153798, 4122.56410229, 4147.05128185, 4087.69230735, 4099.10256376, 4095.38461504, 4127.43589716, 4180.12820499, 4071.41025607, 4039.48717907, 4149.48717928,12.0
4113.33333306, 3994.74358919, 4075.64102530, 4040.64102523, 4124.23076896, 4176.02564089, 4100.38461504, 4098.46153812, 4098.20512786, 4132.56410229, 4184.74358961, 4083.07692273, 4047.82051241, 4150.12820492,12.0
4110.38461511, 4004.48717900, 4091.02564068, 4042.94871754, 4125.89743562, 4182.82051269, 4119.48717921, 4105.51282024, 4102.05128171, 4131.79487152, 4185.89743576, 4103.07692280, 4054.87179446, 4147.82051262,12.0
4112.82051255, 4017.30769183, 4104.61538434, 4061.92307651, 4124.35897408, 4193.84615371, 4137.17948697, 4124.61538434, 4118.46153819, 4131.79487152, 4197.56410243, 4126.53846126, 4062.82051241, 4148.20512800,12.0
4115.51282024, 3995.25640970, 4089.99999966, 4067.05128164, 4123.46153819, 4188.97435884, 4118.97435870, 4114.23076896, 4115.89743562, 4137.43589723, 4191.41025628, 4109.35897408, 4056.28205087, 4149.74358954,12.0
4110.89743562, 3966.53846092, 4067.82051241, 4041.41025600, 4122.30769203, 4162.82051262, 4090.64102530, 4085.25640991, 4092.43589709, 4133.84615357, 4173.71794858, 4076.02564068, 4033.97435849, 4145.64102544,12.0
4112.17948691, 3978.97435842, 4074.23076889, 4042.05128164, 4124.87179460, 4164.87179467, 4106.92307665, 4097.05128171, 4103.84615357, 4123.33333306, 4182.69230756, 4082.56410222, 4036.79487131, 4144.99999980,12.0
4115.89743562, 3979.99999945, 4074.35897402, 4046.79487138, 4124.23076896, 4172.05128192, 4116.41025614, 4110.38461511, 4113.58974332, 4127.43589716, 4191.53846140, 4086.28205094, 4047.69230728, 4146.92307672,12.0
4111.41025614, 3969.23076861, 4067.17948677, 4034.74358926, 4120.64102537, 4163.97435877, 4102.43589709, 4101.41025607, 4097.69230735, 4132.30769203, 4180.76923063, 4084.35897402, 4047.43589702, 4146.92307672,12.0
4108.71794844, 4007.82051234, 4092.82051248, 4063.20512779, 4123.07692280, 4175.64102551, 4124.48717921, 4120.51282024, 4118.33333306, 4126.15384588, 4192.30769217, 4121.66666639, 4063.97435856, 4148.97435877,12.0
4112.43589716, 4019.23076875, 4098.97435863, 4077.94871761, 4123.46153819, 4167.56410236, 4125.38461511, 4119.74358947, 4132.30769203, 4125.89743562, 4201.92307686, 4128.97435870, 4065.38461497, 4147.56410236,12.0
4115.64102537, 3957.56410194, 4061.92307651, 4021.28205080, 4123.33333306, 4116.28205101, 4061.79487138, 4064.48717907, 4080.51282017, 4129.87179460, 4178.20512807, 4072.69230735, 4034.35897388, 4146.53846133,12.0
4112.69230742, 3958.58974297, 4064.35897395, 4019.23076875, 4122.82051255, 4116.92307665, 4057.05128164, 4066.28205087, 4073.20512786, 4129.10256383, 4182.94871781, 4078.46153812, 4037.17948677, 4147.56410236,12.0
4110.51282024, 4005.64102516, 4093.58974325, 4066.66666625, 4121.79487152, 4152.30769210, 4111.28205101, 4113.84615357, 4122.94871767, 4128.71794844, 4208.97435891, 4125.38461511, 4062.05128164, 4145.76923056,12.0
4113.71794844, 3973.46153791, 4071.28205094, 4040.38461497, 4124.87179460, 4129.10256383, 4094.61538427, 4094.35897402, 4107.05128178, 4128.20512793, 4192.94871781, 4089.48717914, 4045.76923036, 4148.46153826,12.0
4112.56410229, 3959.61538399, 4062.17948677, 4022.05128157, 4123.07692280, 4114.99999973, 4082.17948684, 4087.05128171, 4082.94871761, 4128.71794844, 4176.66666653, 4073.20512786, 4037.94871754, 4148.84615364,12.0
4112.05128178, 4030.76923029, 4112.05128178, 4079.74358940, 4122.94871767, 4159.99999980, 4153.46153826, 4158.33333313, 4144.61538441, 4134.74358947, 4204.99999993, 4152.17948697, 4074.35897402, 4144.61538441,12.0
4113.84615357, 4032.94871747, 4114.87179460, 4094.35897402, 4127.69230742, 4157.82051262, 4155.64102544, 4162.43589723, 4169.23076910, 4136.92307672, 4211.15384609, 4163.84615364, 4076.02564068, 4144.74358954,12.0
4114.61538434, 3943.97435835, 4053.33333292, 4029.35897388, 4125.89743562, 4084.87179453, 4053.71794830, 4062.69230728, 4083.46153812, 4128.84615357, 4169.74358961, 4065.64102523, 4029.61538413, 4148.20512800,12.0
4113.84615357, 3935.25640957, 4047.17948677, 4016.28205080, 4123.84615357, 4070.64102530, 4039.48717907, 4043.84615343, 4053.46153805, 4127.05128178, 4171.79487166, 4051.53846113, 4023.07692259, 4151.02564082,12.0
4111.28205101, 4000.76923022, 4094.87179453, 4071.15384581, 4124.10256383, 4123.58974332, 4113.97435870, 4116.41025614, 4122.05128178, 4129.87179460, 4208.71794865, 4133.20512793, 4044.87179446, 4147.82051262,12.0
4109.99999973, 3995.12820458, 4092.94871761, 4072.69230735, 4125.12820485, 4122.69230742, 4104.23076896, 4112.56410229, 4125.76923050, 4127.05128178, 4194.87179474, 4133.84615357, 4021.41025593, 4145.64102544,12.0
4110.64102537, 3965.38461476, 4067.30769189, 4041.15384574, 4123.97435870, 4083.33333299, 4060.51282010, 4070.89743555, 4077.56410222, 4127.05128178, 4216.15384609, 4090.38461504, 3990.25640970, 4147.56410236,12.0
4112.94871767, 4002.69230714, 4090.12820478, 4069.23076882, 4119.87179460, 4098.97435863, 4098.71794837, 4098.46153812, 4097.05128171, 4130.25640998, 4317.69230784, 4127.69230742, 3995.76923022, 4147.43589723,12.0
4114.74358947, 4025.51282003, 4112.30769203, 4093.84615350, 4122.69230742, 4129.23076896, 4130.51282024, 4120.12820485, 4126.79487152, 4131.28205101, 4325.25641040, 4163.20512800, 4003.46153791, 4149.10256390,12.0
4112.94871767, 3978.46153791, 4078.33333299, 4048.33333292, 4126.41025614, 4097.05128171, 4088.97435863, 4079.99999966, 4091.53846119, 4129.48717921, 4222.56410250, 4106.02564075, 3981.41025586, 4147.05128185,12.0
4113.46153819, 3944.99999938, 4048.46153805, 4021.28205080, 4125.12820485, 4064.87179446, 4071.92307658, 4064.87179446, 4070.64102530, 4133.33333306, 4198.07692294, 4058.07692266, 3956.28205066, 4146.15384595,12.0
4115.25640998, 3967.05128143, 4070.38461504, 4055.51282010, 4123.07692280, 4100.25640991, 4120.25640998, 4114.48717921, 4110.76923050, 4135.76923056, 4216.15384609, 4090.89743555, 3964.10256348, 4150.64102544,12.0
4113.58974332, 3990.12820458, 4086.92307658, 4071.66666632, 4120.25640998, 4126.79487152, 4135.89743569, 4135.12820485, 4130.64102537, 4132.30769203, 4207.43589737, 4118.71794844, 3977.69230714, 4149.48717928,12.0
4114.74358947, 3992.82051227, 4079.48717914, 4058.71794830, 4122.43589716, 4102.94871767, 4104.61538434, 4103.33333306, 4107.30769203, 4133.84615357, 4301.02564117, 4108.46153819, 3970.76923015, 4150.38461518,12.0
4114.99999973, 3974.23076868, 4073.97435863, 4051.41025600, 4123.20512793, 4083.84615350, 4088.20512786, 4080.25640991, 4092.94871761, 4133.97435870, 4449.87179529, 4096.66666632, 3961.92307630, 4151.15384595,12.0
4113.07692280, 3951.53846092, 4066.15384574, 4046.41025600, 4121.15384588, 4083.97435863, 4083.33333299, 4073.58974325, 4091.28205094, 4132.94871767, 4488.33333382, 4083.84615350, 3962.43589681, 4146.15384595,12.0
4113.71794844, 3965.25640963, 4063.97435856, 4051.66666625, 4123.46153819, 4095.89743555, 4088.58974325, 4084.48717914, 4092.69230735, 4133.97435870, 4461.28205170, 4081.28205094, 3964.35897374, 4145.76923056,12.0
4115.51282024, 3982.30769176, 4070.25640991, 4064.35897395, 4124.35897408, 4105.89743562, 4099.99999966, 4096.53846119, 4096.28205094, 4132.82051255, 4466.66666716, 4091.66666632, 3963.33333271, 4148.58974339,12.0
4117.94871767, 3978.07692252, 4074.74358940, 4061.41025600, 4124.99999973, 4095.51282017, 4100.89743555, 4094.35897402, 4101.41025607, 4133.07692280, 4472.43589793, 4097.43589709, 3968.33333271, 4150.64102544,12.0
4117.17948691, 3980.51281996, 4077.56410222, 4052.94871754, 4122.94871767, 4089.35897402, 4101.15384581, 4095.51282017, 4111.28205101, 4133.07692280, 4459.23076965, 4102.30769196, 3979.61538406, 4149.74358954,12.0
4115.38461511, 3991.02564047, 4082.17948684, 4064.61538420, 4119.74358947, 4099.48717914, 4109.10256383, 4104.61538434, 4115.51282024, 4134.61538434, 4457.94871837, 4115.25640998, 3977.94871740, 4147.94871774,12.0
4115.76923050, 3978.71794817, 4078.97435863, 4070.89743555, 4123.07692280, 4092.43589709, 4104.35897408, 4103.84615357, 4106.28205101, 4136.66666646, 4459.74359016, 4110.89743562, 3956.53846092, 4148.20512800,12.0
4115.25640998, 3955.25640963, 4066.79487138, 4050.51282010, 4123.46153819, 4074.35897402, 4089.87179453, 4088.84615350, 4097.30769196, 4135.12820485, 4455.38461581, 4089.87179453, 3951.53846092, 4146.79487159,12.0
4116.28205101, 3963.97435835, 4063.33333292, 4046.28205087, 4123.07692280, 4077.05128171, 4095.12820478, 4088.71794837, 4099.74358940, 4132.05128178, 4437.30769273, 4087.56410222, 3967.82051220, 4148.58974339,12.0
4115.64102537, 3976.79487124, 4061.53846113, 4050.89743548, 4122.82051255, 4085.38461504, 4105.25640998, 4095.38461504, 4098.33333299, 4133.33333306, 4419.74359009, 4087.17948684, 3960.38461476, 4148.58974339,12.0
4115.64102537, 3968.07692246, 4061.92307651, 4046.53846113, 4119.74358947, 4092.17948684, 4108.07692280, 4090.38461504, 4095.12820478, 4132.43589716, 4423.20512856, 4084.61538427, 3949.74358912, 4144.87179467,12.0
4118.20512793, 3962.94871733, 4066.02564061, 4051.15384574, 4122.94871767, 4097.56410222, 4110.64102537, 4088.58974325, 4102.69230742, 4127.82051255, 4428.33333368, 4089.99999966, 3957.43589681, 4147.69230749,12.0
4116.02564075, 3961.53846092, 4054.99999959, 4048.07692266, 4123.71794844, 4079.23076889, 4098.84615350, 4083.58974325, 4102.05128171, 4131.79487152, 4403.46153881, 4080.38461504, 3959.99999938, 4145.12820492,12.0
4115.25640998, 3960.12820451, 4048.71794830, 4038.58974318, 4121.66666639, 4060.25640984, 4088.20512786, 4079.35897402, 4101.02564068, 4136.15384595, 4395.38461567, 4071.02564068, 3960.38461476, 4140.51282031,12.0
4117.05128178, 3980.64102509, 4068.84615343, 4059.99999959, 4124.35897408, 4083.97435863, 4110.51282024, 4108.71794844, 4130.89743562, 4129.87179460, 4441.02564145, 4096.66666632, 3961.28205066, 4146.92307672,12.0
4120.25640998, 3996.41025586, 4080.25640991, 4087.43589709, 4122.82051255, 4105.51282024, 4131.53846126, 4137.05128185, 4162.30769210, 4129.23076896, 4406.02564138, 4120.12820485, 3960.89743528, 4150.25641005,12.0
4122.94871767, 3974.99999945, 4062.43589702, 4062.56410215, 4121.02564075, 4080.12820478, 4107.43589716, 4112.43589716, 4135.76923056, 4137.82051262, 4399.61538497, 4095.64102530, 3962.30769169, 4145.64102544,12.0
4121.02564075, 3972.30769176, 4053.46153805, 4042.17948677, 4124.48717921, 4064.23076882, 4091.15384581, 4092.69230735, 4098.58974325, 4138.33333313, 4612.30769308, 4079.61538427, 3964.99999938, 4142.82051262,12.0
4119.87179460, 3997.30769176, 4070.89743555, 4077.56410222, 4126.41025614, 4092.43589709, 4123.33333306, 4117.30769203, 4127.94871767, 4127.30769203, 4750.38461643, 4107.30769203, 3960.89743528, 4147.94871774,12.0
4120.76923050, 3972.43589688, 4066.79487138, 4076.28205094, 4122.69230742, 4091.15384581, 4119.61538434, 4112.30769203, 4143.71794851, 4125.38461511, 4595.12820590, 4100.89743555, 3961.28205066, 4151.41025621,12.0
4122.56410229, 3946.53846092, 4046.15384574, 4041.66666625, 4119.99999973, 4060.64102523, 4088.97435863, 4088.33333299, 4116.15384588, 4132.94871767, 4454.23076965, 4069.74358940, 3961.66666605, 4148.58974339,12.0
4123.46153819, 3971.92307637, 4052.30769189, 4055.12820472, 4124.87179460, 4074.48717914, 4111.28205101, 4107.17948691, 4126.41025614, 4128.46153819, 4497.82051338, 4083.07692273, 3949.10256348, 4148.84615364,12.0
4119.48717921, 3973.71794817, 4055.64102523, 4065.12820472, 4123.84615357, 4090.25640991, 4119.99999973, 4112.69230742, 4131.41025614, 4123.84615357, 4496.53846210, 4091.41025607, 3950.76923015, 4147.05128185,12.0
4117.05128178, 3941.66666605, 4036.28205080, 4030.38461490, 4119.99999973, 4059.61538420, 4072.82051248, 4070.38461504, 4093.33333299, 4131.92307665, 4408.33333368, 4058.33333292, 3959.10256348, 4143.71794851,12.0
4117.94871767, 3937.82051213, 4033.97435849, 4027.05128157, 4122.30769203, 4047.43589702, 4067.43589702, 4056.02564061, 4088.71794837, 4138.33333313, 4344.10256431, 4051.79487138, 3947.17948656, 4145.64102544,12.0
4115.51282024, 3959.23076861, 4044.74358933, 4055.64102523, 4122.05128178, 4069.35897395, 4097.94871761, 4076.15384581, 4111.41025614, 4132.17948691, 4273.20512828, 4071.53846119, 3933.46153777, 4146.53846133,12.0
4117.05128178, 3998.33333278, 4059.23076882, 4078.46153812, 4123.84615357, 4095.51282017, 4112.17948691, 4099.74358940, 4121.92307665, 4126.02564075, 4211.79487173, 4093.33333299, 3957.94871733, 4148.33333313,12.0
4119.99999973, 4003.71794817, 4070.25640991, 4084.35897402, 4125.12820485, 4103.58974332, 4122.05128178, 4117.05128178, 4129.87179460, 4130.25640998, 4183.71794858, 4113.71794844, 3996.02564047, 4147.94871774,12.0
4118.58974332, 3939.74358912, 4043.84615343, 4042.17948677, 4120.89743562, 4067.05128164, 4095.25640991, 4083.71794837, 4107.69230742, 4130.64102537, 4179.10256397, 4075.51282017, 3990.12820458, 4147.17948697,12.0
4117.43589716, 3903.97435821, 4011.15384567, 4009.10256362, 4121.79487152, 4036.41025593, 4056.15384574, 4040.89743548, 4082.56410222, 4129.48717921, 4175.76923063, 4018.58974311, 3962.82051220, 4151.79487159,12.0
4117.30769203, 3945.64102502, 4027.94871747, 4043.84615343, 4121.92307665, 4068.07692266, 4078.58974325, 4068.71794830, 4112.43589716, 4130.12820485, 4180.51282038, 4041.92307651, 3963.46153784, 4148.20512800,12.0
4118.84615357, 3954.74358912, 4042.56410215, 4056.53846113, 4122.17948691, 4085.12820478, 4098.33333299, 4091.66666632, 4126.92307665, 4127.82051255, 4184.48717935, 4064.23076882, 3975.76923022, 4142.69230749,12.0
4117.43589716, 3925.25640957, 4023.71794824, 4023.97435849, 4125.25640998, 4055.89743548, 4076.02564068, 4065.38461497, 4093.58974325, 4128.33333306, 4180.76923063, 4029.87179439, 3982.30769176, 4147.56410236,12.0
4116.53846126, 3932.43589674, 4019.10256362, 4020.12820465, 4124.10256383, 4048.58974318, 4071.79487145, 4062.94871754, 4083.33333299, 4130.25640998, 4197.30769217, 4022.82051234, 3993.33333278, 4149.74358954,12.0
4120.12820485, 3946.28205066, 4040.38461497, 4047.69230728, 4122.69230742, 4078.33333299, 4101.92307658, 4100.25640991, 4117.56410229, 4128.46153819, 4208.58974352, 4054.48717907, 3999.10256355, 4147.82051262,12.0
4120.38461511, 3944.10256348, 4051.66666625, 4066.28205087, 4121.15384588, 4094.99999966, 4122.05128178, 4117.30769203, 4145.64102544, 4127.69230742, 4205.12820506, 4066.02564061, 3993.97435842, 4145.38461518,12.0
4118.71794844, 3929.61538392, 4029.99999952, 4041.15384574, 4120.64102537, 4071.53846119, 4099.61538427, 4089.23076889, 4117.43589716, 4134.48717921, 4191.15384602, 4030.25640977, 3989.23076868, 4147.30769210,12.0
4117.94871767, 3909.99999931, 4008.20512772, 4009.10256362, 4122.56410229, 4055.25640984, 4079.99999966, 4072.94871761, 4084.10256376, 4135.89743569, 4174.74358961, 3994.48717894, 3988.33333278, 4148.71794851,12.0
4116.92307665, 3923.46153777, 4021.28205080, 4027.43589695, 4122.69230742, 4078.58974325, 4103.07692280, 4093.20512786, 4101.79487145, 4131.53846126, 4181.53846140, 4012.17948670, 3994.87179432, 4143.46153826,12.0
4117.94871767, 3950.64102502, 4041.66666625, 4050.76923036, 4122.94871767, 4095.38461504, 4127.17948691, 4109.61538434, 4117.17948691, 4132.82051255, 4191.15384602, 4046.28205087, 4007.30769183, 4143.46153826,12.0
4117.43589716, 3953.33333271, 4041.92307651, 4047.17948677, 4121.15384588, 4083.07692273, 4125.64102537, 4107.56410229, 4112.82051255, 4132.94871767, 4177.82051269, 4051.02564061, 4010.89743541, 4146.66666646,12.0
4116.53846126, 3938.84615322, 4032.82051234, 4039.48717907, 4120.76923050, 4066.53846113, 4107.82051255, 4089.10256376, 4112.05128178, 4131.92307665, 4161.79487159, 4033.33333285, 4004.61538413, 4148.20512800,12.0
4118.46153819, 3940.51281989, 4031.66666618, 4045.76923036, 4122.43589716, 4070.64102530, 4096.92307658, 4075.38461504, 4108.71794844, 4131.53846126, 4170.25641012, 4026.02564054, 4005.38461490, 4147.56410236,12.0
4118.20512793, 3954.61538399, 4037.94871754, 4061.66666625, 4120.64102537, 4089.61538427, 4108.58974332, 4088.20512786, 4119.35897408, 4132.05128178, 4186.66666653, 4042.56410215, 4013.33333285, 4143.84615364,12.0
4118.20512793, 3959.99999938, 4041.79487138, 4065.12820472, 4120.76923050, 4093.20512786, 4111.79487152, 4102.17948684, 4139.10256390, 4134.61538434, 4188.20512807, 4053.20512779, 4017.30769183, 4144.35897415,12.0
4120.51282024, 3956.53846092, 4035.38461490, 4054.23076882, 4120.51282024, 4077.56410222, 4086.66666632, 4087.43589709, 4123.71794844, 4134.74358947, 4182.43589730, 4036.66666618, 4006.79487131, 4144.87179467,12.0
4121.41025614, 3953.46153784, 4035.51282003, 4053.58974318, 4121.79487152, 4076.79487145, 4081.66666632, 4074.35897402, 4102.05128171, 4130.25640998, 4187.17948704, 4028.58974311, 3995.64102509, 4147.30769210,12.0
4119.87179460, 3939.48717887, 4035.12820465, 4048.84615343, 4126.15384588, 4077.17948684, 4087.30769196, 4076.41025607, 4100.89743555, 4127.43589716, 4189.10256397, 4028.46153798, 3998.33333278, 4151.79487159,12.0
4119.74358947, 3938.71794810, 4028.46153798, 4040.25640984, 4122.30769203, 4075.51282017, 4078.20512786, 4079.10256376, 4099.87179453, 4131.28205101, 4180.12820499, 4023.46153798, 4003.33333278, 4148.97435877,12.0
4121.15384588, 3991.15384560, 4054.99999959, 4077.30769196, 4120.12820485, 4114.10256383, 4111.28205101, 4110.12820485, 4127.82051255, 4133.58974332, 4190.12820499, 4062.56410215, 4011.79487131, 4144.23076903,12.0
4120.12820485, 4018.71794824, 4080.51282017, 4104.10256383, 4122.82051255, 4137.30769210, 4147.43589723, 4135.12820485, 4149.35897415, 4131.15384588, 4188.97435884, 4100.89743555, 4019.74358926, 4144.99999980,12.0
4121.02564075, 3976.66666611, 4058.33333292, 4066.92307651, 4122.94871767, 4096.02564068, 4116.92307665, 4102.05128171, 4117.82051255, 4131.53846126, 4168.46153833, 4068.58974318, 4007.30769183, 4148.58974339,12.0
4121.28205101, 3953.33333271, 4037.69230728, 4043.97435856, 4122.43589716, 4068.58974318, 4084.35897402, 4073.20512786, 4100.12820478, 4134.35897408, 4179.35897422, 4032.69230721, 3992.17948663, 4149.87179467,12.0
4117.94871767, 3967.94871733, 4041.92307651, 4055.76923036, 4121.41025614, 4087.56410222, 4086.28205094, 4078.97435863, 4110.64102537, 4132.43589716, 4159.10256390, 4041.53846113, 3993.97435842, 4146.02564082,12.0
4120.38461511, 3982.69230714, 4052.94871754, 4066.92307651, 4124.87179460, 4106.15384588, 4092.17948684, 4084.23076889, 4118.84615357, 4132.69230742, 4155.12820492, 4064.48717907, 3996.66666611, 4147.17948697,12.0
4124.23076896, 4003.20512765, 4070.38461504, 4085.38461504, 4125.89743562, 4109.61538434, 4100.51282017, 4095.38461504, 4143.71794851, 4136.92307672, 4387.30769259, 4088.84615350, 3990.89743535, 4148.71794851,12.0
4121.15384588, 4012.94871747, 4076.15384581, 4097.05128171, 4120.38461511, 4103.71794844, 4107.17948691, 4105.25640998, 4161.15384595, 4131.53846126, 4697.94871893, 4096.15384581, 3987.94871740, 4144.74358954,12.0
4118.20512793, 4000.51281996, 4061.41025600, 4078.33333299, 4121.66666639, 4095.76923043, 4101.02564068, 4089.87179453, 4132.30769203, 4125.76923050, 4701.41025739, 4075.64102530, 3982.69230714, 4145.76923056,12.0
4118.97435870, 3984.61538406, 4045.89743548, 4055.38461497, 4122.56410229, 4089.48717914, 4090.64102530, 4062.30769189, 4095.25640991, 4128.97435870, 4518.58974415, 4049.35897395, 3961.28205066, 4146.53846133,12.0
4121.66666639, 3975.76923022, 4045.51282010, 4060.25640984, 4121.79487152, 4089.23076889, 4100.12820478, 4066.79487138, 4101.41025607, 4127.56410229, 4468.84615434, 4044.48717907, 3953.20512758, 4145.89743569,12.0
4122.30769203, 3987.69230714, 4057.56410215, 4079.35897402, 4122.05128178, 4104.74358947, 4130.38461511, 4104.35897408, 4140.12820492, 4123.07692280, 4495.38461587, 4064.35897395, 3968.20512758, 4146.92307672,12.0
4121.02564075, 3999.99999945, 4058.71794830, 4079.74358940, 4120.64102537, 4107.43589716, 4130.51282024, 4113.97435870, 4151.15384595, 4125.64102537, 4477.82051331, 4066.15384574, 3967.69230707, 4145.25641005,12.0
4121.15384588, 4004.23076875, 4054.74358933, 4079.35897402, 4124.23076896, 4104.10256383, 4116.02564075, 4111.79487152, 4143.20512800, 4131.15384588, 4467.05128254, 4055.38461497, 3955.25640963, 4146.92307672,12.0
4121.41025614, 4009.23076875, 4058.84615343, 4084.10256376, 4124.48717921, 4104.99999973, 4118.46153819, 4121.28205101, 4148.58974339, 4133.20512793, 4472.69230818, 4061.02564061, 3957.30769169, 4147.30769210,12.0
4122.56410229, 3989.61538406, 4051.15384574, 4064.74358933, 4121.28205101, 4079.99999966, 4100.12820478, 4106.02564075, 4135.89743569, 4132.56410229, 4454.23076965, 4048.84615343, 3957.30769169, 4147.05128185,12.0
4122.82051255, 3964.61538399, 4032.94871747, 4045.38461497, 4123.84615357, 4058.97435856, 4072.30769196, 4082.05128171, 4110.38461511, 4132.30769203, 4436.53846196, 4020.25640977, 3943.07692246, 4150.51282031,12.0
4120.89743562, 3997.17948663, 4046.66666625, 4072.30769196, 4123.33333306, 4086.53846119, 4093.84615350, 4096.41025607, 4135.64102544, 4133.07692280, 4442.82051324, 4044.10256369, 3948.58974297, 4148.71794851,12.0
4123.07692280, 4035.38461490, 4068.46153805, 4096.15384581, 4121.02564075, 4112.17948691, 4123.97435870, 4116.66666639, 4167.43589723, 4127.30769203, 4447.69230811, 4082.05128171, 3964.61538399, 4144.87179467,12.0
4124.10256383, 4007.30769183, 4051.92307651, 4076.02564068, 4121.41025614, 4097.94871761, 4108.20512793, 4101.79487145, 4134.74358947, 4122.82051255, 4429.74359009, 4059.10256369, 3955.64102502, 4144.74358954,12.0
4122.82051255, 3996.28205073, 4046.79487138, 4072.43589709, 4124.10256383, 4099.61538427, 4109.10256383, 4101.15384581, 4119.87179460, 4131.53846126, 4412.17948753, 4046.41025600, 3947.94871733, 4147.94871774,12.0
4124.23076896, 4027.56410208, 4062.56410215, 4084.87179453, 4126.41025614, 4111.02564075, 4134.23076896, 4115.51282024, 4150.38461518, 4134.61538434, 4412.94871830, 4066.28205087, 3950.89743528, 4149.74358954,12.0
4124.87179460, 4017.43589695, 4051.53846113, 4078.46153812, 4122.17948691, 4096.79487145, 4123.20512793, 4100.38461504, 4141.41025621, 4127.94871767, 4410.25641061, 4056.02564061, 3937.69230700, 4145.64102544,12.0
4123.58974332, 3989.10256355, 4037.94871754, 4069.23076882, 4123.46153819, 4086.28205094, 4098.84615350, 4089.23076889, 4115.89743562, 4132.82051255, 4404.87179522, 4036.41025593, 3922.17948649, 4148.20512800,12.0
4122.43589716, 4008.84615336, 4051.28205087, 4071.28205094, 4128.33333306, 4101.66666632, 4109.23076896, 4115.38461511, 4138.46153826, 4139.35897415, 4403.58974394, 4048.97435856, 3931.79487110, 4152.05128185,12.0
4122.69230742, 4043.33333292, 4068.46153805, 4093.97435863, 4123.46153819, 4130.76923050, 4137.69230749, 4142.69230749, 4180.12820499, 4130.64102537, 4411.53846189, 4080.38461504, 3951.15384553, 4149.23076903,12.0
4122.43589716, 4037.56410215, 4068.46153805, 4107.82051255, 4120.12820485, 4128.71794844, 4135.76923056, 4131.28205101, 4180.25641012, 4121.02564075, 4413.46153881, 4088.46153812, 3950.64102502, 4149.10256390,12.0
4120.64102537, 4026.02564054, 4059.10256369, 4088.07692273, 4121.41025614, 4098.20512786, 4113.20512793, 4110.51282024, 4152.43589723, 4127.05128178, 4388.33333362, 4072.69230735, 3938.33333264, 4149.74358954,12.0
4122.05128178, 4025.51282003, 4052.30769189, 4065.51282010, 4123.46153819, 4086.15384581, 4097.94871761, 4100.25640991, 4136.92307672, 4139.48717928, 4381.79487208, 4056.28205087, 3932.30769162, 4149.48717928,12.0
4122.30769203, 4018.84615336, 4050.25640984, 4073.20512786, 4122.43589716, 4099.74358940, 4097.17948684, 4093.33333299, 4139.74358954, 4138.46153826, 4426.41025676, 4048.97435856, 3929.10256341, 4149.23076903,12.0
4120.51282024, 4012.94871747, 4042.94871754, 4078.20512786, 4120.89743562, 4099.48717914, 4096.66666632, 4083.20512786, 4134.35897408, 4131.53846126, 4461.53846196, 4040.76923036, 3918.20512751, 4146.66666646,12.0
4123.58974332, 4019.87179439, 4041.79487138, 4068.58974318, 4122.69230742, 4095.12820478, 4102.82051255, 4086.53846119, 4127.56410229, 4136.02564082, 4460.00000042, 4037.94871754, 3916.53846085, 4147.30769210,12.0
4125.51282024, 4034.87179439, 4055.12820472, 4076.66666632, 4121.53846126, 4114.10256383, 4125.25640998, 4109.10256383, 4144.10256390, 4138.97435877, 4470.25641075, 4056.41025600, 3930.76923008, 4147.05128185,12.0
4125.51282024, 4042.69230728, 4060.89743548, 4089.23076889, 4121.79487152, 4118.46153819, 4128.84615357, 4116.79487152, 4157.94871774, 4127.43589716, 4480.12820562, 4068.58974318, 3938.84615322, 4145.38461518,12.0
4124.48717921, 4047.82051241, 4058.97435856, 4098.58974325, 4122.30769203, 4110.64102537, 4120.89743562, 4117.69230742, 4163.58974339, 4121.28205101, 4474.61538511, 4070.76923043, 3937.69230700, 4146.41025621,12.0
4122.56410229, 4053.46153805, 4065.51282010, 4108.58974332, 4121.28205101, 4115.76923050, 4125.38461511, 4129.61538434, 4170.51282038, 4131.53846126, 4475.64102613, 4079.74358940, 3940.76923015, 4147.17948697,12.0
4125.38461511, 4047.05128164, 4067.69230728, 4103.97435870, 4125.25640998, 4111.92307665, 4117.82051255, 4127.05128178, 4157.05128185, 4136.53846133, 4460.51282093, 4078.71794837, 3946.66666605, 4147.94871774,12.0
4126.79487152, 4034.99999952, 4054.61538420, 4082.56410222, 4121.41025614, 4100.89743555, 4098.71794837, 4107.69230742, 4138.97435877, 4127.94871767, 4435.12820555, 4060.12820472, 3942.69230707, 4146.28205108,12.0
4124.87179460, 4023.33333285, 4039.48717907, 4057.05128164, 4116.41025614, 4093.33333299, 4091.53846119, 4089.10256376, 4130.76923050, 4124.61538434, 4426.53846189, 4036.15384567, 3934.99999931, 4148.46153826,12.0
4122.43589716, 4019.99999952, 4036.15384567, 4049.61538420, 4122.05128178, 4090.76923043, 4097.56410222, 4084.10256376, 4122.17948691, 4132.43589716, 4405.76923112, 4027.56410208, 3932.94871726, 4150.38461518,12.0
4123.46153819, 4041.53846113, 4048.97435856, 4078.07692273, 4124.48717921, 4112.56410229, 4120.38461511, 4104.35897408, 4139.48717928, 4134.35897408, 4390.12820541, 4052.82051241, 3939.74358912, 4145.64102544,12.0
4125.12820485, 4067.17948677, 4065.76923036, 4107.43589716, 4123.33333306, 4136.02564082, 4145.12820492, 4129.87179460, 4172.17948704, 4127.94871767, 4405.00000035, 4078.46153812, 3943.07692246, 4145.64102544,12.0
4121.28205101, 4058.71794830, 4063.20512779, 4102.30769196, 4123.20512793, 4121.53846126, 4130.51282024, 4124.10256383, 4165.51282031, 4127.69230742, 4389.61538490, 4068.07692266, 3940.51281989, 4145.76923056,12.0
4122.82051255, 4047.17948677, 4056.41025600, 4089.48717914, 4124.61538434, 4105.25640998, 4112.43589716, 4108.84615357, 4142.17948697, 4133.20512793, 4396.92307720, 4058.71794830, 3951.28205066, 4144.99999980,12.0
4127.56410229, 4066.41025600, 4069.35897395, 4093.33333299, 4124.99999973, 4119.99999973, 4134.23076896, 4120.38461511, 4152.17948697, 4137.05128185, 4464.10256459, 4075.38461504, 3960.25640963, 4146.92307672,12.0
4127.17948691, 4085.76923043, 4078.71794837, 4105.51282024, 4122.17948691, 4127.82051255, 4145.89743569, 4138.46153826, 4175.51282038, 4134.10256383, 4449.87179529, 4089.61538427, 3949.99999938, 4145.25641005,12.0
4124.48717921, 4074.99999966, 4070.64102530, 4109.74358947, 4125.38461511, 4118.07692280, 4124.61538434, 4134.74358947, 4180.25641012, 4129.99999973, 4340.76923098, 4086.02564068, 3946.66666605, 4147.17948697,12.0
4121.92307665, 4069.48717907, 4067.69230728, 4106.79487152, 4125.89743562, 4124.61538434, 4121.79487152, 4127.56410229, 4173.97435884, 4132.30769203, 4286.53846161, 4085.25640991, 3960.38461476, 4151.92307672,12.0
4122.43589716, 4081.28205094, 4074.23076889, 4098.46153812, 4121.79487152, 4127.69230742, 4135.89743569, 4125.89743562, 4164.35897415, 4129.61538434, 4286.28205136, 4090.64102530, 3961.28205066, 4149.87179467,12.0
4122.94871767, 4075.12820478, 4074.87179453, 4097.69230735, 4123.97435870, 4122.56410229, 4131.66666639, 4128.58974332, 4165.89743569, 4125.64102537, 4267.82051289, 4089.23076889, 3952.05128143, 4147.30769210,12.0
4120.25640998, 4067.43589702, 4074.48717914, 4111.28205101, 4123.07692280, 4134.23076896, 4126.53846126, 4133.97435870, 4178.58974345, 4129.35897408, 4256.92307693, 4089.61538427, 3962.43589681, 4145.89743569,12.0
4121.92307665, 4079.48717914, 4072.43589709, 4104.35897408, 4120.25640998, 4142.17948697, 4126.66666639, 4126.15384588, 4167.05128185, 4128.58974332, 4252.82051282, 4084.99999966, 3969.48717887, 4147.82051262,12.0
4125.76923050, 4071.02564068, 4057.05128164, 4076.53846119, 4121.02564075, 4130.89743562, 4113.07692280, 4108.71794844, 4143.33333313, 4125.64102537, 4243.84615385, 4063.58974318, 3951.92307630, 4149.74358954,12.0
4127.69230742, 4048.46153805, 4049.74358933, 4075.12820478, 4123.07692280, 4126.02564075, 4109.74358947, 4099.35897402, 4140.25641005, 4127.56410229, 4238.71794872, 4049.61538420, 3940.25640963, 4149.35897415,12.0
4130.38461511, 4046.53846113, 4057.30769189, 4084.87179453, 4124.61538434, 4128.97435870, 4119.48717921, 4103.33333306, 4142.94871774, 4128.97435870, 4222.56410250, 4055.38461497, 3965.12820451, 4150.51282031,12.0
4126.41025614, 4055.89743548, 4058.58974318, 4069.23076882, 4121.53846126, 4126.53846126, 4119.87179460, 4112.43589716, 4140.38461518, 4127.82051255, 4212.82051275, 4062.43589702, 3979.87179432, 4148.58974339,12.0
4122.17948691, 4057.56410215, 4057.82051241, 4066.66666625, 4122.17948691, 4128.97435870, 4114.61538434, 4118.84615357, 4150.89743569, 4128.07692280, 4217.17948711, 4066.53846113, 3965.76923015, 4149.74358954,12.0
4123.46153819, 4050.64102523, 4062.30769189, 4084.61538427, 4125.25640998, 4129.48717921, 4111.66666639, 4120.12820485, 4163.07692287, 4131.02564075, 4218.46153840, 4069.10256369, 3971.02564040, 4149.61538441,12.0
4124.87179460, 4061.79487138, 4075.12820478, 4097.30769196, 4119.99999973, 4137.30769210, 4126.28205101, 4128.46153819, 4166.79487159, 4129.35897408, 4225.25641019, 4083.71794837, 3990.89743535, 4144.35897415,12.0
4125.51282024, 4093.58974325, 4088.97435863, 4109.10256383, 4117.30769203, 4154.74358954, 4149.48717928, 4143.20512800, 4176.92307679, 4127.43589716, 4237.82051282, 4101.53846119, 4000.12820458, 4146.28205108,12.0
4122.82051255, 4089.48717914, 4083.33333299, 4112.94871767, 4120.51282024, 4147.82051262, 4144.10256390, 4136.66666646, 4174.99999986, 4128.07692280, 4237.05128206, 4093.84615350, 4005.64102516, 4148.20512800,12.0
4122.94871767, 4051.66666625, 4067.43589702, 4097.30769196, 4123.71794844, 4127.30769203, 4118.97435870, 4113.20512793, 4153.07692287, 4127.17948691, 4232.82051275, 4071.15384581, 4005.51282003, 4147.17948697,12.0
4126.41025614, 4047.17948677, 4065.25640984, 4086.79487145, 4123.46153819, 4126.02564075, 4115.25640998, 4105.38461511, 4139.99999980, 4125.89743562, 4225.76923070, 4065.76923036, 4008.20512772, 4147.30769210,12.0
4125.25640998, 4064.74358933, 4066.79487138, 4090.12820478, 4121.28205101, 4129.74358947, 4119.48717921, 4101.15384581, 4137.05128185, 4129.61538434, 4209.74358968, 4070.89743555, 4035.25640977, 4145.38461518,12.0
4124.23076896, 4066.02564061, 4064.23076882, 4089.35897402, 4123.58974332, 4129.74358947, 4114.10256383, 4096.41025607, 4133.33333306, 4136.41025621, 4212.17948711, 4070.25640991, 4043.71794830, 4146.28205108,12.0
4124.23076896, 4071.79487145, 4069.87179453, 4096.41025607, 4121.79487152, 4139.35897415, 4115.51282024, 4107.43589716, 4142.94871774, 4133.33333306, 4227.43589737, 4074.74358940, 4016.28205080, 4146.92307672,12.0
4125.51282024, 4077.30769196, 4075.38461504, 4109.35897408, 4119.23076896, 4144.48717928, 4118.46153819, 4117.56410229, 4157.30769210, 4131.41025614, 4225.12820506, 4075.64102530, 4016.41025593, 4145.38461518,12.0
4127.94871767, 4076.41025607, 4073.71794837, 4110.38461511, 4122.94871767, 4144.61538441, 4123.97435870, 4121.15384588, 4160.51282031, 4134.23076896, 4213.71794865, 4072.43589709, 4041.41025600, 4146.28205108,12.0
4127.69230742, 4073.84615350, 4073.58974325, 4099.99999966, 4122.56410229, 4149.87179467, 4133.84615357, 4119.87179460, 4159.74358954, 4133.58974332, 4211.92307686, 4077.43589709, 4048.20512779, 4144.35897415,12.0
4127.30769203, 4068.58974318, 4076.53846119, 4093.33333299, 4122.30769203, 4151.15384595, 4135.89743569, 4112.56410229, 4150.76923056, 4133.84615357, 4225.89743583, 4079.99999966, 4045.51282010, 4143.20512800,12.0
4128.71794844, 4079.87179453, 4078.84615350, 4100.51282017, 4124.99999973, 4150.25641005, 4133.46153819, 4115.25640998, 4140.25641005, 4132.69230742, 4232.17948711, 4080.12820478, 4048.71794830, 4145.25641005,12.0
4129.99999973, 4096.79487145, 4083.20512786, 4113.46153819, 4125.89743562, 4149.87179467, 4131.02564075, 4127.30769203, 4154.23076903, 4126.92307665, 4223.46153840, 4086.02564068, 4051.92307651, 4148.46153826,12.0
4127.82051255, 4093.20512786, 4091.92307658, 4116.79487152, 4125.38461511, 4149.35897415, 4133.20512793, 4140.64102544, 4173.20512807, 4123.71794844, 4224.48717942, 4098.33333299, 4058.84615343, 4150.38461518,12.0
4126.41025614, 4092.05128171, 4093.71794837, 4107.17948691, 4123.58974332, 4147.56410236, 4136.02564082, 4142.17948697, 4167.82051262, 4130.38461511, 4231.66666660, 4099.10256376, 4066.15384574, 4148.20512800,12.0
4129.48717921, 4096.53846119, 4088.84615350, 4107.82051255, 4124.99999973, 4146.28205108, 4133.46153819, 4136.92307672, 4167.43589723, 4136.15384595, 4232.05128199, 4093.84615350, 4070.12820478, 4149.23076903,12.0
4128.33333306, 4077.94871761, 4079.23076889, 4106.92307665, 4123.20512793, 4137.94871774, 4128.71794844, 4132.94871767, 4174.99999986, 4131.41025614, 4228.20512814, 4085.76923043, 4062.69230728, 4149.23076903,12.0
4125.25640998, 4057.56410215, 4064.74358933, 4079.48717914, 4120.51282024, 4127.05128178, 4116.15384588, 4115.25640998, 4154.61538441, 4129.35897408, 4214.10256404, 4063.07692266, 4047.94871754, 4145.51282031,12.0
4125.51282024, 4063.33333292, 4057.43589702, 4062.56410215, 4123.84615357, 4133.84615357, 4099.74358940, 4098.97435863, 4131.41025614, 4137.05128185, 4187.43589730, 4045.38461497, 4046.28205087, 4146.02564082,12.0
4123.58974332, 4075.38461504, 4060.25640984, 4076.02564068, 4121.66666639, 4153.33333313, 4097.82051248, 4101.79487145, 4133.58974332, 4134.99999973, 4168.71794858, 4054.10256369, 4050.89743548, 4146.66666646,12.0
4124.74358947, 4069.35897395, 4062.56410215, 4074.74358940, 4120.76923050, 4149.74358954, 4100.38461504, 4105.89743562, 4138.07692287, 4124.48717921, 4155.51282031, 4060.38461497, 4044.99999959, 4148.58974339,12.0
4126.28205101, 4050.89743548, 4058.07692266, 4054.74358933, 4124.61538434, 4121.79487152, 4093.07692273, 4102.17948684, 4139.23076903, 4128.46153819, 4144.99999980, 4044.87179446, 4040.25640984, 4149.87179467,12.0
4126.53846126, 4043.46153805, 4055.38461497, 4055.38461497, 4122.43589716, 4104.10256383, 4089.35897402, 4102.56410229, 4147.05128185, 4134.10256383, 4143.46153826, 4039.74358933, 4045.64102523, 4146.92307672,12.0
4127.56410229, 4053.33333292, 4063.20512779, 4066.41025600, 4122.17948691, 4111.66666639, 4097.94871761, 4111.02564075, 4152.30769210, 4128.71794844, 4154.35897415, 4053.46153805, 4047.82051241, 4146.53846133,12.0
4124.48717921, 4065.89743548, 4064.74358933, 4059.74358933, 4122.05128178, 4117.05128178, 4101.53846119, 4109.35897408, 4143.97435877, 4128.97435870, 4154.10256390, 4055.25640984, 4036.15384567, 4145.64102544,12.0
4124.99999973, 4070.25640991, 4055.38461497, 4055.25640984, 4121.02564075, 4102.69230742, 4100.64102530, 4097.05128171, 4129.74358947, 4131.79487152, 4142.43589723, 4045.38461497, 4031.92307644, 4147.82051262,12.0
4129.61538434, 4057.17948677, 4046.92307651, 4055.38461497, 4122.43589716, 4092.56410222, 4096.15384581, 4088.46153812, 4117.05128178, 4125.25640998, 4198.58974345, 4034.87179439, 4039.87179446, 4150.51282031,12.0
4129.74358947, 4017.30769183, 4034.48717900, 4028.33333285, 4122.56410229, 4077.82051248, 4066.92307651, 4073.07692273, 4093.84615350, 4125.51282024, 4269.48717956, 4005.76923029, 4018.71794824, 4147.30769210,12.0
4127.69230742, 3983.71794817, 4014.74358926, 3991.66666611, 4122.43589716, 4042.82051241, 4028.33333285, 4039.61538420, 4061.53846113, 4134.87179460, 4238.97435898, 3967.69230707, 3982.43589688, 4149.10256390,12.0
4126.28205101, 3986.15384560, 4007.82051234, 3990.12820458, 4120.38461511, 4023.97435849, 4017.17948670, 4022.56410208, 4047.69230728, 4134.10256383, 4186.41025628, 3964.48717887, 3981.41025586, 4151.28205108,12.0
4125.38461511, 4007.17948670, 4023.71794824, 4006.15384567, 4119.99999973, 4035.89743541, 4029.74358926, 4036.28205080, 4059.61538420, 4131.02564075, 4195.89743576, 3992.69230714, 3998.58974304, 4148.84615364,12.0
4124.74358947, 4010.12820465, 4031.02564054, 3998.97435842, 4123.07692280, 4035.12820465, 4027.17948670, 4036.15384567, 4065.25640984, 4135.89743569, 4195.12820499, 4002.17948663, 3992.56410201, 4147.94871774,12.0
4126.53846126, 4001.02564047, 4021.15384567, 3989.99999945, 4122.69230742, 4016.15384567, 4020.38461490, 4020.76923029, 4056.53846113, 4133.07692280, 4176.02564089, 3991.28205073, 3980.38461483, 4145.76923056,12.0
4126.66666639, 4005.12820465, 4019.48717900, 3996.53846099, 4122.69230742, 4018.20512772, 4030.64102516, 4027.94871747, 4054.35897395, 4125.25640998, 4181.53846140, 3987.17948663, 3982.43589688, 4144.74358954,12.0
4123.07692280, 3998.71794817, 4015.25640977, 3989.99999945, 4120.51282024, 4021.92307644, 4023.97435849, 4037.30769189, 4054.23076882, 4128.33333306, 4170.76923063, 3976.15384560, 3973.84615329, 4144.23076903,12.0
4123.97435870, 3983.20512765, 4001.92307637, 3974.61538406, 4119.48717921, 4006.02564054, 4001.53846099, 4019.87179439, 4050.51282010, 4131.41025614, 4154.10256390, 3958.84615322, 3961.66666605, 4144.61538441,12.0
4127.56410229, 3983.97435842, 4003.97435842, 3975.89743535, 4123.84615357, 4000.76923022, 4000.38461483, 4006.53846106, 4044.99999959, 4127.30769203, 4162.30769210, 3962.43589681, 3967.94871733, 4147.69230749,12.0
4125.64102537, 4004.23076875, 4022.56410208, 3993.33333278, 4122.56410229, 4014.35897388, 4018.46153798, 4014.35897388, 4042.17948677, 4128.46153819, 4172.56410243, 3987.82051227, 3980.12820458, 4146.02564082,12.0
4122.17948691, 4025.12820465, 4033.58974311, 4004.48717900, 4122.43589716, 4022.43589695, 4026.15384567, 4028.07692259, 4049.48717907, 4136.15384595, 4161.79487159, 4005.38461490, 3972.69230714, 4147.30769210,12.0
4122.56410229, 4018.20512772, 4027.56410208, 3998.84615329, 4123.20512793, 4012.05128157, 4018.97435849, 4039.35897395, 4055.38461497, 4135.89743569, 4175.38461525, 3998.07692252, 3958.58974297, 4149.48717928,12.0
4127.30769203, 3994.74358919, 4014.10256362, 3989.87179432, 4121.15384588, 3999.35897381, 4004.99999952, 4029.99999952, 4046.15384574, 4128.58974332, 4271.53846161, 3982.17948663, 3963.07692246, 4144.74358954,12.0
4131.41025614, 3991.41025586, 4006.53846106, 3984.61538406, 4123.84615357, 3997.56410201, 3995.12820458, 4007.43589695, 4033.97435849, 4127.69230742, 4366.92307720, 3971.28205073, 3967.30769169, 4144.99999980,12.0
4128.84615357, 4007.17948670, 4006.02564054, 3983.20512765, 4122.82051255, 4000.12820458, 3999.35897381, 4004.87179439, 4033.58974311, 4129.87179460, 4371.79487208, 3966.53846092, 3956.15384553, 4147.69230749,12.0
4126.92307665, 4012.05128157, 4007.43589695, 3982.17948663, 4122.43589716, 3997.17948663, 4007.82051234, 4015.64102516, 4030.89743541, 4127.05128178, 4350.64102585, 3960.89743528, 3952.05128143, 4146.28205108,12.0
4126.66666639, 3996.41025586, 4005.25640977, 3979.87179432, 4123.20512793, 3997.05128150, 4011.28205080, 4012.69230721, 4024.48717900, 4127.43589716, 4367.17948746, 3956.02564040, 3958.71794810, 4143.71794851,12.0
4125.38461511, 3981.02564047, 3998.07692252, 3974.74358919, 4119.99999973, 3996.41025586, 4002.30769176, 3999.74358919, 4023.07692259, 4128.58974332, 4376.92307720, 3955.51281989, 3953.71794810, 4147.30769210,12.0
4127.94871767, 3978.46153791, 3990.89743535, 3963.20512758, 4122.82051255, 3986.53846099, 3987.43589688, 3993.71794817, 4012.94871747, 4127.05128178, 4365.38461567, 3948.84615322, 3944.99999938, 4151.02564082,12.0
4127.69230742, 3988.33333278, 3994.10256355, 3966.41025579, 4123.20512793, 3984.48717894, 3990.76923022, 3999.35897381, 4011.92307644, 4130.38461511, 4378.58974387, 3951.02564040, 3945.89743528, 4146.15384595,12.0
4125.64102537, 3999.99999945, 4008.33333285, 3987.05128150, 4118.58974332, 3988.58974304, 4003.46153791, 4008.46153798, 4035.89743541, 4132.94871767, 4414.87179522, 3970.89743528, 3947.30769169, 4144.99999980,12.0
4126.53846126, 4007.94871747, 4013.71794824, 3988.97435842, 4120.38461511, 3984.48717894, 3993.33333278, 4005.64102516, 4038.20512779, 4127.56410229, 4427.30769266, 3978.20512765, 3953.33333271, 4146.02564082,12.0
4128.84615357, 4022.94871747, 4012.43589695, 3986.28205073, 4124.99999973, 3987.30769176, 3985.51281996, 4003.07692252, 4021.66666618, 4126.15384588, 4425.12820548, 3976.02564047, 3964.35897374, 4144.48717928,12.0
4126.92307665, 4031.02564054, 4021.28205080, 4005.38461490, 4124.74358947, 4004.23076875, 4012.56410208, 4019.61538413, 4035.12820465, 4128.71794844, 4452.43589786, 3989.61538406, 3957.43589681, 4146.66666646,12.0
4121.28205101, 4019.61538413, 4019.10256362, 4002.56410201, 4119.99999973, 4008.20512772, 4019.74358926, 4017.30769183, 4037.69230728, 4128.20512793, 4468.07692357, 3989.87179432, 3940.12820451, 4145.38461518,12.0
4123.46153819, 4001.02564047, 3998.46153791, 3966.41025579, 4120.64102537, 3989.61538406, 3991.02564047, 3984.23076868, 4001.79487124, 4133.46153819, 4445.38461581, 3957.30769169, 3934.87179418, 4143.97435877,12.0
4128.20512793, 4001.15384560, 3998.33333278, 3967.82051220, 4123.33333306, 3990.25640970, 3999.35897381, 3992.30769176, 4006.92307644, 4135.76923056, 4446.66666709, 3954.61538399, 3943.46153784, 4147.82051262,12.0
4127.43589716, 4011.79487131, 4013.71794824, 3997.30769176, 4121.28205101, 4005.89743541, 4023.84615336, 4027.05128157, 4043.46153805, 4126.41025614, 4468.20512870, 3982.56410201, 3953.58974297, 4147.17948697,12.0
4126.92307665, 4018.84615336, 4019.10256362, 4009.35897388, 4122.43589716, 4012.43589695, 4020.38461490, 4029.74358926, 4047.69230728, 4122.94871767, 4464.48717998, 3995.89743535, 3953.58974297, 4145.76923056,12.0
4126.28205101, 4041.92307651, 4029.87179439, 4022.30769183, 4122.30769203, 4019.87179439, 4027.17948670, 4033.07692259, 4052.94871754, 4128.97435870, 4459.10256452, 4012.56410208, 3952.43589681, 4147.17948697,12.0
4127.17948691, 4046.15384574, 4030.89743541, 4018.20512772, 4120.51282024, 4015.51282003, 4024.87179439, 4036.02564054, 4054.61538420, 4129.10256383, 4463.71794921, 4015.89743541, 3954.48717887, 4146.02564082,12.0
4128.71794844, 4021.02564054, 4016.28205080, 3999.74358919, 4122.43589716, 4006.28205080, 4003.97435842, 4025.25640977, 4041.41025600, 4125.64102537, 4462.82051324, 3997.82051227, 3949.35897374, 4144.23076903,12.0
4128.07692280, 4029.23076875, 4022.56410208, 4018.46153798, 4120.76923050, 4020.64102516, 4018.71794824, 4033.20512772, 4051.79487138, 4126.15384588, 4456.41025683, 4006.66666618, 3951.53846092, 4145.38461518,12.0
4127.94871767, 4046.02564061, 4030.51282003, 4021.92307644, 4121.41025614, 4025.25640977, 4035.38461490, 4038.20512779, 4049.74358933, 4127.94871767, 4438.58974401, 4016.79487131, 3962.82051220, 4147.30769210,12.0
4128.71794844, 4017.43589695, 4007.56410208, 3977.30769176, 4124.10256383, 4001.92307637, 4009.87179439, 4010.25640977, 4011.41025593, 4129.99999973, 4414.61538497, 3982.17948663, 3947.17948656, 4144.48717928,12.0
4131.66666639, 4010.89743541, 3998.20512765, 3974.61538406, 4122.05128178, 3996.41025586, 3999.61538406, 3990.12820458, 4008.20512772, 4127.69230742, 4407.56410292, 3968.84615322, 3927.43589674, 4144.35897415,12.0
4131.66666639, 4010.89743541, 3998.20512765, 3974.61538406, 4122.05128178, 3996.41025586, 3999.61538406, 3990.12820458, 4008.20512772, 4127.69230742, 4407.56410292, 3968.84615322, 3927.43589674, 4144.35897415,12.0
4132.30769203, 4050.64102523, 4026.15384567, 4020.89743541, 4121.53846126, 4020.76923029, 4034.61538413, 4017.05128157, 4049.35897395, 4123.46153819, 4418.84615420, 4011.92307644, 3951.79487117, 4149.99999980,12.0
4128.97435870, 4060.76923036, 4042.43589702, 4043.71794830, 4121.53846126, 4039.48717907, 4060.12820472, 4053.58974318, 4073.33333299, 4128.46153819, 4425.25641061, 4038.71794830, 3976.41025586, 4147.17948697,12.0
4131.28205101, 4046.66666625, 4034.74358926, 4033.58974311, 4123.46153819, 4032.94871747, 4047.30769189, 4063.33333292, 4075.76923043, 4135.76923056, 4416.79487215, 4022.82051234, 3962.94871733, 4145.76923056,12.0
4131.66666639, 4038.20512779, 4027.56410208, 4017.56410208, 4122.43589716, 4016.41025593, 4025.64102516, 4054.10256369, 4069.87179453, 4131.15384588, 4404.61538497, 4006.41025593, 3948.84615322, 4148.71794851,12.0
4127.56410229, 4036.28205080, 4037.94871754, 4030.89743541, 4119.35897408, 4026.79487131, 4032.82051234, 4054.10256369, 4074.99999966, 4126.53846126, 4409.61538497, 4025.12820465, 3963.84615322, 4146.41025621,12.0
4128.33333306, 4050.25640984, 4052.30769189, 4063.58974318, 4123.33333306, 4047.94871754, 4052.17948677, 4062.56410215, 4092.30769196, 4133.58974332, 4416.92307727, 4052.56410215, 3974.10256355, 4147.69230749,12.0
4129.99999973, 4051.02564061, 4040.89743548, 4049.10256369, 4123.84615357, 4037.17948677, 4045.12820472, 4051.92307651, 4077.69230735, 4136.66666646, 4400.00000035, 4041.02564061, 3963.58974297, 4147.05128185,12.0
4131.92307665, 4026.41025593, 4024.74358926, 4011.92307644, 4122.17948691, 4021.92307644, 4028.84615336, 4042.56410215, 4052.17948677, 4128.20512793, 4386.02564131, 4012.56410208, 3959.87179425, 4144.61538441,12.0
4130.89743562, 4031.41025593, 4030.12820465, 4024.74358926, 4122.69230742, 4034.35897388, 4036.79487131, 4053.46153805, 4064.48717907, 4125.38461511, 4388.58974387, 4013.97435849, 3962.56410194, 4145.76923056,12.0
4129.10256383, 4052.43589702, 4034.74358926, 4044.99999959, 4121.79487152, 4044.74358933, 4049.99999959, 4051.15384574, 4075.76923043, 4129.87179460, 4384.10256438, 4023.84615336, 3956.79487117, 4145.25641005,12.0
4130.64102537, 4043.20512779, 4031.15384567, 4037.43589702, 4123.71794844, 4047.82051241, 4054.10256369, 4040.76923036, 4065.51282010, 4129.99999973, 4380.64102592, 4017.17948670, 3957.43589681, 4146.92307672,12.0
4131.02564075, 4046.28205087, 4040.51282010, 4045.64102523, 4122.05128178, 4062.05128164, 4063.71794830, 4057.05128164, 4075.64102530, 4128.46153819, 4385.12820541, 4029.74358926, 3975.12820458, 4147.69230749,12.0
4133.46153819, 4065.51282010, 4052.69230728, 4058.46153805, 4119.61538434, 4065.12820472, 4070.25640991, 4075.25640991, 4089.61538427, 4129.99999973, 4378.07692336, 4052.30769189, 3981.15384560, 4148.07692287,12.0
4134.48717921, 4060.38461497, 4047.94871754, 4043.46153805, 4122.17948691, 4049.48717907, 4061.92307651, 4069.10256369, 4079.99999966, 4129.87179460, 4372.56410285, 4044.87179446, 3968.46153784, 4149.99999980,12.0
4132.30769203, 4052.56410215, 4040.89743548, 4034.99999952, 4123.33333306, 4046.79487138, 4054.48717907, 4066.15384574, 4077.43589709, 4129.10256383, 4379.87179515, 4033.33333285, 3967.82051220, 4150.12820492,12.0
4132.30769203, 4056.79487138, 4047.69230728, 4050.64102523, 4122.56410229, 4060.76923036, 4062.30769189, 4075.76923043, 4086.53846119, 4134.23076896, 4373.20512849, 4042.94871754, 3979.23076868, 4151.41025621,12.0
4133.46153819, 4056.53846113, 4049.99999959, 4049.87179446, 4119.10256383, 4058.58974318, 4067.56410215, 4073.58974325, 4080.12820478, 4136.15384595, 4360.89743611, 4045.89743548, 3972.17948663, 4148.20512800,12.0
4133.20512793, 4054.74358933, 4046.02564061, 4046.02564061, 4117.05128178, 4059.48717907, 4071.15384581, 4069.99999966, 4078.84615350, 4129.48717921, 4366.66666695, 4044.23076882, 3958.58974297, 4146.15384595,12.0
4130.38461511, 4053.46153805, 4052.17948677, 4059.87179446, 4120.64102537, 4080.89743555, 4079.99999966, 4079.35897402, 4093.46153812, 4129.10256383, 4368.58974387, 4056.28205087, 3969.48717887, 4150.76923056,12.0
4126.92307665, 4049.74358933, 4057.94871754, 4063.20512779, 4120.25640998, 4084.74358940, 4080.76923043, 4080.51282017, 4095.64102530, 4129.99999973, 4362.43589765, 4066.92307651, 3985.25640970, 4150.25641005,12.0
4128.20512793, 4059.48717907, 4058.97435856, 4059.99999959, 4118.46153819, 4080.51282017, 4089.10256376, 4083.71794837, 4100.51282017, 4125.76923050, 4369.74359003, 4074.99999966, 3984.99999945, 4148.46153826,12.0
4130.64102537, 4062.94871754, 4057.17948677, 4064.61538420, 4117.82051255, 4092.69230735, 4100.25640991, 4094.99999966, 4112.43589716, 4127.56410229, 4369.10256438, 4074.23076889, 3975.51281996, 4147.82051262,12.0
4129.99999973, 4038.97435856, 4050.12820472, 4053.84615343, 4118.58974332, 4087.56410222, 4086.79487145, 4083.46153812, 4099.10256376, 4131.02564075, 4354.61538483, 4056.02564061, 3966.41025579, 4146.66666646,12.0
4129.10256383, 4029.35897388, 4047.17948677, 4037.94871754, 4122.05128178, 4071.15384581, 4070.76923043, 4070.76923043, 4082.17948684, 4126.02564075, 4353.33333355, 4049.35897395, 3973.84615329, 4148.71794851,12.0
4130.25640998, 4040.51282010, 4053.20512779, 4043.71794830, 4120.38461511, 4076.79487145, 4080.12820478, 4088.33333299, 4093.33333299, 4126.66666639, 4352.43589765, 4062.17948677, 3983.71794817, 4146.66666646,12.0
4133.07692280, 4039.61538420, 4055.76923036, 4046.41025600, 4119.87179460, 4075.64102530, 4088.84615350, 4098.84615350, 4102.05128171, 4132.30769203, 4342.30769252, 4062.30769189, 3975.76923022, 4144.10256390,12.0
4132.17948691, 4045.89743548, 4058.07692266, 4053.07692266, 4122.69230742, 4073.71794837, 4094.74358940, 4098.84615350, 4112.05128178, 4127.56410229, 4354.61538483, 4064.87179446, 3977.69230714, 4145.89743569,12.0
4131.02564075, 4072.05128171, 4071.66666632, 4085.38461504, 4121.28205101, 4093.71794837, 4111.02564075, 4109.74358947, 4135.12820485, 4129.35897408, 4370.64102592, 4088.58974325, 3988.33333278, 4146.28205108,12.0
4132.17948691, 4079.61538427, 4077.43589709, 4095.25640991, 4120.25640998, 4098.20512786, 4104.48717921, 4106.02564075, 4128.97435870, 4136.92307672, 4357.82051303, 4095.64102530, 3991.79487124, 4146.15384595,12.0
