AF3,F7,F3,FC5,T7,P7,O1,O2,P8,T8,FC6,F4,F8,AF4,Label
4018.20512772, 4160.64102544, 4165.38461518, 4145.12820492, 4123.07692280, 4150.89743569, 4162.05128185, 4138.33333313, 4172.56410243, 4134.35897408, 3685.76922959, 4204.74358968, 4139.74358954, 4144.61538441,12.0
4016.02564054, 4179.87179474, 4167.56410236, 4157.82051262, 4124.23076896, 4148.20512800, 4151.41025621, 4134.74358947, 4166.66666646, 4133.97435870, 3694.10256293, 4208.84615378, 4153.33333313, 4145.89743569,12.0
4018.84615336, 4177.56410243, 4168.46153833, 4174.74358961, 4122.17948691, 4148.46153826, 4158.46153826, 4146.79487159, 4166.53846133, 4133.46153819, 3695.38461421, 4214.74358968, 4142.30769210, 4146.15384595,12.0
4026.15384567, 4171.66666653, 4175.25641012, 4178.71794858, 4121.28205101, 4157.69230749, 4159.10256390, 4149.10256390, 4183.07692294, 4134.61538434, 3711.66666556, 4221.15384609, 4143.20512800, 4143.33333313,12.0
4025.25640977, 4166.79487159, 4178.58974345, 4172.17948704, 4124.48717921, 4150.64102544, 4141.92307672, 4144.74358954, 4189.10256397, 4134.10256383, 3734.10256299, 4215.12820506, 4148.33333313, 4145.64102544,12.0
4023.07692259, 4166.53846133, 4172.94871781, 4164.48717928, 4123.97435870, 4139.87179467, 4139.99999980, 4154.35897415, 4189.61538448, 4132.30769203, 3739.74358864, 4209.35897429, 4141.41025621, 4146.92307672,12.0
4024.48717900, 4164.87179467, 4161.79487159, 4157.30769210, 4124.10256383, 4139.10256390, 4141.92307672, 4153.97435877, 4187.17948704, 4132.94871767, 3731.92307582, 4198.71794858, 4130.25640998, 4144.74358954,12.0
4026.15384567, 4163.07692287, 4156.41025621, 4159.10256390, 4122.94871767, 4137.94871774, 4136.15384595, 4141.53846133, 4170.89743576, 4133.46153819, 3738.97435787, 4186.15384602, 4129.99999973, 4146.02564082,12.0
4024.48717900, 4177.94871781, 4166.92307672, 4174.35897422, 4120.89743562, 4140.38461518, 4148.33333313, 4146.66666646, 4166.79487159, 4132.43589716, 3755.51281947, 4195.76923063, 4140.76923056, 4145.38461518,12.0
4021.79487131, 4178.84615371, 4169.87179474, 4169.74358961, 4124.35897408, 4144.35897415, 4154.10256390, 4148.33333313, 4169.10256397, 4130.51282024, 3760.89743486, 4201.15384609, 4139.61538441, 4145.64102544,12.0
4024.10256362, 4160.76923056, 4159.23076903, 4155.12820492, 4123.33333306, 4147.30769210, 4135.64102544, 4136.02564082, 4159.87179467, 4132.56410229, 3763.58974255, 4186.02564089, 4128.33333306, 4148.20512800,12.0
4026.02564054, 4173.58974345, 4164.99999980, 4162.82051262, 4121.79487152, 4155.51282031, 4148.46153826, 4149.61538441, 4167.56410236, 4137.05128185, 3776.53846057, 4192.43589730, 4132.56410229, 4147.30769210,12.0
4024.99999952, 4183.97435884, 4169.74358961, 4165.12820492, 4123.84615357, 4150.51282031, 4166.53846133, 4158.33333313, 4177.56410243, 4135.38461518, 3788.58974262, 4204.48717942, 4144.10256390, 4145.25641005,12.0
4025.64102516, 4146.92307672, 4155.12820492, 4152.43589723, 4122.05128178, 4132.05128178, 4134.74358947, 4126.28205101, 4163.71794851, 4132.69230742, 3786.28205031, 4186.92307679, 4134.87179460, 4146.02564082,12.0
4024.61538413, 4142.82051262, 4158.07692287, 4158.33333313, 4121.66666639, 4141.53846133, 4119.99999973, 4129.10256383, 4158.20512800, 4134.61538434, 3785.51281954, 4184.48717935, 4133.71794844, 4147.82051262,12.0
4023.20512772, 4178.71794858, 4169.87179474, 4166.02564082, 4123.84615357, 4143.84615364, 4137.17948697, 4155.25641005, 4159.48717928, 4134.74358947, 3795.51281954, 4200.76923063, 4141.79487159, 4143.97435877,12.0
4026.79487131, 4164.61538441, 4159.10256390, 4151.28205108, 4126.15384588, 4113.46153819, 4123.20512793, 4133.20512793, 4148.84615364, 4127.94871767, 3806.02564006, 4191.79487166, 4132.30769203, 4141.53846133,12.0
4027.17948670, 4138.84615364, 4156.66666646, 4146.15384595, 4124.74358947, 4115.64102537, 4112.69230742, 4124.99999973, 4156.41025621, 4124.74358947, 3813.33333243, 4193.20512807, 4130.38461511, 4144.10256390,12.0
4024.87179439, 4164.87179467, 4176.92307679, 4160.51282031, 4122.30769203, 4156.92307672, 4142.82051262, 4159.61538441, 4176.41025628, 4132.43589716, 3818.33333243, 4222.69230763, 4150.64102544, 4143.20512800,12.0
4027.30769183, 4173.84615371, 4179.48717935, 4158.71794851, 4124.48717921, 4166.28205108, 4152.69230749, 4158.33333313, 4172.43589730, 4138.58974339, 3821.15384525, 4222.30769224, 4154.48717928, 4145.51282031,12.0
4028.20512772, 4130.51282024, 4155.64102544, 4143.20512800, 4122.69230742, 4136.28205108, 4126.92307665, 4125.12820485, 4162.56410236, 4135.38461518, 3818.97435807, 4188.20512807, 4135.89743569, 4149.48717928,12.0
4029.10256362, 4104.87179460, 4141.92307672, 4134.99999973, 4121.28205101, 4123.46153819, 4121.02564075, 4122.30769203, 4166.53846133, 4131.15384588, 3820.89743500, 4174.99999986, 4128.97435870, 4147.05128185,12.0
4031.02564054, 4125.25640998, 4147.69230749, 4137.05128185, 4125.89743562, 4141.92307672, 4136.53846133, 4134.23076896, 4170.51282038, 4134.23076896, 3827.43589654, 4192.94871781, 4136.15384595, 4145.64102544,12.0
4032.56410208, 4145.25641005, 4153.84615364, 4146.02564082, 4124.10256383, 4149.87179467, 4139.74358954, 4130.51282024, 4162.94871774, 4135.76923056, 3830.38461449, 4206.53846147, 4140.12820492, 4146.79487159,12.0
4032.56410208, 4138.07692287, 4152.43589723, 4136.92307672, 4119.99999973, 4132.30769203, 4122.82051255, 4120.89743562, 4142.30769210, 4130.38461511, 3822.56410166, 4195.64102551, 4137.30769210, 4147.05128185,12.0
4029.99999952, 4132.30769203, 4153.46153826, 4109.99999973, 4121.15384588, 4127.43589716, 4110.25640998, 4122.43589716, 4142.05128185, 4129.87179460, 3811.79487090, 4192.69230756, 4136.79487159, 4148.46153826,12.0
4031.15384567, 4139.61538441, 4163.46153826, 4098.97435863, 4126.15384588, 4142.82051262, 4116.15384588, 4140.38461518, 4175.25641012, 4133.71794844, 3818.84615295, 4211.92307686, 4145.64102544, 4148.58974339,12.0
4029.74358926, 4141.28205108, 4168.20512807, 4098.97435863, 4125.89743562, 4150.89743569, 4126.66666639, 4152.69230749, 4190.25641012, 4131.53846126, 3833.71794782, 4219.99999993, 4152.69230749, 4145.38461518,12.0
4028.33333285, 4120.89743562, 4161.79487159, 4087.05128171, 4121.79487152, 4140.25641005, 4125.12820485, 4141.53846133, 4164.35897415, 4130.12820485, 3830.89743500, 4206.02564096, 4144.99999980, 4144.61538441,12.0
4032.82051234, 4090.76923043, 4159.99999980, 4073.71794837, 4125.76923050, 4128.71794844, 4122.17948691, 4134.61538434, 4152.69230749, 4136.15384595, 3829.74358884, 4196.41025628, 4137.56410236, 4147.17948697,12.0
4031.41025593, 4078.46153812, 4163.33333313, 4074.35897402, 4126.15384588, 4141.28205108, 4137.05128185, 4147.17948697, 4175.89743576, 4136.92307672, 3848.84615302, 4200.25641012, 4142.56410236, 4143.84615364,12.0
4032.17948670, 4078.71794837, 4161.41025621, 4077.82051248, 4121.66666639, 4152.94871774, 4145.25641005, 4144.10256390, 4182.17948704, 4132.69230742, 3854.99999917, 4200.25641012, 4142.43589723, 4140.76923056,12.0
4036.28205080, 4076.15384581, 4165.64102544, 4083.58974325, 4123.84615357, 4155.12820492, 4142.30769210, 4137.69230749, 4170.25641012, 4130.38461511, 3843.84615302, 4204.23076917, 4138.71794851, 4144.99999980,12.0
4037.43589702, 4049.87179446, 4176.66666653, 4090.76923043, 4122.30769203, 4159.10256390, 4142.17948697, 4145.51282031, 4169.74358961, 4129.23076896, 3843.71794789, 4216.92307686, 4139.87179467, 4146.02564082,12.0
4037.05128164, 4000.89743535, 4175.76923063, 4089.23076889, 4122.17948691, 4152.69230749, 4135.12820485, 4142.56410236, 4174.99999986, 4129.87179460, 3850.38461455, 4217.30769224, 4138.20512800, 4143.33333313,12.0
4040.51282010, 3980.51281996, 4171.02564089, 4091.28205094, 4124.87179460, 4148.46153826, 4132.94871767, 4143.58974339, 4178.97435884, 4129.99999973, 3854.61538379, 4212.69230763, 4135.76923056, 4143.71794851,12.0
4044.99999959, 3992.05128150, 4175.89743576, 4096.79487145, 4122.56410229, 4159.74358954, 4141.79487159, 4156.28205108, 4182.05128192, 4127.56410229, 3863.58974276, 4218.07692301, 4137.82051262, 4145.12820492,12.0
4039.99999959, 3980.12820458, 4170.51282038, 4090.64102530, 4121.41025614, 4162.94871774, 4144.10256390, 4161.28205108, 4176.92307679, 4130.51282024, 3872.43589661, 4212.94871788, 4135.64102544, 4147.30769210,12.0
4037.17948677, 3954.10256348, 4160.38461518, 4085.64102530, 4121.92307665, 4153.84615364, 4138.97435877, 4160.64102544, 4170.89743576, 4134.48717921, 3875.89743514, 4203.84615378, 4128.84615357, 4150.38461518,12.0
4041.79487138, 3956.53846092, 4171.79487166, 4096.15384581, 4121.79487152, 4161.02564082, 4143.07692287, 4163.07692287, 4180.76923063, 4127.69230742, 3884.61538385, 4219.10256404, 4130.38461511, 4150.76923056,12.0
4040.89743548, 3957.43589681, 4182.05128192, 4096.66666632, 4122.30769203, 4175.38461525, 4153.71794851, 4168.58974345, 4193.71794858, 4125.25640998, 3889.61538385, 4229.99999993, 4136.66666646, 4145.89743569,12.0
4039.48717907, 3939.74358912, 4175.25641012, 4086.41025607, 4125.89743562, 4169.48717935, 4153.58974339, 4165.12820492, 4185.76923063, 4132.05128178, 3889.23076847, 4220.76923070, 4135.76923056, 4142.69230749,12.0
4040.76923036, 3944.99999938, 4179.87179474, 4098.07692273, 4127.17948691, 4167.94871774, 4151.79487159, 4160.25641005, 4176.66666653, 4133.07692280, 3903.33333257, 4230.25641019, 4136.92307672, 4146.02564082,12.0
4040.89743548, 3960.89743528, 4193.20512807, 4115.25640998, 4122.17948691, 4175.89743576, 4148.97435877, 4156.53846133, 4184.10256397, 4129.61538434, 3905.25640950, 4249.10256411, 4142.30769210, 4146.28205108,12.0
4041.53846113, 3952.17948656, 4193.84615371, 4117.94871767, 4124.10256383, 4173.46153833, 4145.89743569, 4154.61538441, 4188.46153833, 4126.79487152, 3792.82051185, 4250.51282052, 4142.30769210, 4143.58974339,12.0
4043.46153805, 3942.69230707, 4193.97435884, 4115.76923050, 4126.41025614, 4173.97435884, 4151.15384595, 4162.56410236, 4180.38461525, 4129.99999973, 3816.41025551, 4254.35897436, 4138.97435877, 4147.82051262,12.0
4042.30769189, 3941.28205066, 4195.51282038, 4108.97435870, 4121.66666639, 4173.58974345, 4147.94871774, 4156.41025621, 4168.97435884, 4130.51282024, 3982.82051227, 4255.76923077, 4133.71794844, 4149.87179467,12.0
4039.35897395, 3931.79487110, 4192.82051269, 4103.71794844, 4122.82051255, 4164.99999980, 4138.71794851, 4144.99999980, 4159.87179467, 4129.23076896, 3720.12820402, 4243.97435898, 4127.69230742, 4147.17948697,12.0
4041.15384574, 3917.56410187, 4192.82051269, 4104.23076896, 4126.02564075, 4166.41025621, 4144.10256390, 4154.61538441, 4155.64102544, 4130.64102537, 4066.28205087, 4241.53846154, 4125.38461511, 4145.12820492,12.0
4051.92307651, 3897.05128129, 4189.61538448, 4099.99999966, 4124.87179460, 4169.87179474, 4147.43589723, 4157.69230749, 4152.69230749, 4127.69230742, 6035.51282427, 4238.33333334, 4120.64102537, 4144.48717928,12.0
4063.07692266, 3875.76923001, 4185.38461525, 4095.51282017, 4123.84615357, 4167.05128185, 4144.48717928, 4154.87179467, 4154.10256390, 4126.28205101, 7779.87180238, 4229.87179481, 4123.20512793, 4147.56410236,12.0
4066.66666625, 3871.53846071, 4188.97435884, 4102.17948684, 4124.10256383, 4175.25641012, 4160.51282031, 4171.28205115, 4166.41025621, 4129.48717921, 7828.07693065, 4239.61538462, 4132.56410229, 4147.17948697,12.0
4068.97435856, 3868.07692225, 4185.38461525, 4099.23076889, 4126.15384588, 4182.69230756, 4172.17948704, 4179.61538448, 4166.53846133, 4127.94871767, 7547.05128900, 4239.87179488, 4125.76923050, 4144.99999980,12.0
4074.48717914, 3854.74358891, 4173.97435884, 4089.74358940, 4122.94871767, 4172.82051269, 4157.05128185, 4162.30769210, 4146.02564082, 4124.23076896, 7746.15385359, 4216.02564096, 4112.94871767, 4148.58974339,12.0
4078.58974325, 3862.94871712, 4180.12820499, 4099.10256376, 4119.10256383, 4173.71794858, 4154.48717928, 4156.53846133, 4141.79487159, 4134.35897408, 7733.07693045, 4219.87179481, 4118.84615357, 4149.61538441,12.0
4078.71794837, 3877.94871719, 4190.38461525, 4107.94871767, 4124.23076896, 4185.25641012, 4166.41025621, 4170.76923063, 4150.64102544, 4139.99999980, 7599.48718658, 4241.53846154, 4125.64102537, 4147.69230749,12.0
4079.48717914, 3869.61538379, 4179.48717935, 4100.64102530, 4125.51282024, 4176.92307679, 4154.23076903, 4165.89743569, 4136.15384595, 4133.58974332, 7598.97436607, 4229.10256404, 4115.76923050, 4147.94871774,12.0
4083.71794837, 3855.38461455, 4169.61538448, 4093.07692273, 4124.10256383, 4163.20512800, 4134.10256383, 4144.61538441, 4114.35897408, 4136.79487159, 7601.53846863, 4207.30769224, 4109.48717921, 4147.30769210,12.0
4086.02564068, 3859.74358891, 4182.30769217, 4100.76923043, 4124.10256383, 4168.84615371, 4140.38461518, 4149.10256390, 4126.92307665, 4137.43589723, 7601.28205837, 4224.23076917, 4120.76923050, 4145.76923056,12.0
4087.56410222, 3869.99999917, 4195.76923063, 4114.35897408, 4123.71794844, 4170.51282038, 4143.58974339, 4161.02564082, 4143.84615364, 4134.10256383, 7601.02564812, 4247.82051282, 4127.69230742, 4146.28205108,12.0
4090.25640991, 3866.41025558, 4193.20512807, 4115.89743562, 4124.87179460, 4163.97435877, 4135.12820485, 4157.43589723, 4130.25640998, 4136.28205108, 7600.64103273, 4241.41025641, 4123.71794844, 4149.10256390,12.0
4092.69230735, 3864.87179404, 4192.17948704, 4114.23076896, 4122.94871767, 4169.74358961, 4140.64102544, 4158.71794851, 4123.84615357, 4136.02564082, 7599.74359684, 4236.66666667, 4127.94871767, 4147.56410236,12.0
4094.99999966, 3869.87179404, 4196.79487166, 4116.79487152, 4124.48717921, 4174.10256397, 4143.71794851, 4165.38461518, 4140.64102544, 4134.61538434, 7600.38462248, 4242.82051282, 4133.71794844, 4145.76923056,12.0
4100.12820478, 3852.94871712, 4185.89743576, 4101.15384581, 4127.43589716, 4162.17948697, 4131.28205101, 4158.84615364, 4133.07692280, 4138.97435877, 7600.12821222, 4223.33333327, 4122.82051255, 4147.94871774,12.0
4106.79487152, 3822.05128115, 4170.25641012, 4076.92307658, 4123.07692280, 4151.79487159, 4120.25640998, 4146.02564082, 4104.61538434, 4134.61538434, 7600.12821222, 4199.23076910, 4114.23076896, 4147.17948697,12.0
4104.35897408, 3827.56410166, 4182.05128192, 4097.43589709, 4121.41025614, 4161.28205108, 4124.48717921, 4147.94871774, 4107.94871767, 4123.33333306, 7600.25641735, 4219.35897429, 4122.56410229, 4147.30769210,12.0
4103.07692280, 3849.48717866, 4194.61538448, 4129.99999973, 4121.41025614, 4166.92307672, 4123.71794844, 4145.12820492, 4116.66666639, 4127.56410229, 7600.25641735, 4238.71794872, 4127.17948691, 4147.94871774,12.0
4112.82051255, 3837.82051192, 4181.28205115, 4112.05128178, 4121.79487152, 4157.56410236, 4112.30769203, 4132.30769203, 4102.94871767, 4136.92307672, 7600.25641735, 4216.66666660, 4121.66666639, 4146.15384595,12.0
4114.61538434, 3825.76922987, 4175.64102551, 4096.92307658, 4123.07692280, 4158.71794851, 4119.10256383, 4143.20512800, 4111.41025614, 4135.64102544, 7600.12821222, 4209.48717942, 4121.02564075, 4145.89743569,12.0
4113.33333306, 3836.79487090, 4183.97435884, 4111.66666639, 4124.74358947, 4163.97435877, 4126.92307665, 4149.74358954, 4126.28205101, 4130.76923050, 7600.25641735, 4221.79487173, 4123.71794844, 4146.41025621,12.0
4117.69230742, 3833.33333243, 4178.33333320, 4100.64102530, 4126.66666639, 4152.17948697, 4111.02564075, 4126.66666639, 4102.94871767, 4130.64102537, 7600.25641735, 4207.17948711, 4121.66666639, 4149.99999980,12.0
4117.05128178, 3822.30769141, 4177.30769217, 4087.94871761, 4124.87179460, 4142.94871774, 4100.89743555, 4119.23076896, 4090.76923043, 4134.48717921, 7600.25641735, 4197.17948704, 4118.46153819, 4151.79487159,12.0
4119.87179460, 3837.82051192, 4195.25641012, 4109.35897408, 4123.33333306, 4154.23076903, 4114.87179460, 4139.74358954, 4117.69230742, 4135.51282031, 7600.25641735, 4217.56410250, 4121.79487152, 4148.33333313,12.0
4125.76923050, 3848.20512738, 4199.61538448, 4114.10256383, 4125.25640998, 4158.20512800, 4119.35897408, 4137.82051262, 4121.41025614, 4130.76923050, 7600.25641735, 4219.87179481, 4122.94871767, 4147.82051262,12.0
4125.38461511, 3836.79487090, 4194.10256397, 4097.69230735, 4125.64102537, 4153.71794851, 4114.48717921, 4117.82051255, 4101.41025607, 4128.46153819, 7600.25641735, 4203.33333327, 4119.10256383, 4146.02564082,12.0
4124.35897408, 3832.69230679, 4194.10256397, 4096.92307658, 4126.79487152, 4159.87179467, 4129.74358947, 4129.74358947, 4104.61538434, 4136.28205108, 7600.12821222, 4201.28205122, 4119.61538434, 4144.74358954,12.0
4126.28205101, 3831.15384525, 4183.71794858, 4091.79487145, 4125.38461511, 4152.05128185, 4126.28205101, 4137.56410236, 4105.64102537, 4138.46153826, 7600.25641735, 4194.48717935, 4117.05128178, 4145.38461518,12.0
4131.02564075, 3829.87179397, 4179.87179474, 4086.92307658, 4125.12820485, 4129.35897408, 4091.15384581, 4110.76923050, 4088.20512786, 4126.28205101, 7600.25641735, 4183.20512807, 4109.10256383, 4144.74358954,12.0
4131.53846126, 3842.82051199, 4193.71794858, 4103.84615357, 4126.15384588, 4129.35897408, 4081.28205094, 4105.64102537, 4084.35897402, 4122.69230742, 7600.25641735, 4189.87179474, 4110.25640998, 4148.84615364,12.0
4133.07692280, 3846.53846071, 4189.48717935, 4104.23076896, 4123.84615357, 4136.28205108, 4091.15384581, 4117.30769203, 4080.89743555, 4132.17948691, 7600.25641735, 4185.25641012, 4111.66666639, 4148.07692287,12.0
4136.79487159, 3823.07692218, 4166.28205108, 4069.48717907, 4124.23076896, 4124.61538434, 4081.53846119, 4106.28205101, 4064.87179446, 4127.43589716, 7600.25641735, 4157.94871774, 4099.61538427, 4145.25641005,12.0
4133.97435870, 3819.61538372, 4164.48717928, 4056.15384574, 4122.30769203, 4123.58974332, 4079.48717914, 4104.23076896, 4070.51282017, 4121.28205101, 7600.25641735, 4153.71794851, 4097.17948684, 4147.94871774,12.0
4140.38461518, 3849.87179404, 4184.74358961, 4084.99999966, 4119.48717921, 4139.87179467, 4104.10256383, 4127.17948691, 4099.35897402, 4127.30769203, 7600.12821222, 4177.94871781, 4112.82051255, 4146.79487159,12.0
4145.64102544, 3862.30769148, 4192.17948704, 4104.48717921, 4122.94871767, 4153.20512800, 4123.71794844, 4141.92307672, 4113.46153819, 4128.71794844, 7600.25641735, 4190.76923063, 4121.66666639, 4147.30769210,12.0
4141.66666646, 3865.51281968, 4194.23076910, 4113.07692280, 4123.46153819, 4164.48717928, 4132.05128178, 4144.74358954, 4111.79487152, 4128.46153819, 7600.25641735, 4198.07692294, 4123.20512793, 4145.76923056,12.0
4142.82051262, 3885.51281975, 4207.17948711, 4129.87179460, 4122.82051255, 4173.07692294, 4140.64102544, 4153.58974339, 4123.58974332, 4132.94871767, 7600.25641735, 4213.84615378, 4131.53846126, 4143.71794851,12.0
4143.71794851, 3886.79487103, 4203.33333327, 4130.38461511, 4122.94871767, 4172.17948704, 4135.25640998, 4154.10256390, 4130.89743562, 4134.10256383, 7600.25641735, 4207.17948711, 4130.64102537, 4147.69230749,12.0
4147.05128185, 3878.58974283, 4190.38461525, 4116.53846126, 4123.58974332, 4164.35897415, 4129.74358947, 4151.15384595, 4125.64102537, 4129.87179460, 7600.25641735, 4194.87179474, 4122.69230742, 4145.38461518,12.0
4148.33333313, 3887.56410180, 4194.87179474, 4118.20512793, 4124.87179460, 4150.25641005, 4123.33333306, 4146.28205108, 4123.97435870, 4129.35897408, 7600.25641735, 4203.84615378, 4130.25640998, 4145.12820492,12.0
4145.64102544, 3894.61538385, 4198.84615371, 4131.53846126, 4123.07692280, 4142.94871774, 4106.41025614, 4138.46153826, 4113.46153819, 4129.61538434, 7600.12821222, 4208.33333327, 4128.33333306, 4149.23076903,12.0
4149.48717928, 3891.66666591, 4197.05128192, 4128.07692280, 4122.69230742, 4152.82051262, 4113.07692280, 4145.25641005, 4098.58974325, 4129.99999973, 7600.25641735, 4197.56410243, 4104.61538434, 4146.79487159,12.0
4150.64102544, 3880.89743514, 4194.99999986, 4109.35897408, 4123.46153819, 4152.30769210, 4123.33333306, 4139.35897415, 4106.79487152, 4132.56410229, 7600.25641735, 4185.38461525, 4107.05128178, 4145.64102544,12.0
4155.12820492, 3880.51281975, 4188.33333320, 4108.33333306, 4123.07692280, 4133.20512793, 4097.69230735, 4113.58974332, 4114.35897408, 4134.35897408, 7600.25641735, 4178.84615371, 4122.69230742, 4145.89743569,12.0
4156.92307672, 3887.05128129, 4177.17948704, 4118.58974332, 4124.35897408, 4125.76923050, 4061.41025600, 4096.66666632, 4083.58974325, 4134.61538434, 7600.25641735, 4163.33333313, 4104.74358947, 4145.89743569,12.0
4150.89743569, 3879.61538385, 4170.38461525, 4108.33333306, 4122.17948691, 4137.30769210, 4072.17948684, 4097.69230735, 4078.20512786, 4130.12820485, 7600.25641735, 4148.33333313, 4087.56410222, 4143.07692287,12.0
4157.43589723, 3887.30769155, 4180.38461525, 4105.64102537, 4122.82051255, 4150.64102544, 4108.33333306, 4112.05128178, 4125.25640998, 4129.61538434, 7600.25641735, 4159.87179467, 4105.51282024, 4141.41025621,12.0
4158.97435877, 3933.97435828, 4191.41025628, 4129.35897408, 4125.12820485, 4151.92307672, 4117.94871767, 4129.99999973, 4144.35897415, 4136.28205108, 7600.12821222, 4176.28205115, 4116.15384588, 4146.15384595,12.0
4157.94871774, 3947.82051220, 4176.15384602, 4131.28205101, 4122.43589716, 4151.41025621, 4089.87179453, 4116.02564075, 4115.76923050, 4133.58974332, 7600.25641735, 4159.23076903, 4099.74358940, 4147.69230749,12.0
4165.76923056, 3932.56410187, 4164.10256390, 4118.20512793, 4123.33333306, 4155.25641005, 4073.71794837, 4096.15384581, 4103.71794844, 4124.48717921, 7600.25641735, 4148.58974339, 4102.05128171, 4146.92307672,12.0
4165.76923056, 3968.20512758, 4181.92307679, 4135.12820485, 4124.48717921, 4155.25641005, 4114.74358947, 4121.66666639, 4129.74358947, 4123.97435870, 7600.25641735, 4181.28205115, 4119.87179460, 4147.69230749,12.0
4164.23076903, 3994.23076868, 4174.61538448, 4146.41025621, 4123.46153819, 4153.97435877, 4117.69230742, 4120.64102537, 4131.92307665, 4126.79487152, 7600.89744299, 4180.89743576, 4109.99999973, 4145.76923056,12.0
4163.07692287, 3998.84615329, 4141.41025621, 4136.66666646, 4123.71794844, 4163.71794851, 4078.20512786, 4093.58974325, 4115.25640998, 4128.46153819, 7601.92308401, 4143.84615364, 4095.51282017, 4144.74358954,12.0
4165.25641005, 4033.58974311, 4139.35897415, 4131.92307665, 4124.23076896, 4159.61538441, 4075.12820478, 4097.69230735, 4123.20512793, 4130.76923050, 7599.23077632, 4142.94871774, 4102.82051255, 4144.48717928,12.0
4168.58974345, 4071.15384581, 4159.61538441, 4134.99999973, 4125.12820485, 4147.43589723, 4093.46153812, 4121.15384588, 4138.33333313, 4129.74358947, 7598.97436607, 4170.12820499, 4112.30769203, 4144.23076903,12.0
4163.58974339, 4091.02564068, 4165.89743569, 4141.15384595, 4122.56410229, 4157.43589723, 4104.35897408, 4132.17948691, 4141.53846133, 4129.10256383, 7603.46154555, 4179.61538448, 4109.87179460, 4146.41025621,12.0
4167.56410236, 4107.82051255, 4153.07692287, 4145.64102544, 4123.07692280, 4164.10256390, 4100.64102530, 4107.82051255, 4137.56410236, 4133.71794844, 7589.48718658, 4159.87179467, 4102.56410229, 4147.82051262,12.0
4171.41025628, 4127.17948691, 4147.56410236, 4146.41025621, 4126.15384588, 4156.28205108, 4095.38461504, 4096.15384581, 4134.99999973, 4136.28205108, 7618.07693024, 4150.12820492, 4111.66666639, 4148.33333313,12.0
4167.82051262, 4155.64102544, 4165.25641005, 4144.23076903, 4124.10256383, 4159.61538441, 4104.23076896, 4122.82051255, 4142.56410236, 4131.41025614, 7857.05128970, 4174.87179474, 4126.66666639, 4145.89743569,12.0
4169.74358961, 4196.41025628, 4187.82051269, 4162.69230749, 4124.61538434, 4177.43589730, 4147.30769210, 4152.43589723, 4177.82051269, 4131.02564075, 7783.20513571, 4204.23076917, 4133.33333306, 4145.51282031,12.0
4170.76923063, 4210.64102558, 4186.28205115, 4181.66666653, 4125.51282024, 4185.64102551, 4151.66666646, 4148.84615364, 4189.87179474, 4134.87179460, 7556.79487882, 4197.69230756, 4138.46153826, 4148.71794851,12.0
4178.58974345, 4223.46153840, 4184.99999986, 4168.20512807, 4124.48717921, 4177.17948704, 4116.15384588, 4131.92307665, 4173.07692294, 4132.69230742, 8086.28205942, 4191.53846140, 4151.28205108, 4143.71794851,12.0
4180.76923063, 4237.82051282, 4194.61538448, 4156.53846133, 4125.38461511, 4163.84615364, 4114.87179460, 4128.84615357, 4170.76923063, 4132.17948691, 7135.38462150, 4201.02564096, 4154.10256390, 4142.43589723,12.0
4167.43589723, 4233.46153840, 4187.56410243, 4166.79487159, 4123.58974332, 4154.99999980, 4109.61538434, 4122.43589716, 4158.71794851, 4135.76923056, 3390.89743409, 4186.41025628, 4141.28205108, 4147.69230749,12.0
4161.28205108, 4256.15384616, 4180.89743576, 4170.12820499, 4124.61538434, 4159.87179467, 4096.66666632, 4121.53846126, 4151.53846133, 4132.30769203, 675.12819756, 4173.20512807, 4129.87179460, 4147.17948697,12.0
4160.38461518, 4293.07692315, 4188.97435884, 4156.28205108, 4126.79487152, 4166.15384595, 4111.02564075, 4128.84615357, 4172.17948704, 4126.92307665, 926.66665965, 4187.30769217, 4146.92307672, 4144.87179467,12.0
4160.38461518, 4309.10256425, 4202.05128199, 4168.07692287, 4125.25640998, 4173.07692294, 4138.71794851, 4130.76923050, 4173.46153833, 4133.33333306, 1320.51281433, 4207.94871788, 4196.66666653, 4144.48717928,12.0
4157.94871774, 4321.02564117, 4204.74358968, 4189.61538448, 4124.10256383, 4178.33333320, 4143.84615364, 4130.25640998, 4153.46153826, 4138.07692287, 948.84614683, 4205.89743583, 4182.94871781, 4147.43589723,12.0
4155.51282031, 4331.66666681, 4202.82051275, 4186.02564089, 4121.66666639, 4171.79487166, 4128.46153819, 4132.82051255, 4169.87179474, 4132.17948691, 1101.41024974, 4202.82051275, 4123.33333306, 4147.56410236,12.0
4158.33333313, 4305.25641040, 4206.41025634, 4179.99999986, 4121.28205101, 4161.02564082, 4115.76923050, 4134.35897408, 4188.97435884, 4128.33333306, 1353.58973748, 4212.82051275, 4147.56410236, 4147.05128185,12.0
4154.61538441, 4288.33333341, 4200.51282038, 4184.10256397, 4123.46153819, 4162.17948697, 4114.48717921, 4132.17948691, 4177.43589730, 4132.05128178, 1354.35896825, 4200.76923063, 4195.38461525, 4149.74358954,12.0
4151.92307672, 4324.61538476, 4192.69230756, 4195.38461525, 4123.33333306, 4168.07692287, 4125.76923050, 4131.79487152, 4179.23076910, 4131.15384588, 1354.35896825, 4180.38461525, 4168.46153833, 4145.76923056,12.0
4152.30769210, 4349.87179508, 4193.33333320, 4206.79487173, 4123.58974332, 4168.33333320, 4124.99999973, 4132.05128178, 4181.53846140, 4125.64102537, 1389.10255806, 4178.33333320, 4131.79487152, 4145.12820492,12.0
4148.97435877, 4340.89743611, 4196.92307679, 4228.20512814, 4122.43589716, 4169.35897422, 4116.02564075, 4131.15384588, 4177.43589730, 4127.56410229, 1473.20512230, 4185.38461525, 4155.38461518, 4147.17948697,12.0
4148.71794851, 4338.97435919, 4202.56410250, 4255.25641026, 4124.35897408, 4178.71794858, 4117.17948691, 4124.10256383, 4179.74358961, 4128.97435870, 1513.71794295, 4188.58974345, 4194.10256397, 4143.97435877,12.0
4145.76923056, 4360.25641047, 4210.89743583, 4268.58974366, 4125.76923050, 4184.23076910, 4130.25640998, 4131.66666639, 4176.02564089, 4129.61538434, 1551.28204559, 4197.94871781, 4213.58974352, 4145.64102544,12.0
4145.51282031, 4372.56410285, 4208.46153840, 4272.82051289, 4122.17948691, 4175.12820499, 4135.51282031, 4143.58974339, 4169.48717935, 4129.35897408, 1599.61537899, 4194.61538448, 4226.53846147, 4146.53846133,12.0
4151.66666646, 4362.82051303, 4196.41025628, 4278.97435905, 4122.30769203, 4179.35897422, 4124.10256383, 4128.58974332, 4182.17948704, 4127.56410229, 1617.94871239, 4168.58974345, 4228.71794865, 4144.48717928,12.0
4149.61538441, 4355.12820534, 4195.64102551, 4277.17948725, 4123.07692280, 4190.38461525, 4129.74358947, 4123.97435870, 4193.20512807, 4128.33333306, 1655.64102016, 4169.23076910, 4230.51282045, 4146.66666646,12.0
4146.02564082, 4364.48717970, 4200.51282038, 4265.76923077, 4124.61538434, 4180.25641012, 4143.46153826, 4139.10256390, 4181.92307679, 4130.51282024, 1709.35896901, 4182.05128192, 4248.33333334, 4145.51282031,12.0
4145.12820492, 4372.56410285, 4193.84615371, 4265.25641026, 4127.05128178, 4181.02564089, 4135.12820485, 4137.17948697, 4173.46153833, 4129.87179460, 1744.74358447, 4165.38461518, 4276.28205136, 4141.66666646,12.0
4145.38461518, 4370.00000028, 4184.87179474, 4271.15384623, 4123.84615357, 4195.76923063, 4122.05128178, 4126.02564075, 4180.25641012, 4128.20512793, 1773.58973838, 4149.74358954, 4278.97435905, 4143.07692287,12.0
4144.87179467, 4371.41025669, 4197.94871781, 4270.76923084, 4124.35897408, 4188.46153833, 4136.15384595, 4143.20512800, 4195.89743576, 4134.10256383, 1811.41025127, 4178.33333320, 4287.17948725, 4149.10256390,12.0
4142.69230749, 4371.66666695, 4216.41025634, 4275.12820520, 4128.46153819, 4178.97435884, 4156.15384595, 4168.97435884, 4206.02564096, 4136.41025621, 1844.61537955, 4208.46153840, 4323.20512835, 4149.74358954,12.0
4142.56410236, 4372.17948746, 4213.07692301, 4283.46153853, 4127.43589716, 4187.43589730, 4153.71794851, 4162.69230749, 4198.97435884, 4131.66666639, 1861.28204621, 4195.12820499, 4340.38461560, 4146.41025621,12.0
4137.56410236, 4376.79487208, 4200.25641012, 4285.89743597, 4123.97435870, 4184.23076910, 4142.82051262, 4144.10256390, 4189.99999986, 4127.30769203, 1869.35896929, 4179.35897422, 4345.64102585, 4148.07692287,12.0
4132.69230742, 4378.07692336, 4197.43589730, 4292.69230777, 4122.94871767, 4169.48717935, 4128.58974332, 4136.41025621, 4189.23076910, 4127.56410229, 1861.79486673, 4183.71794858, 4384.23076951, 4147.05128185,12.0
4133.46153819, 4371.02564131, 4201.53846147, 4296.15384623, 4126.66666639, 4172.17948704, 4120.64102537, 4137.94871774, 4195.12820499, 4134.99999973, 1866.28204621, 4185.51282038, 4447.82051324, 4146.41025621,12.0
4134.61538434, 4370.12820541, 4207.69230763, 4292.94871802, 4127.82051255, 4192.69230756, 4137.56410236, 4151.41025621, 4206.15384609, 4135.51282031, 1897.43589244, 4192.05128192, 4515.38461594, 4147.43589723,12.0
4138.33333313, 4373.33333362, 4208.07692301, 4292.56410264, 4125.51282024, 4192.82051269, 4153.58974339, 4163.71794851, 4204.48717942, 4131.41025614, 1916.53845661, 4195.64102551, 4543.58974422, 4145.51282031,12.0
4134.23076896, 4364.87179508, 4202.17948711, 4293.97435905, 4126.79487152, 4175.76923063, 4138.46153826, 4153.71794851, 4188.46153833, 4133.33333306, 1923.46153353, 4181.79487166, 4530.51282114, 4146.92307672,12.0
4129.61538434, 4358.33333355, 4206.79487173, 4303.33333348, 4125.64102537, 4177.56410243, 4120.76923050, 4135.38461518, 4187.69230756, 4131.66666639, 1958.46153360, 4184.61538448, 4530.51282114, 4145.12820492,12.0
4135.76923056, 4368.33333362, 4222.30769224, 4311.02564117, 4125.89743562, 4174.87179474, 4128.97435870, 4138.33333313, 4199.10256397, 4123.97435870, 2001.79486700, 4205.38461532, 4547.69230832, 4144.10256390,12.0
4135.51282031, 4380.51282079, 4226.66666660, 4314.35897450, 4128.71794844, 4162.82051262, 4126.79487152, 4147.82051262, 4192.69230756, 4126.28205101, 2014.74358502, 4203.20512814, 4546.15384678, 4148.33333313,12.0
4130.64102537, 4382.69230797, 4220.76923070, 4314.10256425, 4127.56410229, 4166.02564082, 4113.20512793, 4141.53846133, 4181.28205115, 4131.41025614, 2032.82050810, 4191.41025628, 4536.79487242, 4146.28205108,12.0
4128.97435870, 4369.87179515, 4211.92307686, 4300.25641040, 4127.56410229, 4169.61538448, 4117.94871767, 4137.69230749, 4184.99999986, 4127.17948691, 2065.76922612, 4185.89743576, 4531.02564165, 4143.84615364,12.0
4128.07692280, 4351.53846175, 4212.56410250, 4289.10256418, 4127.43589716, 4164.87179467, 4131.28205101, 4149.10256390, 4196.15384602, 4128.07692280, 2091.41025183, 4186.53846140, 4520.00000056, 4146.41025621,12.0
4128.07692280, 4364.61538483, 4232.69230763, 4316.28205142, 4125.89743562, 4172.69230756, 4142.56410236, 4155.12820492, 4203.84615378, 4134.61538434, 2106.92307241, 4211.02564096, 4539.10256473, 4148.33333313,12.0
4126.66666639, 4385.00000028, 4238.71794872, 4332.05128219, 4125.89743562, 4188.20512807, 4146.79487159, 4149.99999980, 4192.05128192, 4132.94871767, 2120.38461087, 4222.05128199, 4568.20512890, 4146.92307672,12.0
4127.56410229, 4368.84615413, 4216.15384609, 4292.69230777, 4124.35897408, 4191.15384602, 4141.15384595, 4144.35897415, 4181.41025628, 4129.10256383, 2142.05127761, 4187.56410243, 4536.15384678, 4146.15384595,12.0
4127.56410229, 4347.94871816, 4201.02564096, 4270.12820520, 4124.87179460, 4184.23076910, 4136.66666646, 4138.58974339, 4188.84615371, 4134.23076896, 2164.10255966, 4159.87179467, 4495.51282100, 4149.99999980,12.0
4123.84615357, 4339.87179508, 4202.05128199, 4281.28205136, 4126.41025614, 4174.87179474, 4130.76923050, 4126.15384588, 4181.15384602, 4137.56410236, 2178.20512383, 4165.89743569, 4513.71794928, 4147.94871774,12.0
4126.28205101, 4332.30769252, 4199.35897422, 4282.17948725, 4126.15384588, 4175.38461525, 4112.43589716, 4116.92307665, 4161.02564082, 4129.48717921, 2192.69230332, 4167.69230749, 4537.94871858, 4141.41025621,12.0
4127.17948691, 4341.53846175, 4204.61538455, 4288.84615392, 4126.92307665, 4181.28205115, 4107.82051255, 4131.92307665, 4168.20512807, 4125.76923050, 2221.28204698, 4170.12820499, 4537.94871858, 4144.74358954,12.0
4122.17948691, 4370.12820541, 4228.46153840, 4314.48717963, 4126.28205101, 4174.23076910, 4128.46153819, 4147.56410236, 4185.38461525, 4130.51282024, 2257.94871371, 4202.94871788, 4552.56410319, 4147.69230749,12.0
4120.25640998, 4390.25641054, 4239.35897436, 4324.23076937, 4128.58974332, 4173.97435884, 4143.71794851, 4148.58974339, 4182.30769217, 4129.87179460, 2277.43589327, 4220.38461532, 4553.07692371, 4144.48717928,12.0
4121.15384588, 4388.46153874, 4232.30769224, 4317.82051296, 4129.23076896, 4188.46153833, 4156.15384595, 4155.76923056, 4186.66666653, 4125.38461511, 2282.30768814, 4208.20512814, 4541.02564165, 4144.61538441,12.0
4121.66666639, 4350.00000021, 4222.17948711, 4312.94871809, 4125.89743562, 4181.28205115, 4141.41025621, 4145.51282031, 4191.92307679, 4125.51282024, 2307.05127796, 4197.69230756, 4544.10256473, 4148.20512800,12.0
4118.46153819, 4327.94871809, 4215.25641019, 4309.10256425, 4125.64102537, 4167.56410236, 4113.58974332, 4127.94871767, 4185.12820499, 4129.87179460, 2340.64102161, 4193.20512807, 4532.94871858, 4148.33333313,12.0
4117.69230742, 4370.76923105, 4222.05128199, 4312.56410271, 4126.53846126, 4185.12820499, 4128.97435870, 4137.17948697, 4191.02564089, 4131.79487152, 2346.02563700, 4198.71794858, 4530.89743653, 4143.97435877,12.0
4120.25640998, 4374.61538490, 4228.20512814, 4307.69230784, 4127.17948691, 4192.05128192, 4152.56410236, 4146.28205108, 4197.82051269, 4128.71794844, 2364.99999604, 4202.43589737, 4538.20512883, 4144.99999980,12.0
4119.74358947, 4325.64102578, 4215.12820506, 4288.07692315, 4126.53846126, 4172.94871781, 4139.99999980, 4134.10256383, 4186.92307679, 4128.46153819, 2430.12820131, 4187.56410243, 4511.92307748, 4146.41025621,12.0
4120.76923050, 4337.17948739, 4209.61538455, 4289.74358982, 4126.92307665, 4177.82051269, 4127.69230742, 4130.76923050, 4176.79487166, 4131.53846126, 2459.48717567, 4183.07692294, 4486.15384664, 4145.25641005,12.0
4119.99999973, 4381.15384644, 4225.12820506, 4311.28205142, 4130.51282024, 4196.92307679, 4149.99999980, 4151.92307672, 4186.53846140, 4128.97435870, 2428.71794490, 4206.41025634, 4510.38461594, 4148.07692287,12.0
4119.61538434, 4360.76923098, 4223.97435891, 4307.30769245, 4128.71794844, 4187.82051269, 4157.82051262, 4161.02564082, 4192.56410243, 4127.30769203, 2419.10256022, 4206.15384609, 4522.05128261, 4146.28205108,12.0
4118.58974332, 4317.05128219, 4201.41025634, 4280.25641033, 4125.64102537, 4163.20512800, 4115.89743562, 4138.33333313, 4175.51282038, 4136.02564082, 2461.28204746, 4171.28205115, 4477.05128254, 4143.84615364,12.0
4114.74358947, 4312.94871809, 4198.58974345, 4274.23076930, 4126.53846126, 4157.30769210, 4096.66666632, 4123.07692280, 4163.33333313, 4135.38461518, 2498.46153478, 4163.20512800, 4455.89743632, 4144.74358954,12.0
4115.51282024, 4307.69230784, 4211.28205122, 4284.23076930, 4127.56410229, 4164.99999980, 4125.25640998, 4130.51282024, 4169.35897422, 4123.71794844, 2499.74358606, 4181.02564089, 4471.53846203, 4142.56410236,12.0
4114.61538434, 4313.84615399, 4218.20512814, 4288.46153853, 4130.64102537, 4172.82051269, 4134.74358947, 4142.56410236, 4177.30769217, 4124.35897408, 2498.46153478, 4191.66666653, 4478.33333382, 4145.64102544,12.0
4113.46153819, 4346.79487201, 4227.56410250, 4294.74358982, 4129.74358947, 4179.48717935, 4130.89743562, 4149.74358954, 4184.99999986, 4130.89743562, 2514.99999632, 4207.05128199, 4476.92307741, 4148.20512800,12.0
4111.92307665, 4342.05128226, 4229.74358968, 4295.25641033, 4124.99999973, 4182.94871781, 4142.82051262, 4141.15384595, 4184.87179474, 4133.97435870, 2530.12820152, 4209.23076917, 4465.12820562, 4144.99999980,12.0
4109.61538434, 4264.23076923, 4200.64102551, 4249.74358975, 4126.02564075, 4170.89743576, 4120.38461511, 4146.41025621, 4165.76923056, 4131.79487152, 2610.51281704, 4168.84615371, 4445.38461581, 4148.84615364,12.0
4107.56410229, 4285.25641033, 4195.76923063, 4271.02564110, 4128.33333306, 4161.53846133, 4108.20512793, 4141.02564082, 4157.17948697, 4136.66666646, 2621.79486832, 4160.51282031, 4421.92307727, 4147.17948697,12.0
4106.79487152, 4320.00000014, 4209.35897429, 4282.82051289, 4130.25640998, 4181.79487166, 4129.48717921, 4146.41025621, 4161.66666646, 4130.89743562, 2648.58974019, 4173.58974345, 4404.10256445, 4148.71794851,12.0
4108.71794844, 4298.20512828, 4207.05128199, 4276.41025648, 4126.79487152, 4183.07692294, 4117.69230742, 4131.28205101, 4150.25641005, 4131.28205101, 2653.84615045, 4175.89743576, 4410.64102599, 4149.74358954,12.0
4107.17948691, 4282.17948725, 4204.23076917, 4276.66666674, 4126.53846126, 4174.99999986, 4108.20512793, 4127.94871767, 4144.74358954, 4135.51282031, 2663.71794539, 4179.10256397, 4421.79487215, 4148.33333313,12.0
4105.38461511, 4309.48717963, 4209.61538455, 4267.05128212, 4127.43589716, 4187.30769217, 4141.41025621, 4141.53846133, 4155.12820492, 4133.07692280, 2697.56409930, 4187.17948704, 4430.89743632, 4143.46153826,12.0
4106.02564075, 4316.92307707, 4207.56410250, 4258.46153847, 4128.33333306, 4198.20512807, 4157.82051262, 4148.46153826, 4163.97435877, 4130.89743562, 2721.53845828, 4191.15384602, 4426.66666702, 4143.07692287,12.0
4104.23076896, 4288.07692315, 4201.28205122, 4264.87179488, 4130.51282024, 4183.71794858, 4142.56410236, 4159.23076903, 4161.92307672, 4131.41025614, 2718.07691981, 4191.41025628, 4420.51282086, 4144.87179467,12.0
4103.33333306, 4259.74358975, 4187.30769217, 4252.43589744, 4131.02564075, 4161.92307672, 4122.30769203, 4153.46153826, 4150.25641005, 4133.71794844, 2711.53845828, 4173.71794858, 4421.79487215, 4143.46153826,12.0
4100.51282017, 4272.17948725, 4184.23076910, 4239.74358975, 4129.74358947, 4163.84615364, 4108.84615357, 4133.07692280, 4147.30769210, 4134.35897408, 2745.76922758, 4170.38461525, 4414.87179522, 4145.76923056,12.0
4099.48717914, 4297.94871802, 4194.35897422, 4259.23076923, 4126.41025614, 4177.82051269, 4107.05128178, 4134.99999973, 4157.05128185, 4133.07692280, 2786.53845842, 4186.92307679, 4400.89743625, 4144.99999980,12.0
4103.46153819, 4284.48717956, 4188.58974345, 4266.92307700, 4129.48717921, 4175.76923063, 4114.61538434, 4142.30769210, 4156.66666646, 4135.12820485, 2784.74358662, 4178.71794858, 4415.51282086, 4144.48717928,12.0
4104.35897408, 4248.46153847, 4166.92307672, 4242.82051282, 4132.05128178, 4170.89743576, 4117.05128178, 4132.56410229, 4138.97435877, 4135.76923056, 2780.76922765, 4145.76923056, 4414.10256445, 4149.74358954,12.0
4103.84615357, 4253.33333334, 4170.89743576, 4234.48717949, 4127.82051255, 4175.25641012, 4120.76923050, 4130.51282024, 4136.41025621, 4131.53846126, 2826.66666368, 4151.28205108, 4396.02564131, 4149.74358954,12.0
4101.79487145, 4284.35897443, 4190.76923063, 4246.79487180, 4128.46153819, 4174.48717935, 4132.82051255, 4147.05128185, 4151.15384595, 4134.10256383, 2874.48717657, 4182.94871781, 4412.82051317, 4145.76923056,12.0
4099.99999966, 4268.20512828, 4182.69230756, 4248.97435898, 4129.35897408, 4173.33333320, 4129.87179460, 4149.23076903, 4148.46153826, 4135.76923056, 2867.94871503, 4168.20512807, 4410.00000035, 4145.12820492,12.0
4102.94871767, 4245.64102564, 4173.84615371, 4254.61538462, 4128.58974332, 4181.66666653, 4122.05128178, 4135.64102544, 4134.87179460, 4125.76923050, 2851.79486881, 4141.41025621, 4381.53846182, 4146.92307672,12.0
4104.48717921, 4259.10256411, 4183.46153833, 4257.43589744, 4128.46153819, 4177.56410243, 4132.05128178, 4137.30769210, 4146.28205108, 4124.74358947, 2875.12820221, 4152.94871774, 4390.89743618, 4147.43589723,12.0
4104.48717921, 4259.35897436, 4185.25641012, 4241.02564103, 4124.61538434, 4161.66666646, 4131.28205101, 4144.10256390, 4155.64102544, 4130.76923050, 2907.05127921, 4169.99999986, 4409.35897471, 4146.15384595,12.0
4101.15384581, 4244.61538462, 4182.56410243, 4248.46153847, 4126.02564075, 4162.56410236, 4111.79487152, 4138.84615364, 4143.84615364, 4129.10256383, 2909.35897151, 4165.25641005, 4405.89743625, 4146.66666646,12.0
4097.69230735, 4250.76923077, 4189.99999986, 4268.97435905, 4129.61538434, 4185.25641012, 4117.94871767, 4137.17948697, 4144.87179467, 4130.76923050, 2918.46153562, 4164.87179467, 4398.84615420, 4145.64102544,12.0
4099.23076889, 4257.69230770, 4195.51282038, 4257.69230770, 4127.94871767, 4190.25641012, 4144.48717928, 4141.66666646, 4147.94871774, 4132.30769203, 2958.71794601, 4173.71794858, 4380.00000028, 4144.99999980,12.0
4098.84615350, 4242.82051282, 4183.71794858, 4243.58974359, 4127.30769203, 4163.46153826, 4133.33333306, 4132.56410229, 4127.56410229, 4126.92307665, 2980.25640755, 4163.20512800, 4362.17948739, 4144.74358954,12.0
4098.84615350, 4242.82051282, 4183.71794858, 4243.58974359, 4127.30769203, 4163.46153826, 4133.33333306, 4132.56410229, 4127.56410229, 4126.92307665, 2980.25640755, 4163.20512800, 4362.17948739, 4144.74358954,12.0
4097.05128171, 4249.87179488, 4179.10256397, 4261.41025641, 4128.46153819, 4149.87179467, 4096.28205094, 4113.46153819, 4119.48717921, 4129.48717921, 2977.94871524, 4156.53846133, 4384.35897464, 4143.20512800,12.0
4097.56410222, 4267.69230777, 4190.51282038, 4278.97435905, 4130.51282024, 4160.51282031, 4099.61538427, 4123.07692280, 4138.84615364, 4138.46153826, 2970.89743319, 4171.28205115, 4403.07692343, 4144.99999980,12.0
4098.71794837, 4261.28205129, 4198.46153833, 4272.43589751, 4129.48717921, 4167.94871774, 4127.43589716, 4149.35897415, 4143.33333313, 4132.30769203, 2985.12820242, 4183.46153833, 4395.25641054, 4142.94871774,12.0
4097.82051248, 4245.76923077, 4192.43589730, 4270.64102571, 4128.58974332, 4167.05128185, 4121.92307665, 4146.79487159, 4142.69230749, 4122.43589716, 3022.17948461, 4175.12820499, 4381.66666695, 4140.76923056,12.0
4094.87179453, 4244.23076923, 4182.30769217, 4274.61538469, 4131.66666639, 4169.10256397, 4109.61538434, 4136.92307672, 4157.05128185, 4127.94871767, 3023.97435641, 4163.71794851, 4377.43589772, 4147.69230749,12.0
4097.94871761, 4252.43589744, 4184.10256397, 4270.76923084, 4130.25640998, 4165.64102544, 4118.33333306, 4142.43589723, 4151.79487159, 4133.71794844, 3012.30768967, 4162.82051262, 4377.05128233, 4147.30769210,12.0
4103.46153819, 4249.23076923, 4187.05128192, 4260.00000000, 4128.07692280, 4157.82051262, 4118.84615357, 4137.43589723, 4127.56410229, 4127.17948691, 3030.51281795, 4156.79487159, 4368.07692336, 4143.20512800,12.0
4101.28205094, 4234.48717949, 4183.84615371, 4258.07692308, 4129.61538434, 4165.89743569, 4122.17948691, 4127.82051255, 4126.92307665, 4122.56410229, 3034.74358718, 4150.76923056, 4362.94871816, 4145.76923056,12.0
4097.43589709, 4231.28205122, 4185.38461525, 4274.23076930, 4130.12820485, 4172.43589730, 4133.46153819, 4128.33333306, 4142.56410236, 4131.28205101, 3033.07692051, 4156.41025621, 4369.87179515, 4148.71794851,12.0
4096.92307658, 4240.89743590, 4192.69230756, 4258.84615385, 4131.02564075, 4171.79487166, 4130.89743562, 4131.79487152, 4146.02564082, 4138.71794851, 3081.79486930, 4164.74358954, 4373.97435926, 4148.58974339,12.0
4098.58974325, 4236.79487180, 4194.61538448, 4234.87179488, 4130.12820485, 4172.82051269, 4124.61538434, 4135.25640998, 4134.48717921, 4133.71794844, 3106.41025398, 4169.74358961, 4389.48717977, 4145.38461518,12.0
4098.97435863, 4233.33333327, 4191.53846140, 4260.51282052, 4130.76923050, 4169.74358961, 4127.94871767, 4138.97435877, 4127.94871767, 4127.94871767, 3064.61538212, 4170.51282038, 4399.48717984, 4146.15384595,12.0
4097.56410222, 4240.51282052, 4191.92307679, 4273.20512828, 4131.02564075, 4166.15384595, 4126.79487152, 4138.20512800, 4143.07692287, 4128.58974332, 3077.56410007, 4167.69230749, 4370.38461567, 4148.46153826,12.0
4099.99999966, 4230.12820506, 4189.23076910, 4242.30769231, 4128.58974332, 4159.23076903, 4115.51282024, 4129.23076896, 4151.66666646, 4132.94871767, 3133.97435662, 4160.12820492, 4351.28205149, 4147.30769210,12.0
4100.64102530, 4214.48717942, 4181.28205115, 4242.17948718, 4129.74358947, 4153.84615364, 4108.07692280, 4127.30769203, 4137.94871774, 4136.28205108, 3130.89743354, 4153.58974339, 4369.23076951, 4149.10256390,12.0
4098.20512786, 4228.97435891, 4180.89743576, 4256.79487180, 4130.25640998, 4156.79487159, 4112.05128178, 4133.97435870, 4133.84615357, 4132.43589716, 3126.28204892, 4152.43589723, 4358.58974380, 4148.07692287,12.0
4096.92307658, 4240.51282052, 4188.71794858, 4241.66666667, 4130.89743562, 4167.17948697, 4127.94871767, 4138.07692287, 4144.10256390, 4130.64102537, 3167.43589515, 4161.92307672, 4348.07692329, 4144.61538441,12.0
4094.99999966, 4214.10256404, 4186.79487166, 4235.51282052, 4131.02564075, 4172.94871781, 4137.17948697, 4139.61538441, 4136.66666646, 4136.28205108, 3181.66666438, 4164.35897415, 4361.66666688, 4144.35897415,12.0
4094.48717914, 4207.82051275, 4178.97435884, 4238.71794872, 4128.97435870, 4165.89743569, 4126.15384588, 4134.74358947, 4129.10256383, 4132.94871767, 3169.87179258, 4156.15384595, 4358.84615406, 4143.58974339,12.0
4092.17948684, 4230.76923070, 4188.46153833, 4235.00000000, 4130.64102537, 4157.43589723, 4126.92307665, 4135.76923056, 4139.87179467, 4125.89743562, 3182.82051053, 4161.41025621, 4361.02564124, 4145.12820492,12.0
4092.30769196, 4223.84615378, 4195.64102551, 4243.46153847, 4130.12820485, 4160.76923056, 4133.97435870, 4137.17948697, 4139.48717928, 4129.35897408, 3193.97435675, 4170.12820499, 4368.58974387, 4146.02564082,12.0
4096.79487145, 4210.38461532, 4188.46153833, 4246.79487180, 4128.33333306, 4165.38461518, 4122.43589716, 4126.02564075, 4132.69230742, 4130.64102537, 3200.64102342, 4164.74358954, 4343.46153867, 4145.12820492,12.0
4096.53846119, 4236.02564103, 4192.17948704, 4246.92307693, 4128.46153819, 4161.02564082, 4116.79487152, 4124.74358947, 4136.66666646, 4123.97435870, 3219.61538247, 4165.89743569, 4331.79487194, 4146.28205108,12.0
4094.99999966, 4247.56410257, 4198.71794858, 4248.33333334, 4128.33333306, 4156.92307672, 4128.20512793, 4131.92307665, 4139.87179467, 4128.58974332, 3229.61538247, 4176.66666653, 4357.05128226, 4146.92307672,12.0
4095.51282017, 4215.12820506, 4189.61538448, 4239.61538462, 4130.38461511, 4155.76923056, 4129.99999973, 4125.38461511, 4133.84615357, 4140.25641005, 3241.02563888, 4170.12820499, 4361.66666688, 4147.82051262,12.0
4094.61538427, 4202.69230763, 4189.23076910, 4245.76923077, 4127.94871767, 4161.15384595, 4129.87179460, 4126.02564075, 4139.74358954, 4138.07692287, 3267.30769023, 4166.28205108, 4349.35897457, 4145.25641005,12.0
4093.33333299, 4235.12820513, 4202.56410250, 4250.64102564, 4124.74358947, 4169.10256397, 4139.48717928, 4139.99999980, 4152.82051262, 4127.43589716, 3277.69230561, 4180.12820499, 4351.79487201, 4142.56410236,12.0
4092.43589709, 4259.61538462, 4206.28205122, 4245.38461539, 4130.38461511, 4174.74358961, 4149.87179467, 4151.28205108, 4153.46153826, 4126.15384588, 3281.53845946, 4187.94871781, 4351.28205149, 4145.51282031,12.0
4093.97435863, 4236.79487180, 4196.92307679, 4252.43589744, 4130.51282024, 4171.15384602, 4149.99999980, 4153.84615364, 4151.66666646, 4129.35897408, 3297.94871594, 4178.07692294, 4337.69230790, 4146.02564082,12.0
4095.25640991, 4195.51282038, 4184.61538448, 4246.15384616, 4125.89743562, 4153.97435877, 4132.30769203, 4144.10256390, 4146.15384595, 4125.89743562, 3305.25640825, 4157.94871774, 4326.79487194, 4144.87179467,12.0
4093.46153812, 4186.66666653, 4182.69230756, 4222.56410250, 4127.69230742, 4151.53846133, 4119.48717921, 4134.10256383, 4129.10256383, 4122.56410229, 3308.46153645, 4153.71794851, 4328.58974373, 4144.35897415,12.0
4092.94871761, 4216.15384609, 4198.71794858, 4233.58974352, 4129.23076896, 4161.53846133, 4124.10256383, 4137.05128185, 4124.23076896, 4131.15384588, 3323.84615190, 4176.28205115, 4340.64102585, 4144.74358954,12.0
4092.82051248, 4227.56410250, 4206.15384609, 4253.97435898, 4130.51282024, 4153.58974339, 4121.28205101, 4142.82051262, 4133.33333306, 4139.74358954, 3341.92307498, 4192.94871781, 4345.38461560, 4145.38461518,12.0
4091.53846119, 4215.12820506, 4198.20512807, 4245.76923077, 4131.15384588, 4146.92307672, 4114.35897408, 4132.17948691, 4140.51282031, 4134.99999973, 3355.64102377, 4180.25641012, 4321.92307707, 4141.79487159,12.0
4090.64102530, 4222.05128199, 4201.79487173, 4246.41025641, 4131.66666639, 4167.05128185, 4129.35897408, 4123.20512793, 4151.15384595, 4126.92307665, 3371.02563915, 4176.41025628, 4315.89743604, 4143.33333313,12.0
4093.20512786, 4217.82051275, 4205.25641019, 4240.64102564, 4131.92307665, 4173.84615371, 4145.25641005, 4133.84615357, 4155.38461518, 4127.69230742, 3373.97435710, 4183.20512807, 4337.05128226, 4146.41025621,12.0
4097.94871761, 4191.28205115, 4191.92307679, 4224.10256404, 4130.12820485, 4153.71794851, 4140.25641005, 4137.17948697, 4140.25641005, 4128.97435870, 3366.53845967, 4172.30769217, 4332.17948732, 4143.07692287,12.0
4094.74358940, 4188.71794858, 4181.92307679, 4222.43589737, 4128.84615357, 4154.87179467, 4133.07692280, 4129.23076896, 4127.82051255, 4129.10256383, 3381.15384435, 4155.25641005, 4311.66666681, 4144.74358954,12.0
4090.38461504, 4214.99999993, 4183.46153833, 4220.64102558, 4127.43589716, 4172.43589730, 4136.15384595, 4133.07692280, 4134.74358947, 4132.56410229, 3407.69230589, 4154.74358954, 4308.71794886, 4146.53846133,12.0
4092.30769196, 4208.07692301, 4189.23076910, 4219.10256404, 4130.64102537, 4163.07692287, 4140.12820492, 4141.02564082, 4142.30769210, 4130.89743562, 3425.12820339, 4169.35897422, 4310.51282066, 4144.35897415,12.0
4094.23076889, 4176.92307679, 4191.66666653, 4225.89743583, 4132.94871767, 4146.53846133, 4136.79487159, 4139.10256390, 4140.38461518, 4128.33333306, 3422.30769057, 4176.53846140, 4309.48717963, 4145.12820492,12.0
4095.12820478, 4193.07692294, 4189.23076910, 4219.87179481, 4127.94871767, 4156.41025621, 4130.12820485, 4137.82051262, 4129.35897408, 4129.10256383, 3421.28204955, 4172.82051269, 4304.23076937, 4145.12820492,12.0
4094.10256376, 4221.41025634, 4188.71794858, 4206.02564096, 4128.07692280, 4160.76923056, 4129.48717921, 4136.15384595, 4123.71794844, 4128.07692280, 3441.79487006, 4168.07692287, 4293.20512828, 4143.97435877,12.0
4091.15384581, 4185.12820499, 4184.61538448, 4204.23076917, 4129.35897408, 4141.92307672, 4120.76923050, 4114.10256383, 4122.56410229, 4129.10256383, 3452.94871628, 4162.69230749, 4301.79487194, 4144.35897415,12.0
4091.41025607, 4152.43589723, 4172.56410243, 4200.51282038, 4128.07692280, 4135.64102544, 4102.17948684, 4085.89743555, 4107.17948691, 4129.74358947, 3441.41025468, 4149.35897415, 4305.00000014, 4147.82051262,12.0
4094.61538427, 4198.20512807, 4177.56410243, 4206.79487173, 4127.43589716, 4150.64102544, 4123.20512793, 4099.61538427, 4104.35897408, 4128.84615357, 3448.07692141, 4152.82051262, 4291.66666674, 4148.07692287,12.0
4095.76923043, 4208.84615378, 4186.53846140, 4215.51282045, 4127.17948691, 4161.02564082, 4155.64102544, 4130.51282024, 4121.92307665, 4129.87179460, 3481.15384456, 4169.87179474, 4289.87179495, 4142.43589723,12.0
4092.82051248, 4158.20512800, 4174.87179474, 4196.92307679, 4129.61538434, 4161.79487159, 4142.69230749, 4127.56410229, 4129.48717921, 4132.82051255, 3484.23076764, 4152.82051262, 4277.82051289, 4143.58974339,12.0
4092.69230735, 4176.79487166, 4172.05128192, 4195.25641012, 4128.58974332, 4155.89743569, 4130.25640998, 4119.87179460, 4122.69230742, 4131.41025614, 3483.07692148, 4137.05128185, 4257.56410257, 4146.92307672,12.0
4095.25640991, 4204.48717942, 4179.23076910, 4213.71794865, 4128.20512793, 4146.79487159, 4139.74358954, 4128.97435870, 4121.66666639, 4130.38461511, 3508.07692148, 4152.30769210, 4271.53846161, 4145.89743569,12.0
4093.07692273, 4173.07692294, 4179.10256397, 4211.15384609, 4133.84615357, 4147.69230749, 4136.41025621, 4137.05128185, 4134.61538434, 4131.41025614, 3513.33333181, 4164.61538441, 4295.51282059, 4144.48717928,12.0
4091.92307658, 4192.17948704, 4188.97435884, 4212.69230763, 4130.89743562, 4150.51282031, 4129.48717921, 4141.15384595, 4149.61538441, 4132.43589716, 3519.35897283, 4175.12820499, 4298.07692315, 4139.74358954,12.0
4095.76923043, 4224.10256404, 4198.71794858, 4218.33333327, 4125.38461511, 4137.69230749, 4127.69230742, 4141.02564082, 4149.23076903, 4136.15384595, 3552.43589598, 4183.46153833, 4293.71794879, 4141.66666646,12.0
4093.97435863, 4172.17948704, 4182.69230756, 4202.17948711, 4127.69230742, 4131.15384588, 4116.15384588, 4136.02564082, 4134.10256383, 4135.89743569, 3553.46153701, 4166.41025621, 4280.89743597, 4147.05128185,12.0
4089.87179453, 4147.30769210, 4175.89743576, 4203.20512814, 4130.76923050, 4143.46153826, 4123.97435870, 4132.17948691, 4132.56410229, 4130.25640998, 3533.71794719, 4157.94871774, 4268.84615392, 4145.38461518,12.0
4091.66666632, 4194.23076910, 4192.17948704, 4214.74358968, 4129.87179460, 4139.74358954, 4138.33333313, 4126.79487152, 4133.33333306, 4126.66666639, 3560.25640880, 4176.02564089, 4281.66666674, 4143.07692287,12.0
4093.07692273, 4197.69230756, 4186.92307679, 4203.20512814, 4126.53846126, 4124.61538434, 4116.02564075, 4108.71794844, 4109.74358947, 4129.23076896, 3575.12820367, 4168.97435884, 4273.20512828, 4144.99999980,12.0
4092.17948684, 4160.64102544, 4175.38461525, 4199.35897422, 4129.10256383, 4131.15384588, 4105.89743562, 4104.74358947, 4103.46153819, 4136.28205108, 3555.25640880, 4150.12820492, 4245.76923077, 4148.07692287,12.0
4093.71794837, 4168.97435884, 4184.74358961, 4209.87179481, 4131.02564075, 4145.12820492, 4135.38461518, 4131.02564075, 4133.07692280, 4134.61538434, 3578.58974220, 4166.92307672, 4264.74358975, 4146.41025621,12.0
4093.97435863, 4196.53846140, 4190.12820499, 4198.97435884, 4125.51282024, 4140.76923056, 4138.58974339, 4136.79487159, 4136.79487159, 4132.30769203, 3618.58974227, 4181.28205115, 4287.17948725, 4145.25641005,12.0
4092.94871761, 4184.87179474, 4176.53846140, 4180.25641012, 4127.82051255, 4127.43589716, 4110.51282024, 4116.41025614, 4114.61538434, 4138.71794851, 3605.38461400, 4157.17948697, 4250.12820513, 4144.87179467,12.0
4093.97435863, 4157.94871774, 4162.56410236, 4182.17948704, 4132.17948691, 4124.35897408, 4110.64102537, 4111.53846126, 4116.53846126, 4136.53846133, 3588.58974220, 4137.30769210, 4229.74358968, 4141.28205108,12.0
4094.87179453, 4164.48717928, 4168.46153833, 4197.94871781, 4130.38461511, 4132.82051255, 4133.20512793, 4122.69230742, 4130.12820485, 4123.46153819, 3606.53846015, 4155.51282031, 4272.69230777, 4141.66666646,12.0
4094.61538427, 4170.12820499, 4170.89743576, 4197.56410243, 4128.20512793, 4134.23076896, 4134.87179460, 4124.23076896, 4126.15384588, 4124.74358947, 3623.33333202, 4161.79487159, 4270.38461546, 4145.12820492,12.0
4090.76923043, 4155.89743569, 4154.74358954, 4169.87179474, 4125.38461511, 4120.12820485, 4120.76923050, 4113.84615357, 4115.12820485, 4133.20512793, 3632.69230638, 4135.12820485, 4227.56410250, 4144.23076903,12.0
4089.48717914, 4153.07692287, 4139.74358954, 4145.51282031, 4127.43589716, 4118.07692280, 4111.28205101, 4109.61538434, 4105.89743562, 4128.97435870, 3628.46153715, 4115.12820485, 4229.10256404, 4145.64102544,12.0
4091.79487145, 4149.61538441, 4130.51282024, 4150.51282031, 4130.64102537, 4119.23076896, 4101.53846119, 4108.71794844, 4100.38461504, 4126.66666639, 3617.94871663, 4109.23076896, 4234.74358975, 4146.53846133,12.0
4088.33333299, 4143.71794851, 4127.05128178, 4163.58974339, 4128.71794844, 4103.07692280, 4102.69230742, 4108.07692280, 4105.64102537, 4132.30769203, 3637.17948586, 4111.79487152, 4226.28205122, 4143.58974339,12.0
4086.92307658, 4160.64102544, 4133.97435870, 4166.28205108, 4128.58974332, 4115.25640998, 4124.61538434, 4116.66666639, 4112.30769203, 4134.10256383, 3661.66666542, 4120.38461511, 4235.51282052, 4145.25641005,12.0
4091.28205094, 4156.28205108, 4131.28205101, 4157.56410236, 4128.20512793, 4133.71794844, 4123.33333306, 4118.07692280, 4105.89743562, 4130.25640998, 3651.92307568, 4115.89743562, 4238.71794872, 4145.51282031,12.0
4094.23076889, 4133.97435870, 4122.17948691, 4145.51282031, 4128.71794844, 4110.51282024, 4102.43589709, 4109.99999973, 4095.38461504, 4128.46153819, 3644.48717824, 4105.64102537, 4216.41025634, 4143.58974339,12.0
4095.38461504, 4147.30769210, 4124.61538434, 4144.35897415, 4127.82051255, 4098.46153812, 4107.56410229, 4108.71794844, 4094.10256376, 4131.15384588, 3654.48717824, 4110.64102537, 4215.12820506, 4143.33333313,12.0
4095.12820478, 4149.35897415, 4121.79487152, 4142.69230749, 4127.69230742, 4108.58974332, 4111.79487152, 4098.07692273, 4091.15384581, 4130.89743562, 3651.79487055, 4106.15384588, 4213.71794865, 4145.25641005,12.0
4099.74358940, 4136.53846133, 4123.58974332, 4148.07692287, 4132.30769203, 4109.35897408, 4113.97435870, 4098.07692273, 4085.12820478, 4130.25640998, 3667.30769106, 4105.38461511, 4204.35897429, 4146.79487159,12.0
4103.84615357, 4151.02564082, 4140.76923056, 4167.82051262, 4128.20512793, 4117.30769203, 4139.99999980, 4123.71794844, 4096.53846119, 4131.66666639, 3694.35897318, 4135.12820485, 4224.74358968, 4144.48717928,12.0
4093.07692273, 4160.38461518, 4142.82051262, 4167.94871774, 4123.07692280, 4133.07692280, 4143.84615364, 4128.84615357, 4107.94871767, 4132.69230742, 3708.33333216, 4147.05128185, 4236.28205129, 4147.17948697,12.0
4081.53846119, 4150.25641005, 4130.76923050, 4150.64102544, 4125.64102537, 4117.30769203, 4113.84615357, 4107.30769203, 4100.76923043, 4131.41025614, 3742.82051178, 4128.58974332, 4221.15384609, 4147.94871774,12.0
4083.46153812, 4143.46153826, 4134.48717921, 4149.61538441, 4127.30769203, 4091.02564068, 4102.94871767, 4098.71794837, 4096.79487145, 4133.33333306, 3781.66666570, 4128.20512793, 4210.25641019, 4142.94871774,12.0
4083.46153812, 4143.46153826, 4134.48717921, 4149.61538441, 4127.30769203, 4091.02564068, 4102.94871767, 4098.71794837, 4096.79487145, 4133.33333306, 3781.66666570, 4128.20512793, 4210.25641019, 4142.94871774,12.0
4088.97435863, 4153.46153826, 4147.94871774, 4159.23076903, 4129.48717921, 4104.48717921, 4122.17948691, 4115.51282024, 4106.41025614, 4136.92307672, 3779.48717852, 4145.25641005, 4214.10256404, 4144.23076903,12.0
4090.51282017, 4163.97435877, 4147.56410236, 4158.20512800, 4128.46153819, 4121.53846126, 4131.92307665, 4125.38461511, 4113.84615357, 4132.17948691, 3760.76922973, 4146.41025621, 4211.15384609, 4147.43589723,12.0
4091.02564068, 4157.56410236, 4139.74358954, 4157.43589723, 4128.97435870, 4106.41025614, 4122.82051255, 4119.61538434, 4111.92307665, 4126.41025614, 3749.99999896, 4138.07692287, 4209.48717942, 4148.97435877,12.0
4091.15384581, 4145.64102544, 4135.64102544, 4158.33333313, 4130.76923050, 4097.43589709, 4110.64102537, 4116.41025614, 4103.46153819, 4127.69230742, 3738.84615274, 4130.89743562, 4213.46153840, 4147.05128185,12.0
4093.58974325, 4153.84615364, 4140.76923056, 4152.69230749, 4129.61538434, 4104.99999973, 4113.33333306, 4113.58974332, 4095.76923043, 4132.43589716, 3748.84615281, 4131.53846126, 4204.10256404, 4143.33333313,12.0
4094.48717914, 4156.15384595, 4149.10256390, 4153.33333313, 4129.74358947, 4109.10256383, 4133.97435870, 4117.43589716, 4102.94871767, 4133.97435870, 3770.76922973, 4144.23076903, 4202.43589737, 4144.74358954,12.0
4093.20512786, 4141.79487159, 4145.64102544, 4153.71794851, 4128.58974332, 4108.84615357, 4135.76923056, 4122.94871767, 4109.74358947, 4131.41025614, 3762.94871691, 4141.79487159, 4216.92307686, 4144.99999980,12.0
4093.46153812, 4133.97435870, 4137.05128185, 4142.56410236, 4127.56410229, 4106.02564075, 4115.25640998, 4116.79487152, 4099.23076889, 4126.53846126, 3756.28205024, 4122.82051255, 4211.15384609, 4146.28205108,12.0
4090.25640991, 4138.20512800, 4138.97435877, 4135.51282031, 4127.56410229, 4108.07692280, 4113.46153819, 4111.92307665, 4093.20512786, 4124.23076896, 3777.05128108, 4122.17948691, 4184.61538448, 4146.41025621,12.0
4087.17948684, 4154.35897415, 4148.58974339, 4140.89743569, 4127.82051255, 4112.94871767, 4126.15384588, 4113.97435870, 4101.79487145, 4131.53846126, 3784.87179390, 4143.58974339, 4194.10256397, 4142.82051262,12.0
4089.35897402, 4150.38461518, 4153.33333313, 4153.46153826, 4130.89743562, 4103.33333306, 4130.89743562, 4120.25640998, 4116.28205101, 4136.66666646, 3788.20512724, 4151.92307672, 4211.53846147, 4145.64102544,12.0
4093.20512786, 4133.33333306, 4147.17948697, 4155.12820492, 4128.46153819, 4094.87179453, 4126.79487152, 4122.69230742, 4123.20512793, 4132.69230742, 3812.82051192, 4142.17948697, 4192.56410243, 4147.43589723,12.0
4092.69230735, 4147.82051262, 4140.38461518, 4142.94871774, 4124.87179460, 4100.25640991, 4118.58974332, 4115.12820485, 4118.33333306, 4132.56410229, 3814.23076833, 4138.07692287, 4190.64102551, 4145.38461518,12.0
4089.10256376, 4150.38461518, 4140.12820492, 4136.02564082, 4127.43589716, 4100.25640991, 4115.25640998, 4112.56410229, 4113.33333306, 4134.48717921, 3800.89743493, 4143.20512800, 4207.05128199, 4147.30769210,12.0
4090.89743555, 4120.38461511, 4138.97435877, 4141.28205108, 4128.84615357, 4090.64102530, 4119.87179460, 4116.28205101, 4108.33333306, 4133.58974332, 3822.56410166, 4145.51282031, 4199.35897422, 4147.05128185,12.0
4095.38461504, 4114.35897408, 4129.74358947, 4135.12820485, 4129.61538434, 4084.23076889, 4111.02564075, 4109.61538434, 4091.15384581, 4137.05128185, 3839.48717859, 4130.76923050, 4173.97435884, 4146.15384595,12.0
4094.10256376, 4115.76923050, 4118.33333306, 4118.71794844, 4128.71794844, 4084.99999966, 4092.30769196, 4095.64102530, 4077.30769196, 4138.58974339, 3828.33333243, 4112.43589716, 4162.43589723, 4145.76923056,12.0
4091.15384581, 4125.38461511, 4126.53846126, 4129.23076896, 4127.94871767, 4088.33333299, 4105.76923050, 4095.89743555, 4093.97435863, 4129.61538434, 3835.64102474, 4131.02564075, 4188.07692294, 4146.15384595,12.0
4090.12820478, 4151.66666646, 4141.66666646, 4139.99999980, 4128.84615357, 4089.10256376, 4130.64102537, 4107.17948691, 4106.28205101, 4128.07692280, 3851.66666584, 4158.71794851, 4209.99999993, 4145.89743569,12.0
4089.61538427, 4132.43589716, 4132.30769203, 4125.76923050, 4128.20512793, 4082.17948684, 4111.28205101, 4103.58974332, 4091.15384581, 4132.94871767, 3846.41025558, 4141.79487159, 4175.76923063, 4143.33333313,12.0
4092.69230735, 4097.05128171, 4119.74358947, 4120.76923050, 4130.64102537, 4081.02564068, 4083.58974325, 4094.35897402, 4089.87179453, 4129.35897408, 3844.35897353, 4121.02564075, 4148.71794851, 4147.05128185,12.0
4097.56410222, 4110.64102537, 4126.66666639, 4126.92307665, 4129.35897408, 4088.97435863, 4103.33333306, 4106.02564075, 4109.10256383, 4125.89743562, 3848.97435814, 4134.10256383, 4174.74358961, 4147.82051262,12.0
4098.84615350, 4123.46153819, 4130.38461511, 4116.28205101, 4126.15384588, 4089.35897402, 4121.28205101, 4118.84615357, 4116.28205101, 4131.28205101, 3853.46153763, 4134.99999973, 4187.43589730, 4143.33333313,12.0
4096.02564068, 4105.12820485, 4122.56410229, 4099.87179453, 4129.23076896, 4085.76923043, 4102.82051255, 4117.56410229, 4107.05128178, 4137.17948697, 3861.15384532, 4114.74358947, 4165.12820492, 4145.12820492,12.0
4094.74358940, 4106.15384588, 4123.71794844, 4106.53846126, 4127.82051255, 4078.84615350, 4104.61538434, 4119.87179460, 4106.28205101, 4134.10256383, 3865.89743507, 4121.92307665, 4162.56410236, 4145.38461518,12.0
4096.66666632, 4114.35897408, 4128.97435870, 4113.97435870, 4126.15384588, 4078.58974325, 4126.53846126, 4127.56410229, 4110.64102537, 4126.92307665, 3864.35897353, 4139.10256390, 4176.02564089, 4143.33333313,12.0
4097.43589709, 4115.89743562, 4127.43589716, 4108.58974332, 4128.07692280, 4098.71794837, 4127.82051255, 4132.17948691, 4104.61538434, 4128.07692280, 3862.17948635, 4133.20512793, 4159.87179467, 4145.64102544,12.0
4096.66666632, 4124.87179460, 4125.64102537, 4105.12820485, 4128.58974332, 4107.69230742, 4119.99999973, 4118.33333306, 4095.51282017, 4130.64102537, 3854.23076840, 4123.84615357, 4128.07692280, 4147.69230749,12.0
4094.87179453, 4122.43589716, 4132.05128178, 4106.02564075, 4131.53846126, 4098.33333299, 4127.82051255, 4101.15384581, 4098.97435863, 4126.41025614, 3870.25640943, 4132.94871767, 4136.41025621, 4146.66666646,12.0
4095.76923043, 4106.79487152, 4138.84615364, 4102.56410229, 4130.12820485, 4096.79487145, 4132.94871767, 4105.76923050, 4108.07692280, 4124.61538434, 3920.89743521, 4149.61538441, 4157.69230749, 4143.97435877,12.0
4095.64102530, 4091.92307658, 4131.79487152, 4092.94871761, 4127.17948691, 4101.66666632, 4117.69230742, 4110.64102537, 4096.41025607, 4132.56410229, 3945.76923015, 4138.97435877, 4131.92307665, 4144.48717928,12.0
4094.48717914, 4108.97435870, 4130.38461511, 4099.99999966, 4128.20512793, 4096.92307658, 4117.30769203, 4106.92307665, 4079.99999966, 4137.30769210, 3952.56410194, 4129.99999973, 4113.97435870, 4145.12820492,12.0
4096.79487145, 4142.17948697, 4145.38461518, 4123.33333306, 4129.48717921, 4095.89743555, 4139.23076903, 4114.23076896, 4095.76923043, 4132.82051255, 3988.46153791, 4154.99999980, 4136.53846133, 4143.71794851,12.0
4095.12820478, 4133.97435870, 4148.20512800, 4117.69230742, 4132.05128178, 4103.46153819, 4136.92307672, 4122.43589716, 4114.48717921, 4127.94871767, 4017.56410208, 4158.71794851, 4131.92307665, 4144.10256390,12.0
4091.53846119, 4102.17948684, 4135.89743569, 4096.66666632, 4128.46153819, 4102.56410229, 4111.41025614, 4119.10256383, 4104.99999973, 4128.84615357, 4010.25640977, 4138.07692287, 4114.35897408, 4143.71794851,12.0
4093.20512786, 4094.87179453, 4134.48717921, 4095.25640991, 4125.64102537, 4092.82051248, 4105.89743562, 4125.76923050, 4101.02564068, 4134.61538434, 3988.84615329, 4142.94871774, 4122.43589716, 4146.15384595,12.0
4096.79487145, 4107.56410229, 4136.28205108, 4096.92307658, 4128.46153819, 4091.41025607, 4109.74358947, 4132.69230742, 4112.17948691, 4135.38461518, 3975.12820458, 4146.79487159, 4122.43589716, 4148.84615364,12.0
4098.07692273, 4111.66666639, 4131.66666639, 4092.30769196, 4127.17948691, 4093.20512786, 4100.12820478, 4111.66666639, 4101.28205094, 4131.92307665, 3984.48717894, 4133.07692280, 4116.28205101, 4144.10256390,12.0
4097.56410222, 4104.48717921, 4131.66666639, 4085.38461504, 4126.66666639, 4084.74358940, 4091.02564068, 4090.76923043, 4081.02564068, 4132.30769203, 3982.69230714, 4131.02564075, 4115.51282024, 4143.71794851,12.0
4096.02564068, 4096.15384581, 4129.48717921, 4080.12820478, 4127.69230742, 4088.33333299, 4093.97435863, 4088.20512786, 4083.71794837, 4129.99999973, 3937.43589674, 4133.20512793, 4094.35897402, 4147.43589723,12.0
4098.07692273, 4095.89743555, 4128.97435870, 4092.17948684, 4127.05128178, 4102.17948684, 4098.58974325, 4088.07692273, 4085.25640991, 4124.87179460, 3912.69230700, 4130.12820485, 4075.89743555, 4147.56410236,12.0
4101.53846119, 4105.12820485, 4140.76923056, 4103.46153819, 4129.35897408, 4096.66666632, 4107.82051255, 4100.25640991, 4084.10256376, 4127.56410229, 3940.12820451, 4140.76923056, 4086.92307658, 4146.79487159,12.0
4097.05128171, 4109.23076896, 4144.87179467, 4098.58974325, 4129.61538434, 4091.79487145, 4116.02564075, 4108.97435870, 4096.79487145, 4133.33333306, 3958.46153784, 4149.23076903, 4077.17948684, 4147.82051262,12.0
4094.10256376, 4113.97435870, 4139.35897415, 4097.30769196, 4129.35897408, 4106.02564075, 4118.33333306, 4105.25640998, 4109.23076896, 4134.48717921, 3956.66666605, 4144.99999980, 4066.79487138, 4148.20512800,12.0
4096.53846119, 4111.28205101, 4141.02564082, 4095.38461504, 4126.02564075, 4114.74358947, 4124.61538434, 4117.82051255, 4117.94871767, 4133.97435870, 3963.71794810, 4153.07692287, 4099.35897402, 4143.97435877,12.0
4095.89743555, 4093.46153812, 4145.12820492, 4093.33333299, 4123.07692280, 4104.74358947, 4125.25640998, 4131.66666639, 4119.74358947, 4130.51282024, 3970.51281989, 4160.38461518, 4093.33333299, 4144.48717928,12.0
4095.38461504, 4079.61538427, 4136.02564082, 4096.15384581, 4127.05128178, 4095.89743555, 4114.10256383, 4121.53846126, 4103.71794844, 4128.46153819, 3976.15384560, 4139.74358954, 4037.05128164, 4149.48717928,12.0
4096.28205094, 4091.41025607, 4124.48717921, 4090.25640991, 4127.30769203, 4094.23076889, 4105.89743562, 4106.79487152, 4089.74358940, 4132.05128178, 3970.38461476, 4120.38461511, 4034.87179439, 4145.51282031,12.0
4097.43589709, 4093.20512786, 4126.15384588, 4075.76923043, 4128.46153819, 4096.02564068, 4108.84615357, 4099.74358940, 4086.41025607, 4134.99999973, 3957.30769169, 4129.10256383, 4081.92307658, 4142.94871774,12.0
4096.66666632, 4066.15384574, 4128.20512793, 4065.76923036, 4128.84615357, 4096.02564068, 4109.74358947, 4089.87179453, 4076.53846119, 4131.92307665, 3965.12820451, 4133.84615357, 4086.02564068, 4145.51282031,12.0
4095.51282017, 4066.92307651, 4123.33333306, 4060.76923036, 4126.15384588, 4087.82051248, 4104.61538434, 4081.79487145, 4073.58974325, 4131.02564075, 3981.92307637, 4119.48717921, 4050.51282010, 4145.51282031,12.0
4097.69230735, 4091.15384581, 4125.12820485, 4074.10256376, 4129.10256383, 4094.48717914, 4116.53846126, 4094.35897402, 4090.25640991, 4136.15384595, 3989.10256355, 4123.07692280, 4040.64102523, 4145.38461518,12.0
4098.33333299, 4091.41025607, 4134.23076896, 4098.07692273, 4128.58974332, 4112.69230742, 4124.61538434, 4107.30769203, 4100.89743555, 4134.99999973, 3999.10256355, 4143.07692287, 4053.07692266, 4143.84615364,12.0
4099.10256376, 4089.48717914, 4136.66666646, 4092.82051248, 4126.15384588, 4108.20512793, 4109.74358947, 4105.51282024, 4102.82051255, 4126.53846126, 4009.48717900, 4145.76923056, 4064.48717907, 4144.74358954,12.0
4100.25640991, 4096.28205094, 4129.10256383, 4080.25640991, 4127.94871767, 4097.69230735, 4101.53846119, 4105.51282024, 4102.05128171, 4125.89743562, 4004.35897388, 4130.64102537, 4063.33333292, 4147.17948697,12.0
4098.58974325, 4082.30769196, 4120.38461511, 4077.56410222, 4128.71794844, 4098.97435863, 4104.10256383, 4105.51282024, 4094.48717914, 4131.02564075, 4004.23076875, 4119.48717921, 4067.43589702, 4147.43589723,12.0
4097.69230735, 4072.94871761, 4119.23076896, 4072.05128171, 4129.10256383, 4096.02564068, 4105.64102537, 4109.87179460, 4096.28205094, 4127.05128178, 4005.64102516, 4118.84615357, 4069.87179453, 4146.92307672,12.0
4097.56410222, 4091.66666632, 4126.41025614, 4078.97435863, 4126.66666639, 4090.51282017, 4113.33333306, 4117.05128178, 4106.92307665, 4125.12820485, 4011.79487131, 4126.66666639, 4062.17948677, 4143.97435877,12.0
4099.99999966, 4099.10256376, 4136.02564082, 4089.23076889, 4127.17948691, 4091.28205094, 4122.69230742, 4115.25640998, 4107.05128178, 4137.05128185, 4043.71794830, 4139.87179467, 4074.87179453, 4143.46153826,12.0
4100.64102530, 4086.66666632, 4132.56410229, 4077.17948684, 4130.64102537, 4100.89743555, 4121.15384588, 4120.25640998, 4107.94871767, 4139.10256390, 4048.46153805, 4135.76923056, 4086.92307658, 4146.15384595,12.0
4099.99999966, 4070.12820478, 4115.38461511, 4061.66666625, 4125.38461511, 4105.38461511, 4107.69230742, 4118.71794844, 4110.38461511, 4131.41025614, 4026.15384567, 4109.74358947, 4068.46153805, 4146.53846133,12.0
4101.53846119, 4065.38461497, 4115.51282024, 4069.74358940, 4124.10256383, 4095.12820478, 4104.99999973, 4106.66666639, 4103.71794844, 4136.02564082, 4056.15384574, 4104.74358947, 4051.66666625, 4147.56410236,12.0
4099.10256376, 4077.94871761, 4121.92307665, 4071.53846119, 4126.79487152, 4083.20512786, 4109.23076896, 4104.10256383, 4097.17948684, 4139.48717928, 4121.15384588, 4117.30769203, 4055.76923036, 4146.79487159,12.0
4095.51282017, 4085.76923043, 4118.58974332, 4069.35897395, 4125.25640998, 4084.48717914, 4094.74358940, 4104.61538434, 4103.33333306, 4130.64102537, 4128.97435870, 4115.89743562, 4073.20512786, 4144.99999980,12.0
4095.64102530, 4077.43589709, 4119.48717921, 4074.99999966, 4125.64102537, 4084.23076889, 4079.10256376, 4096.41025607, 4107.17948691, 4128.20512793, 4092.82051248, 4113.97435870, 4089.87179453, 4144.99999980,12.0
4099.35897402, 4071.02564068, 4126.28205101, 4069.48717907, 4125.76923050, 4077.17948684, 4092.69230735, 4095.51282017, 4103.46153819, 4134.35897408, 4091.28205094, 4126.66666639, 4090.51282017, 4144.10256390,12.0
4101.28205094, 4083.58974325, 4123.58974332, 4066.02564061, 4128.46153819, 4084.74358940, 4112.30769203, 4107.05128178, 4103.20512793, 4135.38461518, 4103.46153819, 4124.74358947, 4075.76923043, 4144.99999980,12.0
4099.74358940, 4097.05128171, 4114.23076896, 4073.33333299, 4129.74358947, 4096.28205094, 4109.87179460, 4111.66666639, 4101.92307658, 4133.46153819, 4091.53846119, 4110.25640998, 4076.41025607, 4143.20512800,12.0
4102.43589709, 4078.97435863, 4112.56410229, 4069.35897395, 4127.05128178, 4093.07692273, 4101.66666632, 4106.92307665, 4096.79487145, 4131.41025614, 4098.97435863, 4108.97435870, 4087.30769196, 4140.25641005,12.0
4105.89743562, 4060.38461497, 4107.69230742, 4052.56410215, 4127.94871767, 4090.76923043, 4102.30769196, 4102.82051255, 4095.12820478, 4128.07692280, 4125.76923050, 4103.71794844, 4084.61538427, 4143.46153826,12.0
4104.87179460, 4071.79487145, 4095.51282017, 4033.58974311, 4128.84615357, 4091.66666632, 4100.64102530, 4097.17948684, 4093.20512786, 4129.87179460, 4110.38461511, 4091.41025607, 4064.99999959, 4145.76923056,12.0
4104.74358947, 4083.46153812, 4099.74358940, 4031.92307644, 4131.92307665, 4091.02564068, 4101.15384581, 4100.25640991, 4090.76923043, 4133.20512793, 4077.56410222, 4100.76923043, 4083.71794837, 4147.56410236,12.0
4105.89743562, 4086.66666632, 4118.58974332, 4068.71794830, 4130.51282024, 4091.53846119, 4113.20512793, 4118.33333306, 4101.02564068, 4132.82051255, 4088.33333299, 4128.07692280, 4127.17948691, 4148.58974339,12.0
4108.33333306, 4095.64102530, 4119.87179460, 4091.41025607, 4125.64102537, 4085.89743555, 4112.82051255, 4118.58974332, 4110.76923050, 4132.17948691, 4117.05128178, 4133.71794844, 4111.02564075, 4146.53846133,12.0
4104.74358947, 4092.17948684, 4099.23076889, 4052.05128164, 4126.79487152, 4086.02564068, 4095.51282017, 4104.23076896, 4100.89743555, 4131.92307665, 4124.99999973, 4105.25640998, 4065.25640984, 4146.92307672,12.0
4089.61538427, 4067.82051241, 4086.92307658, 4026.53846106, 4121.79487152, 4088.71794837, 4088.84615350, 4099.35897402, 4086.53846119, 4129.99999973, 4117.56410229, 4087.56410222, 4074.10256376, 4146.53846133,12.0
4086.92307658, 4069.10256369, 4100.38461504, 4052.82051241, 4119.23076896, 4080.38461504, 4094.74358940, 4091.79487145, 4084.74358940, 4133.07692280, 4105.89743562, 4107.94871767, 4114.23076896, 4147.56410236,12.0
4099.99999966, 4101.15384581, 4116.79487152, 4068.46153805, 4126.02564075, 4084.23076889, 4099.10256376, 4087.17948684, 4089.99999966, 4135.51282031, 4101.79487145, 4125.25640998, 4115.12820485, 4150.51282031,12.0
4102.82051255, 4111.66666639, 4111.28205101, 4059.61538420, 4127.94871767, 4086.92307658, 4097.30769196, 4088.07692273, 4086.02564068, 4132.05128178, 4113.58974332, 4113.71794844, 4089.35897402, 4149.23076903,12.0
4097.17948684, 4088.71794837, 4104.99999973, 4063.71794830, 4126.53846126, 4079.99999966, 4098.58974325, 4088.84615350, 4078.33333299, 4132.94871767, 4125.64102537, 4104.87179460, 4084.35897402, 4148.71794851,12.0
4095.64102530, 4075.64102530, 4108.33333306, 4065.64102523, 4124.10256383, 4084.87179453, 4107.05128178, 4096.41025607, 4083.97435863, 4134.61538434, 4118.07692280, 4111.15384588, 4103.71794844, 4147.30769210,12.0
4099.35897402, 4080.25640991, 4108.46153819, 4051.28205087, 4124.61538434, 4087.43589709, 4104.35897408, 4094.74358940, 4088.71794837, 4129.48717921, 4119.99999973, 4111.28205101, 4112.05128178, 4146.15384595,12.0
4102.30769196, 4077.30769196, 4111.92307665, 4053.20512779, 4126.28205101, 4081.28205094, 4093.33333299, 4090.64102530, 4088.20512786, 4128.97435870, 4144.10256390, 4112.56410229, 4107.05128178, 4147.69230749,12.0
4100.38461504, 4081.15384581, 4125.38461511, 4077.05128171, 4126.92307665, 4085.76923043, 4094.87179453, 4102.56410229, 4103.58974332, 4134.48717921, 4147.82051262, 4129.48717921, 4116.79487152, 4146.02564082,12.0
4099.48717914, 4105.51282024, 4134.87179460, 4091.79487145, 4129.74358947, 4090.25640991, 4110.12820485, 4119.35897408, 4117.94871767, 4134.48717921, 4141.02564082, 4143.71794851, 4120.25640998, 4146.92307672,12.0
4100.12820478, 4123.84615357, 4130.76923050, 4086.41025607, 4126.41025614, 4086.79487145, 4119.99999973, 4123.07692280, 4110.89743562, 4130.64102537, 4155.38461518, 4139.87179467, 4113.33333306, 4146.92307672,12.0
4102.30769196, 4112.69230742, 4123.33333306, 4073.71794837, 4122.30769203, 4080.64102530, 4107.69230742, 4115.89743562, 4106.79487152, 4131.79487152, 4173.20512807, 4130.38461511, 4112.43589716, 4143.97435877,12.0
4102.17948684, 4084.61538427, 4123.20512793, 4062.43589702, 4124.87179460, 4083.84615350, 4094.61538427, 4116.53846126, 4108.84615357, 4136.53846133, 4171.53846140, 4130.38461511, 4106.79487152, 4144.61538441,12.0
4099.10256376, 4078.97435863, 4126.79487152, 4060.89743548, 4124.35897408, 4098.20512786, 4103.33333306, 4118.71794844, 4103.07692280, 4132.05128178, 4155.25641005, 4134.61538434, 4110.12820485, 4145.64102544,12.0
4100.25640991, 4103.07692280, 4132.94871767, 4077.17948684, 4125.64102537, 4103.07692280, 4121.92307665, 4116.41025614, 4107.17948691, 4123.46153819, 4150.12820492, 4137.94871774, 4115.25640998, 4145.12820492,12.0
4103.07692280, 4118.33333306, 4140.38461518, 4087.94871761, 4127.69230742, 4091.28205094, 4119.35897408, 4120.76923050, 4115.38461511, 4127.56410229, 4183.07692294, 4153.33333313, 4116.53846126, 4143.58974339,12.0
4104.23076896, 4100.12820478, 4137.56410236, 4071.02564068, 4127.17948691, 4086.66666632, 4105.76923050, 4121.66666639, 4104.10256383, 4133.46153819, 4193.84615371, 4151.15384595, 4115.25640998, 4147.56410236,12.0
4102.05128171, 4074.61538427, 4124.48717921, 4053.33333292, 4127.30769203, 4092.94871761, 4111.28205101, 4113.97435870, 4095.64102530, 4129.48717921, 4165.25641005, 4121.53846126, 4102.43589709, 4150.38461518,12.0
4102.43589709, 4090.25640991, 4126.79487152, 4069.61538420, 4123.33333306, 4087.69230735, 4122.43589716, 4110.25640998, 4110.64102537, 4127.56410229, 4177.94871781, 4120.38461511, 4098.33333299, 4144.48717928,12.0
4106.79487152, 4116.92307665, 4139.61538441, 4082.82051248, 4124.99999973, 4088.71794837, 4119.23076896, 4118.58974332, 4125.89743562, 4134.48717921, 4200.51282038, 4143.71794851, 4115.25640998, 4143.07692287,12.0
4104.35897408, 4106.41025614, 4133.97435870, 4069.48717907, 4128.07692280, 4102.82051255, 4107.05128178, 4119.87179460, 4116.28205101, 4134.61538434, 4186.15384602, 4136.53846133, 4111.53846126, 4145.38461518,12.0
4102.82051255, 4091.02564068, 4125.38461511, 4066.41025600, 4124.35897408, 4103.84615357, 4103.33333306, 4110.64102537, 4103.46153819, 4126.79487152, 4185.38461525, 4118.46153819, 4084.35897402, 4144.10256390,12.0
4103.71794844, 4081.53846119, 4127.43589716, 4059.35897395, 4123.58974332, 4089.35897402, 4108.97435870, 4111.92307665, 4106.66666639, 4125.38461511, 4196.15384602, 4117.69230742, 4090.25640991, 4144.23076903,12.0
4102.05128171, 4080.64102530, 4122.56410229, 4049.74358933, 4125.64102537, 4077.82051248, 4113.33333306, 4115.89743562, 4108.58974332, 4129.99999973, 4191.15384602, 4112.94871767, 4107.82051255, 4144.87179467,12.0
4102.94871767, 4089.99999966, 4117.94871767, 4065.12820472, 4128.97435870, 4085.12820478, 4111.79487152, 4113.46153819, 4103.97435870, 4135.64102544, 4211.28205122, 4109.35897408, 4098.84615350, 4145.38461518,12.0
4103.33333306, 4085.64102530, 4124.87179460, 4070.38461504, 4126.66666639, 4100.38461504, 4113.07692280, 4116.15384588, 4108.07692280, 4135.64102544, 4236.28205129, 4123.58974332, 4099.99999966, 4142.17948697,12.0
4103.71794844, 4087.30769196, 4128.33333306, 4053.97435856, 4123.33333306, 4103.07692280, 4114.99999973, 4112.94871767, 4110.25640998, 4128.33333306, 4218.58974352, 4126.53846126, 4103.97435870, 4141.66666646,12.0
4103.97435870, 4104.23076896, 4124.99999973, 4056.15384574, 4126.28205101, 4090.89743555, 4109.48717921, 4102.69230742, 4096.92307658, 4127.05128178, 4209.99999993, 4117.82051255, 4084.35897402, 4148.33333313,12.0
4102.69230742, 4090.25640991, 4121.41025614, 4065.25640984, 4126.53846126, 4084.35897402, 4109.48717921, 4101.53846119, 4093.33333299, 4132.05128178, 4221.02564096, 4118.84615357, 4072.05128171, 4147.43589723,12.0
4105.25640998, 4067.30769189, 4121.53846126, 4061.02564061, 4125.76923050, 4092.69230735, 4116.79487152, 4104.48717921, 4104.35897408, 4130.64102537, 4219.48717942, 4125.76923050, 4098.58974325, 4141.92307672,12.0
4107.05128178, 4093.84615350, 4129.87179460, 4073.20512786, 4126.92307665, 4107.05128178, 4129.35897408, 4116.41025614, 4112.43589716, 4127.05128178, 4222.43589737, 4135.51282031, 4124.61538434, 4142.82051262,12.0
4107.17948691, 4119.23076896, 4136.15384595, 4085.76923043, 4125.51282024, 4113.97435870, 4138.20512800, 4127.05128178, 4114.35897408, 4132.43589716, 4230.64102558, 4140.38461518, 4117.82051255, 4146.28205108,12.0
4107.94871767, 4100.76923043, 4131.66666639, 4073.20512786, 4128.20512793, 4108.71794844, 4129.61538434, 4122.30769203, 4112.05128178, 4137.43589723, 4228.46153840, 4132.69230742, 4096.41025607, 4146.92307672,12.0
4104.35897408, 4064.23076882, 4121.53846126, 4057.82051241, 4127.82051255, 4094.61538427, 4109.61538434, 4111.28205101, 4105.89743562, 4132.82051255, 4232.82051275, 4123.71794844, 4076.28205094, 4142.56410236,12.0
4104.74358947, 4062.56410215, 4118.33333306, 4059.61538420, 4124.48717921, 4086.02564068, 4096.15384581, 4097.69230735, 4089.87179453, 4131.02564075, 4232.69230763, 4118.20512793, 4084.87179453, 4143.33333313,12.0
4105.51282024, 4114.99999973, 4128.20512793, 4079.23076889, 4127.69230742, 4100.76923043, 4115.76923050, 4102.05128171, 4087.17948684, 4135.51282031, 4226.15384609, 4126.66666639, 4117.30769203, 4148.97435877,12.0
4103.84615357, 4120.64102537, 4128.84615357, 4080.89743555, 4127.17948691, 4110.76923050, 4132.43589716, 4110.12820485, 4097.43589709, 4132.05128178, 4241.79487180, 4132.94871767, 4110.64102537, 4146.79487159,12.0
4105.12820485, 4061.02564061, 4109.61538434, 4054.87179446, 4123.46153819, 4099.35897402, 4109.99999973, 4100.38461504, 4086.66666632, 4123.58974332, 4245.38461539, 4107.05128178, 4065.64102523, 4144.99999980,12.0
4104.61538434, 4049.48717907, 4101.66666632, 4055.76923036, 4122.56410229, 4090.64102530, 4089.23076889, 4092.94871761, 4079.61538427, 4127.94871767, 4219.10256404, 4086.66666632, 4064.74358933, 4145.76923056,12.0
4106.15384588, 4090.89743555, 4117.17948691, 4086.53846119, 4126.66666639, 4083.71794837, 4087.30769196, 4097.05128171, 4095.51282017, 4132.69230742, 4217.05128199, 4103.58974332, 4085.76923043, 4144.61538441,12.0
4107.56410229, 4104.87179460, 4128.07692280, 4095.25640991, 4128.58974332, 4078.71794837, 4091.28205094, 4104.74358947, 4104.61538434, 4125.64102537, 4243.20512821, 4117.69230742, 4083.71794837, 4145.38461518,12.0
4107.94871767, 4089.23076889, 4128.46153819, 4087.82051248, 4123.33333306, 4080.89743555, 4104.61538434, 4108.46153819, 4104.87179460, 4127.69230742, 4250.64102564, 4117.30769203, 4097.05128171, 4144.48717928,12.0
4110.12820485, 4078.97435863, 4125.51282024, 4080.51282017, 4127.69230742, 4083.84615350, 4120.38461511, 4118.46153819, 4114.10256383, 4136.53846133, 4246.53846154, 4111.92307665, 4104.10256383, 4145.25641005,12.0
4106.79487152, 4066.79487138, 4107.94871767, 4053.46153805, 4129.99999973, 4079.10256376, 4110.89743562, 4120.38461511, 4106.28205101, 4133.07692280, 4248.33333334, 4087.17948684, 4067.30769189, 4146.41025621,12.0
4108.97435870, 4073.58974325, 4105.51282024, 4047.56410215, 4125.12820485, 4083.46153812, 4109.87179460, 4113.07692280, 4094.10256376, 4133.20512793, 4249.87179488, 4086.15384581, 4060.51282010, 4145.51282031,12.0
4111.41025614, 4084.48717914, 4123.58974332, 4076.66666632, 4124.99999973, 4103.58974332, 4137.17948697, 4118.84615357, 4112.17948691, 4136.15384595, 4255.00000000, 4114.74358947, 4103.33333306, 4146.15384595,12.0
4109.48717921, 4077.30769196, 4117.30769203, 4082.05128171, 4125.89743562, 4108.84615357, 4128.07692280, 4116.92307665, 4111.66666639, 4128.07692280, 4255.38461539, 4104.87179460, 4107.17948691, 4144.74358954,12.0
4109.99999973, 4079.23076889, 4105.25640998, 4067.43589702, 4128.97435870, 4085.89743555, 4102.43589709, 4105.89743562, 4091.53846119, 4127.82051255, 4248.71794872, 4085.89743555, 4078.20512786, 4144.99999980,12.0
4106.53846126, 4083.20512786, 4113.07692280, 4072.82051248, 4126.92307665, 4066.53846113, 4104.35897408, 4100.38461504, 4097.56410222, 4137.05128185, 4244.10256411, 4101.41025607, 4072.17948684, 4147.05128185,12.0
4106.53846126, 4078.07692273, 4116.92307665, 4078.20512786, 4121.92307665, 4077.17948684, 4110.38461511, 4098.84615350, 4108.58974332, 4131.15384588, 4255.38461539, 4109.87179460, 4077.30769196, 4146.66666646,12.0
4108.58974332, 4072.43589709, 4116.79487152, 4070.38461504, 4124.23076896, 4099.10256376, 4113.97435870, 4110.38461511, 4109.48717921, 4124.10256383, 4281.53846161, 4106.15384588, 4081.92307658, 4143.07692287,12.0
4105.76923050, 4077.05128171, 4122.17948691, 4074.10256376, 4126.28205101, 4096.02564068, 4109.35897408, 4117.69230742, 4110.89743562, 4130.12820485, 4283.58974366, 4112.56410229, 4086.79487145, 4140.12820492,12.0
4108.46153819, 4086.66666632, 4119.87179460, 4084.99999966, 4127.82051255, 4079.74358940, 4091.66666632, 4104.23076896, 4105.38461511, 4130.76923050, 4263.46153847, 4108.71794844, 4082.56410222, 4143.71794851,12.0
4109.74358947, 4092.05128171, 4112.69230742, 4081.15384581, 4127.05128178, 4081.79487145, 4092.17948684, 4103.33333306, 4100.25640991, 4123.58974332, 4260.76923077, 4104.10256383, 4070.64102530, 4145.25641005,12.0
4109.10256383, 4085.51282017, 4113.20512793, 4072.69230735, 4123.71794844, 4090.51282017, 4111.41025614, 4119.48717921, 4107.30769203, 4129.61538434, 4272.17948725, 4110.89743562, 4066.79487138, 4142.17948697,12.0
4109.48717921, 4072.05128171, 4107.43589716, 4073.71794837, 4123.71794844, 4083.33333299, 4106.79487152, 4111.66666639, 4101.28205094, 4140.51282031, 4273.58974366, 4096.28205094, 4060.64102523, 4144.74358954,12.0
4107.69230742, 4067.30769189, 4094.10256376, 4065.64102523, 4122.82051255, 4070.12820478, 4094.23076889, 4089.35897402, 4084.10256376, 4137.82051262, 4268.71794879, 4071.15384581, 4046.28205087, 4145.25641005,12.0
4110.89743562, 4064.10256369, 4095.51282017, 4046.28205087, 4125.51282024, 4071.28205094, 4107.05128178, 4092.17948684, 4084.74358940, 4128.33333306, 4281.66666674, 4077.94871761, 4047.30769189, 4143.33333313,12.0
4111.66666639, 4069.10256369, 4106.53846126, 4057.30769189, 4127.17948691, 4093.46153812, 4118.33333306, 4108.46153819, 4094.35897402, 4129.48717921, 4308.20512835, 4100.25640991, 4061.28205087, 4144.48717928,12.0
4111.15384588, 4083.07692273, 4111.53846126, 4084.48717914, 4123.33333306, 4104.74358947, 4110.51282024, 4102.05128171, 4096.92307658, 4132.17948691, 4311.28205142, 4108.07692280, 4068.07692266, 4145.38461518,12.0
4111.92307665, 4089.10256376, 4120.25640998, 4081.53846119, 4125.51282024, 4093.58974325, 4113.20512793, 4098.71794837, 4106.15384588, 4128.20512793, 4300.00000014, 4116.79487152, 4066.79487138, 4147.17948697,12.0
4107.94871767, 4091.28205094, 4125.64102537, 4068.07692266, 4125.25640998, 4087.30769196, 4120.64102537, 4112.94871767, 4116.28205101, 4128.07692280, 4312.05128219, 4124.87179460, 4066.66666625, 4147.17948697,12.0
4110.76923050, 4084.87179453, 4122.82051255, 4081.66666632, 4122.43589716, 4093.58974325, 4111.66666639, 4116.02564075, 4118.71794844, 4133.84615357, 4337.82051303, 4124.87179460, 4067.17948677, 4148.33333313,12.0
4113.46153819, 4068.84615343, 4122.30769203, 4092.05128171, 4124.23076896, 4101.02564068, 4112.69230742, 4119.35897408, 4127.17948691, 4133.97435870, 4331.28205142, 4123.97435870, 4061.79487138, 4149.99999980,12.0
4112.17948691, 4074.99999966, 4124.99999973, 4082.56410222, 4124.10256383, 4103.46153819, 4124.35897408, 4126.41025614, 4133.58974332, 4131.66666639, 4301.66666681, 4122.69230742, 4060.51282010, 4146.66666646,12.0
4113.71794844, 4079.35897402, 4119.74358947, 4073.97435863, 4125.38461511, 4094.48717914, 4110.51282024, 4115.38461511, 4116.02564075, 4135.12820485, 4290.12820520, 4114.35897408, 4060.89743548, 4146.79487159,12.0
4111.02564075, 4056.53846113, 4107.94871767, 4065.76923036, 4125.89743562, 4081.53846119, 4093.71794837, 4104.35897408, 4096.53846119, 4135.12820485, 4290.51282059, 4102.56410229, 4058.33333292, 4146.92307672,12.0
4110.51282024, 4066.79487138, 4109.87179460, 4067.94871754, 4126.15384588, 4085.89743555, 4114.99999973, 4111.92307665, 4102.30769196, 4132.43589716, 4292.82051289, 4104.99999973, 4067.56410215, 4143.97435877,12.0
4111.79487152, 4092.05128171, 4121.53846126, 4075.51282017, 4125.38461511, 4098.07692273, 4134.99999973, 4116.79487152, 4108.46153819, 4134.23076896, 4298.84615392, 4115.38461511, 4078.97435863, 4145.12820492,12.0
4112.43589716, 4071.15384581, 4119.99999973, 4069.48717907, 4121.02564075, 4097.30769196, 4117.05128178, 4105.89743562, 4095.76923043, 4133.20512793, 4302.82051296, 4118.33333306, 4058.20512779, 4147.05128185,12.0
4115.25640998, 4045.64102523, 4108.46153819, 4063.97435856, 4124.61538434, 4088.84615350, 4097.43589709, 4096.79487145, 4086.15384581, 4132.69230742, 4295.64102571, 4105.25640998, 4032.94871747, 4146.15384595,12.0
4111.79487152, 4064.35897395, 4105.89743562, 4071.92307658, 4126.92307665, 4082.17948684, 4097.05128171, 4092.94871761, 4089.10256376, 4134.87179460, 4286.66666674, 4094.87179453, 4047.94871754, 4145.25641005,12.0
4109.48717921, 4074.87179453, 4110.51282024, 4072.17948684, 4124.23076896, 4086.02564068, 4099.61538427, 4086.41025607, 4094.35897402, 4133.58974332, 4288.71794879, 4099.35897402, 4056.79487138, 4144.99999980,12.0
4110.25640998, 4067.17948677, 4108.84615357, 4066.02564061, 4126.28205101, 4096.02564068, 4103.07692280, 4091.92307658, 4096.79487145, 4132.05128178, 4300.76923091, 4102.56410229, 4050.12820472, 4146.53846133,12.0
4109.48717921, 4086.79487145, 4110.25640998, 4081.02564068, 4124.61538434, 4087.56410222, 4118.20512793, 4110.76923050, 4106.15384588, 4130.76923050, 4306.66666681, 4109.35897408, 4064.74358933, 4145.76923056,12.0
4112.43589716, 4085.89743555, 4113.46153819, 4081.53846119, 4123.97435870, 4079.74358940, 4121.53846126, 4113.84615357, 4116.02564075, 4126.66666639, 4300.64102578, 4112.82051255, 4072.69230735, 4145.51282031,12.0
4114.10256383, 4053.33333292, 4103.20512793, 4053.07692266, 4126.53846126, 4093.97435863, 4113.71794844, 4107.94871767, 4108.84615357, 4128.71794844, 4299.61538476, 4102.43589709, 4052.43589702, 4146.15384595,12.0
4115.64102537, 4042.94871754, 4089.61538427, 4043.46153805, 4123.71794844, 4098.71794837, 4113.71794844, 4102.69230742, 4093.97435863, 4131.28205101, 4299.10256418, 4091.15384581, 4041.41025600, 4144.35897415,12.0
4113.71794844, 4055.89743548, 4089.99999966, 4057.94871754, 4122.94871767, 4084.99999966, 4111.41025614, 4094.99999966, 4093.97435863, 4128.46153819, 4301.53846168, 4097.17948684, 4061.79487138, 4145.38461518,12.0
4108.46153819, 4063.46153805, 4098.97435863, 4067.69230728, 4124.35897408, 4075.38461504, 4111.53846126, 4092.30769196, 4101.15384581, 4130.51282024, 4313.58974373, 4112.94871767, 4074.23076889, 4147.05128185,12.0
4112.94871767, 4058.97435856, 4099.48717914, 4061.53846113, 4127.05128178, 4074.35897402, 4116.66666639, 4096.41025607, 4094.10256376, 4129.48717921, 4310.51282066, 4110.76923050, 4059.61538420, 4148.33333313,12.0
4116.53846126, 4054.61538420, 4090.89743555, 4051.53846113, 4126.53846126, 4087.05128171, 4115.25640998, 4099.23076889, 4084.99999966, 4125.38461511, 4290.76923084, 4097.17948684, 4049.61538420, 4148.07692287,12.0
4113.46153819, 4054.23076882, 4084.61538427, 4049.87179446, 4122.43589716, 4094.74358940, 4098.07692273, 4086.53846119, 4083.33333299, 4127.69230742, 4286.79487187, 4090.89743555, 4059.48717907, 4146.79487159,12.0
4110.51282024, 4067.56410215, 4089.74358940, 4059.48717907, 4123.58974332, 4083.33333299, 4092.94871761, 4077.82051248, 4083.84615350, 4131.79487152, 4303.71794886, 4094.23076889, 4061.66666625, 4149.48717928,12.0
4108.71794844, 4056.41025600, 4094.48717914, 4059.23076882, 4122.94871767, 4076.66666632, 4107.30769203, 4084.74358940, 4084.61538427, 4131.41025614, 4308.97435912, 4094.23076889, 4042.30769189, 4146.53846133,12.0
4115.12820485, 4035.12820465, 4090.25640991, 4046.92307651, 4124.10256383, 4081.92307658, 4106.92307665, 4088.07692273, 4084.10256376, 4128.33333306, 4305.89743604, 4092.05128171, 4044.48717907, 4143.97435877,12.0
4117.82051255, 4068.33333292, 4091.92307658, 4061.28205087, 4128.71794844, 4087.56410222, 4108.07692280, 4094.10256376, 4089.87179453, 4128.46153819, 4305.76923091, 4102.82051255, 4073.33333299, 4147.69230749,12.0
4114.35897408, 4099.48717914, 4100.12820478, 4078.71794837, 4126.66666639, 4090.12820478, 4124.23076896, 4104.99999973, 4099.99999966, 4130.12820485, 4309.23076937, 4111.02564075, 4067.69230728, 4144.87179467,12.0
4111.92307665, 4065.51282010, 4095.76923043, 4057.56410215, 4123.84615357, 4091.15384581, 4128.46153819, 4106.66666639, 4098.20512786, 4129.35897408, 4303.71794886, 4096.53846119, 4040.89743548, 4140.89743569,12.0
4110.25640998, 4034.10256362, 4083.58974325, 4041.02564061, 4123.20512793, 4092.82051248, 4110.76923050, 4098.97435863, 4093.97435863, 4128.58974332, 4291.79487187, 4079.35897402, 4048.33333292, 4142.94871774,12.0
4115.76923050, 4064.61538420, 4093.84615350, 4063.46153805, 4125.25640998, 4093.71794837, 4105.64102537, 4096.79487145, 4100.25640991, 4133.33333306, 4314.10256425, 4091.53846119, 4065.25640984, 4146.02564082,12.0
4117.05128178, 4085.89743555, 4116.02564075, 4078.58974325, 4125.89743562, 4091.79487145, 4127.30769203, 4107.17948691, 4103.46153819, 4132.94871767, 4334.35897457, 4117.56410229, 4059.74358933, 4148.33333313,12.0
4114.61538434, 4071.02564068, 4114.99999973, 4063.33333292, 4121.53846126, 4087.43589709, 4126.15384588, 4106.15384588, 4103.20512793, 4129.74358947, 4320.38461553, 4122.56410229, 4059.74358933, 4145.76923056,12.0
4117.69230742, 4058.84615343, 4101.79487145, 4062.05128164, 4123.84615357, 4085.89743555, 4097.56410222, 4091.92307658, 4104.74358947, 4138.58974339, 4307.69230784, 4107.94871767, 4067.17948677, 4144.23076903,12.0
4117.82051255, 4053.84615343, 4097.05128171, 4068.33333292, 4127.05128178, 4086.41025607, 4091.66666632, 4092.94871761, 4096.92307658, 4139.61538441, 4311.02564117, 4097.69230735, 4061.66666625, 4146.66666646,12.0
4116.66666639, 4076.41025607, 4106.41025614, 4062.05128164, 4125.64102537, 4095.12820478, 4119.74358947, 4108.46153819, 4100.51282017, 4131.53846126, 4325.64102578, 4114.48717921, 4058.97435856, 4147.43589723,12.0
4115.89743562, 4094.35897402, 4117.56410229, 4074.23076889, 4125.89743562, 4115.51282024, 4136.79487159, 4121.92307665, 4118.97435870, 4133.33333306, 4337.94871816, 4133.58974332, 4066.15384574, 4145.89743569,12.0
4114.74358947, 4069.87179453, 4112.82051255, 4086.92307658, 4122.05128178, 4117.17948691, 4125.89743562, 4120.12820485, 4114.10256383, 4135.76923056, 4329.48717963, 4122.56410229, 4066.79487138, 4143.20512800,12.0
4115.51282024, 4050.12820472, 4103.20512793, 4074.99999966, 4122.56410229, 4093.46153812, 4118.58974332, 4107.69230742, 4100.51282017, 4132.69230742, 4316.15384630, 4108.58974332, 4064.48717907, 4145.89743569,12.0
4113.33333306, 4068.33333292, 4106.79487152, 4066.92307651, 4126.92307665, 4091.66666632, 4118.58974332, 4110.25640998, 4110.38461511, 4132.05128178, 4339.61538483, 4117.82051255, 4058.71794830, 4146.53846133,12.0
4113.20512793, 4090.12820478, 4116.79487152, 4076.41025607, 4124.87179460, 4109.74358947, 4115.25640998, 4118.84615357, 4117.94871767, 4131.92307665, 4352.82051303, 4128.07692280, 4055.64102523, 4143.33333313,12.0
4116.53846126, 4088.33333299, 4124.61538434, 4085.76923043, 4122.69230742, 4116.79487152, 4123.71794844, 4122.82051255, 4116.28205101, 4128.58974332, 4332.82051303, 4136.53846133, 4082.94871761, 4146.15384595,12.0
4115.51282024, 4074.61538427, 4122.94871767, 4079.99999966, 4121.41025614, 4112.43589716, 4120.38461511, 4120.12820485, 4121.15384588, 4129.87179460, 4334.23076944, 4141.41025621, 4095.64102530, 4145.64102544,12.0
4115.38461511, 4067.56410215, 4112.17948691, 4068.84615343, 4123.84615357, 4100.25640991, 4090.51282017, 4106.79487152, 4117.43589716, 4136.66666646, 4337.43589765, 4122.30769203, 4064.61538420, 4141.15384595,12.0
4117.94871767, 4072.94871761, 4105.12820485, 4070.38461504, 4127.05128178, 4091.53846119, 4096.79487145, 4110.25640998, 4108.97435870, 4138.46153826, 4334.23076944, 4108.07692280, 4045.89743548, 4142.82051262,12.0
4121.15384588, 4085.51282017, 4112.43589716, 4089.99999966, 4125.51282024, 4100.64102530, 4131.66666639, 4130.76923050, 4117.17948691, 4131.92307665, 4347.05128226, 4126.15384588, 4074.87179453, 4145.38461518,12.0
4118.84615357, 4086.02564068, 4115.64102537, 4092.17948684, 4123.71794844, 4112.82051255, 4128.07692280, 4133.97435870, 4125.12820485, 4125.64102537, 4343.33333355, 4130.64102537, 4091.28205094, 4144.87179467,12.0
4114.99999973, 4072.94871761, 4105.12820485, 4075.76923043, 4122.56410229, 4110.51282024, 4113.71794844, 4114.99999973, 4109.10256383, 4129.87179460, 4332.30769252, 4112.05128178, 4060.89743548, 4144.35897415,12.0
4117.43589716, 4074.35897402, 4109.87179460, 4077.69230735, 4124.48717921, 4116.15384588, 4121.15384588, 4109.23076896, 4096.28205094, 4131.15384588, 4352.56410278, 4121.53846126, 4056.28205087, 4145.38461518,12.0
4116.41025614, 4094.10256376, 4121.66666639, 4086.79487145, 4126.53846126, 4124.23076896, 4120.89743562, 4123.97435870, 4114.35897408, 4125.25640998, 4359.23076944, 4138.71794851, 4075.89743555, 4145.51282031,12.0
4117.05128178, 4079.87179453, 4112.30769203, 4077.30769196, 4124.87179460, 4105.51282024, 4113.07692280, 4122.30769203, 4122.94871767, 4127.17948691, 4339.48717970, 4124.23076896, 4068.71794830, 4143.46153826,12.0
4120.51282024, 4042.43589702, 4101.41025607, 4066.53846113, 4126.15384588, 4095.12820478, 4112.30769203, 4108.84615357, 4106.41025614, 4134.48717921, 4341.28205149, 4111.15384588, 4059.87179446, 4143.97435877,12.0
4116.66666639, 4068.71794830, 4111.02564075, 4093.46153812, 4123.20512793, 4115.51282024, 4119.48717921, 4115.38461511, 4115.89743562, 4133.71794844, 4356.92307714, 4131.53846126, 4082.56410222, 4144.87179467,12.0
4115.64102537, 4113.58974332, 4118.84615357, 4107.82051255, 4120.38461511, 4122.43589716, 4132.05128178, 4128.58974332, 4138.71794851, 4127.17948691, 4358.58974380, 4147.43589723, 4084.23076889, 4145.76923056,12.0
4118.46153819, 4098.71794837, 4109.61538434, 4085.51282017, 4124.23076896, 4115.89743562, 4131.66666639, 4125.25640998, 4127.30769203, 4126.66666639, 4356.28205149, 4129.23076896, 4055.38461497, 4145.64102544,12.0
4119.35897408, 4083.97435863, 4108.33333306, 4093.33333299, 4122.69230742, 4126.28205101, 4116.28205101, 4119.87179460, 4111.53846126, 4130.76923050, 4361.41025662, 4124.87179460, 4072.05128171, 4141.92307672,12.0
4119.48717921, 4090.76923043, 4115.38461511, 4110.89743562, 4122.17948691, 4127.43589716, 4111.02564075, 4123.97435870, 4117.05128178, 4134.87179460, 4370.25641054, 4138.58974339, 4094.23076889, 4142.94871774,12.0
4117.69230742, 4083.33333299, 4112.56410229, 4101.66666632, 4124.35897408, 4112.56410229, 4117.43589716, 4124.48717921, 4119.87179460, 4135.12820485, 4365.25641054, 4135.25640998, 4073.58974325, 4145.12820492,12.0
4120.64102537, 4079.10256376, 4103.71794844, 4091.66666632, 4124.74358947, 4107.43589716, 4117.30769203, 4115.64102537, 4114.74358947, 4131.02564075, 4346.92307714, 4119.23076896, 4054.23076882, 4145.64102544,12.0
4123.33333306, 4098.84615350, 4106.02564075, 4097.17948684, 4124.74358947, 4119.23076896, 4123.84615357, 4123.07692280, 4121.92307665, 4128.33333306, 4354.35897457, 4122.17948691, 4065.64102523, 4145.89743569,12.0
4118.46153819, 4090.89743555, 4105.12820485, 4096.66666632, 4122.94871767, 4126.02564075, 4126.79487152, 4135.51282031, 4133.84615357, 4129.99999973, 4370.64102592, 4126.92307665, 4075.12820478, 4140.51282031,12.0
4115.25640998, 4073.84615350, 4096.79487145, 4096.15384581, 4125.12820485, 4120.38461511, 4112.56410229, 4123.20512793, 4128.97435870, 4134.99999973, 4363.71794893, 4114.61538434, 4066.02564061, 4142.17948697,12.0
4119.23076896, 4094.48717914, 4105.64102537, 4106.15384588, 4125.38461511, 4117.17948691, 4114.10256383, 4113.97435870, 4118.46153819, 4134.35897408, 4362.94871816, 4125.38461511, 4069.87179453, 4148.33333313,12.0
4122.69230742, 4108.20512793, 4121.02564075, 4110.64102537, 4123.58974332, 4114.48717921, 4134.48717921, 4124.23076896, 4129.87179460, 4132.56410229, 4371.53846182, 4151.79487159, 4092.69230735, 4144.48717928,12.0
4118.07692280, 4099.61538427, 4120.12820485, 4110.25640998, 4125.38461511, 4121.15384588, 4144.48717928, 4138.33333313, 4147.94871774, 4134.99999973, 4377.82051310, 4153.84615364, 4102.30769196, 4143.84615364,12.0
4117.05128178, 4088.46153812, 4107.17948691, 4105.76923050, 4123.71794844, 4132.17948691, 4129.23076896, 4134.35897408, 4135.51282031, 4133.71794844, 4380.12820541, 4133.46153819, 4074.74358940, 4150.12820492,12.0
4123.71794844, 4075.64102530, 4102.69230742, 4098.58974325, 4124.87179460, 4131.41025614, 4117.94871767, 4121.53846126, 4118.97435870, 4132.82051255, 4375.25641054, 4120.89743562, 4052.94871754, 4150.25641005,12.0
4120.25640998, 4070.51282017, 4108.84615357, 4095.89743555, 4127.69230742, 4128.20512793, 4131.79487152, 4129.87179460, 4124.74358947, 4135.38461518, 4372.94871823, 4126.92307665, 4075.51282017, 4144.61538441,12.0
4116.79487152, 4077.82051248, 4109.99999973, 4095.89743555, 4125.76923050, 4123.97435870, 4139.99999980, 4137.43589723, 4127.05128178, 4134.74358947, 4377.94871823, 4129.23076896, 4086.53846119, 4144.99999980,12.0
4120.51282024, 4072.30769196, 4100.12820478, 4086.15384581, 4127.05128178, 4118.07692280, 4129.48717921, 4123.20512793, 4117.94871767, 4133.07692280, 4378.33333362, 4115.25640998, 4072.17948684, 4149.23076903,12.0
4118.84615357, 4068.84615343, 4099.61538427, 4094.99999966, 4124.61538434, 4123.71794844, 4122.05128178, 4113.07692280, 4112.17948691, 4133.84615357, 4370.25641054, 4118.33333306, 4078.07692273, 4146.02564082,12.0
4117.69230742, 4092.43589709, 4121.02564075, 4124.61538434, 4119.99999973, 4132.56410229, 4130.25640998, 4125.51282024, 4121.15384588, 4134.35897408, 4374.74359003, 4146.28205108, 4082.82051248, 4143.33333313,12.0
4116.15384588, 4097.69230735, 4127.56410229, 4119.48717921, 4119.61538434, 4130.51282024, 4139.48717928, 4132.56410229, 4131.79487152, 4133.58974332, 4388.58974387, 4149.10256390, 4069.99999966, 4145.51282031,12.0
4118.84615357, 4081.79487145, 4116.53846126, 4103.84615357, 4121.15384588, 4130.64102537, 4131.79487152, 4117.56410229, 4133.97435870, 4132.82051255, 4391.02564131, 4135.12820485, 4074.87179453, 4144.61538441,12.0
4123.58974332, 4086.02564068, 4118.71794844, 4119.99999973, 4124.99999973, 4134.99999973, 4123.84615357, 4114.99999973, 4134.35897408, 4132.30769203, 4383.97435926, 4139.61538441, 4081.79487145, 4145.12820492,12.0
4120.64102537, 4091.53846119, 4120.25640998, 4117.94871767, 4122.82051255, 4125.89743562, 4131.53846126, 4125.25640998, 4128.46153819, 4133.46153819, 4380.25641054, 4139.23076903, 4069.61538420, 4144.23076903,12.0
4121.28205101, 4067.56410215, 4107.94871767, 4086.53846119, 4122.56410229, 4124.99999973, 4134.48717921, 4121.92307665, 4119.10256383, 4134.10256383, 4378.97435926, 4122.56410229, 4070.76923043, 4141.79487159,12.0
4121.28205101, 4059.74358933, 4099.23076889, 4087.17948684, 4127.69230742, 4133.20512793, 4118.97435870, 4117.69230742, 4118.97435870, 4132.43589716, 4370.51282079, 4105.51282024, 4070.25640991, 4146.53846133,12.0
4120.89743562, 4089.99999966, 4105.64102537, 4114.23076896, 4125.89743562, 4123.07692280, 4110.38461511, 4123.97435870, 4127.43589716, 4131.28205101, 4378.84615413, 4108.97435870, 4058.20512779, 4148.71794851,12.0
4122.69230742, 4086.28205094, 4114.87179460, 4114.48717921, 4123.71794844, 4122.69230742, 4129.35897408, 4134.35897408, 4132.82051255, 4133.71794844, 4393.20512849, 4129.61538434, 4069.48717907, 4144.99999980,12.0
4118.46153819, 4063.71794830, 4112.82051255, 4103.71794844, 4122.30769203, 4141.53846133, 4153.20512800, 4143.97435877, 4135.51282031, 4136.66666646, 4383.84615413, 4136.02564082, 4086.02564068, 4142.69230749,12.0
4118.84615357, 4085.12820478, 4111.41025614, 4113.97435870, 4123.07692280, 4144.99999980, 4153.46153826, 4144.87179467, 4141.02564082, 4132.05128178, 4381.28205156, 4129.10256383, 4080.12820478, 4145.89743569,12.0
4121.15384588, 4099.35897402, 4120.25640998, 4117.94871767, 4125.89743562, 4136.02564082, 4137.82051262, 4136.66666646, 4142.30769210, 4126.28205101, 4393.46153874, 4134.10256383, 4072.05128171, 4147.30769210,12.0
4121.02564075, 4089.99999966, 4128.71794844, 4111.02564075, 4121.66666639, 4134.61538434, 4129.35897408, 4129.48717921, 4140.25641005, 4129.10256383, 4405.64102599, 4147.17948697, 4076.41025607, 4143.46153826,12.0
4123.20512793, 4103.46153819, 4127.56410229, 4117.94871767, 4122.94871767, 4141.53846133, 4134.99999973, 4136.66666646, 4142.30769210, 4136.28205108, 4408.33333368, 4152.69230749, 4081.79487145, 4146.15384595,12.0
4120.89743562, 4103.71794844, 4121.92307665, 4122.82051255, 4126.53846126, 4143.20512800, 4141.28205108, 4146.28205108, 4143.97435877, 4136.66666646, 4407.43589779, 4150.25641005, 4072.17948684, 4147.69230749,12.0
4121.79487152, 4082.94871761, 4123.84615357, 4120.12820485, 4122.69230742, 4137.30769210, 4142.56410236, 4136.79487159, 4140.12820492, 4128.71794844, 4407.94871830, 4145.89743569, 4073.71794837, 4144.87179467,12.0
4121.02564075, 4091.41025607, 4120.25640998, 4114.99999973, 4122.82051255, 4129.48717921, 4133.58974332, 4124.87179460, 4132.30769203, 4127.05128178, 4390.38461567, 4137.69230749, 4091.92307658, 4146.66666646,12.0
4116.92307665, 4090.64102530, 4108.20512793, 4106.53846126, 4126.15384588, 4130.12820485, 4123.20512793, 4127.56410229, 4122.05128178, 4132.82051255, 4373.20512849, 4126.28205101, 4071.02564068, 4144.48717928,12.0
4121.53846126, 4079.74358940, 4115.12820485, 4111.66666639, 4127.69230742, 4141.02564082, 4135.51282031, 4136.79487159, 4122.56410229, 4128.20512793, 4392.94871823, 4131.15384588, 4048.97435856, 4142.56410236,12.0
4122.94871767, 4105.51282024, 4124.10256383, 4124.61538434, 4124.35897408, 4143.07692287, 4144.99999980, 4139.48717928, 4135.76923056, 4123.20512793, 4419.10256445, 4142.69230749, 4071.15384581, 4146.66666646,12.0
4122.30769203, 4109.48717921, 4110.76923050, 4110.38461511, 4123.46153819, 4130.64102537, 4126.66666639, 4126.41025614, 4135.76923056, 4128.97435870, 4401.02564138, 4127.05128178, 4077.05128171, 4147.69230749,12.0
4121.92307665, 4080.76923043, 4105.25640998, 4106.53846126, 4125.51282024, 4131.79487152, 4120.25640998, 4121.28205101, 4123.07692280, 4131.53846126, 4376.41025669, 4114.87179460, 4057.30769189, 4145.89743569,12.0
4120.38461511, 4085.51282017, 4113.58974332, 4132.56410229, 4122.56410229, 4136.79487159, 4126.92307665, 4123.84615357, 4115.76923050, 4128.84615357, 4389.35897464, 4127.69230742, 4057.69230728, 4143.97435877,12.0
4124.48717921, 4103.84615357, 4111.66666639, 4124.23076896, 4122.30769203, 4121.41025614, 4123.46153819, 4111.79487152, 4106.41025614, 4133.33333306, 4401.79487215, 4127.94871767, 4062.43589702, 4146.41025621,12.0
4122.43589716, 4093.20512786, 4103.71794844, 4093.33333299, 4122.56410229, 4122.30769203, 4126.66666639, 4107.05128178, 4101.41025607, 4137.69230749, 4391.41025669, 4120.38461511, 4055.12820472, 4149.74358954,12.0
4121.02564075, 4078.20512786, 4099.61538427, 4097.17948684, 4121.15384588, 4140.38461518, 4126.79487152, 4112.05128178, 4106.79487152, 4130.64102537, 4386.02564131, 4125.38461511, 4059.61538420, 4145.25641005,12.0
4124.35897408, 4077.05128171, 4094.10256376, 4105.89743562, 4123.58974332, 4134.23076896, 4118.07692280, 4113.20512793, 4106.28205101, 4126.28205101, 4397.94871830, 4122.30769203, 4061.28205087, 4143.71794851,12.0
4120.89743562, 4080.64102530, 4087.30769196, 4090.89743555, 4123.97435870, 4119.87179460, 4123.84615357, 4118.20512793, 4103.71794844, 4131.66666639, 4398.07692343, 4113.20512793, 4064.61538420, 4146.66666646,12.0
4120.12820485, 4096.15384581, 4092.05128171, 4094.61538427, 4124.35897408, 4124.48717921, 4135.38461518, 4126.79487152, 4111.79487152, 4132.43589716, 4389.10256438, 4120.25640998, 4076.41025607, 4147.30769210,12.0
4121.15384588, 4106.66666639, 4095.64102530, 4112.17948691, 4124.23076896, 4129.48717921, 4130.12820485, 4127.17948691, 4114.48717921, 4127.17948691, 4389.23076951, 4127.30769203, 4062.82051241, 4146.15384595,12.0
4122.30769203, 4089.35897402, 4087.43589709, 4107.56410229, 4121.92307665, 4122.05128178, 4118.46153819, 4117.94871767, 4105.51282024, 4128.71794844, 4394.10256438, 4121.79487152, 4045.76923036, 4144.35897415,12.0
4123.58974332, 4087.56410222, 4085.64102530, 4103.84615357, 4125.25640998, 4122.43589716, 4122.30769203, 4117.82051255, 4105.51282024, 4134.99999973, 4408.71794907, 4119.74358947, 4050.76923036, 4147.05128185,12.0
4123.58974332, 4111.79487152, 4089.61538427, 4108.07692280, 4123.97435870, 4128.33333306, 4126.66666639, 4122.69230742, 4112.56410229, 4133.46153819, 4407.43589779, 4118.20512793, 4046.02564061, 4147.43589723,12.0
4126.92307665, 4098.84615350, 4089.10256376, 4094.87179453, 4121.92307665, 4121.92307665, 4116.92307665, 4114.48717921, 4107.56410229, 4131.41025614, 4383.58974387, 4115.76923050, 4028.33333285, 4145.38461518,12.0
4122.69230742, 4067.30769189, 4092.05128171, 4090.51282017, 4125.25640998, 4121.66666639, 4117.30769203, 4112.56410229, 4102.82051255, 4135.76923056, 4382.69230797, 4123.33333306, 4035.76923029, 4146.02564082,12.0
4121.15384588, 4082.05128171, 4099.48717914, 4109.48717921, 4124.10256383, 4134.61538434, 4128.46153819, 4116.53846126, 4106.53846126, 4134.48717921, 4398.58974394, 4132.17948691, 4049.48717907, 4143.58974339,12.0
4126.53846126, 4105.51282024, 4092.94871761, 4110.12820485, 4123.97435870, 4135.38461518, 4123.46153819, 4110.51282024, 4098.71794837, 4127.43589716, 4395.38461567, 4122.94871767, 4038.20512779, 4143.20512800,12.0
4121.66666639, 4095.12820478, 4084.10256376, 4100.89743555, 4122.82051255, 4122.05128178, 4114.74358947, 4111.02564075, 4089.74358940, 4128.46153819, 4385.38461567, 4110.12820485, 4035.12820465, 4145.64102544,12.0
4121.66666639, 4085.25640991, 4092.43589709, 4108.07692280, 4123.33333306, 4120.51282024, 4126.28205101, 4117.56410229, 4103.46153819, 4130.38461511, 4386.28205156, 4114.61538434, 4040.51282010, 4144.99999980,12.0
4124.87179460, 4086.66666632, 4093.97435863, 4103.46153819, 4126.28205101, 4126.53846126, 4131.79487152, 4114.99999973, 4111.92307665, 4127.82051255, 4388.46153874, 4114.61538434, 4026.53846106, 4144.87179467,12.0
4121.79487152, 4087.94871761, 4086.15384581, 4095.76923043, 4122.56410229, 4118.20512793, 4110.89743562, 4107.05128178, 4096.53846119, 4128.07692280, 4388.71794900, 4110.25640998, 4018.20512772, 4146.66666646,12.0
4121.41025614, 4099.74358940, 4091.02564068, 4103.07692280, 4121.66666639, 4111.28205101, 4101.28205094, 4106.15384588, 4091.53846119, 4128.71794844, 4391.79487208, 4117.56410229, 4031.79487131, 4149.74358954,12.0
4118.58974332, 4107.17948691, 4095.64102530, 4099.48717914, 4122.56410229, 4122.69230742, 4120.38461511, 4111.41025614, 4099.48717914, 4128.71794844, 4399.61538497, 4119.87179460, 4030.76923029, 4148.07692287,12.0
4122.56410229, 4089.87179453, 4090.38461504, 4090.25640991, 4121.41025614, 4120.64102537, 4120.76923050, 4103.71794844, 4089.23076889, 4130.51282024, 4394.87179515, 4111.79487152, 4023.46153798, 4142.17948697,12.0
4127.17948691, 4074.35897402, 4089.87179453, 4098.58974325, 4123.58974332, 4104.35897408, 4096.02564068, 4094.87179453, 4084.10256376, 4132.17948691, 4382.17948746, 4113.07692280, 4020.64102516, 4144.61538441,12.0
4123.71794844, 4087.82051248, 4097.05128171, 4110.38461511, 4122.56410229, 4106.15384588, 4099.23076889, 4106.02564075, 4107.43589716, 4128.97435870, 4390.76923105, 4126.66666639, 4008.58974311, 4146.15384595,12.0
4125.12820485, 4104.99999973, 4104.87179460, 4109.87179460, 4123.20512793, 4117.43589716, 4127.94871767, 4123.20512793, 4124.48717921, 4126.79487152, 4402.69230804, 4131.79487152, 4002.82051227, 4144.87179467,12.0
4124.10256383, 4088.84615350, 4100.25640991, 4096.28205094, 4126.92307665, 4123.97435870, 4128.33333306, 4124.87179460, 4114.23076896, 4129.99999973, 4401.28205163, 4120.25640998, 4005.64102516, 4146.41025621,12.0
4121.15384588, 4064.61538420, 4086.15384581, 4087.69230735, 4124.87179460, 4123.07692280, 4105.89743562, 4113.07692280, 4098.07692273, 4131.15384588, 4396.79487208, 4106.66666639, 4001.02564047, 4144.61538441,12.0
4119.99999973, 4065.25640984, 4082.94871761, 4090.89743555, 4121.79487152, 4110.89743562, 4099.23076889, 4106.15384588, 4096.41025607, 4129.74358947, 4390.51282079, 4102.94871767, 3994.35897381, 4142.94871774,12.0
4120.51282024, 4077.05128171, 4092.17948684, 4088.97435863, 4121.66666639, 4104.35897408, 4111.92307665, 4106.02564075, 4105.25640998, 4128.20512793, 4390.25641054, 4111.92307665, 3995.51281996, 4144.35897415,12.0
4123.71794844, 4076.53846119, 4098.07692273, 4086.15384581, 4124.61538434, 4119.35897408, 4123.46153819, 4109.35897408, 4110.12820485, 4127.82051255, 4390.76923105, 4119.99999973, 3998.20512765, 4145.25641005,12.0
4123.71794844, 4064.10256369, 4089.61538427, 4090.76923043, 4124.99999973, 4123.84615357, 4117.43589716, 4110.51282024, 4098.46153812, 4129.23076896, 4380.76923105, 4110.89743562, 3992.56410201, 4144.35897415,12.0
4130.25640998, 4066.79487138, 4082.43589709, 4085.89743555, 4123.97435870, 4103.71794844, 4103.46153819, 4100.12820478, 4084.87179453, 4131.28205101, 4373.20512849, 4098.84615350, 3984.74358919, 4144.87179467,12.0
4134.87179460, 4073.58974325, 4091.79487145, 4083.97435863, 4128.33333306, 4111.41025614, 4114.35897408, 4101.15384581, 4089.35897402, 4126.53846126, 4379.48717977, 4109.23076896, 3987.30769176, 4148.20512800,12.0
4127.69230742, 4065.64102523, 4101.41025607, 4093.33333299, 4126.92307665, 4133.84615357, 4131.53846126, 4115.25640998, 4095.89743555, 4123.20512793, 4383.46153874, 4124.61538434, 3992.30769176, 4145.64102544,12.0
4128.84615357, 4061.41025600, 4099.99999966, 4093.84615350, 4123.20512793, 4128.71794844, 4127.94871767, 4120.89743562, 4090.64102530, 4134.61538434, 4378.84615413, 4125.38461511, 3994.74358919, 4141.53846133,12.0
4129.48717921, 4068.84615343, 4099.87179453, 4093.97435863, 4123.33333306, 4125.89743562, 4135.25640998, 4129.23076896, 4086.53846119, 4139.48717928, 4373.71794900, 4128.97435870, 4003.07692252, 4143.71794851,12.0
4125.76923050, 4082.94871761, 4105.51282024, 4097.17948684, 4121.53846126, 4146.53846133, 4147.82051262, 4134.48717921, 4097.69230735, 4130.51282024, 4375.12820541, 4138.58974339, 4000.89743535, 4145.38461518,12.0
4125.51282024, 4074.23076889, 4105.12820485, 4082.94871761, 4121.53846126, 4141.79487159, 4137.17948697, 4129.99999973, 4105.25640998, 4133.20512793, 4372.05128233, 4134.74358947, 3988.58974304, 4145.76923056,12.0
4125.51282024, 4039.48717907, 4095.89743555, 4069.74358940, 4122.43589716, 4113.97435870, 4125.89743562, 4128.58974332, 4092.82051248, 4137.94871774, 4357.82051303, 4121.66666639, 3985.64102509, 4145.51282031,12.0
4129.35897408, 4026.41025593, 4091.92307658, 4081.41025607, 4125.25640998, 4125.38461511, 4120.38461511, 4119.23076896, 4078.46153812, 4129.74358947, 4356.66666688, 4116.66666639, 3986.92307637, 4145.25641005,12.0
4128.20512793, 4042.56410215, 4099.87179453, 4091.15384581, 4127.30769203, 4148.20512800, 4120.89743562, 4107.05128178, 4078.58974325, 4128.58974332, 4359.10256431, 4123.97435870, 3993.20512765, 4146.53846133,12.0
4126.02564075, 4051.53846113, 4105.64102537, 4090.89743555, 4121.92307665, 4137.05128185, 4133.46153819, 4113.20512793, 4085.51282017, 4134.87179460, 4349.61538483, 4132.69230742, 3996.15384560, 4144.48717928,12.0
4130.12820485, 4039.48717907, 4099.23076889, 4093.20512786, 4122.43589716, 4125.12820485, 4130.12820485, 4120.12820485, 4081.79487145, 4127.94871767, 4348.58974380, 4126.28205101, 3983.07692252, 4144.35897415,12.0
4127.17948691, 4027.43589695, 4089.61538427, 4085.38461504, 4125.76923050, 4132.05128178, 4111.66666639, 4111.15384588, 4073.71794837, 4124.48717921, 4349.23076944, 4110.38461511, 3979.48717894, 4144.61538441,12.0
4123.71794844, 4041.28205087, 4094.61538427, 4083.07692273, 4124.48717921, 4135.89743569, 4120.51282024, 4109.99999973, 4077.94871761, 4131.92307665, 4343.20512842, 4117.30769203, 3996.28205073, 4141.79487159,12.0
4125.89743562, 4061.66666625, 4108.20512793, 4094.74358940, 4126.92307665, 4134.61538434, 4148.84615364, 4129.23076896, 4095.12820478, 4130.12820485, 4348.97435919, 4137.43589723, 4005.64102516, 4144.87179467,12.0
4126.28205101, 4047.05128164, 4111.28205101, 4093.20512786, 4126.28205101, 4139.35897415, 4149.74358954, 4142.05128185, 4107.17948691, 4126.41025614, 4355.64102585, 4136.79487159, 4001.02564047, 4146.41025621,12.0
4124.74358947, 4025.38461490, 4110.25640998, 4078.58974325, 4123.97435870, 4141.02564082, 4131.28205101, 4139.23076903, 4105.25640998, 4134.10256383, 4343.58974380, 4128.58974332, 4002.82051227, 4145.25641005,12.0
4125.25640998, 4025.89743541, 4105.25640998, 4068.46153805, 4123.71794844, 4138.07692287, 4120.12820485, 4130.51282024, 4097.05128171, 4136.66666646, 4334.23076944, 4124.99999973, 4003.20512765, 4146.41025621,12.0
4129.23076896, 4021.92307644, 4094.35897402, 4061.15384574, 4121.02564075, 4136.79487159, 4119.74358947, 4120.12820485, 4087.17948684, 4127.69230742, 4335.00000021, 4111.28205101, 3988.84615329, 4145.76923056,12.0
4130.51282024, 4027.30769183, 4095.89743555, 4051.79487138, 4120.64102537, 4140.38461518, 4142.05128185, 4126.41025614, 4088.97435863, 4125.64102537, 4335.51282073, 4109.10256383, 3986.02564047, 4144.10256390,12.0
4129.10256383, 4043.20512779, 4102.82051255, 4045.51282010, 4122.05128178, 4137.82051262, 4149.48717928, 4133.07692280, 4098.07692273, 4129.74358947, 4335.38461560, 4119.35897408, 3995.38461483, 4143.58974339,12.0
4128.20512793, 4025.76923029, 4098.20512786, 4039.99999959, 4123.07692280, 4124.61538434, 4111.92307665, 4110.64102537, 4090.64102530, 4127.94871767, 4336.15384637, 4113.84615357, 3993.07692252, 4145.89743569,12.0
4126.79487152, 4009.10256362, 4098.97435863, 4048.20512779, 4124.35897408, 4118.07692280, 4091.15384581, 4099.74358940, 4074.48717914, 4126.92307665, 4339.61538483, 4115.76923050, 3996.15384560, 4147.94871774,12.0
4127.94871767, 4035.76923029, 4113.97435870, 4061.53846113, 4125.12820485, 4126.92307665, 4117.56410229, 4117.05128178, 4081.53846119, 4131.02564075, 4340.64102585, 4139.61538441, 4013.33333285, 4145.76923056,12.0
4128.07692280, 4050.89743548, 4119.87179460, 4056.79487138, 4126.53846126, 4143.71794851, 4138.71794851, 4125.51282024, 4105.51282024, 4133.97435870, 4343.46153867, 4149.99999980, 4012.94871747, 4145.51282031,12.0
4128.71794844, 4023.07692259, 4111.41025614, 4040.64102523, 4123.97435870, 4142.30769210, 4130.12820485, 4124.35897408, 4111.92307665, 4133.58974332, 4348.97435919, 4140.38461518, 4003.07692252, 4144.35897415,12.0
4132.30769203, 4006.92307644, 4103.07692280, 4033.33333285, 4121.15384588, 4123.58974332, 4123.71794844, 4128.71794844, 4103.07692280, 4131.79487152, 4346.41025662, 4133.58974332, 4003.71794817, 4142.17948697,12.0
4128.97435870, 4027.17948670, 4100.51282017, 4037.94871754, 4124.35897408, 4125.76923050, 4132.43589716, 4135.12820485, 4100.89743555, 4129.10256383, 4342.30769252, 4127.30769203, 3999.10256355, 4145.12820492,12.0
