AF3,F7,F3,FC5,T7,P7,O1,O2,P8,T8,FC6,F4,F8,AF4,Label
4118.71794844, 4092.82051248, 4106.02564075, 4087.43589709, 4126.79487152, 4102.82051255, 4103.46153819, 4103.97435870, 4109.99999973, 4133.33333306, 4607.69230846, 4115.38461511, 4117.94871767, 4143.46153826,12.0
4117.56410229, 4100.38461504, 4120.64102537, 4085.76923043, 4123.20512793, 4110.89743562, 4123.58974332, 4127.17948691, 4139.99999980, 4133.33333306, 4622.69230846, 4136.28205108, 4134.10256383, 4142.30769210,12.0
4119.48717921, 4099.87179453, 4132.94871767, 4098.20512786, 4124.35897408, 4155.89743569, 4146.79487159, 4147.17948697, 4159.61538441, 4133.33333306, 4632.17948802, 4159.48717928, 4147.05128185, 4147.94871774,12.0
4123.46153819, 4100.51282017, 4128.20512793, 4095.38461504, 4128.71794844, 4153.46153826, 4146.41025621, 4143.46153826, 4153.84615364, 4133.33333306, 4625.89743667, 4152.82051262, 4138.33333313, 4147.69230749,12.0
4114.10256383, 4107.56410229, 4122.82051255, 4088.58974325, 4127.56410229, 4121.79487152, 4137.43589723, 4135.89743569, 4154.10256390, 4133.33333306, 4629.74359058, 4143.58974339, 4135.38461518, 4143.46153826,12.0
4117.94871767, 4117.56410229, 4131.28205101, 4088.97435863, 4122.82051255, 4129.48717921, 4138.20512800, 4149.74358954, 4161.66666646, 4133.33333306, 4633.71794956, 4153.97435877, 4147.05128185, 4145.76923056,12.0
4120.12820485, 4118.46153819, 4141.79487159, 4092.94871761, 4122.30769203, 4146.66666646, 4151.41025621, 4168.07692287, 4177.05128192, 4133.33333306, 4634.10256494, 4168.20512807, 4152.43589723, 4148.07692287,12.0
4119.48717921, 4086.28205094, 4127.56410229, 4084.74358940, 4123.20512793, 4126.66666639, 4145.89743569, 4155.64102544, 4173.84615371, 4133.33333306, 4631.66666750, 4154.10256390, 4143.71794851, 4149.10256390,12.0
4121.66666639, 4075.89743555, 4115.38461511, 4084.10256376, 4123.46153819, 4116.79487152, 4131.28205101, 4143.97435877, 4156.02564082, 4133.20512793, 4625.51282128, 4136.15384595, 4140.64102544, 4146.66666646,12.0
4114.23076896, 4102.69230742, 4123.58974332, 4087.30769196, 4123.58974332, 4135.12820485, 4127.69230742, 4147.56410236, 4148.20512800, 4133.07692280, 4619.87179564, 4137.94871774, 4137.43589723, 4146.53846133,12.0
4119.61538434, 4095.25640991, 4119.87179460, 4070.89743555, 4124.99999973, 4132.05128178, 4131.79487152, 4131.41025614, 4138.46153826, 4133.46153819, 4612.69230846, 4130.12820485, 4126.53846126, 4150.89743569,12.0
4118.07692280, 4078.07692273, 4112.43589716, 4068.46153805, 4127.56410229, 4125.64102537, 4154.61538441, 4130.51282024, 4138.58974339, 4133.20512793, 4610.64102641, 4124.35897408, 4134.23076896, 4147.69230749,12.0
4112.17948691, 4097.30769196, 4120.25640998, 4095.51282017, 4125.51282024, 4142.69230749, 4168.33333320, 4151.53846133, 4151.53846133, 4132.94871767, 4618.97435974, 4138.07692287, 4140.64102544, 4145.12820492,12.0
4121.53846126, 4101.66666632, 4126.79487152, 4105.51282024, 4123.97435870, 4145.25641005, 4149.99999980, 4145.64102544, 4154.10256390, 4134.23076896, 4630.00000084, 4145.76923056, 4133.46153819, 4145.25641005,12.0
4116.41025614, 4081.53846119, 4120.38461511, 4086.02564068, 4123.20512793, 4129.61538434, 4129.35897408, 4126.28205101, 4142.43589723, 4135.51282031, 4626.02564179, 4138.58974339, 4135.76923056, 4144.23076903,12.0
4119.35897408, 4090.51282017, 4111.41025614, 4078.20512786, 4123.07692280, 4121.02564075, 4119.61538434, 4117.82051255, 4135.38461518, 4134.99999973, 4615.38461615, 4128.33333306, 4130.51282024, 4148.07692287,12.0
4124.74358947, 4091.15384581, 4104.10256383, 4076.41025607, 4127.82051255, 4108.20512793, 4109.61538434, 4112.05128178, 4133.97435870, 4134.61538434, 4610.38461615, 4118.46153819, 4115.64102537, 4145.89743569,12.0
4118.71794844, 4065.12820472, 4106.79487152, 4070.38461504, 4127.17948691, 4107.69230742, 4117.30769203, 4123.46153819, 4141.41025621, 4135.51282031, 4612.82051359, 4122.82051255, 4131.41025614, 4141.53846133,12.0
4126.28205101, 4082.69230735, 4114.48717921, 4090.38461504, 4122.94871767, 4133.84615357, 4128.84615357, 4142.43589723, 4153.46153826, 4136.02564082, 4618.33333410, 4133.58974332, 4146.28205108, 4143.07692287,12.0
4122.56410229, 4106.15384588, 4103.58974332, 4099.35897402, 4123.71794844, 4136.15384595, 4115.76923050, 4134.48717921, 4143.33333313, 4134.74358947, 4618.33333410, 4125.51282024, 4125.25640998, 4144.87179467,12.0
4121.28205101, 4064.48717907, 4087.56410222, 4050.51282010, 4123.20512793, 4109.35897408, 4113.20512793, 4117.94871767, 4130.38461511, 4135.38461518, 4616.66666743, 4109.23076896, 4115.64102537, 4149.99999980,12.0
4125.64102537, 4032.82051234, 4084.61538427, 4030.25640977, 4122.69230742, 4118.07692280, 4124.61538434, 4123.33333306, 4134.61538434, 4136.53846133, 4607.05128282, 4102.05128171, 4128.07692280, 4149.23076903,12.0
4116.02564075, 4075.64102530, 4098.46153812, 4093.84615350, 4122.69230742, 4147.56410236, 4122.17948691, 4136.66666646, 4139.48717928, 4133.07692280, 4604.35897513, 4118.97435870, 4135.12820485, 4144.99999980,12.0
4121.92307665, 4107.94871767, 4120.51282024, 4151.79487159, 4121.53846126, 4137.30769210, 4129.23076896, 4138.97435877, 4142.05128185, 4130.51282024, 4622.05128282, 4158.33333313, 4142.05128185, 4148.46153826,12.0
4122.69230742, 4093.71794837, 4122.17948691, 4165.12820492, 4123.07692280, 4113.58974332, 4140.38461518, 4133.07692280, 4138.33333313, 4133.84615357, 4624.48718026, 4172.82051269, 4136.15384595, 4147.43589723,12.0
4120.25640998, 4104.61538434, 4119.87179460, 4186.28205115, 4123.20512793, 4119.87179460, 4122.69230742, 4122.82051255, 4125.38461511, 4135.89743569, 4613.07692385, 4166.28205108, 4126.79487152, 4146.41025621,12.0
4123.33333306, 4134.87179460, 4135.51282031, 4208.33333327, 4121.66666639, 4137.82051262, 4118.20512793, 4127.94871767, 4127.43589716, 4133.33333306, 4618.07692385, 4182.43589730, 4144.35897415, 4146.66666646,12.0
4116.92307665, 4116.15384588, 4134.61538434, 4200.89743576, 4122.82051255, 4137.30769210, 4137.43589723, 4146.53846133, 4137.69230749, 4132.56410229, 4618.07692385, 4182.69230756, 4142.69230749, 4142.94871774,12.0
4121.15384588, 4087.94871761, 4113.84615357, 4191.02564089, 4127.05128178, 4128.58974332, 4134.48717921, 4141.92307672, 4135.64102544, 4134.10256383, 4601.15384692, 4154.74358954, 4117.56410229, 4143.97435877,12.0
4119.74358947, 4105.25640998, 4115.64102537, 4188.97435884, 4125.76923050, 4126.53846126, 4135.12820485, 4138.07692287, 4138.46153826, 4134.10256383, 4597.69230846, 4154.99999980, 4122.43589716, 4142.82051262,12.0
4120.89743562, 4121.41025614, 4131.92307665, 4185.76923063, 4119.10256383, 4128.58974332, 4148.46153826, 4147.82051262, 4144.48717928, 4134.48717921, 4609.61538538, 4172.43589730, 4132.82051255, 4144.23076903,12.0
4128.20512793, 4110.25640998, 4127.94871767, 4192.30769217, 4119.23076896, 4129.87179460, 4132.82051255, 4137.82051262, 4133.20512793, 4134.48717921, 4611.02564179, 4167.43589723, 4126.28205101, 4147.82051262,12.0
4120.64102537, 4100.76923043, 4116.02564075, 4195.89743576, 4123.71794844, 4126.28205101, 4115.38461511, 4127.17948691, 4127.30769203, 4133.58974332, 4601.41025718, 4157.30769210, 4126.53846126, 4144.23076903,12.0
4125.76923050, 4088.20512786, 4110.76923050, 4181.41025628, 4123.33333306, 4111.02564075, 4115.64102537, 4122.17948691, 4122.43589716, 4134.99999973, 4595.76923154, 4147.05128185, 4123.07692280, 4144.10256390,12.0
4127.30769203, 4073.07692273, 4102.30769196, 4166.66666646, 4122.94871767, 4099.10256376, 4102.82051255, 4107.94871767, 4097.56410222, 4136.28205108, 4596.28205205, 4126.28205101, 4105.38461511, 4145.89743569,12.0
4124.48717921, 4096.41025607, 4109.10256383, 4181.53846140, 4125.64102537, 4123.20512793, 4106.66666639, 4112.69230742, 4098.84615350, 4132.94871767, 4607.43589820, 4138.46153826, 4120.12820485, 4147.56410236,12.0
4130.12820485, 4126.79487152, 4127.05128178, 4202.30769224, 4125.25640998, 4147.82051262, 4134.99999973, 4130.38461511, 4124.74358947, 4131.02564075, 4617.56410333, 4173.20512807, 4146.15384595, 4148.97435877,12.0
4123.71794844, 4121.53846126, 4125.38461511, 4196.66666653, 4121.92307665, 4131.41025614, 4140.12820492, 4127.17948691, 4122.69230742, 4133.97435870, 4614.74359051, 4171.41025628, 4133.71794844, 4146.53846133,12.0
4126.79487152, 4110.12820485, 4118.71794844, 4192.56410243, 4123.97435870, 4115.51282024, 4130.51282024, 4119.74358947, 4111.53846126, 4134.99999973, 4610.12820590, 4157.56410236, 4123.58974332, 4149.35897415,12.0
4125.51282024, 4099.61538427, 4124.23076896, 4199.23076910, 4128.84615357, 4122.17948691, 4132.56410229, 4127.94871767, 4119.48717921, 4133.33333306, 4610.25641102, 4165.89743569, 4132.05128178, 4148.46153826,12.0
4119.35897408, 4083.71794837, 4123.97435870, 4193.71794858, 4127.43589716, 4124.61538434, 4133.33333306, 4128.97435870, 4118.33333306, 4133.97435870, 4613.97435974, 4168.71794858, 4130.51282024, 4143.58974339,12.0
4125.89743562, 4094.48717914, 4118.46153819, 4192.30769217, 4123.97435870, 4129.74358947, 4133.58974332, 4123.07692280, 4105.64102537, 4134.74358947, 4614.48718026, 4155.64102544, 4123.58974332, 4145.51282031,12.0
4120.76923050, 4120.12820485, 4117.30769203, 4202.56410250, 4123.46153819, 4141.15384595, 4133.46153819, 4129.61538434, 4105.38461511, 4134.10256383, 4608.58974436, 4148.07692287, 4118.07692280, 4144.61538441,12.0
4123.84615357, 4111.53846126, 4119.35897408, 4204.48717942, 4125.25640998, 4129.35897408, 4124.74358947, 4131.92307665, 4110.51282024, 4134.23076896, 4607.82051359, 4148.20512800, 4115.12820485, 4143.46153826,12.0
4127.30769203, 4086.92307658, 4114.10256383, 4194.48717935, 4126.41025614, 4104.48717921, 4111.53846126, 4114.10256383, 4099.35897402, 4134.35897408, 4608.58974436, 4143.33333313, 4117.94871767, 4143.58974339,12.0
4121.66666639, 4081.66666632, 4102.43589709, 4182.43589730, 4125.51282024, 4096.53846119, 4087.56410222, 4090.51282017, 4073.46153812, 4133.97435870, 4597.43589820, 4127.69230742, 4115.12820485, 4145.12820492,12.0
4128.20512793, 4093.20512786, 4111.66666639, 4194.74358961, 4125.38461511, 4107.94871767, 4086.41025607, 4095.25640991, 4081.79487145, 4134.35897408, 4600.76923154, 4136.15384595, 4115.89743562, 4146.02564082,12.0
4126.15384588, 4122.43589716, 4137.69230749, 4231.66666660, 4126.15384588, 4126.15384588, 4121.66666639, 4128.33333306, 4125.51282024, 4134.74358947, 4626.92307769, 4177.05128192, 4136.15384595, 4143.84615364,12.0
4130.12820485, 4157.30769210, 4147.56410236, 4246.92307693, 4125.38461511, 4134.48717921, 4137.56410236, 4144.35897415, 4149.99999980, 4133.97435870, 4635.38461622, 4197.30769217, 4148.07692287, 4145.89743569,12.0
4133.84615357, 4151.15384595, 4138.97435877, 4239.10256411, 4123.71794844, 4123.58974332, 4114.87179460, 4129.87179460, 4137.17948697, 4134.35897408, 4625.25641102, 4183.33333320, 4138.97435877, 4144.35897415,12.0
4124.99999973, 4120.12820485, 4134.74358947, 4240.89743590, 4123.07692280, 4114.35897408, 4111.02564075, 4120.89743562, 4117.56410229, 4136.02564082, 4618.46153923, 4170.64102551, 4133.33333306, 4143.58974339,12.0
4129.61538434, 4113.71794844, 4133.07692280, 4223.46153840, 4126.53846126, 4130.12820485, 4137.30769210, 4131.02564075, 4117.82051255, 4136.79487159, 4607.94871872, 4162.82051262, 4129.87179460, 4147.30769210,12.0
4126.28205101, 4117.17948691, 4123.07692280, 4193.07692294, 4128.97435870, 4141.79487159, 4135.89743569, 4134.10256383, 4118.46153819, 4134.99999973, 4601.66666743, 4151.66666646, 4125.25640998, 4145.25641005,12.0
4124.87179460, 4119.48717921, 4122.56410229, 4199.87179474, 4124.99999973, 4132.69230742, 4114.61538434, 4118.07692280, 4104.87179460, 4132.17948691, 4620.25641102, 4155.51282031, 4132.82051255, 4145.64102544,12.0
4129.48717921, 4117.94871767, 4131.15384588, 4204.74358968, 4122.69230742, 4127.56410229, 4113.20512793, 4111.41025614, 4105.64102537, 4130.25640998, 4641.53846238, 4168.97435884, 4143.71794851, 4147.05128185,12.0
4123.58974332, 4101.53846119, 4131.92307665, 4174.23076910, 4124.87179460, 4131.41025614, 4121.41025614, 4126.53846126, 4125.38461511, 4130.25640998, 4644.10256494, 4168.46153833, 4148.20512800, 4147.30769210,12.0
4129.61538434, 4104.35897408, 4124.48717921, 4149.48717928, 4126.41025614, 4125.51282024, 4117.05128178, 4132.56410229, 4125.76923050, 4131.15384588, 4643.33333417, 4159.99999980, 4151.15384595, 4146.15384595,12.0
4128.33333306, 4112.05128178, 4120.38461511, 4146.02564082, 4128.97435870, 4116.15384588, 4111.66666639, 4130.25640998, 4114.23076896, 4131.02564075, 4643.33333417, 4161.79487159, 4149.48717928, 4141.79487159,12.0
4125.38461511, 4088.97435863, 4127.69230742, 4150.51282031, 4127.30769203, 4120.89743562, 4113.58974332, 4134.87179460, 4123.71794844, 4130.51282024, 4644.74359058, 4168.33333320, 4146.41025621, 4143.97435877,12.0
4130.64102537, 4091.02564068, 4131.79487152, 4155.76923056, 4123.46153819, 4125.25640998, 4118.71794844, 4134.35897408, 4130.51282024, 4129.99999973, 4646.53846238, 4164.10256390, 4150.12820492, 4144.35897415,12.0
4123.33333306, 4118.46153819, 4124.23076896, 4151.79487159, 4122.82051255, 4123.33333306, 4125.64102537, 4128.71794844, 4119.23076896, 4130.89743562, 4640.25641109, 4151.92307672, 4147.56410236, 4141.79487159,12.0
4128.97435870, 4106.66666639, 4121.15384588, 4137.82051262, 4124.61538434, 4129.87179460, 4120.12820485, 4119.99999973, 4105.12820485, 4132.43589716, 4638.07692391, 4146.92307672, 4135.76923056, 4146.66666646,12.0
4131.02564075, 4088.33333299, 4121.66666639, 4137.30769210, 4126.92307665, 4135.38461518, 4114.99999973, 4117.30769203, 4103.97435870, 4130.76923050, 4639.61538545, 4148.97435877, 4132.43589716, 4145.89743569,12.0
4126.28205101, 4094.10256376, 4118.58974332, 4147.30769210, 4126.02564075, 4136.02564082, 4125.76923050, 4132.05128178, 4115.64102537, 4129.10256383, 4636.53846238, 4146.53846133, 4139.99999980, 4144.23076903,12.0
4138.20512800, 4093.97435863, 4120.25640998, 4148.71794851, 4126.28205101, 4146.53846133, 4150.51282031, 4147.30769210, 4123.20512793, 4132.43589716, 4636.15384699, 4144.48717928, 4139.35897415, 4145.76923056,12.0
4131.66666639, 4100.76923043, 4120.38461511, 4146.41025621, 4126.92307665, 4147.56410236, 4153.58974339, 4144.23076903, 4117.30769203, 4136.53846133, 4637.30769315, 4146.41025621, 4131.92307665, 4146.92307672,12.0
4128.71794844, 4119.23076896, 4118.20512793, 4152.05128185, 4123.84615357, 4117.94871767, 4112.17948691, 4128.07692280, 4102.17948684, 4135.12820485, 4635.12820597, 4147.56410236, 4133.97435870, 4150.12820492,12.0
4134.35897408, 4118.20512793, 4124.99999973, 4157.43589723, 4122.82051255, 4107.43589716, 4099.74358940, 4132.05128178, 4104.74358947, 4132.56410229, 4636.92307776, 4155.51282031, 4142.69230749, 4146.28205108,12.0
4126.15384588, 4116.66666639, 4139.61538441, 4160.76923056, 4123.84615357, 4135.25640998, 4135.25640998, 4157.05128185, 4133.84615357, 4133.07692280, 4647.56410340, 4174.10256397, 4151.28205108, 4146.53846133,12.0
4131.02564075, 4122.17948691, 4148.46153826, 4169.87179474, 4127.17948691, 4146.79487159, 4144.87179467, 4164.99999980, 4148.84615364, 4133.84615357, 4652.05128289, 4183.84615371, 4154.87179467, 4149.87179467,12.0
4127.56410229, 4121.79487152, 4137.43589723, 4171.53846140, 4128.07692280, 4140.25641005, 4128.84615357, 4151.41025621, 4132.30769203, 4132.94871767, 4643.07692391, 4172.30769217, 4147.17948697, 4144.23076903,12.0
4128.97435870, 4121.53846126, 4125.25640998, 4165.64102544, 4125.76923050, 4141.15384595, 4130.89743562, 4134.87179460, 4116.28205101, 4132.94871767, 4633.20512904, 4153.71794851, 4138.20512800, 4142.56410236,12.0
4136.53846133, 4120.76923050, 4128.07692280, 4164.74358954, 4125.76923050, 4141.41025621, 4140.89743569, 4133.20512793, 4123.20512793, 4134.10256383, 4631.66666750, 4146.53846133, 4137.82051262, 4143.71794851,12.0
4123.58974332, 4111.41025614, 4132.17948691, 4168.71794858, 4125.38461511, 4137.56410236, 4141.02564082, 4138.07692287, 4129.74358947, 4135.51282031, 4636.41025725, 4149.74358954, 4139.48717928, 4146.02564082,12.0
4132.17948691, 4110.25640998, 4131.79487152, 4168.33333320, 4125.25640998, 4139.48717928, 4134.48717921, 4128.84615357, 4116.66666639, 4134.61538434, 4633.33333417, 4149.61538441, 4134.10256383, 4143.84615364,12.0
4136.15384595, 4126.92307665, 4129.48717921, 4161.66666646, 4124.48717921, 4143.97435877, 4126.15384588, 4123.97435870, 4106.15384588, 4131.53846126, 4626.02564179, 4145.89743569, 4129.48717921, 4139.87179467,12.0
4129.87179460, 4125.51282024, 4132.30769203, 4172.94871781, 4122.94871767, 4145.76923056, 4129.23076896, 4133.58974332, 4117.43589716, 4129.48717921, 4630.64102648, 4152.17948697, 4131.28205101, 4144.87179467,12.0
4136.53846133, 4115.38461511, 4132.30769203, 4188.46153833, 4126.53846126, 4143.97435877, 4136.15384595, 4137.05128185, 4127.05128178, 4129.74358947, 4631.02564186, 4152.56410236, 4126.15384588, 4143.97435877,12.0
4130.25640998, 4113.07692280, 4123.46153819, 4171.66666653, 4126.15384588, 4128.58974332, 4131.15384588, 4130.51282024, 4114.48717921, 4130.38461511, 4622.82051359, 4138.20512800, 4120.25640998, 4143.20512800,12.0
4136.79487159, 4108.46153819, 4121.92307665, 4158.84615364, 4124.23076896, 4121.92307665, 4116.28205101, 4130.76923050, 4110.25640998, 4130.25640998, 4623.71794949, 4137.17948697, 4128.33333306, 4147.30769210,12.0
4134.23076896, 4113.58974332, 4130.51282024, 4180.64102551, 4126.53846126, 4141.41025621, 4117.94871767, 4140.64102544, 4128.33333306, 4130.25640998, 4624.23077000, 4154.23076903, 4133.58974332, 4148.07692287,12.0
4126.41025614, 4134.23076896, 4143.71794851, 4199.48717935, 4126.66666639, 4153.71794851, 4146.41025621, 4142.05128185, 4133.33333306, 4130.64102537, 4627.69230853, 4169.48717935, 4136.92307672, 4151.53846133,12.0
4142.17948697, 4144.35897415, 4146.66666646, 4202.30769224, 4127.30769203, 4144.74358954, 4152.43589723, 4136.02564082, 4121.28205101, 4130.38461511, 4636.02564186, 4169.87179474, 4137.56410236, 4148.20512800,12.0
4131.02564075, 4113.33333306, 4132.05128178, 4184.23076910, 4126.41025614, 4134.48717921, 4129.48717921, 4141.15384595, 4123.84615357, 4130.12820485, 4625.00000077, 4154.10256390, 4124.48717921, 4145.51282031,12.0
4128.46153819, 4078.97435863, 4122.56410229, 4155.64102544, 4126.92307665, 4131.53846126, 4119.74358947, 4140.64102544, 4137.82051262, 4130.25640998, 4608.07692385, 4141.66666646, 4120.76923050, 4146.41025621,12.0
4135.51282031, 4092.43589709, 4122.56410229, 4169.74358961, 4130.12820485, 4127.69230742, 4116.28205101, 4125.12820485, 4134.61538434, 4130.25640998, 4614.87179564, 4138.71794851, 4129.87179460, 4142.43589723,12.0
4127.69230742, 4129.35897408, 4129.87179460, 4213.97435891, 4129.23076896, 4135.25640998, 4122.17948691, 4133.46153819, 4136.02564082, 4130.38461511, 4631.28205212, 4146.53846133, 4133.20512793, 4146.66666646,12.0
4137.82051262, 4138.46153826, 4139.10256390, 4212.94871788, 4128.71794844, 4152.82051262, 4140.12820492, 4152.17948697, 4149.23076903, 4131.15384588, 4628.71794956, 4157.17948697, 4130.12820485, 4146.66666646,12.0
4129.87179460, 4129.10256383, 4135.12820485, 4188.20512807, 4126.79487152, 4144.74358954, 4138.97435877, 4144.10256390, 4141.28205108, 4131.02564075, 4615.89743667, 4154.10256390, 4129.35897408, 4143.33333313,12.0
4129.74358947, 4129.87179460, 4134.48717921, 4202.56410250, 4125.25640998, 4139.10256390, 4133.71794844, 4137.56410236, 4130.38461511, 4130.89743562, 4612.30769308, 4153.84615364, 4128.97435870, 4144.61538441,12.0
4141.41025621, 4137.05128185, 4150.12820492, 4228.46153840, 4124.48717921, 4160.38461518, 4150.89743569, 4152.17948697, 4140.64102544, 4131.66666639, 4619.61538538, 4173.20512807, 4127.30769203, 4142.43589723,12.0
4130.51282024, 4151.41025621, 4153.97435877, 4232.43589737, 4121.41025614, 4155.64102544, 4149.48717928, 4144.10256390, 4138.58974339, 4131.41025614, 4625.64102641, 4178.33333320, 4130.25640998, 4144.99999980,12.0
4138.58974339, 4152.05128185, 4139.10256390, 4225.38461532, 4125.12820485, 4137.30769210, 4124.74358947, 4118.84615357, 4116.02564075, 4130.64102537, 4612.94871872, 4152.05128185, 4123.97435870, 4144.10256390,12.0
4136.79487159, 4139.35897415, 4133.33333306, 4221.28205122, 4125.25640998, 4141.53846133, 4128.20512793, 4135.25640998, 4119.23076896, 4131.53846126, 4600.25641102, 4143.20512800, 4115.12820485, 4144.23076903,12.0
4134.74358947, 4147.05128185, 4144.10256390, 4228.46153840, 4120.89743562, 4143.33333313, 4129.87179460, 4149.87179467, 4133.20512793, 4132.05128178, 4607.56410333, 4161.15384595, 4117.17948691, 4149.61538441,12.0
4144.74358954, 4157.69230749, 4151.92307672, 4245.12820513, 4124.74358947, 4143.07692287, 4120.12820485, 4132.56410229, 4126.92307665, 4130.38461511, 4616.92307769, 4171.66666653, 4124.23076896, 4144.61538441,12.0
4133.07692280, 4149.74358954, 4144.35897415, 4250.25641026, 4127.17948691, 4148.97435877, 4133.84615357, 4132.69230742, 4126.41025614, 4129.74358947, 4615.76923154, 4167.94871774, 4125.38461511, 4144.48717928,12.0
4138.33333313, 4141.41025621, 4137.17948697, 4240.89743590, 4125.38461511, 4147.94871774, 4147.69230749, 4146.02564082, 4135.25640998, 4130.76923050, 4607.82051359, 4161.79487159, 4120.64102537, 4149.35897415,12.0
4136.53846133, 4156.28205108, 4141.92307672, 4250.38461539, 4124.87179460, 4156.53846133, 4151.41025621, 4152.30769210, 4141.41025621, 4130.51282024, 4610.12820590, 4168.20512807, 4129.61538434, 4146.53846133,12.0
4131.66666639, 4175.25641012, 4149.99999980, 4266.28205129, 4126.41025614, 4168.33333320, 4149.99999980, 4149.10256390, 4135.76923056, 4129.23076896, 4617.56410333, 4174.99999986, 4134.87179460, 4145.51282031,12.0
4141.79487159, 4165.25641005, 4150.64102544, 4270.12820520, 4127.94871767, 4157.56410236, 4149.99999980, 4143.20512800, 4124.61538434, 4129.99999973, 4609.35897513, 4177.17948704, 4123.33333306, 4148.20512800,12.0
4128.33333306, 4148.97435877, 4141.41025621, 4268.97435905, 4125.25640998, 4146.28205108, 4145.76923056, 4136.79487159, 4120.12820485, 4131.02564075, 4603.46153923, 4176.15384602, 4121.15384588, 4149.61538441,12.0
4131.41025614, 4156.15384595, 4132.30769203, 4262.05128206, 4124.87179460, 4146.92307672, 4124.74358947, 4121.66666639, 4112.43589716, 4130.89743562, 4606.28205205, 4159.74358954, 4126.53846126, 4143.20512800,12.0
4138.20512800, 4160.38461518, 4131.02564075, 4261.92307693, 4126.15384588, 4145.64102544, 4113.33333306, 4116.28205101, 4104.99999973, 4130.89743562, 4603.58974436, 4158.33333313, 4129.48717921, 4139.99999980,12.0
4135.76923056, 4146.15384595, 4143.33333313, 4276.53846161, 4124.99999973, 4147.56410236, 4129.87179460, 4129.61538434, 4120.64102537, 4131.02564075, 4609.48718026, 4184.99999986, 4132.82051255, 4147.05128185,12.0
4141.79487159, 4163.20512800, 4150.51282031, 4300.89743604, 4126.41025614, 4162.82051262, 4145.51282031, 4140.25641005, 4142.56410236, 4130.89743562, 4620.38461615, 4191.66666653, 4132.69230742, 4146.02564082,12.0
4133.97435870, 4192.05128192, 4143.07692287, 4320.76923091, 4124.61538434, 4163.07692287, 4133.71794844, 4134.48717921, 4137.69230749, 4131.02564075, 4619.35897513, 4178.58974345, 4128.97435870, 4144.87179467,12.0
4141.53846133, 4195.38461525, 4149.74358954, 4336.92307714, 4125.12820485, 4149.61538441, 4135.12820485, 4132.30769203, 4137.17948697, 4130.89743562, 4621.53846231, 4189.99999986, 4135.38461518, 4147.94871774,12.0
4141.53846133, 4185.89743576, 4152.94871774, 4334.48717970, 4129.87179460, 4150.76923056, 4145.64102544, 4135.25640998, 4144.87179467, 4130.89743562, 4621.66666743, 4193.46153833, 4135.76923056, 4145.38461518,12.0
4135.25640998, 4171.41025628, 4137.43589723, 4324.23076937, 4126.92307665, 4150.64102544, 4124.99999973, 4127.30769203, 4127.30769203, 4131.02564075, 4609.87179564, 4171.02564089, 4122.56410229, 4148.46153826,12.0
4146.92307672, 4174.10256397, 4137.17948697, 4337.56410278, 4124.87179460, 4149.99999980, 4129.74358947, 4127.56410229, 4120.25640998, 4130.89743562, 4609.87179564, 4174.48717935, 4123.97435870, 4149.10256390,12.0
4136.41025621, 4176.92307679, 4145.38461518, 4347.69230790, 4127.56410229, 4162.05128185, 4155.76923056, 4139.99999980, 4136.92307672, 4130.89743562, 4620.00000077, 4188.46153833, 4134.74358947, 4144.99999980,12.0
4135.38461518, 4169.48717935, 4141.79487159, 4344.48717970, 4128.20512793, 4166.66666646, 4144.87179467, 4142.17948697, 4140.38461518, 4130.89743562, 4618.84615461, 4180.51282038, 4135.12820485, 4144.48717928,12.0
4139.35897415, 4182.69230756, 4139.61538441, 4345.89743611, 4126.79487152, 4161.41025621, 4140.51282031, 4143.58974339, 4138.20512800, 4130.89743562, 4617.17948795, 4182.94871781, 4132.69230742, 4143.46153826,12.0
4133.84615357, 4187.69230756, 4145.12820492, 4353.71794893, 4124.74358947, 4166.92307672, 4159.87179467, 4148.58974339, 4144.87179467, 4131.02564075, 4624.23077000, 4198.20512807, 4139.87179467, 4146.28205108,12.0
4140.89743569, 4145.89743569, 4138.46153826, 4343.71794893, 4127.43589716, 4168.71794858, 4147.82051262, 4133.84615357, 4134.74358947, 4130.89743562, 4620.25641102, 4184.10256397, 4138.46153826, 4146.53846133,12.0
4131.15384588, 4121.02564075, 4126.53846126, 4332.30769252, 4129.48717921, 4156.79487159, 4127.30769203, 4121.02564075, 4122.94871767, 4130.89743562, 4609.61538538, 4163.58974339, 4128.58974332, 4144.99999980,12.0
4133.33333306, 4167.05128185, 4139.87179467, 4343.07692329, 4126.92307665, 4156.79487159, 4138.71794851, 4130.76923050, 4138.71794851, 4131.02564075, 4615.64102641, 4182.69230756, 4136.02564082, 4147.17948697,12.0
4141.02564082, 4197.69230756, 4156.92307672, 4346.53846175, 4126.02564075, 4160.38461518, 4141.66666646, 4139.23076903, 4156.28205108, 4130.89743562, 4628.33333417, 4209.61538455, 4151.41025621, 4145.12820492,12.0
4134.10256383, 4173.97435884, 4159.10256390, 4344.87179508, 4127.43589716, 4160.51282031, 4138.58974339, 4144.23076903, 4157.82051262, 4131.02564075, 4628.84615468, 4212.69230763, 4150.76923056, 4144.74358954,12.0
4143.97435877, 4159.48717928, 4154.99999980, 4349.48717970, 4130.12820485, 4165.25641005, 4156.53846133, 4151.66666646, 4156.53846133, 4130.89743562, 4621.53846231, 4203.07692301, 4139.87179467, 4145.89743569,12.0
4138.33333313, 4162.94871774, 4146.92307672, 4345.38461560, 4130.51282024, 4165.64102544, 4151.79487159, 4150.25641005, 4156.02564082, 4130.89743562, 4620.12820590, 4195.89743576, 4141.79487159, 4144.23076903,12.0
4137.17948697, 4153.71794851, 4148.97435877, 4339.10256431, 4127.69230742, 4162.56410236, 4134.48717921, 4139.23076903, 4155.76923056, 4131.02564075, 4623.97435974, 4202.30769224, 4146.41025621, 4145.38461518,12.0
4145.25641005, 4147.82051262, 4153.71794851, 4334.74358996, 4126.53846126, 4162.56410236, 4146.92307672, 4132.56410229, 4152.05128185, 4130.89743562, 4623.97435974, 4205.64102558, 4139.10256390, 4146.02564082,12.0
4135.89743569, 4162.56410236, 4143.07692287, 4327.82051296, 4128.84615357, 4155.76923056, 4150.89743569, 4131.28205101, 4138.46153826, 4130.89743562, 4617.30769308, 4189.48717935, 4133.46153819, 4146.28205108,12.0
4142.30769210, 4173.46153833, 4142.30769210, 4331.28205142, 4129.23076896, 4152.69230749, 4148.97435877, 4136.15384595, 4138.33333313, 4130.89743562, 4619.10256487, 4187.17948704, 4138.97435877, 4147.05128185,12.0
4137.82051262, 4159.48717928, 4153.58974339, 4333.97435919, 4124.99999973, 4169.87179474, 4165.89743569, 4146.02564082, 4154.61538441, 4130.89743562, 4630.51282135, 4201.02564096, 4144.10256390, 4143.97435877,12.0
4134.48717921, 4145.25641005, 4147.82051262, 4331.79487194, 4123.97435870, 4176.53846140, 4153.07692287, 4141.41025621, 4151.79487159, 4131.02564075, 4630.00000084, 4194.48717935, 4140.76923056, 4143.58974339,12.0
4142.05128185, 4141.41025621, 4138.84615364, 4327.69230784, 4128.58974332, 4154.35897415, 4123.84615357, 4135.38461518, 4142.30769210, 4130.89743562, 4620.64102641, 4183.97435884, 4136.28205108, 4144.23076903,12.0
4135.12820485, 4147.94871774, 4146.41025621, 4311.28205142, 4129.10256383, 4141.41025621, 4137.94871774, 4141.79487159, 4150.12820492, 4130.89743562, 4623.71794949, 4194.23076910, 4135.89743569, 4143.46153826,12.0
4141.41025621, 4164.74358954, 4154.99999980, 4310.25641040, 4126.92307665, 4155.25641005, 4156.66666646, 4141.15384595, 4156.02564082, 4131.02564075, 4634.74359058, 4207.05128199, 4144.74358954, 4144.61538441,12.0
4137.05128185, 4170.25641012, 4155.51282031, 4332.82051303, 4129.35897408, 4170.51282038, 4147.94871774, 4140.25641005, 4152.05128185, 4130.89743562, 4635.76923161, 4206.79487173, 4151.41025621, 4144.10256390,12.0
4134.23076896, 4168.07692287, 4152.82051262, 4335.76923098, 4131.41025614, 4169.74358961, 4142.56410236, 4144.61538441, 4151.79487159, 4130.89743562, 4628.84615468, 4198.07692294, 4147.17948697, 4142.43589723,12.0
4142.30769210, 4151.28205108, 4147.94871774, 4319.61538476, 4129.87179460, 4156.66666646, 4143.84615364, 4136.92307672, 4150.25641005, 4130.89743562, 4624.10256487, 4190.89743576, 4139.35897415, 4143.20512800,12.0
4133.58974332, 4142.30769210, 4150.12820492, 4315.00000014, 4128.71794844, 4149.10256390, 4148.33333313, 4127.94871767, 4149.87179467, 4130.89743562, 4627.43589820, 4199.61538448, 4139.99999980, 4146.28205108,12.0
4142.94871774, 4167.56410236, 4158.07692287, 4312.30769245, 4129.35897408, 4163.58974339, 4154.74358954, 4129.99999973, 4155.38461518, 4131.02564075, 4631.15384699, 4205.76923070, 4143.46153826, 4145.38461518,12.0
4145.12820492, 4165.51282031, 4146.79487159, 4305.76923091, 4129.23076896, 4175.25641012, 4150.89743569, 4136.02564082, 4147.94871774, 4130.89743562, 4620.38461615, 4187.17948704, 4137.43589723, 4141.28205108,12.0
4137.69230749, 4142.30769210, 4135.89743569, 4306.41025655, 4127.43589716, 4173.84615371, 4152.56410236, 4139.87179467, 4144.74358954, 4130.89743562, 4615.12820590, 4176.02564089, 4135.64102544, 4146.41025621,12.0
4144.74358954, 4154.74358954, 4144.74358954, 4316.02564117, 4128.71794844, 4172.94871781, 4150.51282031, 4132.69230742, 4151.28205108, 4131.02564075, 4623.46153923, 4191.66666653, 4137.94871774, 4148.84615364,12.0
4137.30769210, 4172.30769217, 4148.33333313, 4319.48717963, 4129.48717921, 4154.99999980, 4134.74358947, 4124.48717921, 4148.97435877, 4130.89743562, 4626.02564179, 4201.41025634, 4136.66666646, 4145.64102544,12.0
4143.20512800, 4155.25641005, 4142.05128185, 4302.69230784, 4127.43589716, 4138.46153826, 4136.66666646, 4128.97435870, 4145.89743569, 4131.02564075, 4620.12820590, 4193.84615371, 4137.69230749, 4148.71794851,12.0
4144.61538441, 4137.17948697, 4139.23076903, 4296.79487187, 4127.69230742, 4153.46153826, 4144.74358954, 4137.17948697, 4151.15384595, 4130.89743562, 4613.33333410, 4188.20512807, 4137.17948697, 4149.10256390,12.0
4132.05128178, 4147.05128185, 4149.99999980, 4318.46153860, 4129.23076896, 4173.84615371, 4148.97435877, 4146.66666646, 4161.28205108, 4130.89743562, 4615.25641102, 4200.89743576, 4138.07692287, 4146.02564082,12.0
4139.87179467, 4170.76923063, 4160.51282031, 4325.76923091, 4129.99999973, 4178.97435884, 4170.51282038, 4151.79487159, 4169.61538448, 4131.02564075, 4626.02564179, 4218.33333327, 4147.56410236, 4145.38461518,12.0
4136.92307672, 4183.71794858, 4154.61538441, 4316.28205142, 4130.76923050, 4178.58974345, 4178.20512807, 4147.30769210, 4171.79487166, 4130.89743562, 4625.76923154, 4214.10256404, 4152.17948697, 4146.66666646,12.0
4139.61538441, 4174.74358961, 4153.07692287, 4320.00000014, 4130.38461511, 4172.30769217, 4158.20512800, 4142.17948697, 4167.30769210, 4130.89743562, 4616.79487256, 4204.99999993, 4148.58974339, 4146.53846133,12.0
4142.56410236, 4168.46153833, 4160.64102544, 4316.02564117, 4128.07692280, 4161.41025621, 4148.20512800, 4137.69230749, 4160.64102544, 4130.89743562, 4615.12820590, 4212.82051275, 4148.46153826, 4142.05128185,12.0
4134.35897408, 4161.15384595, 4157.43589723, 4297.94871802, 4127.69230742, 4164.61538441, 4147.17948697, 4131.41025614, 4151.66666646, 4130.89743562, 4613.97435974, 4212.43589737, 4142.82051262, 4143.58974339,12.0
4142.30769210, 4140.51282031, 4146.79487159, 4296.28205136, 4129.10256383, 4166.53846133, 4144.48717928, 4131.02564075, 4148.33333313, 4131.02564075, 4610.51282128, 4197.30769217, 4139.74358954, 4146.79487159,12.0
4137.82051262, 4138.33333313, 4145.76923056, 4301.15384630, 4127.94871767, 4155.89743569, 4154.10256390, 4136.66666646, 4155.38461518, 4131.28205101, 4610.89743667, 4196.92307679, 4145.76923056, 4144.99999980,12.0
4140.25641005, 4151.15384595, 4148.07692287, 4295.64102571, 4129.61538434, 4157.05128185, 4154.48717928, 4132.69230742, 4152.69230749, 4130.51282024, 4608.97435974, 4204.23076917, 4142.17948697, 4144.10256390,12.0
4146.79487159, 4148.07692287, 4145.12820492, 4288.58974366, 4133.46153819, 4165.12820492, 4149.61538441, 4134.35897408, 4148.84615364, 4130.38461511, 4609.23077000, 4199.23076910, 4139.87179467, 4144.10256390,12.0
4140.64102544, 4141.41025621, 4145.64102544, 4284.23076930, 4129.99999973, 4166.28205108, 4162.94871774, 4152.05128185, 4157.43589723, 4132.05128178, 4613.97435974, 4199.35897422, 4147.94871774, 4145.76923056,12.0
4150.76923056, 4153.20512800, 4148.07692287, 4289.61538469, 4127.69230742, 4163.97435877, 4158.58974339, 4146.02564082, 4159.48717928, 4129.10256383, 4608.20512897, 4205.38461532, 4151.66666646, 4147.56410236,12.0
4145.51282031, 4148.58974339, 4146.66666646, 4296.53846161, 4130.51282024, 4161.28205108, 4137.82051262, 4127.43589716, 4156.02564082, 4124.99999973, 4598.58974436, 4205.25641019, 4145.12820492, 4145.76923056,12.0
4140.38461518, 4137.17948697, 4151.79487159, 4293.84615392, 4129.35897408, 4168.33333320, 4145.89743569, 4138.58974339, 4164.61538441, 4129.74358947, 4604.10256487, 4206.92307686, 4142.82051262, 4147.05128185,12.0
4146.41025621, 4153.33333313, 4153.07692287, 4285.38461546, 4127.94871767, 4178.07692294, 4156.41025621, 4149.23076903, 4168.07692287, 4136.79487159, 4609.35897513, 4205.51282045, 4146.41025621, 4147.17948697,12.0
4136.53846133, 4161.02564082, 4144.48717928, 4280.64102571, 4129.74358947, 4164.23076903, 4153.07692287, 4136.02564082, 4159.35897415, 4135.64102544, 4602.94871872, 4199.48717935, 4150.89743569, 4144.74358954,12.0
4141.79487159, 4140.12820492, 4142.17948697, 4272.94871802, 4128.20512793, 4148.33333313, 4151.02564082, 4123.97435870, 4149.87179467, 4133.97435870, 4599.23077000, 4194.23076910, 4146.15384595, 4145.12820492,12.0
4141.53846133, 4125.25640998, 4140.38461518, 4258.46153847, 4126.66666639, 4152.17948697, 4141.02564082, 4125.89743562, 4142.17948697, 4136.15384595, 4592.94871865, 4185.25641012, 4132.17948691, 4143.84615364,12.0
4137.82051262, 4136.41025621, 4137.43589723, 4259.23076923, 4129.61538434, 4157.82051262, 4131.79487152, 4133.07692280, 4144.23076903, 4135.25640998, 4589.35897506, 4181.15384602, 4130.76923050, 4144.74358954,12.0
4145.12820492, 4143.07692287, 4142.30769210, 4273.71794879, 4129.99999973, 4166.02564082, 4140.38461518, 4136.41025621, 4155.89743569, 4133.97435870, 4598.58974436, 4189.48717935, 4142.82051262, 4146.15384595,12.0
4136.66666646, 4145.51282031, 4149.23076903, 4282.69230777, 4129.48717921, 4173.07692294, 4156.28205108, 4139.74358954, 4165.64102544, 4134.74358947, 4606.41025718, 4198.97435884, 4149.74358954, 4144.74358954,12.0
4140.89743569, 4163.58974339, 4152.56410236, 4277.30769238, 4130.51282024, 4170.38461525, 4175.25641012, 4142.05128185, 4170.38461525, 4134.48717921, 4605.64102641, 4203.07692301, 4145.51282031, 4146.53846133,12.0
4142.56410236, 4167.56410236, 4149.87179467, 4273.97435905, 4128.58974332, 4180.25641012, 4182.82051269, 4143.46153826, 4170.12820499, 4134.35897408, 4605.89743667, 4203.71794865, 4138.33333313, 4146.92307672,12.0
4141.79487159, 4146.02564082, 4145.89743569, 4270.25641033, 4127.30769203, 4188.33333320, 4164.87179467, 4141.66666646, 4162.56410236, 4134.48717921, 4605.64102641, 4199.10256397, 4139.87179467, 4145.38461518,12.0
4150.64102544, 4124.99999973, 4142.43589723, 4253.46153847, 4128.97435870, 4171.79487166, 4145.38461518, 4130.76923050, 4153.71794851, 4134.48717921, 4601.92307769, 4192.05128192, 4140.89743569, 4144.74358954,12.0
4141.53846133, 4128.84615357, 4143.20512800, 4247.17948718, 4130.51282024, 4158.97435877, 4156.02564082, 4135.76923056, 4163.84615364, 4134.48717921, 4605.25641102, 4196.92307679, 4138.71794851, 4146.53846133,12.0
4146.28205108, 4142.94871774, 4149.48717928, 4259.23076923, 4129.48717921, 4163.58974339, 4166.79487159, 4149.10256390, 4177.82051269, 4134.48717921, 4610.25641102, 4203.84615378, 4138.20512800, 4149.10256390,12.0
4148.46153826, 4146.53846133, 4149.87179467, 4262.30769231, 4128.58974332, 4168.71794858, 4152.17948697, 4139.23076903, 4169.23076910, 4134.48717921, 4606.79487256, 4201.02564096, 4142.05128185, 4145.89743569,12.0
4139.99999980, 4130.12820485, 4143.84615364, 4246.41025641, 4127.82051255, 4176.15384602, 4142.43589723, 4122.69230742, 4156.02564082, 4134.48717921, 4601.02564179, 4196.02564089, 4146.41025621, 4144.61538441,12.0
4146.41025621, 4112.69230742, 4138.33333313, 4237.30769231, 4129.23076896, 4179.48717935, 4145.51282031, 4120.76923050, 4154.35897415, 4134.48717921, 4593.46153916, 4191.53846140, 4142.30769210, 4145.25641005,12.0
4141.53846133, 4115.12820485, 4129.87179460, 4228.84615378, 4132.69230742, 4158.58974339, 4132.05128178, 4121.92307665, 4143.84615364, 4134.48717921, 4585.12820583, 4178.46153833, 4133.97435870, 4144.74358954,12.0
4144.10256390, 4118.58974332, 4130.64102537, 4225.64102558, 4131.66666639, 4143.20512800, 4126.28205101, 4124.61538434, 4138.33333313, 4134.48717921, 4586.79487249, 4175.64102551, 4134.10256383, 4145.12820492,12.0
4142.69230749, 4119.61538434, 4148.97435877, 4244.48717949, 4128.20512793, 4158.20512800, 4159.48717928, 4137.30769210, 4159.74358954, 4134.48717921, 4592.56410326, 4198.58974345, 4139.99999980, 4142.05128185,12.0
4132.94871767, 4134.87179460, 4154.99999980, 4246.92307693, 4128.58974332, 4179.48717935, 4177.17948704, 4139.99999980, 4164.35897415, 4134.48717921, 4588.33333403, 4204.23076917, 4141.02564082, 4142.82051262,12.0
4142.05128185, 4151.28205108, 4139.35897415, 4225.25641019, 4128.58974332, 4184.35897422, 4160.51282031, 4129.74358947, 4143.71794851, 4134.48717921, 4582.43589813, 4185.25641012, 4136.79487159, 4145.64102544,12.0
4139.48717928, 4135.64102544, 4132.17948691, 4215.51282045, 4127.43589716, 4171.92307679, 4156.66666646, 4127.94871767, 4140.51282031, 4134.48717921, 4580.64102634, 4179.99999986, 4132.43589716, 4143.84615364,12.0
4142.30769210, 4095.25640991, 4134.99999973, 4224.23076917, 4129.10256383, 4164.99999980, 4150.51282031, 4120.38461511, 4136.28205108, 4134.48717921, 4577.05128275, 4178.20512807, 4131.92307665, 4144.61538441,12.0
4146.15384595, 4089.99999966, 4130.38461511, 4223.71794865, 4128.58974332, 4165.12820492, 4140.12820492, 4110.64102537, 4123.71794844, 4134.48717921, 4573.71794942, 4170.25641012, 4131.15384588, 4145.89743569,12.0
4137.17948697, 4121.66666639, 4133.97435870, 4216.41025634, 4127.69230742, 4159.99999980, 4151.41025621, 4128.20512793, 4137.69230749, 4134.48717921, 4578.71794942, 4184.35897422, 4135.64102544, 4147.69230749,12.0
4147.82051262, 4144.74358954, 4149.23076903, 4225.51282045, 4129.99999973, 4164.87179467, 4158.84615364, 4146.79487159, 4163.20512800, 4134.48717921, 4589.61538531, 4210.51282045, 4150.38461518, 4148.84615364,12.0
4145.64102544, 4142.05128185, 4148.46153826, 4238.33333334, 4130.51282024, 4169.61538448, 4138.20512800, 4137.82051262, 4161.53846133, 4134.48717921, 4596.41025718, 4208.97435891, 4156.02564082, 4146.79487159,12.0
4142.82051262, 4118.84615357, 4140.25641005, 4240.00000000, 4128.84615357, 4160.89743569, 4129.61538434, 4132.56410229, 4150.25641005, 4134.48717921, 4592.17948788, 4200.76923063, 4145.76923056, 4149.61538441,12.0
4151.53846133, 4104.23076896, 4139.48717928, 4228.71794865, 4127.94871767, 4157.69230749, 4144.23076903, 4142.17948697, 4153.07692287, 4134.48717921, 4582.69230839, 4206.92307686, 4141.15384595, 4151.02564082,12.0
4141.15384595, 4112.69230742, 4128.97435870, 4212.30769224, 4128.71794844, 4153.97435877, 4132.43589716, 4129.48717921, 4146.66666646, 4134.48717921, 4577.17948788, 4192.05128192, 4135.38461518, 4145.76923056,12.0
4141.92307672, 4122.43589716, 4117.05128178, 4202.82051275, 4130.25640998, 4143.84615364, 4111.02564075, 4101.53846119, 4129.61538434, 4134.48717921, 4575.25641096, 4165.64102544, 4123.46153819, 4143.20512800,12.0
4140.64102544, 4124.35897408, 4123.20512793, 4206.66666660, 4130.76923050, 4154.48717928, 4127.56410229, 4108.97435870, 4132.17948691, 4134.48717921, 4574.87179557, 4177.05128192, 4138.46153826, 4146.02564082,12.0
4137.56410236, 4119.87179460, 4131.41025614, 4217.30769224, 4128.84615357, 4169.35897422, 4148.33333313, 4133.20512793, 4144.61538441, 4134.48717921, 4575.12820583, 4198.71794858, 4156.15384595, 4147.94871774,12.0
4147.30769210, 4103.33333306, 4124.10256383, 4213.71794865, 4129.61538434, 4153.33333313, 4135.25640998, 4123.46153819, 4137.82051262, 4134.48717921, 4574.35897506, 4187.43589730, 4138.33333313, 4145.76923056,12.0
4135.51282031, 4105.12820485, 4123.07692280, 4209.99999993, 4131.79487152, 4148.84615364, 4133.71794844, 4113.07692280, 4130.89743562, 4134.48717921, 4573.58974429, 4182.17948704, 4126.66666639, 4143.58974339,12.0
4135.64102544, 4130.76923050, 4141.53846133, 4218.97435891, 4131.92307665, 4170.51282038, 4159.74358954, 4136.79487159, 4147.43589723, 4134.48717921, 4580.51282121, 4204.99999993, 4144.10256390, 4146.41025621,12.0
4142.17948697, 4121.92307665, 4140.76923056, 4225.25641019, 4131.79487152, 4160.51282031, 4147.69230749, 4143.33333313, 4156.79487159, 4134.48717921, 4583.33333403, 4208.20512814, 4149.10256390, 4147.69230749,12.0
4137.43589723, 4102.43589709, 4128.71794844, 4227.43589737, 4129.10256383, 4140.51282031, 4118.71794844, 4123.20512793, 4143.58974339, 4134.48717921, 4576.02564172, 4195.64102551, 4135.89743569, 4146.28205108,12.0
4150.64102544, 4127.94871767, 4138.20512800, 4227.30769224, 4128.84615357, 4150.89743569, 4129.87179460, 4121.92307665, 4138.46153826, 4134.48717921, 4575.64102634, 4202.05128199, 4139.48717928, 4147.05128185,12.0
4144.23076903, 4141.02564082, 4138.71794851, 4227.30769224, 4130.89743562, 4152.69230749, 4141.66666646, 4135.76923056, 4146.92307672, 4134.48717921, 4575.38461608, 4204.87179481, 4148.97435877, 4146.53846133,12.0
4140.38461518, 4116.28205101, 4123.58974332, 4222.82051275, 4130.76923050, 4145.38461518, 4122.82051255, 4129.48717921, 4142.82051262, 4134.48717921, 4563.97435967, 4186.41025628, 4145.38461518, 4146.66666646,12.0
4148.71794851, 4115.76923050, 4119.99999973, 4214.99999993, 4131.15384588, 4153.84615364, 4118.20512793, 4118.20512793, 4133.97435870, 4134.48717921, 4555.12820576, 4175.64102551, 4137.94871774, 4147.17948697,12.0
4138.97435877, 4128.20512793, 4121.92307665, 4211.41025634, 4129.61538434, 4151.02564082, 4141.41025621, 4119.10256383, 4137.94871774, 4134.48717921, 4558.46153909, 4179.61538448, 4134.99999973, 4147.17948697,12.0
4149.48717928, 4109.48717921, 4119.23076896, 4211.66666660, 4130.25640998, 4149.87179467, 4148.71794851, 4112.56410229, 4134.23076896, 4134.48717921, 4559.10256473, 4179.23076910, 4134.23076896, 4150.25641005,12.0
4146.02564082, 4096.41025607, 4118.46153819, 4210.76923070, 4130.89743562, 4172.82051269, 4149.48717928, 4110.89743562, 4127.56410229, 4134.48717921, 4555.38461601, 4178.58974345, 4133.71794844, 4148.20512800,12.0
4137.82051262, 4114.99999973, 4125.25640998, 4205.25641019, 4127.69230742, 4180.12820499, 4166.53846133, 4125.64102537, 4143.58974339, 4134.48717921, 4558.71794935, 4187.69230756, 4141.28205108, 4146.41025621,12.0
4149.74358954, 4109.48717921, 4125.25640998, 4194.48717935, 4128.20512793, 4167.05128185, 4163.71794851, 4132.43589716, 4153.84615364, 4134.48717921, 4555.64102627, 4186.02564089, 4142.82051262, 4148.97435877,12.0
4139.48717928, 4093.97435863, 4119.10256383, 4193.33333320, 4130.25640998, 4158.07692287, 4138.07692287, 4131.41025614, 4141.66666646, 4134.48717921, 4549.48718012, 4178.20512807, 4135.25640998, 4146.92307672,12.0
4141.53846133, 4119.74358947, 4128.07692280, 4209.74358968, 4132.43589716, 4148.33333313, 4130.25640998, 4131.02564075, 4138.84615364, 4134.48717921, 4558.58974422, 4191.66666653, 4143.33333313, 4146.66666646,12.0
4142.56410236, 4129.35897408, 4133.07692280, 4215.12820506, 4132.82051255, 4143.97435877, 4133.46153819, 4126.79487152, 4144.87179467, 4134.48717921, 4567.30769301, 4200.51282038, 4153.71794851, 4146.15384595,12.0
4137.30769210, 4104.35897408, 4127.17948691, 4206.41025634, 4131.53846126, 4157.69230749, 4138.07692287, 4124.61538434, 4142.69230749, 4134.48717921, 4563.58974429, 4187.56410243, 4147.05128185, 4143.33333313,12.0
4147.30769210, 4100.51282017, 4120.38461511, 4197.17948704, 4132.56410229, 4160.12820492, 4137.94871774, 4129.10256383, 4139.23076903, 4134.48717921, 4554.61538524, 4172.05128192, 4136.66666646, 4145.25641005,12.0
4141.66666646, 4110.12820485, 4112.56410229, 4183.07692294, 4127.94871767, 4142.56410236, 4129.99999973, 4130.51282024, 4137.94871774, 4134.48717921, 4547.17948781, 4165.12820492, 4131.15384588, 4145.76923056,12.0
4147.69230749, 4107.17948691, 4116.53846126, 4188.46153833, 4125.51282024, 4138.71794851, 4138.71794851, 4126.15384588, 4135.76923056, 4134.48717921, 4549.35897499, 4169.99999986, 4132.05128178, 4145.76923056,12.0
4149.48717928, 4099.74358940, 4118.84615357, 4197.56410243, 4129.87179460, 4154.35897415, 4155.25641005, 4126.41025614, 4135.38461518, 4134.48717921, 4554.48718012, 4169.35897422, 4135.76923056, 4145.64102544,12.0
4143.58974339, 4092.69230735, 4107.69230742, 4178.71794858, 4129.99999973, 4165.12820492, 4146.15384595, 4123.07692280, 4131.15384588, 4134.48717921, 4546.41025704, 4156.53846133, 4130.89743562, 4144.87179467,12.0
4151.15384595, 4090.51282017, 4109.48717921, 4166.53846133, 4129.10256383, 4163.20512800, 4135.89743569, 4118.07692280, 4129.10256383, 4134.48717921, 4543.71794935, 4161.41025621, 4129.23076896, 4145.12820492,12.0
4144.23076903, 4102.30769196, 4121.28205101, 4177.94871781, 4131.28205101, 4161.79487159, 4141.92307672, 4128.84615357, 4140.51282031, 4134.48717921, 4558.07692371, 4179.23076910, 4141.92307672, 4146.28205108,12.0
4147.56410236, 4122.94871767, 4127.82051255, 4185.64102551, 4131.53846126, 4156.28205108, 4142.56410236, 4142.82051262, 4152.56410236, 4134.48717921, 4569.61538531, 4193.33333320, 4148.97435877, 4146.66666646,12.0
4144.61538441, 4121.66666639, 4139.10256390, 4187.69230756, 4130.51282024, 4143.58974339, 4144.10256390, 4148.71794851, 4160.25641005, 4134.48717921, 4570.00000070, 4210.76923070, 4149.48717928, 4144.35897415,12.0
4136.53846133, 4100.76923043, 4141.92307672, 4190.51282038, 4130.89743562, 4135.51282031, 4132.94871767, 4134.99999973, 4153.58974339, 4134.48717921, 4562.94871865, 4206.53846147, 4152.05128185, 4146.02564082,12.0
4147.30769210, 4101.15384581, 4123.84615357, 4177.17948704, 4129.99999973, 4130.51282024, 4108.97435870, 4116.92307665, 4139.35897415, 4134.48717921, 4558.33333396, 4179.48717935, 4142.05128185, 4147.94871774,12.0
4139.99999980, 4115.25640998, 4116.66666639, 4163.33333313, 4128.20512793, 4135.51282031, 4114.99999973, 4131.92307665, 4146.53846133, 4134.48717921, 4559.10256473, 4177.30769217, 4133.33333306, 4144.74358954,12.0
4140.76923056, 4109.35897408, 4125.76923050, 4170.12820499, 4127.56410229, 4152.30769210, 4133.97435870, 4148.58974339, 4157.17948697, 4134.48717921, 4554.23076986, 4187.30769217, 4144.74358954, 4145.64102544,12.0
4144.61538441, 4094.23076889, 4118.58974332, 4173.20512807, 4127.05128178, 4148.20512800, 4135.12820485, 4133.20512793, 4143.97435877, 4134.48717921, 4546.15384678, 4172.05128192, 4143.20512800, 4146.02564082,12.0
4138.20512800, 4096.15384581, 4107.05128178, 4162.94871774, 4128.97435870, 4135.89743569, 4134.35897408, 4125.64102537, 4132.30769203, 4134.48717921, 4546.28205191, 4155.89743569, 4123.20512793, 4142.43589723,12.0
4144.87179467, 4094.87179453, 4109.87179460, 4153.58974339, 4129.48717921, 4143.07692287, 4138.71794851, 4131.28205101, 4137.82051262, 4134.48717921, 4548.07692371, 4156.41025621, 4122.69230742, 4141.79487159,12.0
4142.82051262, 4084.61538427, 4109.74358947, 4153.84615364, 4126.15384588, 4140.25641005, 4139.87179467, 4118.46153819, 4132.56410229, 4134.48717921, 4544.87179550, 4160.38461518, 4136.79487159, 4140.76923056,12.0
4148.46153826, 4083.20512786, 4112.82051255, 4157.05128185, 4126.66666639, 4136.15384595, 4133.20512793, 4105.12820485, 4124.10256383, 4134.48717921, 4545.38461601, 4163.97435877, 4138.07692287, 4142.69230749,12.0
4151.15384595, 4099.23076889, 4122.05128178, 4159.61538441, 4130.38461511, 4152.94871774, 4135.12820485, 4116.02564075, 4133.07692280, 4134.48717921, 4549.10256473, 4172.17948704, 4136.15384595, 4147.43589723,12.0
4141.79487159, 4114.10256383, 4125.64102537, 4166.15384595, 4129.74358947, 4157.82051262, 4152.56410236, 4136.66666646, 4143.58974339, 4134.48717921, 4551.15384678, 4182.43589730, 4144.23076903, 4145.64102544,12.0
4152.17948697, 4104.10256383, 4122.94871767, 4170.76923063, 4126.02564075, 4146.02564082, 4146.92307672, 4130.89743562, 4139.48717928, 4134.48717921, 4548.46153909, 4178.20512807, 4142.05128185, 4141.53846133,12.0
4146.79487159, 4098.33333299, 4121.92307665, 4166.41025621, 4125.51282024, 4142.69230749, 4124.87179460, 4119.87179460, 4133.33333306, 4134.48717921, 4541.92307755, 4172.43589730, 4136.02564082, 4142.17948697,12.0
4141.53846133, 4115.25640998, 4126.79487152, 4159.35897415, 4128.33333306, 4144.10256390, 4130.64102537, 4126.79487152, 4137.17948697, 4134.48717921, 4543.84615448, 4182.05128192, 4140.76923056, 4145.89743569,12.0
4148.33333313, 4123.58974332, 4130.64102537, 4164.87179467, 4129.61538434, 4141.53846133, 4146.66666646, 4127.43589716, 4142.43589723, 4134.48717921, 4551.53846217, 4186.66666653, 4140.51282031, 4145.64102544,12.0
4140.12820492, 4113.58974332, 4129.10256383, 4170.12820499, 4129.23076896, 4143.71794851, 4134.74358947, 4118.84615357, 4143.20512800, 4134.48717921, 4550.76923140, 4180.38461525, 4137.69230749, 4142.05128185,12.0
4140.12820492, 4113.58974332, 4129.10256383, 4170.12820499, 4129.23076896, 4143.71794851, 4134.74358947, 4118.84615357, 4143.20512800, 4134.48717921, 4550.76923140, 4180.38461525, 4137.69230749, 4142.05128185,12.0
4146.66666646, 4107.82051255, 4126.79487152, 4162.05128185, 4129.10256383, 4144.48717928, 4114.10256383, 4112.43589716, 4138.71794851, 4134.48717921, 4547.56410319, 4179.74358961, 4140.38461518, 4143.97435877,12.0
4146.02564082, 4113.20512793, 4125.12820485, 4148.84615364, 4129.74358947, 4140.76923056, 4119.23076896, 4114.48717921, 4134.23076896, 4134.48717921, 4545.00000063, 4180.38461525, 4140.38461518, 4145.12820492,12.0
4142.82051262, 4117.94871767, 4131.66666639, 4142.05128185, 4129.87179460, 4148.97435877, 4155.25641005, 4127.82051255, 4142.30769210, 4134.48717921, 4543.84615448, 4186.15384602, 4138.20512800, 4144.99999980,12.0
4148.84615364, 4114.87179460, 4136.66666646, 4149.48717928, 4128.20512793, 4164.61538441, 4178.07692294, 4137.56410236, 4153.07692287, 4134.48717921, 4546.15384678, 4193.33333320, 4141.02564082, 4147.94871774,12.0
4137.17948697, 4099.23076889, 4123.71794844, 4147.30769210, 4127.30769203, 4157.82051262, 4143.33333313, 4123.07692280, 4140.38461518, 4134.48717921, 4544.23076986, 4177.94871781, 4137.05128185, 4146.41025621,12.0
4145.89743569, 4088.84615350, 4119.61538434, 4131.02564075, 4128.20512793, 4143.97435877, 4115.76923050, 4111.53846126, 4124.74358947, 4134.48717921, 4542.94871858, 4168.84615371, 4136.41025621, 4144.23076903,12.0
4151.28205108, 4101.53846119, 4134.48717921, 4135.25640998, 4129.87179460, 4149.61538441, 4141.92307672, 4129.61538434, 4140.51282031, 4134.48717921, 4546.41025704, 4187.94871781, 4148.71794851, 4143.46153826,12.0
4141.53846133, 4122.82051255, 4145.51282031, 4149.23076903, 4128.84615357, 4157.30769210, 4164.48717928, 4146.53846133, 4159.23076903, 4134.48717921, 4545.76923140, 4201.41025634, 4148.20512800, 4144.23076903,12.0
4152.05128185, 4125.89743562, 4145.25641005, 4140.89743569, 4128.07692280, 4151.79487159, 4156.15384595, 4148.33333313, 4157.94871774, 4134.48717921, 4547.30769294, 4201.66666660, 4145.38461518, 4145.64102544,12.0
4147.30769210, 4107.30769203, 4133.97435870, 4126.02564075, 4128.84615357, 4143.46153826, 4139.23076903, 4139.23076903, 4146.79487159, 4134.48717921, 4547.30769294, 4189.99999986, 4145.25641005, 4143.33333313,12.0
4148.33333313, 4101.02564068, 4121.28205101, 4120.12820485, 4128.33333306, 4144.48717928, 4123.84615357, 4121.79487152, 4131.28205101, 4134.48717921, 4537.30769294, 4167.94871774, 4132.17948691, 4145.25641005,12.0
4151.92307672, 4102.82051255, 4122.05128178, 4111.28205101, 4127.82051255, 4146.92307672, 4121.79487152, 4116.53846126, 4131.53846126, 4134.48717921, 4534.74359037, 4167.05128185, 4125.12820485, 4146.79487159,12.0
4140.51282031, 4090.76923043, 4134.48717921, 4112.30769203, 4126.53846126, 4138.84615364, 4127.69230742, 4124.74358947, 4145.25641005, 4134.48717921, 4544.61538524, 4187.17948704, 4139.23076903, 4145.25641005,12.0
4147.56410236, 4104.10256383, 4143.20512800, 4131.53846126, 4127.56410229, 4130.25640998, 4125.89743562, 4126.41025614, 4143.71794851, 4134.48717921, 4545.12820576, 4197.30769217, 4150.89743569, 4148.20512800,12.0
4144.23076903, 4122.69230742, 4146.15384595, 4138.20512800, 4130.25640998, 4134.74358947, 4138.97435877, 4133.07692280, 4143.97435877, 4134.48717921, 4542.69230832, 4203.46153840, 4150.89743569, 4148.20512800,12.0
4142.94871774, 4114.74358947, 4153.71794851, 4125.12820485, 4130.89743562, 4148.46153826, 4157.05128185, 4145.12820492, 4161.41025621, 4134.48717921, 4552.43589807, 4213.97435891, 4157.82051262, 4144.48717928,12.0
4146.28205108, 4117.43589716, 4151.15384595, 4123.71794844, 4130.89743562, 4152.69230749, 4144.61538441, 4139.10256390, 4165.25641005, 4134.48717921, 4553.20512883, 4206.53846147, 4158.71794851, 4143.71794851,12.0
4137.17948697, 4120.76923050, 4136.79487159, 4131.41025614, 4129.10256383, 4151.15384595, 4134.10256383, 4126.02564075, 4153.33333313, 4134.48717921, 4542.05128268, 4186.79487166, 4144.99999980, 4144.48717928,12.0
4147.43589723, 4098.07692273, 4131.66666639, 4123.46153819, 4130.89743562, 4148.84615364, 4149.10256390, 4121.28205101, 4145.38461518, 4134.48717921, 4541.15384678, 4180.51282038, 4141.28205108, 4142.82051262,12.0
4144.99999980, 4094.10256376, 4133.84615357, 4113.20512793, 4132.56410229, 4150.89743569, 4159.10256390, 4128.71794844, 4144.99999980, 4134.48717921, 4542.82051345, 4186.79487166, 4147.94871774, 4141.28205108,12.0
4142.05128185, 4121.92307665, 4138.20512800, 4121.53846126, 4129.10256383, 4158.33333313, 4156.53846133, 4140.25641005, 4152.17948697, 4134.48717921, 4536.66666730, 4191.92307679, 4147.69230749, 4146.79487159,12.0
4150.25641005, 4117.69230742, 4138.71794851, 4126.66666639, 4127.56410229, 4147.05128185, 4150.51282031, 4135.64102544, 4151.28205108, 4134.48717921, 4529.87179550, 4186.02564089, 4139.23076903, 4148.20512800,12.0
4142.69230749, 4090.76923043, 4136.79487159, 4118.46153819, 4129.87179460, 4129.48717921, 4140.51282031, 4121.92307665, 4137.43589723, 4134.48717921, 4531.66666730, 4180.76923063, 4138.46153826, 4144.61538441,12.0
4151.02564082, 4098.20512786, 4143.46153826, 4122.94871767, 4129.99999973, 4140.38461518, 4135.89743569, 4119.99999973, 4135.64102544, 4134.48717921, 4537.05128268, 4190.76923063, 4146.15384595, 4144.87179467,12.0
4139.23076903, 4078.58974325, 4128.20512793, 4100.12820478, 4127.43589716, 4125.64102537, 4137.82051262, 4122.43589716, 4125.25640998, 4134.48717921, 4523.07692364, 4168.97435884, 4134.61538434, 4145.76923056,12.0
4149.10256390, 4073.07692273, 4125.38461511, 4086.15384581, 4127.94871767, 4119.23076896, 4124.87179460, 4122.94871767, 4125.25640998, 4134.48717921, 4521.28205184, 4177.56410243, 4141.41025621, 4146.02564082,12.0
4140.38461518, 4050.76923036, 4110.38461511, 4070.76923043, 4129.35897408, 4114.87179460, 4113.07692280, 4120.64102537, 4116.28205101, 4134.48717921, 4515.38461594, 4162.30769210, 4134.74358947, 4145.76923056,12.0
4146.02564082, 4060.64102523, 4113.84615357, 4074.61538427, 4128.58974332, 4114.35897408, 4125.12820485, 4128.20512793, 4125.64102537, 4134.48717921, 4516.28205184, 4156.15384595, 4128.20512793, 4145.38461518,12.0
4151.92307672, 4066.79487138, 4118.84615357, 4083.71794837, 4129.35897408, 4110.89743562, 4126.92307665, 4135.51282031, 4137.56410236, 4134.48717921, 4520.00000056, 4165.76923056, 4131.02564075, 4144.10256390,12.0
4144.87179467, 4059.10256369, 4113.71794844, 4083.71794837, 4130.12820485, 4114.74358947, 4117.69230742, 4133.07692280, 4131.92307665, 4134.48717921, 4518.58974415, 4170.89743576, 4137.69230749, 4146.66666646,12.0
4150.51282031, 4054.61538420, 4109.35897408, 4076.79487145, 4127.43589716, 4117.30769203, 4111.92307665, 4116.79487152, 4117.05128178, 4134.48717921, 4516.15384671, 4160.38461518, 4137.56410236, 4149.35897415,12.0
4150.51282031, 4054.61538420, 4109.35897408, 4076.79487145, 4127.43589716, 4117.30769203, 4111.92307665, 4116.79487152, 4117.05128178, 4134.48717921, 4516.15384671, 4160.38461518, 4137.56410236, 4149.35897415,12.0
4146.28205108, 4041.53846113, 4107.56410229, 4076.66666632, 4126.53846126, 4116.15384588, 4112.05128178, 4106.28205101, 4111.53846126, 4134.48717921, 4515.64102620, 4156.02564082, 4134.48717921, 4143.58974339,12.0
4151.41025621, 4035.25640977, 4111.41025614, 4088.58974325, 4130.51282024, 4123.84615357, 4124.10256383, 4117.43589716, 4122.82051255, 4134.48717921, 4516.41025697, 4166.41025621, 4138.71794851, 4142.17948697,12.0
4151.66666646, 4054.87179446, 4117.69230742, 4088.84615350, 4131.79487152, 4128.07692280, 4145.25641005, 4139.74358954, 4141.41025621, 4134.48717921, 4517.43589800, 4173.71794858, 4142.94871774, 4145.76923056,12.0
4141.28205108, 4062.17948677, 4118.84615357, 4076.79487145, 4128.97435870, 4131.02564075, 4152.43589723, 4151.15384595, 4145.25641005, 4134.48717921, 4516.66666723, 4173.07692294, 4135.51282031, 4146.92307672,12.0
4153.20512800, 4034.23076875, 4108.33333306, 4070.76923043, 4126.15384588, 4139.35897415, 4134.99999973, 4137.56410236, 4132.43589716, 4134.48717921, 4511.28205184, 4159.74358954, 4126.66666639, 4147.56410236,12.0
4145.64102544, 4018.07692259, 4099.35897402, 4069.35897395, 4126.53846126, 4129.87179460, 4118.46153819, 4121.28205101, 4126.92307665, 4134.48717921, 4507.30769287, 4148.58974339, 4132.43589716, 4145.25641005,12.0
4140.12820492, 4037.69230728, 4107.94871767, 4076.41025607, 4130.51282024, 4117.05128178, 4114.87179460, 4120.76923050, 4124.87179460, 4134.48717921, 4511.28205184, 4159.87179467, 4141.28205108, 4146.02564082,12.0
4149.61538441, 4057.30769189, 4120.38461511, 4085.51282017, 4131.28205101, 4123.33333306, 4119.61538434, 4126.15384588, 4122.43589716, 4134.48717921, 4515.25641082, 4175.89743576, 4138.46153826, 4146.79487159,12.0
4140.76923056, 4049.35897395, 4116.41025614, 4079.61538427, 4125.89743562, 4115.76923050, 4121.66666639, 4124.99999973, 4128.58974332, 4134.48717921, 4513.97435953, 4171.15384602, 4133.58974332, 4143.84615364,12.0
4143.97435877, 4035.12820465, 4109.10256383, 4073.58974325, 4125.89743562, 4107.94871767, 4117.94871767, 4118.71794844, 4132.30769203, 4134.48717921, 4515.76923133, 4164.48717928, 4138.33333313, 4146.02564082,12.0
4145.38461518, 4038.20512779, 4107.05128178, 4073.07692273, 4131.28205101, 4123.97435870, 4123.97435870, 4123.07692280, 4127.05128178, 4134.48717921, 4515.25641082, 4167.56410236, 4143.84615364, 4147.05128185,12.0
4145.64102544, 4053.07692266, 4105.12820485, 4065.51282010, 4129.35897408, 4122.69230742, 4129.99999973, 4129.74358947, 4125.38461511, 4134.48717921, 4510.38461594, 4158.84615364, 4137.69230749, 4145.38461518,12.0
4150.25641005, 4054.48717907, 4103.33333306, 4059.74358933, 4126.53846126, 4109.74358947, 4127.94871767, 4125.64102537, 4134.61538434, 4134.48717921, 4506.92307748, 4150.89743569, 4134.48717921, 4144.48717928,12.0
4142.05128185, 4021.15384567, 4102.05128171, 4061.15384574, 4127.82051255, 4118.07692280, 4128.33333306, 4128.97435870, 4143.84615364, 4134.48717921, 4500.64102620, 4157.69230749, 4137.30769210, 4143.07692287,12.0
4148.84615364, 4019.35897388, 4107.43589716, 4065.64102523, 4128.46153819, 4134.61538434, 4142.94871774, 4145.12820492, 4147.94871774, 4134.48717921, 4502.05128261, 4164.99999980, 4138.20512800, 4143.97435877,12.0
4148.07692287, 4052.30769189, 4104.23076896, 4063.20512779, 4129.74358947, 4134.99999973, 4142.82051262, 4145.76923056, 4143.84615364, 4134.48717921, 4506.02564159, 4156.66666646, 4135.38461518, 4144.61538441,12.0
4146.79487159, 4045.64102523, 4090.12820478, 4051.79487138, 4130.51282024, 4122.30769203, 4113.07692280, 4123.46153819, 4132.82051255, 4134.48717921, 4497.69230825, 4142.56410236, 4127.94871767, 4146.28205108,12.0
4156.66666646, 4027.30769183, 4098.97435863, 4056.66666625, 4128.97435870, 4115.76923050, 4109.35897408, 4117.56410229, 4135.12820485, 4134.48717921, 4497.17948774, 4156.02564082, 4128.33333306, 4147.69230749,12.0
4145.12820492, 4050.51282010, 4117.82051255, 4074.99999966, 4126.53846126, 4121.92307665, 4136.28205108, 4137.82051262, 4141.28205108, 4134.48717921, 4508.20512876, 4178.33333320, 4142.56410236, 4147.56410236,12.0
4150.38461518, 4063.71794830, 4115.89743562, 4079.23076889, 4127.05128178, 4128.46153819, 4139.10256390, 4137.69230749, 4135.76923056, 4134.48717921, 4507.43589800, 4172.30769217, 4149.23076903, 4148.46153826,12.0
4150.64102544, 4046.92307651, 4104.87179460, 4075.38461504, 4129.87179460, 4122.05128178, 4120.38461511, 4116.53846126, 4132.30769203, 4134.48717921, 4497.82051338, 4160.76923056, 4137.17948697, 4145.89743569,12.0
4138.58974339, 4053.20512779, 4105.12820485, 4076.41025607, 4129.61538434, 4118.07692280, 4119.48717921, 4112.05128178, 4133.20512793, 4134.48717921, 4497.17948774, 4162.43589723, 4133.46153819, 4145.76923056,12.0
4148.58974339, 4066.02564061, 4109.35897408, 4077.94871761, 4128.07692280, 4123.97435870, 4131.53846126, 4122.05128178, 4133.58974332, 4134.48717921, 4501.02564159, 4162.69230749, 4141.79487159, 4147.56410236,12.0
4141.53846133, 4047.43589702, 4100.51282017, 4075.89743555, 4128.84615357, 4114.74358947, 4118.97435870, 4124.61538434, 4134.23076896, 4134.48717921, 4497.05128261, 4151.02564082, 4135.64102544, 4144.74358954,12.0
4142.69230749, 4028.71794824, 4090.51282017, 4071.15384581, 4129.35897408, 4096.53846119, 4099.23076889, 4117.69230742, 4135.76923056, 4134.48717921, 4493.84615434, 4140.12820492, 4128.58974332, 4144.87179467,12.0
4149.35897415, 4038.84615343, 4091.28205094, 4069.61538420, 4127.82051255, 4101.28205094, 4100.76923043, 4115.38461511, 4139.35897415, 4134.48717921, 4496.66666723, 4141.28205108, 4133.58974332, 4145.25641005,12.0
4142.94871774, 4056.02564061, 4096.66666632, 4074.74358940, 4127.56410229, 4119.23076896, 4112.69230742, 4126.66666639, 4145.76923056, 4134.48717921, 4500.12820569, 4148.71794851, 4136.66666646, 4143.46153826,12.0
4149.61538441, 4058.58974318, 4098.46153812, 4077.69230735, 4129.35897408, 4119.48717921, 4124.99999973, 4147.05128185, 4152.94871774, 4134.48717921, 4498.97435953, 4158.46153826, 4141.53846133, 4143.71794851,12.0
4145.38461518, 4058.46153805, 4097.56410222, 4081.15384581, 4127.56410229, 4115.89743562, 4140.25641005, 4153.33333313, 4157.30769210, 4134.48717921, 4496.53846210, 4163.71794851, 4147.82051262, 4145.12820492,12.0
4146.66666646, 4056.66666625, 4096.92307658, 4085.51282017, 4126.02564075, 4127.43589716, 4141.66666646, 4136.41025621, 4154.35897415, 4134.48717921, 4495.25641075, 4157.56410236, 4141.02564082, 4145.38461518,12.0
4151.28205108, 4049.87179446, 4093.20512786, 4084.87179453, 4129.23076896, 4133.97435870, 4126.02564075, 4122.82051255, 4147.56410236, 4134.48717921, 4496.02564152, 4147.82051262, 4132.43589716, 4144.87179467,12.0
4151.28205108, 4049.87179446, 4093.20512786, 4084.87179453, 4129.23076896, 4133.97435870, 4126.02564075, 4122.82051255, 4147.56410236, 4134.48717921, 4496.02564152, 4147.82051262, 4132.43589716, 4144.87179467,12.0
4146.28205108, 4052.94871754, 4093.84615350, 4086.28205094, 4128.71794844, 4130.12820485, 4126.02564075, 4123.58974332, 4144.23076903, 4134.48717921, 4496.28205177, 4151.28205108, 4134.35897408, 4146.66666646,12.0
4154.23076903, 4056.66666625, 4098.97435863, 4090.76923043, 4126.15384588, 4123.97435870, 4133.33333306, 4118.71794844, 4141.02564082, 4134.48717921, 4492.69230818, 4162.17948697, 4142.30769210, 4146.92307672,12.0
4146.79487159, 4051.15384574, 4098.71794837, 4095.12820478, 4127.82051255, 4126.15384588, 4135.38461518, 4120.64102537, 4138.84615364, 4134.48717921, 4495.25641075, 4167.05128185, 4149.99999980, 4144.87179467,12.0
4144.61538441, 4045.25640984, 4094.48717914, 4092.05128171, 4129.23076896, 4133.84615357, 4139.23076903, 4126.15384588, 4141.15384595, 4134.48717921, 4493.58974408, 4162.17948697, 4144.99999980, 4147.94871774,12.0
4150.12820492, 4038.07692266, 4089.74358940, 4079.48717914, 4127.43589716, 4126.53846126, 4134.87179460, 4113.58974332, 4138.58974339, 4134.48717921, 4483.07692357, 4152.30769210, 4133.46153819, 4148.20512800,12.0
4139.61538441, 4028.33333285, 4090.89743555, 4072.43589709, 4128.07692280, 4117.43589716, 4126.15384588, 4120.89743562, 4133.33333306, 4134.48717921, 4488.07692357, 4155.64102544, 4136.15384595, 4143.84615364,12.0
4147.05128185, 4021.79487131, 4093.71794837, 4075.89743555, 4129.87179460, 4125.51282024, 4132.43589716, 4144.10256390, 4141.41025621, 4134.48717921, 4503.07692364, 4164.23076903, 4145.25641005, 4144.23076903,12.0
4144.87179467, 4016.28205080, 4090.89743555, 4078.20512786, 4129.10256383, 4130.89743562, 4143.71794851, 4140.25641005, 4159.35897415, 4134.48717921, 4496.53846210, 4157.82051262, 4146.28205108, 4144.61538441,12.0
4137.69230749, 4001.15384560, 4089.99999966, 4073.58974325, 4128.97435870, 4124.61538434, 4136.28205108, 4133.33333306, 4158.97435877, 4134.48717921, 4480.51282100, 4152.43589723, 4142.69230749, 4145.51282031,12.0
4146.41025621, 3969.23076861, 4090.89743555, 4066.79487138, 4128.20512793, 4114.10256383, 4125.64102537, 4143.33333313, 4142.69230749, 4134.48717921, 4485.25641075, 4156.15384595, 4136.79487159, 4147.43589723,12.0
4143.07692287, 3927.05128136, 4084.48717914, 4059.23076882, 4128.20512793, 4099.61538427, 4115.89743562, 4140.76923056, 4145.38461518, 4134.48717921, 4491.79487229, 4151.53846133, 4137.94871774, 4145.76923056,12.0
4150.12820492, 3904.35897360, 4080.64102530, 4058.97435856, 4129.61538434, 4099.61538427, 4108.07692280, 4127.30769203, 4157.17948697, 4134.48717921, 4486.92307741, 4139.74358954, 4142.43589723, 4146.15384595,12.0
4151.41025621, 3908.46153777, 4080.51282017, 4062.69230728, 4128.97435870, 4117.82051255, 4117.56410229, 4127.94871767, 4152.82051262, 4134.48717921, 4482.56410305, 4136.66666646, 4136.41025621, 4145.38461518,12.0
4146.28205108, 3908.71794803, 4079.87179453, 4059.23076882, 4127.17948691, 4120.38461511, 4125.76923050, 4132.56410229, 4145.12820492, 4134.48717921, 4482.69230818, 4141.66666646, 4133.20512793, 4145.12820492,12.0
4154.61538441, 3892.30769155, 4078.58974325, 4057.56410215, 4126.15384588, 4108.71794844, 4112.94871767, 4119.74358947, 4145.12820492, 4134.48717921, 4483.20512870, 4141.41025621, 4136.92307672, 4146.15384595,12.0
4154.61538441, 3892.30769155, 4078.58974325, 4057.56410215, 4126.15384588, 4108.71794844, 4112.94871767, 4119.74358947, 4145.12820492, 4134.48717921, 4483.20512870, 4141.41025621, 4136.92307672, 4146.15384595,12.0
4146.02564082, 3869.61538379, 4072.82051248, 4063.97435856, 4126.92307665, 4108.97435870, 4104.48717921, 4103.84615357, 4131.66666639, 4134.48717921, 4478.84615434, 4134.23076896, 4133.71794844, 4144.61538441,12.0
4150.64102544, 3858.71794789, 4075.38461504, 4069.74358940, 4128.58974332, 4118.71794844, 4126.15384588, 4113.07692280, 4117.69230742, 4134.48717921, 4480.25641075, 4138.46153826, 4131.92307665, 4148.20512800,12.0
4153.33333313, 3856.79487096, 4083.07692273, 4066.41025600, 4128.71794844, 4122.30769203, 4146.41025621, 4137.17948697, 4142.30769210, 4134.48717921, 4485.25641075, 4151.02564082, 4139.74358954, 4149.61538441,12.0
4140.51282031, 3840.51281968, 4080.51282017, 4059.10256369, 4126.53846126, 4113.58974332, 4131.28205101, 4139.48717928, 4169.10256397, 4134.48717921, 4478.97435946, 4147.05128185, 4140.12820492, 4145.64102544,12.0
4147.94871774, 3811.41025551, 4072.82051248, 4058.20512779, 4126.92307665, 4102.94871767, 4099.87179453, 4119.10256383, 4159.61538441, 4134.48717921, 4470.51282100, 4134.87179460, 4132.82051255, 4147.56410236,12.0
4145.76923056, 3802.56410160, 4066.92307651, 4061.79487138, 4127.56410229, 4099.61538427, 4086.41025607, 4108.33333306, 4147.82051262, 4134.48717921, 4475.00000049, 4131.02564075, 4129.99999973, 4147.69230749,12.0
4146.28205108, 3830.76922987, 4073.84615350, 4068.20512779, 4126.92307665, 4103.58974332, 4098.97435863, 4114.99999973, 4156.53846133, 4134.48717921, 4481.53846203, 4139.35897415, 4135.38461518, 4146.02564082,12.0
4149.10256390, 3849.61538379, 4080.76923043, 4064.23076882, 4127.43589716, 4109.74358947, 4112.56410229, 4116.66666639, 4160.12820492, 4134.48717921, 4475.25641075, 4148.46153826, 4145.51282031, 4146.41025621,12.0
4138.71794851, 3834.61538372, 4073.84615350, 4053.07692266, 4126.15384588, 4107.56410229, 4112.17948691, 4107.56410229, 4152.43589723, 4134.48717921, 4467.43589793, 4143.07692287, 4139.99999980, 4145.25641005,12.0
4147.30769210, 3813.97435807, 4065.51282010, 4045.12820472, 4126.02564075, 4099.23076889, 4098.20512786, 4097.30769196, 4145.25641005, 4134.48717921, 4465.00000049, 4128.20512793, 4118.71794844, 4143.97435877,12.0
4145.64102544, 3814.99999910, 4063.46153805, 4039.99999959, 4126.41025614, 4097.05128171, 4091.28205094, 4101.15384581, 4143.84615364, 4134.48717921, 4464.35897485, 4121.79487152, 4118.58974332, 4144.10256390,12.0
4143.97435877, 3842.94871712, 4069.35897395, 4045.89743548, 4124.61538434, 4102.17948684, 4109.10256383, 4113.71794844, 4157.56410236, 4134.48717921, 4468.20512870, 4132.56410229, 4142.69230749, 4145.89743569,12.0
4152.56410236, 3865.89743507, 4071.28205094, 4051.79487138, 4125.38461511, 4102.43589709, 4121.92307665, 4119.10256383, 4166.41025621, 4134.48717921, 4470.64102613, 4139.10256390, 4145.64102544, 4143.33333313,12.0
4146.15384595, 3872.69230686, 4071.53846119, 4051.66666625, 4126.28205101, 4103.07692280, 4114.48717921, 4119.35897408, 4175.76923063, 4134.48717921, 4469.61538511, 4141.02564082, 4132.94871767, 4142.69230749,12.0
4152.43589723, 3877.17948642, 4080.76923043, 4058.84615343, 4126.41025614, 4114.87179460, 4108.33333306, 4123.58974332, 4182.17948704, 4134.48717921, 4470.51282100, 4152.30769210, 4137.56410236, 4148.07692287,12.0
4148.71794851, 3877.56410180, 4080.12820478, 4066.02564061, 4125.64102537, 4116.28205101, 4109.10256383, 4128.46153819, 4169.61538448, 4134.48717921, 4471.02564152, 4153.46153826, 4142.43589723, 4145.89743569,12.0
4143.58974339, 3890.12820437, 4073.20512786, 4064.35897395, 4125.12820485, 4109.10256383, 4113.97435870, 4121.02564075, 4165.64102544, 4134.48717921, 4469.87179536, 4142.94871774, 4139.99999980, 4143.71794851,12.0
4151.92307672, 3903.84615309, 4073.71794837, 4058.84615343, 4127.82051255, 4116.79487152, 4124.35897408, 4115.25640998, 4175.64102551, 4134.48717921, 4468.58974408, 4139.99999980, 4139.10256390, 4147.56410236,12.0
4142.56410236, 3898.33333257, 4072.05128171, 4055.89743548, 4128.58974332, 4113.84615357, 4133.07692280, 4120.76923050, 4162.69230749, 4134.48717921, 4464.23076972, 4141.53846133, 4136.02564082, 4148.84615364,12.0
4146.02564082, 3900.25640950, 4070.51282017, 4058.46153805, 4126.28205101, 4098.33333299, 4125.51282024, 4110.38461511, 4136.66666646, 4134.48717921, 4457.30769273, 4138.07692287, 4135.64102544, 4147.05128185,12.0
4147.43589723, 3919.61538392, 4075.51282017, 4063.84615343, 4126.79487152, 4099.87179453, 4106.28205101, 4093.84615350, 4129.48717921, 4134.48717921, 4449.74359016, 4140.25641005, 4135.89743569, 4146.79487159,12.0
4142.94871774, 3936.66666598, 4083.07692273, 4067.94871754, 4127.94871767, 4112.56410229, 4107.30769203, 4102.69230742, 4139.87179467, 4134.48717921, 4454.35897478, 4150.51282031, 4132.82051255, 4147.82051262,12.0
4149.23076903, 3941.79487117, 4080.64102530, 4074.61538427, 4128.58974332, 4109.74358947, 4120.38461511, 4117.05128178, 4161.15384595, 4134.48717921, 4461.79487222, 4150.25641005, 4135.89743569, 4143.97435877,12.0
4139.87179467, 3934.61538392, 4067.94871754, 4070.89743555, 4126.15384588, 4096.41025607, 4105.25640998, 4111.92307665, 4165.64102544, 4134.48717921, 4451.79487222, 4134.48717921, 4135.64102544, 4141.92307672,12.0
4144.99999980, 3932.30769162, 4067.05128164, 4055.64102523, 4122.82051255, 4092.43589709, 4094.61538427, 4110.76923050, 4148.71794851, 4134.48717921, 4445.51282093, 4128.97435870, 4128.58974332, 4145.64102544,12.0
4148.07692287, 3944.74358912, 4077.56410222, 4057.30769189, 4123.33333306, 4095.51282017, 4122.43589716, 4132.82051255, 4150.51282031, 4134.48717921, 4450.89743632, 4141.66666646, 4134.99999973, 4144.61538441,12.0
4139.87179467, 3951.28205066, 4075.76923043, 4064.48717907, 4125.51282024, 4100.64102530, 4127.69230742, 4132.94871767, 4161.79487159, 4134.48717921, 4445.12820555, 4140.25641005, 4145.25641005, 4143.58974339,12.0
4145.89743569, 3950.38461476, 4054.23076882, 4056.41025600, 4125.89743562, 4103.46153819, 4119.48717921, 4100.89743555, 4127.69230742, 4134.48717921, 4443.84615427, 4119.87179460, 4127.43589716, 4143.07692287,12.0
4141.28205108, 3977.56410201, 4066.53846113, 4074.61538427, 4124.48717921, 4116.41025614, 4121.66666639, 4112.56410229, 4141.41025621, 4134.48717921, 4449.48717991, 4141.41025621, 4141.92307672, 4143.97435877,12.0
4149.99999980, 3971.66666611, 4068.58974318, 4071.92307658, 4122.43589716, 4097.43589709, 4096.41025607, 4119.35897408, 4143.20512800, 4134.48717921, 4449.23076965, 4148.46153826, 4141.41025621, 4144.23076903,12.0
4142.30769210, 3952.82051220, 4058.97435856, 4053.20512779, 4124.23076896, 4081.92307658, 4084.35897402, 4115.12820485, 4141.53846133, 4134.48717921, 4446.79487222, 4133.33333306, 4130.51282024, 4141.79487159,12.0
4146.79487159, 3972.05128150, 4061.28205087, 4063.58974318, 4126.15384588, 4099.61538427, 4105.51282024, 4118.20512793, 4139.61538441, 4134.48717921, 4447.17948760, 4131.66666639, 4132.94871767, 4146.15384595,12.0
4143.71794851, 3997.17948663, 4064.23076882, 4074.87179453, 4127.17948691, 4104.87179460, 4108.33333306, 4118.07692280, 4135.25640998, 4134.48717921, 4448.33333375, 4138.33333313, 4139.10256390, 4145.51282031,12.0
4141.41025621, 3986.15384560, 4060.76923036, 4061.15384574, 4126.92307665, 4092.43589709, 4093.20512786, 4108.97435870, 4137.82051262, 4134.48717921, 4449.23076965, 4134.87179460, 4139.48717928, 4142.05128185,12.0
4150.64102544, 3977.30769176, 4064.48717907, 4061.79487138, 4127.69230742, 4101.53846119, 4110.64102537, 4110.64102537, 4139.10256390, 4134.48717921, 4448.71794914, 4134.10256383, 4132.17948691, 4143.07692287,12.0
4142.69230749, 3987.56410201, 4060.76923036, 4069.74358940, 4127.17948691, 4109.87179460, 4126.15384588, 4109.23076896, 4126.15384588, 4134.48717921, 4444.61538504, 4126.15384588, 4122.56410229, 4144.35897415,12.0
4148.20512800, 3981.15384560, 4050.51282010, 4060.89743548, 4125.25640998, 4109.10256383, 4114.23076896, 4101.79487145, 4118.07692280, 4134.48717921, 4442.69230811, 4111.15384588, 4124.23076896, 4146.53846133,12.0
4152.30769210, 3983.58974304, 4056.15384574, 4055.51282010, 4123.58974332, 4122.05128178, 4117.30769203, 4111.79487152, 4130.25640998, 4134.48717921, 4445.89743632, 4122.17948691, 4136.28205108, 4145.38461518,12.0
4149.23076903, 4008.58974311, 4067.05128164, 4069.74358940, 4125.38461511, 4123.33333306, 4130.12820485, 4117.56410229, 4142.30769210, 4134.48717921, 4450.00000042, 4141.28205108, 4143.20512800, 4145.25641005,12.0
4152.56410236, 4003.33333278, 4063.97435856, 4083.33333299, 4126.92307665, 4107.05128178, 4118.58974332, 4105.76923050, 4138.71794851, 4134.48717921, 4452.56410298, 4139.35897415, 4144.99999980, 4146.66666646,12.0
4141.53846133, 3993.71794817, 4065.38461497, 4083.33333299, 4122.56410229, 4106.28205101, 4111.02564075, 4108.07692280, 4133.84615357, 4134.48717921, 4458.58974401, 4147.17948697, 4156.15384595, 4145.12820492,12.0
4148.07692287, 4025.25640977, 4083.97435863, 4082.17948684, 4122.17948691, 4116.15384588, 4118.33333306, 4125.25640998, 4144.61538441, 4134.48717921, 4465.76923126, 4169.35897422, 4167.30769210, 4145.51282031,12.0
4148.84615364, 4034.10256362, 4085.64102530, 4085.76923043, 4125.76923050, 4110.89743562, 4112.56410229, 4132.94871767, 4155.64102544, 4134.48717921, 4463.07692350, 4163.33333313, 4157.05128185, 4144.35897415,12.0
4137.43589723, 4001.66666611, 4069.61538420, 4086.79487145, 4126.53846126, 4103.33333306, 4103.84615357, 4127.43589716, 4146.02564082, 4134.48717921, 4460.12820555, 4142.17948697, 4139.87179467, 4143.84615364,12.0
4147.69230749, 3998.20512765, 4065.76923036, 4076.28205094, 4126.02564075, 4107.30769203, 4103.46153819, 4119.23076896, 4131.53846126, 4134.48717921, 4460.51282093, 4142.82051262, 4146.02564082, 4147.30769210,12.0
4142.56410236, 4013.58974311, 4069.74358940, 4070.25640991, 4123.58974332, 4109.10256383, 4111.53846126, 4124.35897408, 4138.07692287, 4134.48717921, 4462.30769273, 4150.38461518, 4162.05128185, 4146.15384595,12.0
4143.07692287, 4007.17948670, 4067.94871754, 4077.56410222, 4123.07692280, 4115.89743562, 4129.10256383, 4131.92307665, 4145.38461518, 4134.48717921, 4466.15384664, 4142.05128185, 4159.23076903, 4142.05128185,12.0
4147.69230749, 4007.94871747, 4063.97435856, 4074.35897402, 4127.43589716, 4125.89743562, 4140.64102544, 4125.51282024, 4136.02564082, 4134.48717921, 4462.69230811, 4131.92307665, 4152.43589723, 4142.56410236,12.0
4140.51282031, 4024.23076875, 4069.61538420, 4069.23076882, 4127.56410229, 4121.28205101, 4134.99999973, 4114.61538434, 4133.97435870, 4134.48717921, 4459.10256452, 4140.89743569, 4152.43589723, 4145.76923056,12.0
4148.46153826, 4024.48717900, 4072.43589709, 4079.48717914, 4125.38461511, 4121.15384588, 4126.79487152, 4102.82051255, 4135.76923056, 4134.48717921, 4463.84615434, 4147.30769210, 4158.46153826, 4143.58974339,12.0
4145.25641005, 4023.33333285, 4066.02564061, 4083.84615350, 4127.94871767, 4133.46153819, 4129.23076896, 4105.25640998, 4135.89743569, 4134.48717921, 4465.25641075, 4136.41025621, 4164.74358954, 4140.51282031,12.0
4146.79487159, 4044.23076882, 4073.07692273, 4078.58974325, 4127.30769203, 4129.61538434, 4122.69230742, 4119.99999973, 4143.33333313, 4134.48717921, 4465.25641075, 4141.66666646, 4162.43589723, 4146.53846133,12.0
4151.66666646, 4057.17948677, 4079.99999966, 4084.10256376, 4124.35897408, 4112.05128178, 4105.51282024, 4117.05128178, 4133.84615357, 4134.48717921, 4468.20512870, 4155.38461518, 4160.51282031, 4148.58974339,12.0
4144.35897415, 4055.25640984, 4073.46153812, 4087.69230735, 4126.15384588, 4112.94871767, 4100.89743555, 4103.71794844, 4123.20512793, 4134.48717921, 4467.05128254, 4148.71794851, 4163.07692287, 4144.87179467,12.0
4151.92307672, 4055.38461497, 4072.94871761, 4078.97435863, 4126.28205101, 4120.38461511, 4104.48717921, 4104.74358947, 4141.79487159, 4134.48717921, 4466.41025690, 4140.64102544, 4159.48717928, 4146.53846133,12.0
4145.89743569, 4058.20512779, 4074.99999966, 4077.69230735, 4121.79487152, 4112.43589716, 4106.02564075, 4117.56410229, 4154.35897415, 4134.48717921, 4470.25641075, 4150.12820492, 4162.56410236, 4146.28205108,12.0
4143.58974339, 4061.53846113, 4072.05128171, 4082.82051248, 4121.28205101, 4103.33333306, 4104.61538434, 4123.71794844, 4142.56410236, 4134.48717921, 4469.48717998, 4155.76923056, 4176.66666653, 4145.25641005,12.0
4150.12820492, 4062.69230728, 4073.71794837, 4083.58974325, 4126.79487152, 4102.43589709, 4095.51282017, 4121.92307665, 4148.33333313, 4134.48717921, 4468.33333382, 4150.76923056, 4173.07692294, 4146.53846133,12.0
4140.25641005, 4061.53846113, 4078.58974325, 4088.84615350, 4128.20512793, 4106.53846126, 4092.17948684, 4126.79487152, 4159.74358954, 4134.48717921, 4468.20512870, 4148.20512800, 4156.53846133, 4147.17948697,12.0
4146.92307672, 4073.71794837, 4081.66666632, 4091.92307658, 4124.23076896, 4112.69230742, 4107.56410229, 4132.17948691, 4150.25641005, 4134.48717921, 4469.87179536, 4153.46153826, 4158.46153826, 4145.51282031,12.0
4145.89743569, 4077.69230735, 4077.69230735, 4077.69230735, 4124.10256383, 4110.76923050, 4115.51282024, 4128.20512793, 4147.17948697, 4134.48717921, 4469.74359023, 4155.51282031, 4169.61538448, 4143.97435877,12.0
4141.28205108, 4052.69230728, 4064.99999959, 4061.02564061, 4127.56410229, 4109.74358947, 4108.71794844, 4116.53846126, 4142.56410236, 4134.48717921, 4461.02564145, 4138.07692287, 4163.07692287, 4146.02564082,12.0
4148.58974339, 4045.76923036, 4059.99999959, 4062.43589702, 4126.66666639, 4118.84615357, 4117.69230742, 4103.97435870, 4129.23076896, 4134.48717921, 4455.00000042, 4125.12820485, 4147.17948697, 4143.58974339,12.0
4142.30769210, 4067.82051241, 4064.74358933, 4065.89743548, 4122.56410229, 4115.89743562, 4126.15384588, 4101.02564068, 4126.41025614, 4134.48717921, 4456.02564145, 4130.12820485, 4146.53846133, 4141.92307672,12.0
4148.33333313, 4075.89743555, 4065.38461497, 4062.94871754, 4122.69230742, 4106.15384588, 4115.64102537, 4106.79487152, 4122.82051255, 4134.48717921, 4453.84615427, 4125.89743562, 4148.97435877, 4145.76923056,12.0
4145.76923056, 4058.07692266, 4056.41025600, 4058.97435856, 4124.23076896, 4111.79487152, 4107.30769203, 4107.82051255, 4116.53846126, 4134.48717921, 4448.97435940, 4110.38461511, 4139.10256390, 4144.87179467,12.0
4139.61538441, 4053.33333292, 4055.51282010, 4053.84615343, 4124.10256383, 4114.48717921, 4111.41025614, 4099.87179453, 4128.07692280, 4134.48717921, 4450.89743632, 4110.89743562, 4135.25640998, 4144.23076903,12.0
4152.43589723, 4077.43589709, 4065.76923036, 4058.97435856, 4125.64102537, 4103.46153819, 4108.71794844, 4087.56410222, 4142.43589723, 4134.48717921, 4452.43589786, 4121.79487152, 4144.87179467, 4146.28205108,12.0
4147.17948697, 4087.43589709, 4065.89743548, 4070.64102530, 4125.38461511, 4101.66666632, 4100.64102530, 4087.05128171, 4128.20512793, 4134.48717921, 4450.89743632, 4121.92307665, 4148.97435877, 4144.48717928,12.0
4150.76923056, 4072.30769196, 4061.28205087, 4072.69230735, 4122.43589716, 4112.56410229, 4107.94871767, 4102.30769196, 4119.74358947, 4134.48717921, 4453.20512863, 4121.02564075, 4148.33333313, 4145.38461518,12.0
4150.25641005, 4060.64102523, 4065.64102523, 4056.79487138, 4123.71794844, 4112.69230742, 4121.41025614, 4119.74358947, 4139.10256390, 4134.48717921, 4451.66666709, 4129.99999973, 4146.66666646, 4145.38461518,12.0
4136.41025621, 4077.30769196, 4079.23076889, 4053.97435856, 4127.56410229, 4108.20512793, 4124.87179460, 4133.20512793, 4143.71794851, 4134.48717921, 4456.53846196, 4144.74358954, 4153.33333313, 4144.48717928,12.0
4146.92307672, 4093.20512786, 4085.12820478, 4073.84615350, 4124.99999973, 4110.64102537, 4120.89743562, 4133.97435870, 4139.87179467, 4134.48717921, 4466.15384664, 4151.15384595, 4166.92307672, 4145.89743569,12.0
4143.46153826, 4083.33333299, 4074.74358940, 4065.64102523, 4121.41025614, 4112.30769203, 4117.94871767, 4121.41025614, 4151.53846133, 4134.48717921, 4461.15384657, 4139.61538441, 4161.15384595, 4145.38461518,12.0
4140.38461518, 4078.46153812, 4067.82051241, 4044.99999959, 4124.87179460, 4108.20512793, 4111.53846126, 4106.28205101, 4146.53846133, 4134.48717921, 4449.35897478, 4126.41025614, 4144.87179467, 4144.48717928,12.0
4147.17948697, 4082.43589709, 4068.58974318, 4054.48717907, 4127.17948691, 4099.99999966, 4106.53846126, 4097.94871761, 4122.05128178, 4134.48717921, 4448.58974401, 4128.20512793, 4146.66666646, 4141.92307672,12.0
4142.05128185, 4082.30769196, 4071.02564068, 4061.28205087, 4122.43589716, 4099.48717914, 4112.82051255, 4103.97435870, 4124.10256383, 4134.48717921, 4453.58974401, 4132.94871767, 4154.35897415, 4142.30769210,12.0
4147.56410236, 4073.97435863, 4064.10256369, 4038.71794830, 4120.25640998, 4103.97435870, 4108.07692280, 4104.61538434, 4126.79487152, 4134.48717921, 4448.97435940, 4117.56410229, 4138.97435877, 4146.02564082,12.0
4143.71794851, 4069.99999966, 4056.02564061, 4030.89743541, 4124.74358947, 4106.79487152, 4100.51282017, 4095.25640991, 4109.99999973, 4134.48717921, 4442.94871837, 4105.64102537, 4122.17948691, 4144.23076903,12.0
4144.48717928, 4081.92307658, 4067.94871754, 4053.07692266, 4127.56410229, 4110.76923050, 4114.74358947, 4095.12820478, 4121.53846126, 4134.48717921, 4440.38461581, 4120.12820485, 4134.99999973, 4144.87179467,12.0
4150.25641005, 4090.38461504, 4076.66666632, 4055.12820472, 4125.64102537, 4111.41025614, 4122.94871767, 4105.25640998, 4141.28205108, 4134.48717921, 4443.84615427, 4128.84615357, 4146.92307672, 4146.15384595,12.0
4141.66666646, 4084.99999966, 4066.28205087, 4035.76923029, 4122.82051255, 4106.15384588, 4110.25640998, 4108.97435870, 4135.64102544, 4134.48717921, 4449.48717991, 4118.46153819, 4136.92307672, 4143.58974339,12.0
4150.12820492, 4086.79487145, 4066.02564061, 4030.38461490, 4122.30769203, 4109.10256383, 4107.56410229, 4102.82051255, 4127.17948691, 4134.48717921, 4449.35897478, 4120.64102537, 4128.46153819, 4143.58974339,12.0
4148.46153826, 4101.66666632, 4076.53846119, 4037.30769189, 4124.23076896, 4114.87179460, 4116.79487152, 4101.41025607, 4126.02564075, 4134.48717921, 4449.23076965, 4132.56410229, 4133.71794844, 4144.61538441,12.0
4145.76923056, 4094.10256376, 4076.66666632, 4040.25640984, 4126.28205101, 4106.02564075, 4118.33333306, 4103.46153819, 4127.43589716, 4134.48717921, 4445.89743632, 4129.10256383, 4141.92307672, 4145.64102544,12.0
4152.82051262, 4083.07692273, 4069.99999966, 4033.07692259, 4127.43589716, 4098.84615350, 4117.17948691, 4103.71794844, 4134.99999973, 4134.48717921, 4436.66666709, 4118.46153819, 4141.02564082, 4145.76923056,12.0
4139.74358954, 4094.35897402, 4068.20512779, 4030.38461490, 4124.74358947, 4100.76923043, 4112.30769203, 4107.82051255, 4139.99999980, 4134.48717921, 4438.07692350, 4116.92307665, 4127.43589716, 4143.07692287,12.0
4143.07692287, 4100.38461504, 4075.25640991, 4030.25640977, 4123.46153819, 4105.12820485, 4103.97435870, 4115.12820485, 4137.43589723, 4134.48717921, 4450.51282093, 4126.79487152, 4127.30769203, 4144.23076903,12.0
4144.35897415, 4095.25640991, 4080.89743555, 4027.56410208, 4126.15384588, 4107.05128178, 4106.92307665, 4121.28205101, 4142.56410236, 4134.48717921, 4448.07692350, 4137.82051262, 4147.17948697, 4143.58974339,12.0
4137.94871774, 4101.66666632, 4079.74358940, 4029.74358926, 4126.15384588, 4106.15384588, 4118.20512793, 4122.43589716, 4141.53846133, 4134.48717921, 4436.92307734, 4137.56410236, 4148.07692287, 4141.79487159,12.0
4148.07692287, 4101.66666632, 4074.74358940, 4019.23076875, 4124.74358947, 4105.64102537, 4120.89743562, 4116.28205101, 4127.05128178, 4134.48717921, 4437.94871837, 4126.66666639, 4125.38461511, 4141.66666646,12.0
4144.10256390, 4078.33333299, 4068.97435856, 4005.38461490, 4124.99999973, 4098.07692273, 4110.12820485, 4103.20512793, 4120.64102537, 4134.48717921, 4433.20512863, 4118.07692280, 4116.15384588, 4142.05128185,12.0
4146.66666646, 4078.20512786, 4071.66666632, 4015.76923029, 4125.89743562, 4091.15384581, 4099.10256376, 4088.20512786, 4123.07692280, 4134.48717921, 4426.92307727, 4119.48717921, 4122.05128178, 4144.74358954,12.0
4147.30769210, 4107.05128178, 4079.10256376, 4037.82051241, 4125.38461511, 4098.46153812, 4106.92307665, 4089.10256376, 4124.99999973, 4134.48717921, 4433.97435940, 4129.48717921, 4133.97435870, 4144.48717928,12.0
4141.15384595, 4106.92307665, 4081.02564068, 4039.87179446, 4124.99999973, 4108.58974332, 4121.28205101, 4102.43589709, 4126.66666639, 4134.48717921, 4446.79487222, 4139.87179467, 4146.66666646, 4144.74358954,12.0
4149.99999980, 4089.48717914, 4075.64102530, 4025.89743541, 4126.02564075, 4103.71794844, 4121.79487152, 4101.15384581, 4123.58974332, 4134.48717921, 4447.82051324, 4132.30769203, 4134.87179460, 4146.41025621,12.0
4143.97435877, 4093.07692273, 4069.23076882, 4021.28205080, 4123.58974332, 4098.71794837, 4126.28205101, 4106.41025614, 4120.89743562, 4134.48717921, 4433.46153888, 4118.33333306, 4127.05128178, 4147.05128185,12.0
4148.46153826, 4099.87179453, 4071.92307658, 4032.82051234, 4121.41025614, 4106.02564075, 4132.30769203, 4126.41025614, 4131.66666639, 4134.48717921, 4428.58974394, 4119.99999973, 4147.17948697, 4147.17948697,12.0
4153.33333313, 4094.99999966, 4077.56410222, 4043.97435856, 4122.17948691, 4103.46153819, 4116.79487152, 4125.64102537, 4145.38461518, 4134.48717921, 4440.12820555, 4129.35897408, 4148.46153826, 4143.97435877,12.0
4140.51282031, 4108.33333306, 4080.64102530, 4041.15384574, 4123.58974332, 4093.07692273, 4107.56410229, 4112.30769203, 4141.92307672, 4134.48717921, 4446.41025683, 4133.33333306, 4129.87179460, 4143.20512800,12.0
4148.33333313, 4119.10256383, 4080.12820478, 4037.30769189, 4123.46153819, 4095.89743555, 4117.43589716, 4106.41025614, 4133.58974332, 4134.48717921, 4435.00000042, 4129.87179460, 4142.69230749, 4146.41025621,12.0
4146.41025621, 4099.35897402, 4074.99999966, 4035.64102516, 4122.30769203, 4100.64102530, 4113.33333306, 4105.64102537, 4127.30769203, 4134.48717921, 4422.43589779, 4123.46153819, 4153.20512800, 4146.53846133,12.0
4145.25641005, 4087.69230735, 4072.69230735, 4034.61538413, 4123.07692280, 4098.46153812, 4096.15384581, 4102.94871767, 4114.10256383, 4134.48717921, 4423.71794907, 4119.99999973, 4129.10256383, 4143.84615364,12.0
4149.61538441, 4093.20512786, 4073.07692273, 4041.53846113, 4124.99999973, 4090.38461504, 4090.51282017, 4093.97435863, 4110.38461511, 4134.48717921, 4427.30769266, 4119.35897408, 4121.02564075, 4142.56410236,12.0
4138.33333313, 4104.99999973, 4073.97435863, 4047.82051241, 4124.35897408, 4088.97435863, 4100.76923043, 4086.53846119, 4124.61538434, 4134.48717921, 4425.51282086, 4121.15384588, 4135.25640998, 4142.82051262,12.0
4144.61538441, 4121.53846126, 4077.69230735, 4042.43589702, 4122.56410229, 4104.23076896, 4116.02564075, 4089.74358940, 4126.28205101, 4134.48717921, 4421.28205163, 4128.46153819, 4140.25641005, 4143.97435877,12.0
4144.61538441, 4121.53846126, 4077.69230735, 4042.43589702, 4122.56410229, 4104.23076896, 4116.02564075, 4089.74358940, 4126.28205101, 4134.48717921, 4421.28205163, 4128.46153819, 4140.25641005, 4143.97435877,12.0
4143.84615364, 4105.76923050, 4071.28205094, 4035.25640977, 4122.94871767, 4104.23076896, 4116.92307665, 4096.79487145, 4108.97435870, 4134.48717921, 4415.00000035, 4120.64102537, 4132.30769203, 4143.07692287,12.0
4143.33333313, 4093.58974325, 4061.92307651, 4042.82051241, 4123.97435870, 4087.30769196, 4108.71794844, 4099.35897402, 4099.10256376, 4134.48717921, 4418.33333368, 4105.25640998, 4117.17948691, 4144.99999980,12.0
4150.25641005, 4129.87179460, 4075.25640991, 4055.38461497, 4125.51282024, 4095.64102530, 4119.48717921, 4108.46153819, 4104.48717921, 4134.48717921, 4425.25641061, 4114.99999973, 4114.48717921, 4145.64102544,12.0
4139.61538441, 4150.25641005, 4102.82051255, 4057.05128164, 4125.89743562, 4113.71794844, 4130.89743562, 4115.51282024, 4115.51282024, 4134.48717921, 4419.61538497, 4127.82051255, 4130.38461511, 4142.05128185,12.0
4144.23076903, 4138.20512800, 4121.79487152, 4057.43589702, 4123.84615357, 4111.79487152, 4120.76923050, 4110.12820485, 4126.41025614, 4134.48717921, 4420.12820548, 4128.84615357, 4143.46153826, 4144.99999980,12.0
4146.41025621, 4142.94871774, 4119.10256383, 4064.35897395, 4122.69230742, 4100.89743555, 4112.43589716, 4110.64102537, 4127.43589716, 4134.48717921, 4427.69230804, 4133.58974332, 4135.89743569, 4147.17948697,12.0
4144.87179467, 4141.66666646, 4109.23076896, 4069.35897395, 4121.66666639, 4088.20512786, 4113.20512793, 4115.25640998, 4123.97435870, 4134.48717921, 4422.94871830, 4134.61538434, 4126.79487152, 4146.02564082,12.0
4149.35897415, 4125.12820485, 4106.02564075, 4066.66666625, 4121.15384588, 4083.20512786, 4108.46153819, 4113.46153819, 4121.92307665, 4134.48717921, 4414.87179522, 4124.99999973, 4137.56410236, 4145.64102544,12.0
4137.82051262, 4129.23076896, 4099.35897402, 4063.33333292, 4121.28205101, 4095.64102530, 4101.53846119, 4115.25640998, 4112.43589716, 4134.48717921, 4413.97435933, 4121.15384588, 4151.66666646, 4145.51282031,12.0
4147.69230749, 4137.17948697, 4093.07692273, 4064.87179446, 4123.20512793, 4100.12820478, 4107.56410229, 4110.12820485, 4102.82051255, 4134.48717921, 4418.97435933, 4125.25640998, 4144.23076903, 4147.69230749,12.0
4150.38461518, 4136.15384595, 4094.35897402, 4070.12820478, 4125.64102537, 4092.69230735, 4119.87179460, 4098.58974325, 4108.20512793, 4134.48717921, 4426.41025676, 4127.30769203, 4141.79487159, 4143.84615364,12.0
4133.33333306, 4141.66666646, 4095.76923043, 4077.17948684, 4123.71794844, 4099.61538427, 4117.69230742, 4101.41025607, 4106.02564075, 4134.48717921, 4423.33333368, 4127.17948691, 4153.58974339, 4141.15384595,12.0
4140.64102544, 4137.05128185, 4090.12820478, 4074.10256376, 4120.51282024, 4106.02564075, 4105.12820485, 4103.58974332, 4089.10256376, 4134.48717921, 4406.28205163, 4119.23076896, 4148.46153826, 4145.12820492,12.0
4141.66666646, 4122.30769203, 4088.84615350, 4064.99999959, 4119.10256383, 4093.07692273, 4104.23076896, 4098.71794837, 4085.38461504, 4134.48717921, 4401.28205163, 4112.94871767, 4133.58974332, 4145.25641005,12.0
4142.69230749, 4129.35897408, 4101.28205094, 4079.23076889, 4121.66666639, 4082.94871761, 4108.07692280, 4099.10256376, 4097.56410222, 4134.48717921, 4411.41025676, 4122.82051255, 4129.48717921, 4144.48717928,12.0
4143.97435877, 4151.53846133, 4108.46153819, 4107.17948691, 4125.12820485, 4087.17948684, 4098.71794837, 4101.41025607, 4106.92307665, 4134.48717921, 4419.35897471, 4136.41025621, 4139.48717928, 4144.87179467,12.0
4139.48717928, 4160.12820492, 4107.56410229, 4105.12820485, 4126.28205101, 4099.87179453, 4099.61538427, 4108.33333306, 4110.25640998, 4134.48717921, 4417.43589779, 4138.33333313, 4152.94871774, 4145.38461518,12.0
4148.71794851, 4150.76923056, 4106.15384588, 4085.12820478, 4124.74358947, 4104.61538434, 4107.43589716, 4109.10256383, 4107.43589716, 4134.48717921, 4408.07692343, 4128.20512793, 4139.35897415, 4145.38461518,12.0
4148.71794851, 4150.76923056, 4106.15384588, 4085.12820478, 4124.74358947, 4104.61538434, 4107.43589716, 4109.10256383, 4107.43589716, 4134.48717921, 4408.07692343, 4128.20512793, 4139.35897415, 4145.38461518,12.0
4142.30769210, 4138.84615364, 4102.17948684, 4094.61538427, 4120.51282024, 4093.20512786, 4096.02564068, 4103.84615357, 4104.61538434, 4134.48717921, 4406.92307727, 4124.61538434, 4115.25640998, 4142.82051262,12.0
4143.33333313, 4141.41025621, 4106.41025614, 4111.92307665, 4120.64102537, 4092.43589709, 4090.89743555, 4106.79487152, 4106.53846126, 4134.48717921, 4409.87179522, 4136.53846133, 4127.82051255, 4144.87179467,12.0
4150.12820492, 4156.28205108, 4112.69230742, 4111.66666639, 4124.48717921, 4104.10256383, 4105.76923050, 4112.17948691, 4105.51282024, 4134.48717921, 4407.94871830, 4141.28205108, 4144.48717928, 4147.17948697,12.0
4141.41025621, 4163.58974339, 4107.94871767, 4113.46153819, 4124.10256383, 4101.66666632, 4116.66666639, 4109.48717921, 4108.33333306, 4134.48717921, 4408.58974394, 4128.58974332, 4135.89743569, 4146.53846133,12.0
4148.46153826, 4162.56410236, 4106.28205101, 4116.28205101, 4123.46153819, 4095.76923043, 4118.33333306, 4106.53846126, 4116.02564075, 4134.48717921, 4414.87179522, 4127.30769203, 4130.76923050, 4145.38461518,12.0
4142.56410236, 4163.07692287, 4111.53846126, 4113.46153819, 4127.43589716, 4105.64102537, 4117.43589716, 4112.82051255, 4114.99999973, 4134.48717921, 4415.64102599, 4141.02564082, 4133.20512793, 4144.99999980,12.0
4138.97435877, 4166.15384595, 4114.61538434, 4122.05128178, 4126.53846126, 4108.46153819, 4112.43589716, 4114.61538434, 4107.30769203, 4134.48717921, 4412.82051317, 4142.43589723, 4129.87179460, 4148.58974339,12.0
4148.33333313, 4166.66666646, 4117.05128178, 4132.17948691, 4123.58974332, 4096.53846119, 4120.64102537, 4116.02564075, 4109.99999973, 4134.48717921, 4413.71794907, 4143.07692287, 4141.15384595, 4147.56410236,12.0
4138.07692287, 4167.56410236, 4115.64102537, 4129.35897408, 4125.38461511, 4097.82051248, 4124.48717921, 4122.05128178, 4112.43589716, 4134.48717921, 4408.71794907, 4147.56410236, 4153.46153826, 4141.92307672,12.0
4142.82051262, 4162.17948697, 4109.61538434, 4125.89743562, 4123.71794844, 4106.79487152, 4100.38461504, 4113.07692280, 4101.28205094, 4134.48717921, 4404.10256445, 4134.87179460, 4127.69230742, 4144.10256390,12.0
4144.99999980, 4147.82051262, 4106.53846126, 4121.15384588, 4119.99999973, 4097.82051248, 4087.94871761, 4098.71794837, 4099.99999966, 4134.48717921, 4406.15384651, 4123.97435870, 4107.69230742, 4148.58974339,12.0
4138.07692287, 4154.74358954, 4111.79487152, 4113.20512793, 4122.69230742, 4089.23076889, 4101.79487145, 4106.41025614, 4111.53846126, 4134.48717921, 4410.12820548, 4135.38461518, 4128.33333306, 4148.20512800,12.0
4142.94871774, 4165.76923056, 4116.66666639, 4115.89743562, 4126.02564075, 4098.97435863, 4108.46153819, 4120.64102537, 4113.20512793, 4134.48717921, 4411.66666702, 4141.15384595, 4139.61538441, 4145.12820492,12.0
4139.61538441, 4138.33333313, 4109.48717921, 4118.58974332, 4122.94871767, 4101.02564068, 4101.28205094, 4113.46153819, 4113.84615357, 4134.48717921, 4402.17948753, 4123.71794844, 4122.30769203, 4144.74358954,12.0
4148.58974339, 4119.10256383, 4104.23076896, 4114.74358947, 4122.43589716, 4097.56410222, 4096.41025607, 4098.07692273, 4119.10256383, 4134.48717921, 4396.02564131, 4112.30769203, 4115.38461511, 4147.43589723,12.0
4147.69230749, 4158.46153826, 4115.89743562, 4122.82051255, 4124.35897408, 4108.46153819, 4107.69230742, 4107.43589716, 4111.79487152, 4134.48717921, 4406.02564138, 4131.15384588, 4128.71794844, 4145.76923056,12.0
4141.66666646, 4187.56410243, 4129.61538434, 4132.05128178, 4121.92307665, 4112.17948691, 4124.87179460, 4129.61538434, 4104.99999973, 4134.48717921, 4410.12820548, 4151.41025621, 4132.17948691, 4145.38461518,12.0
4151.15384595, 4154.35897415, 4125.25640998, 4130.38461511, 4121.15384588, 4106.28205101, 4123.71794844, 4123.33333306, 4115.51282024, 4134.48717921, 4401.53846189, 4144.99999980, 4125.89743562, 4147.56410236,12.0
4142.56410236, 4133.58974332, 4116.53846126, 4131.53846126, 4124.99999973, 4110.12820485, 4116.28205101, 4106.41025614, 4119.23076896, 4134.48717921, 4399.74359009, 4134.48717921, 4123.58974332, 4144.99999980,12.0
4147.43589723, 4163.20512800, 4121.15384588, 4136.53846133, 4126.41025614, 4119.48717921, 4123.71794844, 4111.15384588, 4109.35897408, 4134.48717921, 4403.84615420, 4137.05128185, 4125.38461511, 4144.23076903,12.0
4151.92307672, 4178.33333320, 4125.89743562, 4140.38461518, 4124.48717921, 4117.17948691, 4129.99999973, 4123.33333306, 4106.53846126, 4134.48717921, 4402.69230804, 4142.17948697, 4123.46153819, 4144.48717928,12.0
4140.25641005, 4159.48717928, 4128.97435870, 4148.58974339, 4123.84615357, 4107.56410229, 4120.64102537, 4119.23076896, 4108.84615357, 4134.48717921, 4402.30769266, 4149.99999980, 4120.25640998, 4145.25641005,12.0
4146.41025621, 4162.69230749, 4132.43589716, 4152.82051262, 4122.82051255, 4101.28205094, 4103.97435870, 4102.30769196, 4097.43589709, 4134.48717921, 4402.17948753, 4154.10256390, 4124.61538434, 4146.28205108,12.0
4141.41025621, 4171.66666653, 4118.71794844, 4128.71794844, 4122.05128178, 4099.99999966, 4092.43589709, 4095.25640991, 4082.56410222, 4134.48717921, 4393.33333362, 4132.30769203, 4123.58974332, 4143.20512800,12.0
4143.20512800, 4148.46153826, 4104.48717921, 4117.05128178, 4122.30769203, 4105.12820485, 4094.23076889, 4097.94871761, 4088.07692273, 4134.48717921, 4386.15384644, 4109.35897408, 4111.53846126, 4142.56410236,12.0
4148.07692287, 4145.64102544, 4112.69230742, 4142.69230749, 4123.33333306, 4110.89743562, 4110.89743562, 4105.25640998, 4110.12820485, 4134.48717921, 4389.23076951, 4120.89743562, 4107.82051255, 4144.48717928,12.0
4137.94871774, 4168.20512807, 4123.20512793, 4147.56410236, 4122.94871767, 4110.89743562, 4116.28205101, 4106.15384588, 4112.05128178, 4134.48717921, 4389.74359003, 4134.23076896, 4114.10256383, 4144.87179467,12.0
4148.71794851, 4165.64102544, 4118.20512793, 4127.94871767, 4123.33333306, 4110.12820485, 4102.82051255, 4093.20512786, 4087.30769196, 4134.48717921, 4383.58974387, 4122.17948691, 4112.94871767, 4144.74358954,12.0
4148.07692287, 4154.48717928, 4112.69230742, 4128.07692280, 4126.41025614, 4111.15384588, 4100.89743555, 4089.87179453, 4079.99999966, 4134.48717921, 4380.76923105, 4109.99999973, 4106.92307665, 4144.23076903,12.0
4142.69230749, 4160.12820492, 4120.76923050, 4137.82051262, 4125.25640998, 4109.99999973, 4110.38461511, 4101.66666632, 4101.28205094, 4134.48717921, 4390.76923105, 4120.38461511, 4117.56410229, 4146.02564082,12.0
4147.05128185, 4159.10256390, 4125.38461511, 4140.89743569, 4123.07692280, 4108.71794844, 4111.92307665, 4112.05128178, 4111.02564075, 4134.48717921, 4396.28205156, 4133.33333306, 4130.76923050, 4146.66666646,12.0
4142.43589723, 4154.35897415, 4120.76923050, 4139.48717928, 4124.61538434, 4110.38461511, 4112.82051255, 4118.20512793, 4103.58974332, 4134.48717921, 4385.00000028, 4124.99999973, 4118.71794844, 4145.89743569,12.0
4149.74358954, 4157.43589723, 4115.25640998, 4125.64102537, 4126.41025614, 4103.84615357, 4106.66666639, 4114.10256383, 4102.69230742, 4134.48717921, 4379.74359003, 4109.74358947, 4106.41025614, 4146.02564082,12.0
4146.28205108, 4149.48717928, 4110.51282024, 4120.64102537, 4124.61538434, 4091.02564068, 4092.43589709, 4104.23076896, 4102.43589709, 4134.48717921, 4384.74359003, 4111.66666639, 4113.33333306, 4144.48717928,12.0
4143.84615364, 4145.38461518, 4117.17948691, 4138.71794851, 4122.94871767, 4091.79487145, 4092.17948684, 4102.30769196, 4099.74358940, 4134.48717921, 4384.48717977, 4123.97435870, 4121.28205101, 4145.38461518,12.0
4152.17948697, 4151.79487159, 4121.28205101, 4135.12820485, 4123.46153819, 4097.69230735, 4095.25640991, 4096.79487145, 4098.33333299, 4134.48717921, 4382.05128233, 4123.20512793, 4118.84615357, 4146.02564082,12.0
4140.76923056, 4160.38461518, 4117.30769203, 4128.33333306, 4122.30769203, 4091.02564068, 4085.76923043, 4090.12820478, 4091.92307658, 4134.48717921, 4387.05128233, 4121.79487152, 4118.20512793, 4145.12820492,12.0
4143.58974339, 4173.58974345, 4129.23076896, 4155.38461518, 4123.20512793, 4096.66666632, 4090.89743555, 4096.02564068, 4097.17948684, 4134.48717921, 4393.33333362, 4138.84615364, 4128.58974332, 4145.76923056,12.0
4144.23076903, 4175.76923063, 4140.25641005, 4166.79487159, 4124.99999973, 4111.02564075, 4110.89743562, 4103.97435870, 4111.15384588, 4134.48717921, 4393.58974387, 4150.76923056, 4128.97435870, 4144.61538441,12.0
4138.58974339, 4170.89743576, 4135.12820485, 4149.99999980, 4123.97435870, 4108.33333306, 4111.41025614, 4104.35897408, 4106.92307665, 4134.48717921, 4394.61538490, 4146.02564082, 4126.28205101, 4146.53846133,12.0
4148.46153826, 4169.87179474, 4133.46153819, 4151.53846133, 4122.17948691, 4105.12820485, 4099.10256376, 4102.17948684, 4104.48717921, 4134.48717921, 4392.69230797, 4139.99999980, 4136.41025621, 4147.82051262,12.0
4141.15384595, 4167.82051262, 4132.82051255, 4155.12820492, 4121.66666639, 4111.79487152, 4111.53846126, 4108.58974332, 4118.20512793, 4134.48717921, 4383.97435926, 4134.99999973, 4137.05128185, 4143.84615364,12.0
4143.07692287, 4159.10256390, 4126.66666639, 4135.12820485, 4123.33333306, 4114.61538434, 4128.71794844, 4114.99999973, 4112.30769203, 4134.48717921, 4380.64102592, 4124.87179460, 4119.35897408, 4144.74358954,12.0
4144.99999980, 4157.94871774, 4124.99999973, 4130.25640998, 4124.99999973, 4108.46153819, 4109.99999973, 4105.25640998, 4092.82051248, 4134.48717921, 4381.15384644, 4123.46153819, 4110.12820485, 4147.05128185,12.0
4139.48717928, 4166.02564082, 4128.97435870, 4139.99999980, 4122.43589716, 4102.82051255, 4089.74358940, 4090.64102530, 4090.76923043, 4134.48717921, 4377.30769259, 4128.58974332, 4123.84615357, 4146.66666646,12.0
4150.25641005, 4161.41025621, 4126.79487152, 4128.71794844, 4120.38461511, 4102.43589709, 4100.38461504, 4092.17948684, 4084.35897402, 4134.48717921, 4369.23076951, 4121.41025614, 4129.87179460, 4146.79487159,12.0
4143.58974339, 4152.69230749, 4116.79487152, 4122.17948691, 4124.10256383, 4105.64102537, 4105.38461511, 4103.84615357, 4075.76923043, 4134.48717921, 4363.20512842, 4111.28205101, 4116.66666639, 4144.87179467,12.0
4144.99999980, 4154.99999980, 4117.82051255, 4136.66666646, 4126.79487152, 4108.20512793, 4100.51282017, 4102.56410229, 4096.15384581, 4134.48717921, 4367.82051310, 4117.56410229, 4112.82051255, 4145.12820492,12.0
4150.51282031, 4157.94871774, 4127.56410229, 4142.30769210, 4122.94871767, 4102.05128171, 4109.61538434, 4099.74358940, 4114.10256383, 4134.48717921, 4372.05128233, 4128.20512793, 4123.46153819, 4147.30769210,12.0
4141.28205108, 4165.76923056, 4130.51282024, 4138.33333313, 4121.28205101, 4102.56410229, 4113.84615357, 4104.23076896, 4103.84615357, 4134.48717921, 4369.23076951, 4130.12820485, 4125.64102537, 4149.10256390,12.0
4149.74358954, 4180.25641012, 4133.20512793, 4138.84615364, 4125.38461511, 4112.43589716, 4113.07692280, 4103.58974332, 4097.30769196, 4134.48717921, 4371.79487208, 4132.30769203, 4120.76923050, 4149.74358954,12.0
4144.99999980, 4176.79487166, 4139.35897415, 4142.94871774, 4126.02564075, 4114.10256383, 4121.66666639, 4113.97435870, 4106.92307665, 4134.48717921, 4375.00000028, 4137.43589723, 4132.30769203, 4146.02564082,12.0
4141.53846133, 4169.61538448, 4143.20512800, 4154.99999980, 4122.05128178, 4106.02564075, 4125.25640998, 4133.33333306, 4119.35897408, 4134.48717921, 4370.51282079, 4142.30769210, 4145.51282031, 4147.05128185,12.0
4147.43589723, 4169.10256397, 4137.30769210, 4157.69230749, 4124.74358947, 4100.38461504, 4119.23076896, 4129.61538434, 4123.58974332, 4134.48717921, 4367.17948746, 4141.15384595, 4134.35897408, 4147.30769210,12.0
4138.07692287, 4160.51282031, 4129.74358947, 4145.25641005, 4128.07692280, 4102.05128171, 4111.41025614, 4109.61538434, 4104.74358947, 4134.48717921, 4366.02564131, 4129.74358947, 4114.48717921, 4142.05128185,12.0
4143.46153826, 4159.48717928, 4133.07692280, 4138.84615364, 4125.76923050, 4102.94871767, 4105.76923050, 4101.53846119, 4089.61538427, 4134.48717921, 4366.66666695, 4129.99999973, 4118.46153819, 4143.07692287,12.0
4140.64102544, 4169.23076910, 4135.64102544, 4138.46153826, 4124.61538434, 4099.23076889, 4108.71794844, 4104.61538434, 4107.17948691, 4134.48717921, 4371.02564131, 4137.43589723, 4133.71794844, 4147.43589723,12.0
4139.48717928, 4162.30769210, 4129.87179460, 4136.28205108, 4124.23076896, 4095.12820478, 4113.97435870, 4106.15384588, 4109.35897408, 4134.48717921, 4365.51282079, 4127.82051255, 4133.07692280, 4147.43589723,12.0
4148.71794851, 4152.82051262, 4124.61538434, 4130.64102537, 4125.38461511, 4097.17948684, 4105.12820485, 4103.58974332, 4086.15384581, 4134.48717921, 4350.51282073, 4112.94871767, 4120.38461511, 4143.33333313,12.0
4140.64102544, 4161.15384595, 4127.43589716, 4128.84615357, 4127.56410229, 4096.41025607, 4096.53846119, 4100.76923043, 4092.43589709, 4134.48717921, 4351.53846175, 4118.97435870, 4119.23076896, 4144.10256390,12.0
4147.94871774, 4160.38461518, 4132.56410229, 4142.43589723, 4125.51282024, 4090.12820478, 4095.76923043, 4098.46153812, 4110.64102537, 4134.48717921, 4367.30769259, 4128.58974332, 4131.79487152, 4148.46153826,12.0
4147.94871774, 4161.28205108, 4133.46153819, 4148.71794851, 4123.97435870, 4087.69230735, 4102.17948684, 4106.28205101, 4109.61538434, 4134.48717921, 4374.74359003, 4129.23076896, 4139.10256390, 4143.97435877,12.0
4142.82051262, 4172.43589730, 4138.71794851, 4135.76923056, 4124.48717921, 4097.30769196, 4118.84615357, 4124.61538434, 4116.28205101, 4134.48717921, 4367.82051310, 4137.05128185, 4134.87179460, 4143.07692287,12.0
4150.12820492, 4170.64102551, 4141.66666646, 4141.02564082, 4127.05128178, 4105.25640998, 4119.99999973, 4125.25640998, 4120.89743562, 4134.48717921, 4357.69230790, 4137.17948697, 4128.33333306, 4147.94871774,12.0
4140.25641005, 4161.02564082, 4132.30769203, 4146.92307672, 4127.82051255, 4096.79487145, 4104.61538434, 4115.51282024, 4113.46153819, 4134.48717921, 4359.23076944, 4123.97435870, 4129.87179460, 4146.41025621,12.0
4145.64102544, 4167.05128185, 4130.76923050, 4133.58974332, 4126.02564075, 4095.38461504, 4106.92307665, 4117.82051255, 4116.15384588, 4134.48717921, 4366.79487208, 4123.71794844, 4142.17948697, 4144.35897415,12.0
4146.41025621, 4168.97435884, 4133.71794844, 4135.64102544, 4123.07692280, 4099.35897402, 4110.12820485, 4117.30769203, 4117.30769203, 4134.48717921, 4361.02564124, 4128.58974332, 4143.58974339, 4143.58974339,12.0
4133.58974332, 4153.58974339, 4127.17948691, 4147.82051262, 4122.69230742, 4093.07692273, 4093.20512786, 4106.79487152, 4108.07692280, 4134.48717921, 4352.69230790, 4120.89743562, 4122.94871767, 4145.12820492,12.0
4141.79487159, 4157.69230749, 4125.89743562, 4147.94871774, 4125.38461511, 4085.76923043, 4091.41025607, 4098.97435863, 4106.28205101, 4134.48717921, 4358.33333355, 4121.92307665, 4118.58974332, 4145.64102544,12.0
4138.46153826, 4169.61538448, 4132.30769203, 4145.89743569, 4124.99999973, 4085.76923043, 4100.76923043, 4098.46153812, 4102.43589709, 4134.48717921, 4361.41025662, 4129.48717921, 4134.87179460, 4143.33333313,12.0
4139.61538441, 4169.99999986, 4135.51282031, 4150.76923056, 4123.07692280, 4091.92307658, 4091.92307658, 4099.74358940, 4097.43589709, 4134.48717921, 4352.56410278, 4125.76923050, 4129.48717921, 4144.74358954,12.0
4142.43589723, 4170.76923063, 4136.41025621, 4147.94871774, 4124.48717921, 4094.35897402, 4086.92307658, 4103.97435870, 4101.41025607, 4134.48717921, 4346.28205149, 4126.53846126, 4119.87179460, 4144.74358954,12.0
4135.51282031, 4170.76923063, 4137.17948697, 4141.28205108, 4126.66666639, 4084.99999966, 4090.64102530, 4103.07692280, 4103.33333306, 4134.48717921, 4348.07692329, 4132.82051255, 4132.56410229, 4144.10256390,12.0
4142.56410236, 4164.23076903, 4134.61538434, 4139.87179467, 4125.12820485, 4079.48717914, 4091.28205094, 4091.02564068, 4098.84615350, 4134.48717921, 4347.94871816, 4126.02564075, 4135.38461518, 4145.25641005,12.0
4139.87179467, 4163.71794851, 4132.69230742, 4140.76923056, 4122.17948691, 4095.12820478, 4104.74358947, 4097.17948684, 4098.84615350, 4134.48717921, 4341.41025662, 4117.82051255, 4120.12820485, 4144.35897415,12.0
4144.87179467, 4165.89743569, 4138.97435877, 4140.12820492, 4121.79487152, 4102.69230742, 4113.97435870, 4115.51282024, 4098.71794837, 4134.48717921, 4339.10256431, 4127.82051255, 4123.33333306, 4146.66666646,12.0
4150.25641005, 4158.33333313, 4144.10256390, 4142.05128185, 4123.20512793, 4090.51282017, 4098.46153812, 4113.07692280, 4105.38461511, 4134.48717921, 4345.76923098, 4138.33333313, 4137.69230749, 4147.69230749,12.0
4140.51282031, 4164.10256390, 4143.97435877, 4151.15384595, 4126.41025614, 4089.87179453, 4093.33333299, 4106.28205101, 4110.64102537, 4134.48717921, 4350.89743611, 4139.23076903, 4136.41025621, 4144.35897415,12.0
4149.99999980, 4178.97435884, 4144.35897415, 4149.87179467, 4127.94871767, 4106.15384588, 4114.74358947, 4112.82051255, 4101.53846119, 4134.48717921, 4349.10256431, 4144.10256390, 4138.46153826, 4143.71794851,12.0
4144.10256390, 4174.23076910, 4145.51282031, 4140.64102544, 4122.30769203, 4116.66666639, 4130.89743562, 4119.99999973, 4108.20512793, 4134.48717921, 4350.38461560, 4149.61538441, 4149.23076903, 4146.41025621,12.0
4137.94871774, 4164.48717928, 4144.74358954, 4145.76923056, 4118.97435870, 4110.25640998, 4119.48717921, 4119.10256383, 4123.58974332, 4134.48717921, 4355.76923098, 4147.17948697, 4141.02564082, 4147.17948697,12.0
4147.43589723, 4164.10256390, 4135.51282031, 4149.74358954, 4126.02564075, 4097.94871761, 4101.53846119, 4113.20512793, 4112.05128178, 4134.48717921, 4346.66666688, 4137.82051262, 4127.69230742, 4145.25641005,12.0
4138.33333313, 4154.74358954, 4127.17948691, 4135.51282031, 4128.84615357, 4095.89743555, 4105.89743562, 4110.12820485, 4099.48717914, 4134.48717921, 4334.35897457, 4127.43589716, 4127.05128178, 4144.99999980,12.0
4141.02564082, 4150.25641005, 4131.79487152, 4131.02564075, 4123.20512793, 4108.07692280, 4117.17948691, 4113.58974332, 4107.94871767, 4134.48717921, 4340.00000021, 4128.46153819, 4134.74358947, 4144.74358954,12.0
4143.20512800, 4166.66666646, 4133.97435870, 4140.38461518, 4122.56410229, 4106.15384588, 4111.92307665, 4120.38461511, 4104.99999973, 4134.48717921, 4344.10256431, 4137.69230749, 4141.92307672, 4142.17948697,12.0
4141.41025621, 4171.53846140, 4133.97435870, 4138.58974339, 4125.64102537, 4095.38461504, 4108.33333306, 4119.35897408, 4092.82051248, 4134.48717921, 4338.46153867, 4135.89743569, 4133.46153819, 4144.74358954,12.0
4144.23076903, 4159.48717928, 4139.35897415, 4134.10256383, 4124.74358947, 4108.71794844, 4122.69230742, 4116.15384588, 4107.30769203, 4134.48717921, 4339.87179508, 4131.53846126, 4123.97435870, 4145.64102544,12.0
4133.33333306, 4157.56410236, 4134.23076896, 4135.76923056, 4124.61538434, 4119.74358947, 4121.66666639, 4112.56410229, 4113.84615357, 4134.48717921, 4340.76923098, 4132.43589716, 4132.17948691, 4142.94871774,12.0
4141.15384595, 4160.64102544, 4125.51282024, 4139.35897415, 4127.43589716, 4102.94871767, 4101.53846119, 4100.89743555, 4090.25640991, 4134.48717921, 4335.25641047, 4123.97435870, 4129.99999973, 4145.38461518,12.0
4143.84615364, 4150.76923056, 4128.46153819, 4143.97435877, 4127.05128178, 4092.82051248, 4100.89743555, 4099.10256376, 4084.48717914, 4134.48717921, 4333.46153867, 4120.89743562, 4119.23076896, 4144.35897415,12.0
4140.12820492, 4154.74358954, 4138.97435877, 4144.10256390, 4121.28205101, 4106.53846126, 4112.05128178, 4107.43589716, 4099.99999966, 4134.48717921, 4335.89743611, 4137.05128185, 4135.51282031, 4143.58974339,12.0
4150.76923056, 4169.23076910, 4144.10256390, 4138.20512800, 4120.38461511, 4114.61538434, 4107.17948691, 4103.07692280, 4100.12820478, 4134.48717921, 4339.74358996, 4142.82051262, 4144.74358954, 4145.51282031,12.0
4140.64102544, 4168.20512807, 4140.25641005, 4143.33333313, 4125.51282024, 4108.46153819, 4102.05128171, 4103.07692280, 4100.89743555, 4134.48717921, 4342.82051303, 4134.87179460, 4128.33333306, 4143.71794851,12.0
4141.79487159, 4162.30769210, 4142.56410236, 4152.30769210, 4126.92307665, 4103.07692280, 4109.99999973, 4115.51282024, 4114.35897408, 4134.48717921, 4341.79487201, 4137.56410236, 4133.46153819, 4146.28205108,12.0
4147.05128185, 4153.58974339, 4141.28205108, 4141.41025621, 4122.43589716, 4101.28205094, 4103.58974332, 4109.74358947, 4106.92307665, 4134.48717921, 4335.76923098, 4132.43589716, 4136.41025621, 4147.94871774,12.0
4136.53846133, 4139.35897415, 4128.20512793, 4127.43589716, 4119.74358947, 4098.97435863, 4086.79487145, 4090.64102530, 4085.64102530, 4134.48717921, 4329.87179501, 4112.56410229, 4118.84615357, 4145.76923056,12.0
4143.46153826, 4138.46153826, 4130.12820485, 4133.84615357, 4123.46153819, 4101.15384581, 4102.69230742, 4096.66666632, 4094.48717914, 4134.48717921, 4336.02564124, 4117.17948691, 4122.56410229, 4145.76923056,12.0
4141.41025621, 4152.05128185, 4138.97435877, 4141.92307672, 4127.69230742, 4112.82051255, 4131.28205101, 4122.69230742, 4112.43589716, 4134.48717921, 4340.89743611, 4132.43589716, 4139.99999980, 4145.51282031,12.0
4140.76923056, 4165.89743569, 4139.48717928, 4142.17948697, 4126.02564075, 4120.89743562, 4128.58974332, 4125.89743562, 4106.28205101, 4134.48717921, 4332.82051303, 4131.15384588, 4137.30769210, 4145.89743569,12.0
4142.94871774, 4165.38461518, 4144.87179467, 4146.92307672, 4125.89743562, 4117.30769203, 4114.23076896, 4108.46153819, 4102.82051255, 4134.48717921, 4331.53846168, 4135.12820485, 4131.66666639, 4145.64102544,12.0
4135.25640998, 4147.82051262, 4150.64102544, 4146.28205108, 4128.20512793, 4113.46153819, 4115.89743562, 4104.87179460, 4107.56410229, 4134.48717921, 4338.84615406, 4140.51282031, 4131.28205101, 4145.25641005,12.0
4146.02564082, 4149.74358954, 4145.64102544, 4138.71794851, 4126.28205101, 4116.15384588, 4114.35897408, 4114.61538434, 4106.15384588, 4134.48717921, 4336.66666688, 4134.87179460, 4132.05128178, 4146.92307672,12.0
4143.20512800, 4167.05128185, 4140.12820492, 4139.10256390, 4124.61538434, 4114.10256383, 4106.41025614, 4116.53846126, 4107.30769203, 4134.48717921, 4331.92307707, 4130.64102537, 4137.17948697, 4145.89743569,12.0
4141.28205108, 4149.10256390, 4146.02564082, 4138.84615364, 4126.02564075, 4109.35897408, 4107.94871767, 4108.97435870, 4106.53846126, 4134.48717921, 4333.20512842, 4133.33333306, 4132.43589716, 4145.12820492,12.0
4148.46153826, 4128.84615357, 4146.15384595, 4130.38461511, 4125.38461511, 4108.84615357, 4108.46153819, 4100.25640991, 4095.12820478, 4134.48717921, 4326.92307707, 4128.71794844, 4122.69230742, 4143.97435877,12.0
4141.02564082, 4144.87179467, 4137.17948697, 4133.33333306, 4125.38461511, 4102.17948684, 4104.10256383, 4097.05128171, 4091.66666632, 4134.48717921, 4319.23076937, 4122.05128178, 4128.97435870, 4144.23076903,12.0
4149.48717928, 4153.58974339, 4141.41025621, 4143.46153826, 4127.43589716, 4098.58974325, 4114.74358947, 4109.99999973, 4096.92307658, 4134.48717921, 4320.51282066, 4126.15384588, 4127.56410229, 4148.33333313,12.0
4145.89743569, 4143.07692287, 4144.87179467, 4134.48717921, 4124.74358947, 4109.10256383, 4128.58974332, 4124.35897408, 4094.48717914, 4134.48717921, 4319.48717963, 4124.48717921, 4111.92307665, 4146.53846133,12.0
4139.48717928, 4138.07692287, 4131.53846126, 4123.20512793, 4120.89743562, 4113.46153819, 4117.17948691, 4110.76923050, 4088.84615350, 4134.48717921, 4317.82051296, 4110.12820485, 4112.94871767, 4144.10256390,12.0
4146.28205108, 4134.74358947, 4125.76923050, 4129.87179460, 4124.87179460, 4105.64102537, 4101.41025607, 4097.30769196, 4088.84615350, 4134.48717921, 4313.58974373, 4104.61538434, 4123.46153819, 4146.15384595,12.0
4137.94871774, 4136.41025621, 4137.05128185, 4132.17948691, 4127.43589716, 4101.92307658, 4105.38461511, 4112.82051255, 4100.51282017, 4134.48717921, 4310.76923091, 4117.05128178, 4122.43589716, 4146.02564082,12.0
4144.99999980, 4143.58974339, 4144.87179467, 4127.17948691, 4124.61538434, 4110.25640998, 4117.17948691, 4120.64102537, 4109.74358947, 4134.48717921, 4324.35897450, 4127.94871767, 4122.82051255, 4146.28205108,12.0
4144.87179467, 4137.82051262, 4145.89743569, 4136.53846133, 4124.48717921, 4112.05128178, 4123.58974332, 4113.33333306, 4106.28205101, 4134.48717921, 4337.56410278, 4131.66666639, 4127.69230742, 4144.87179467,12.0
4136.79487159, 4145.89743569, 4154.99999980, 4150.25641005, 4123.71794844, 4102.43589709, 4118.46153819, 4122.05128178, 4109.74358947, 4134.48717921, 4328.97435912, 4140.76923056, 4135.38461518, 4143.07692287,12.0
4144.99999980, 4172.17948704, 4159.10256390, 4147.94871774, 4123.46153819, 4102.94871767, 4108.07692280, 4122.69230742, 4120.12820485, 4134.48717921, 4321.66666681, 4147.43589723, 4144.48717928, 4143.07692287,12.0
4138.20512800, 4160.25641005, 4152.69230749, 4144.87179467, 4126.66666639, 4111.02564075, 4106.66666639, 4105.76923050, 4116.28205101, 4134.48717921, 4329.23076937, 4141.02564082, 4136.15384595, 4143.84615364,12.0
4141.53846133, 4141.53846133, 4149.99999980, 4147.43589723, 4127.43589716, 4110.25640998, 4108.46153819, 4102.56410229, 4099.87179453, 4134.48717921, 4327.82051296, 4128.97435870, 4122.94871767, 4145.64102544,12.0
4144.10256390, 4151.02564082, 4148.33333313, 4140.25641005, 4123.46153819, 4105.64102537, 4105.51282024, 4110.12820485, 4097.69230735, 4134.48717921, 4320.25641040, 4128.46153819, 4127.94871767, 4144.74358954,12.0
4139.35897415, 4151.15384595, 4147.82051262, 4137.43589723, 4121.15384588, 4103.33333306, 4103.20512793, 4107.94871767, 4107.43589716, 4134.48717921, 4323.07692322, 4134.48717921, 4133.07692280, 4144.48717928,12.0
4148.97435877, 4140.76923056, 4148.33333313, 4143.33333313, 4124.48717921, 4097.69230735, 4105.12820485, 4101.92307658, 4104.87179460, 4134.48717921, 4327.94871809, 4129.10256383, 4127.94871767, 4144.10256390,12.0
4141.92307672, 4139.99999980, 4143.20512800, 4135.89743569, 4127.17948691, 4097.05128171, 4109.48717921, 4106.66666639, 4099.61538427, 4134.48717921, 4322.43589758, 4119.10256383, 4128.20512793, 4142.82051262,12.0
