AF3,F7,F3,FC5,T7,P7,O1,O2,P8,T8,FC6,F4,F8,AF4,Label
4099.99999966, 4318.84615399, 4158.97435877, 4150.38461518, 4118.84615357, 4140.89743569, 4146.02564082, 4131.28205101, 4157.56410236, 4129.61538434, 3967.94871733, 4169.87179474, 4143.58974339, 4137.82051262,12.0
4138.20512800, 4298.84615392, 4149.74358954, 4148.20512800, 4128.20512793, 4143.71794851, 4121.92307665, 4129.48717921, 4155.12820492, 4130.64102537, 3965.51281989, 4150.12820492, 4138.97435877, 4155.38461518,12.0
4099.99999966, 4261.53846154, 4134.10256383, 4113.97435870, 4117.05128178, 4143.07692287, 4129.10256383, 4153.71794851, 4178.46153833, 4131.02564075, 3962.05128143, 4140.76923056, 4132.82051255, 4131.02564075,12.0
4014.74358926, 4236.02564103, 4106.28205101, 4084.99999966, 4102.94871767, 4076.92307658, 4077.30769196, 4069.48717907, 4136.15384595, 4129.61538434, 3940.25640963, 4114.23076896, 4110.51282024, 4107.94871767,12.0
4174.10256397, 4239.87179488, 4121.92307665, 4091.02564068, 4148.07692287, 4069.87179453, 4044.23076882, 4011.66666618, 4070.38461504, 4129.99999973, 3930.89743521, 4092.43589709, 4107.17948691, 4187.69230756,12.0
4168.84615371, 4258.33333334, 4131.92307665, 4111.66666639, 4131.41025614, 4125.38461511, 4089.87179453, 4078.33333299, 4088.84615350, 4130.51282024, 3946.66666605, 4121.02564075, 4121.41025614, 4156.28205108,12.0
4060.76923036, 4245.64102564, 4123.58974332, 4100.25640991, 4104.10256383, 4100.12820478, 4092.43589709, 4082.30769196, 4116.53846126, 4129.61538434, 3956.66666605, 4132.30769203, 4121.53846126, 4115.64102537,12.0
4155.76923056, 4229.61538455, 4132.05128178, 4087.17948684, 4135.51282031, 4090.51282017, 4085.38461504, 4069.10256369, 4115.25640998, 4130.51282024, 3954.23076861, 4113.84615357, 4120.38461511, 4166.28205108,12.0
4126.15384588, 4255.00000000, 4133.07692280, 4110.25640998, 4122.43589716, 4127.56410229, 4115.64102537, 4113.97435870, 4135.38461518, 4129.35897408, 3955.25640963, 4133.71794844, 4127.05128178, 4141.53846133,12.0
4097.17948684, 4273.97435905, 4139.35897415, 4113.20512793, 4117.94871767, 4114.10256383, 4115.12820485, 4122.43589716, 4141.41025621, 4129.48717921, 3961.02564040, 4148.20512800, 4131.15384588, 4139.23076903,12.0
4142.05128185, 4228.46153840, 4116.66666639, 4070.51282017, 4128.07692280, 4071.66666632, 4065.51282010, 4080.25640991, 4097.05128171, 4131.53846126, 3942.43589681, 4099.48717914, 4111.66666639, 4153.97435877,12.0
4106.28205101, 4188.97435884, 4088.97435863, 4054.10256369, 4117.17948691, 4056.66666625, 4037.30769189, 4048.84615343, 4078.58974325, 4129.87179460, 3921.28205059, 4072.30769196, 4098.84615350, 4135.12820485,12.0
4122.30769203, 4217.05128199, 4112.94871767, 4078.84615350, 4124.74358947, 4087.69230735, 4070.38461504, 4078.20512786, 4113.71794844, 4126.92307665, 3934.87179418, 4108.71794844, 4117.30769203, 4147.69230749,12.0
4124.74358947, 4246.02564103, 4123.84615357, 4088.33333299, 4121.28205101, 4111.79487152, 4100.76923043, 4113.84615357, 4133.46153819, 4127.56410229, 3947.56410194, 4128.97435870, 4127.30769203, 4142.82051262,12.0
4100.89743555, 4231.41025634, 4112.05128178, 4078.58974325, 4117.69230742, 4096.92307658, 4086.92307658, 4101.15384581, 4128.33333306, 4130.38461511, 3936.79487110, 4111.15384588, 4122.94871767, 4140.51282031,12.0
4130.76923050, 4206.79487173, 4103.33333306, 4058.33333292, 4124.99999973, 4076.92307658, 4063.97435856, 4078.07692273, 4112.30769203, 4130.25640998, 3926.28205059, 4087.17948684, 4112.30769203, 4152.82051262,12.0
4106.15384588, 4210.89743583, 4098.71794837, 4050.12820472, 4115.51282024, 4066.28205087, 4068.33333292, 4077.69230735, 4104.48717921, 4127.17948691, 3936.15384546, 4092.94871761, 4109.35897408, 4136.66666646,12.0
4111.53846126, 4216.53846147, 4104.74358947, 4057.30769189, 4124.23076896, 4057.43589702, 4070.89743555, 4078.20512786, 4093.58974325, 4127.82051255, 3938.07692239, 4098.58974325, 4115.64102537, 4144.99999980,12.0
4129.35897408, 4213.97435891, 4104.99999973, 4067.05128164, 4126.92307665, 4064.74358933, 4070.51282017, 4075.76923043, 4090.76923043, 4131.02564075, 3930.51281982, 4095.64102530, 4113.84615357, 4146.92307672,12.0
4094.61538427, 4248.33333334, 4122.94871767, 4094.99999966, 4116.41025614, 4100.12820478, 4093.58974325, 4090.51282017, 4133.46153819, 4130.51282024, 3952.94871733, 4129.61538434, 4124.35897408, 4134.48717921,12.0
4130.25640998, 4259.48717949, 4144.10256390, 4097.94871761, 4129.35897408, 4125.64102537, 4107.94871767, 4109.87179460, 4148.97435877, 4128.58974332, 3964.35897374, 4142.05128185, 4139.10256390, 4152.82051262,12.0
4114.74358947, 4200.12820499, 4106.66666639, 4051.28205087, 4122.94871767, 4092.43589709, 4075.25640991, 4085.12820478, 4102.69230742, 4127.43589716, 3931.92307623, 4091.66666632, 4120.89743562, 4138.07692287,12.0
4103.46153819, 4182.43589730, 4089.35897402, 4036.02564054, 4121.79487152, 4068.46153805, 4057.82051241, 4067.82051241, 4094.48717914, 4129.74358947, 3920.89743521, 4069.87179453, 4106.92307665, 4139.48717928,12.0
4131.53846126, 4221.92307686, 4112.05128178, 4067.82051241, 4125.89743562, 4091.92307658, 4083.07692273, 4096.28205094, 4120.12820485, 4130.89743562, 3935.51281982, 4093.71794837, 4116.41025614, 4152.56410236,12.0
4094.10256376, 4220.12820506, 4102.82051255, 4070.12820478, 4116.66666639, 4085.25640991, 4076.79487145, 4080.25640991, 4102.56410229, 4128.58974332, 3927.30769162, 4088.07692273, 4109.87179460, 4134.48717921,12.0
4127.94871767, 4207.17948711, 4106.79487152, 4056.66666625, 4129.61538434, 4084.10256376, 4072.69230735, 4068.97435856, 4099.87179453, 4131.02564075, 3929.10256341, 4084.61538427, 4111.28205101, 4152.30769210,12.0
4121.79487152, 4231.53846147, 4122.94871767, 4069.87179453, 4121.15384588, 4098.97435863, 4091.79487145, 4101.28205094, 4128.97435870, 4133.20512793, 3945.64102502, 4112.43589716, 4127.56410229, 4145.25641005,12.0
4097.56410222, 4241.66666667, 4121.92307665, 4077.17948684, 4116.15384588, 4089.87179453, 4084.99999966, 4094.48717914, 4120.64102537, 4131.02564075, 3939.61538399, 4116.53846126, 4126.41025614, 4141.28205108,12.0
4138.46153826, 4218.97435891, 4112.17948691, 4067.82051241, 4125.51282024, 4097.69230735, 4084.35897402, 4084.87179453, 4106.53846126, 4129.23076896, 3922.94871726, 4097.56410222, 4116.79487152, 4158.97435877,12.0
4102.30769196, 4216.28205122, 4102.94871767, 4067.17948677, 4115.12820485, 4095.25640991, 4084.23076889, 4087.82051248, 4112.94871767, 4125.89743562, 3916.02564033, 4093.20512786, 4111.66666639, 4138.46153826,12.0
4113.97435870, 4239.48717949, 4125.89743562, 4087.17948684, 4125.38461511, 4086.92307658, 4080.51282017, 4097.82051248, 4124.35897408, 4126.66666639, 3929.10256341, 4115.25640998, 4121.66666639, 4150.89743569,12.0
4113.97435870, 4239.48717949, 4125.89743562, 4087.17948684, 4125.38461511, 4086.92307658, 4080.51282017, 4097.82051248, 4124.35897408, 4126.66666639, 3929.10256341, 4115.25640998, 4121.66666639, 4150.89743569,12.0
4121.53846126, 4230.12820506, 4126.41025614, 4089.10256376, 4122.82051255, 4094.61538427, 4078.97435863, 4108.58974332, 4131.92307665, 4129.74358947, 3937.94871726, 4124.35897408, 4125.25640998, 4148.84615364,12.0
4098.46153812, 4213.97435891, 4116.15384588, 4076.15384581, 4119.10256383, 4095.25640991, 4079.23076889, 4099.48717914, 4131.92307665, 4128.46153819, 3939.99999938, 4118.07692280, 4122.30769203, 4138.46153826,12.0
4131.02564075, 4247.05128206, 4140.89743569, 4099.74358940, 4128.46153819, 4122.82051255, 4118.58974332, 4122.17948691, 4143.20512800, 4128.84615357, 3957.56410194, 4137.30769210, 4137.30769210, 4155.38461518,12.0
4092.17948684, 4262.05128206, 4137.56410236, 4117.43589716, 4114.23076896, 4137.82051262, 4135.38461518, 4128.71794844, 4141.79487159, 4129.35897408, 3958.46153784, 4142.94871774, 4134.35897408, 4133.58974332,12.0
4113.71794844, 4225.12820506, 4118.84615357, 4082.69230735, 4126.28205101, 4100.51282017, 4095.64102530, 4089.35897402, 4113.58974332, 4128.97435870, 3943.33333271, 4106.53846126, 4114.48717921, 4148.33333313,12.0
4146.92307672, 4207.69230763, 4115.51282024, 4062.05128164, 4130.12820485, 4096.79487145, 4085.76923043, 4093.46153812, 4112.82051255, 4129.23076896, 3951.15384553, 4100.51282017, 4117.05128178, 4156.02564082,12.0
4146.92307672, 4207.69230763, 4115.51282024, 4062.05128164, 4130.12820485, 4096.79487145, 4085.76923043, 4093.46153812, 4112.82051255, 4129.23076896, 3951.15384553, 4100.51282017, 4117.05128178, 4156.02564082,12.0
4084.10256376, 4220.38461532, 4119.48717921, 4088.71794837, 4111.41025614, 4124.48717921, 4105.64102537, 4115.38461511, 4136.15384595, 4129.99999973, 3966.79487117, 4128.97435870, 4127.05128178, 4125.76923050,12.0
4115.51282024, 4223.58974352, 4131.79487152, 4101.28205094, 4124.61538434, 4124.74358947, 4107.30769203, 4113.58974332, 4134.48717921, 4131.53846126, 3967.94871733, 4132.30769203, 4128.46153819, 4147.94871774,12.0
4132.56410229, 4216.28205122, 4122.69230742, 4087.05128171, 4126.79487152, 4097.82051248, 4085.12820478, 4098.20512786, 4121.79487152, 4131.53846126, 3959.74358912, 4116.41025614, 4122.56410229, 4148.33333313,12.0
4106.28205101, 4216.28205122, 4116.15384588, 4082.05128171, 4118.33333306, 4090.64102530, 4080.64102530, 4092.05128171, 4127.82051255, 4131.15384588, 3955.12820451, 4115.38461511, 4119.87179460, 4138.46153826,12.0
4116.28205101, 4242.17948718, 4146.41025621, 4108.33333306, 4117.69230742, 4126.66666639, 4138.07692287, 4130.51282024, 4153.20512800, 4131.28205101, 3970.38461476, 4156.92307672, 4138.20512800, 4147.43589723,12.0
4113.84615357, 4256.28205129, 4162.43589723, 4126.79487152, 4119.61538434, 4137.69230749, 4151.53846133, 4144.99999980, 4160.38461518, 4128.33333306, 3982.94871740, 4179.87179474, 4148.46153826, 4143.71794851,12.0
4126.53846126, 4223.71794865, 4134.74358947, 4102.94871767, 4124.99999973, 4117.30769203, 4081.92307658, 4109.48717921, 4134.74358947, 4127.82051255, 3964.99999938, 4133.58974332, 4128.58974332, 4150.89743569,12.0
4111.66666639, 4217.05128199, 4119.74358947, 4100.64102530, 4117.05128178, 4121.15384588, 4070.12820478, 4097.69230735, 4128.84615357, 4129.87179460, 3953.58974297, 4114.48717921, 4119.61538434, 4143.58974339,12.0
4114.61538434, 4238.33333334, 4139.23076903, 4118.20512793, 4121.41025614, 4130.12820485, 4121.41025614, 4116.92307665, 4143.58974339, 4129.74358947, 3958.58974297, 4141.41025621, 4132.94871767, 4148.20512800,12.0
4121.53846126, 4223.33333327, 4133.20512793, 4100.38461504, 4120.76923050, 4112.69230742, 4109.35897408, 4117.82051255, 4137.56410236, 4128.84615357, 3944.48717887, 4132.30769203, 4127.69230742, 4149.61538441,12.0
4101.53846119, 4240.38461539, 4136.41025621, 4112.17948691, 4114.87179460, 4119.35897408, 4091.66666632, 4113.58974332, 4146.66666646, 4128.97435870, 3941.53846092, 4140.64102544, 4127.43589716, 4136.41025621,12.0
4123.33333306, 4286.41025648, 4171.53846140, 4153.46153826, 4126.41025614, 4160.12820492, 4142.43589723, 4142.05128185, 4173.58974345, 4129.48717921, 3959.99999938, 4186.15384602, 4150.76923056, 4148.97435877,12.0
4113.07692280, 4250.76923077, 4151.28205108, 4125.64102537, 4121.79487152, 4139.99999980, 4136.66666646, 4135.25640998, 4146.15384595, 4128.33333306, 3943.46153784, 4163.07692287, 4142.17948697, 4144.99999980,12.0
4112.43589716, 4192.05128192, 4114.48717921, 4077.82051248, 4123.46153819, 4092.82051248, 4073.71794837, 4091.92307658, 4103.33333306, 4129.10256383, 3914.48717880, 4104.99999973, 4115.51282024, 4142.56410236,12.0
4119.35897408, 4212.56410250, 4129.99999973, 4098.84615350, 4126.92307665, 4125.25640998, 4087.94871761, 4106.15384588, 4131.28205101, 4130.89743562, 3921.92307623, 4123.84615357, 4123.84615357, 4141.53846133,12.0
4100.51282017, 4251.15384616, 4151.53846133, 4123.20512793, 4118.71794844, 4164.74358954, 4142.94871774, 4145.25641005, 4169.74358961, 4130.25640998, 3932.69230700, 4163.20512800, 4142.43589723, 4135.38461518,12.0
4121.41025614, 4254.87179488, 4149.35897415, 4119.74358947, 4123.33333306, 4146.02564082, 4159.99999980, 4159.35897415, 4164.99999980, 4129.87179460, 3930.89743521, 4156.41025621, 4144.35897415, 4146.92307672,12.0
4108.97435870, 4240.76923077, 4135.12820485, 4115.64102537, 4121.66666639, 4128.07692280, 4128.97435870, 4134.74358947, 4143.84615364, 4126.79487152, 3929.35897367, 4136.92307672, 4131.41025614, 4133.07692280,12.0
4109.10256383, 4229.48717942, 4142.43589723, 4117.43589716, 4124.99999973, 4148.46153826, 4109.35897408, 4117.30769203, 4140.51282031, 4126.53846126, 3930.64102495, 4138.58974339, 4125.51282024, 4139.99999980,12.0
4128.97435870, 4221.28205122, 4141.53846133, 4112.82051255, 4123.71794844, 4150.89743569, 4119.87179460, 4130.25640998, 4138.20512800, 4128.58974332, 3923.46153777, 4132.17948691, 4125.76923050, 4156.41025621,12.0
4106.92307665, 4214.10256404, 4124.10256383, 4101.92307658, 4116.28205101, 4130.89743562, 4123.58974332, 4122.56410229, 4126.53846126, 4127.56410229, 3912.17948649, 4115.89743562, 4120.12820485, 4136.53846133,12.0
4122.69230742, 4242.56410257, 4150.76923056, 4125.89743562, 4125.89743562, 4166.92307672, 4160.64102544, 4149.10256390, 4159.48717928, 4127.56410229, 3925.64102495, 4148.97435877, 4134.10256383, 4145.25641005,12.0
4119.23076896, 4263.71794872, 4164.48717928, 4150.76923056, 4120.12820485, 4180.12820499, 4182.05128192, 4179.10256397, 4177.43589730, 4129.23076896, 3933.84615316, 4173.71794858, 4143.97435877, 4147.43589723,12.0
4116.53846126, 4221.28205122, 4134.87179460, 4121.02564075, 4121.15384588, 4125.76923050, 4122.30769203, 4131.79487152, 4123.46153819, 4128.71794844, 3916.02564033, 4128.20512793, 4124.35897408, 4144.48717928,12.0
4118.46153819, 4193.07692294, 4117.94871767, 4095.25640991, 4124.61538434, 4120.51282024, 4102.69230742, 4104.61538434, 4101.28205094, 4127.69230742, 3909.10256341, 4098.97435863, 4114.74358947, 4143.71794851,12.0
4096.92307658, 4203.46153840, 4119.35897408, 4098.84615350, 4117.05128178, 4141.79487159, 4132.94871767, 4115.38461511, 4126.79487152, 4128.20512793, 3910.89743521, 4111.66666639, 4121.28205101, 4138.07692287,12.0
4128.07692280, 4213.33333327, 4132.82051255, 4108.58974332, 4128.84615357, 4151.92307672, 4145.89743569, 4128.20512793, 4138.20512800, 4129.61538434, 3911.92307623, 4125.64102537, 4129.74358947, 4157.56410236,12.0
4096.53846119, 4246.28205129, 4152.82051262, 4143.58974339, 4119.99999973, 4175.51282038, 4177.69230756, 4157.69230749, 4158.07692287, 4129.48717921, 3932.43589674, 4163.07692287, 4144.48717928, 4140.38461518,12.0
4095.51282017, 4253.20512821, 4164.74358954, 4146.02564082, 4120.64102537, 4183.20512807, 4197.94871781, 4171.92307679, 4175.12820499, 4127.69230742, 3943.33333271, 4180.89743576, 4151.79487159, 4143.33333313,12.0
4139.99999980, 4201.92307686, 4139.87179467, 4093.58974325, 4129.99999973, 4160.12820492, 4154.61538441, 4151.28205108, 4143.97435877, 4128.07692280, 3916.66666598, 4131.28205101, 4131.02564075, 4156.02564082,12.0
4101.41025607, 4191.15384602, 4119.35897408, 4099.35897402, 4115.38461511, 4146.53846133, 4115.25640998, 4122.17948691, 4120.12820485, 4129.23076896, 3905.12820437, 4109.23076896, 4119.48717921, 4132.05128178,12.0
4122.69230742, 4225.64102558, 4137.94871774, 4154.61538441, 4122.30769203, 4170.25641012, 4138.20512800, 4132.05128178, 4135.51282031, 4129.23076896, 3919.10256341, 4134.35897408, 4134.74358947, 4146.79487159,12.0
4121.53846126, 4243.20512821, 4144.48717928, 4181.66666653, 4122.17948691, 4193.71794858, 4178.20512807, 4166.66666646, 4157.17948697, 4128.20512793, 3920.51281982, 4147.56410236, 4139.61538441, 4141.53846133,12.0
4099.99999966, 4260.38461539, 4148.71794851, 4199.23076910, 4120.76923050, 4188.97435884, 4189.23076910, 4174.23076910, 4170.25641012, 4127.82051255, 3914.99999931, 4154.61538441, 4135.12820485, 4136.15384595,12.0
4130.89743562, 4257.82051282, 4146.41025621, 4209.23076917, 4126.02564075, 4180.12820499, 4176.53846140, 4165.64102544, 4166.79487159, 4129.87179460, 3904.87179411, 4144.74358954, 4129.35897408, 4152.05128185,12.0
4108.07692280, 4216.53846147, 4113.33333306, 4191.41025628, 4116.92307665, 4159.48717928, 4142.30769210, 4138.07692287, 4141.92307672, 4130.12820485, 3879.99999924, 4101.15384581, 4112.17948691, 4139.48717928,12.0
4113.58974332, 4208.20512814, 4102.17948684, 4186.92307679, 4123.84615357, 4151.28205108, 4126.79487152, 4116.15384588, 4119.35897408, 4129.23076896, 3862.69230686, 4070.89743555, 4096.79487145, 4143.97435877,12.0
4121.41025614, 4230.89743583, 4105.89743562, 4209.10256404, 4119.99999973, 4176.66666653, 4145.51282031, 4131.15384588, 4124.87179460, 4127.94871767, 3861.41025558, 4077.56410222, 4090.76923043, 4145.12820492,12.0
4105.38461511, 4233.84615385, 4100.89743555, 4220.89743583, 4112.69230742, 4181.15384602, 4158.46153826, 4139.23076903, 4136.02564082, 4128.33333306, 3856.15384532, 4077.69230735, 4093.58974325, 4143.07692287,12.0
4123.71794844, 4226.92307686, 4099.35897402, 4215.12820506, 4124.87179460, 4163.58974339, 4142.82051262, 4121.28205101, 4119.99999973, 4130.12820485, 3843.97435814, 4061.92307651, 4097.56410222, 4148.20512800,12.0
4106.15384588, 4215.76923070, 4089.23076889, 4203.33333327, 4117.56410229, 4161.53846133, 4127.43589716, 4111.15384588, 4104.48717921, 4129.48717921, 3840.64102481, 4056.15384574, 4093.58974325, 4143.20512800,12.0
4107.94871767, 4189.23076910, 4076.92307658, 4183.97435884, 4118.84615357, 4152.43589723, 4125.38461511, 4115.51282024, 4102.82051255, 4129.74358947, 3838.46153756, 4039.74358933, 4082.43589709, 4151.41025621,12.0
4117.69230742, 4173.33333320, 4061.92307651, 4164.61538441, 4124.48717921, 4123.97435870, 4106.79487152, 4095.12820478, 4083.84615350, 4130.38461511, 3827.69230679, 4011.28205080, 4069.35897395, 4144.99999980,12.0
4096.41025607, 4191.53846140, 4062.56410215, 4173.20512807, 4116.53846126, 4115.12820485, 4086.79487145, 4062.05128164, 4077.17948684, 4129.35897408, 3836.41025551, 4020.89743541, 4075.89743555, 4144.10256390,12.0
4118.97435870, 4202.56410250, 4077.17948684, 4177.82051269, 4124.74358947, 4134.10256383, 4096.92307658, 4074.99999966, 4085.76923043, 4130.89743562, 3844.99999917, 4041.66666625, 4087.82051248, 4149.23076903,12.0
4107.94871767, 4200.12820499, 4069.48717907, 4164.35897415, 4122.30769203, 4130.89743562, 4111.41025614, 4094.48717914, 4073.20512786, 4131.02564075, 3832.30769141, 4038.33333292, 4079.35897402, 4135.76923056,12.0
4102.17948684, 4208.46153840, 4072.56410222, 4168.20512807, 4121.92307665, 4123.46153819, 4114.48717921, 4092.94871761, 4071.15384581, 4128.71794844, 3838.07692218, 4039.87179446, 4075.89743555, 4148.58974339,12.0
4123.33333306, 4175.51282038, 4063.07692266, 4143.07692287, 4127.17948691, 4128.97435870, 4091.92307658, 4084.35897402, 4067.30769189, 4127.56410229, 3835.51281961, 4018.84615336, 4068.58974318, 4142.82051262,12.0
4103.33333306, 4133.46153819, 4036.41025593, 4101.79487145, 4122.17948691, 4106.92307665, 4060.12820472, 4058.33333292, 4047.94871754, 4128.97435870, 3817.69230679, 3986.79487124, 4057.56410215, 4136.79487159,12.0
4112.82051255, 4166.28205108, 4061.28205087, 4123.84615357, 4126.15384588, 4105.38461511, 4094.23076889, 4071.28205094, 4066.28205087, 4131.28205101, 3836.92307602, 4015.51282003, 4073.58974325, 4150.76923056,12.0
4109.48717921, 4206.66666660, 4092.43589709, 4157.94871774, 4119.48717921, 4136.02564082, 4135.38461518, 4108.20512793, 4097.30769196, 4129.87179460, 3867.30769148, 4059.35897395, 4091.92307658, 4138.20512800,12.0
4110.51282024, 4185.51282038, 4085.64102530, 4143.71794851, 4121.02564075, 4139.61538441, 4107.56410229, 4098.46153812, 4091.66666632, 4127.82051255, 3866.41025558, 4049.61538420, 4087.82051248, 4145.64102544,12.0
4121.28205101, 4167.17948697, 4072.17948684, 4124.99999973, 4125.64102537, 4129.99999973, 4094.74358940, 4093.97435863, 4089.23076889, 4130.38461511, 3857.94871712, 4030.89743541, 4080.12820478, 4145.76923056,12.0
4101.28205094, 4181.79487166, 4075.12820478, 4129.61538434, 4117.17948691, 4122.43589716, 4109.99999973, 4109.61538434, 4099.10256376, 4132.05128178, 3866.02564020, 4042.05128164, 4088.71794837, 4143.84615364,12.0
4117.94871767, 4198.71794858, 4097.69230735, 4145.51282031, 4123.46153819, 4135.64102544, 4128.20512793, 4135.25640998, 4115.12820485, 4128.46153819, 3878.84615309, 4068.20512779, 4101.92307658, 4154.10256390,12.0
4113.84615357, 4197.82051269, 4101.92307658, 4152.69230749, 4119.99999973, 4148.84615364, 4143.97435877, 4153.33333313, 4142.56410236, 4124.10256383, 3881.79487103, 4079.61538427, 4101.53846119, 4138.07692287,12.0
4107.30769203, 4161.28205108, 4079.74358940, 4116.02564075, 4118.84615357, 4118.46153819, 4108.97435870, 4108.84615357, 4119.74358947, 4128.07692280, 3868.33333250, 4045.89743548, 4090.64102530, 4146.79487159,12.0
4116.15384588, 4127.05128178, 4062.30769189, 4082.69230735, 4123.33333306, 4093.97435863, 4058.07692266, 4055.12820472, 4067.17948677, 4131.28205101, 3856.02564020, 4011.15384567, 4079.99999966, 4148.58974339,12.0
4098.07692273, 4162.43589723, 4076.15384581, 4114.48717921, 4114.10256383, 4117.94871767, 4082.43589709, 4067.43589702, 4081.28205094, 4128.97435870, 3874.35897360, 4042.30769189, 4091.28205094, 4139.23076903,12.0
4117.05128178, 4195.51282038, 4099.23076889, 4131.15384588, 4120.89743562, 4139.23076903, 4129.87179460, 4109.23076896, 4122.05128178, 4130.64102537, 3886.66666591, 4072.82051248, 4112.94871767, 4152.82051262,12.0
4108.58974332, 4146.28205108, 4078.07692273, 4088.84615350, 4121.02564075, 4105.25640998, 4091.53846119, 4091.66666632, 4092.69230735, 4131.41025614, 3863.20512738, 4038.97435856, 4104.48717921, 4139.35897415,12.0
4092.94871761, 4110.76923050, 4059.23076882, 4071.92307658, 4119.48717921, 4071.79487145, 4034.87179439, 4046.15384574, 4051.53846113, 4129.99999973, 3854.74358891, 4012.43589695, 4095.38461504, 4138.84615364,12.0
4123.20512793, 4137.69230749, 4071.66666632, 4092.69230735, 4127.82051255, 4098.07692273, 4056.41025600, 4062.56410215, 4069.61538420, 4130.51282024, 3868.84615302, 4023.58974311, 4119.23076896, 4151.53846133,12.0
4101.79487145, 4154.10256390, 4072.43589709, 4105.25640998, 4117.82051255, 4124.35897408, 4091.41025607, 4086.79487145, 4093.58974325, 4131.28205101, 3874.23076847, 4033.20512772, 4147.69230749, 4138.07692287,12.0
4111.92307665, 4146.02564082, 4076.02564068, 4102.56410229, 4124.74358947, 4132.94871767, 4102.17948684, 4086.53846119, 4093.97435863, 4129.35897408, 3873.07692232, 4034.10256362, 4155.38461518, 4146.02564082,12.0
4136.02564082, 4151.28205108, 4082.30769196, 4092.82051248, 4129.99999973, 4142.56410236, 4118.84615357, 4105.76923050, 4101.02564068, 4126.79487152, 3874.48717873, 4039.87179446, 4160.89743569, 4149.48717928,12.0
4090.12820478, 4164.48717928, 4074.99999966, 4098.33333299, 4115.38461511, 4111.92307665, 4095.12820478, 4095.25640991, 4099.74358940, 4129.23076896, 3876.92307616, 4047.43589702, 4181.15384602, 4128.58974332,12.0
4110.51282024, 4152.30769210, 4066.79487138, 4097.56410222, 4125.12820485, 4080.38461504, 4055.25640984, 4059.74358933, 4074.61538427, 4132.69230742, 3865.25640943, 4032.56410208, 4185.76923063, 4146.15384595,12.0
4131.02564075, 4134.48717921, 4060.38461497, 4072.05128171, 4126.53846126, 4105.12820485, 4071.66666632, 4069.87179453, 4076.02564068, 4128.84615357, 3854.23076840, 4019.87179439, 4176.02564089, 4153.33333313,12.0
4097.05128171, 4155.51282031, 4076.28205094, 4087.17948684, 4117.05128178, 4136.28205108, 4099.61538427, 4095.89743555, 4105.64102537, 4123.97435870, 3876.53846078, 4052.69230728, 4191.66666653, 4136.66666646,12.0
4110.38461511, 4193.71794858, 4110.51282024, 4143.71794851, 4120.89743562, 4136.28205108, 4102.05128171, 4099.99999966, 4104.35897408, 4126.15384588, 3918.84615316, 4107.69230742, 4221.53846147, 4148.20512800,12.0
4116.02564075, 4173.46153833, 4108.58974332, 4126.53846126, 4118.33333306, 4103.58974332, 4076.66666632, 4069.61538420, 4065.38461497, 4127.82051255, 3930.51281982, 4113.33333306, 4219.48717942, 4150.51282031,12.0
4110.51282024, 4144.87179467, 4103.07692280, 4080.76923043, 4120.12820485, 4092.82051248, 4070.12820478, 4059.74358933, 4061.66666625, 4128.33333306, 3929.61538392, 4106.79487152, 4211.02564096, 4145.89743569,12.0
4106.92307665, 4182.05128192, 4135.12820485, 4113.07692280, 4118.97435870, 4134.48717921, 4110.89743562, 4105.38461511, 4110.89743562, 4130.64102537, 3962.05128143, 4152.43589723, 4236.15384616, 4144.61538441,12.0
4118.71794844, 4194.74358961, 4157.17948697, 4129.99999973, 4123.20512793, 4149.48717928, 4125.38461511, 4122.30769203, 4121.79487152, 4129.23076896, 3992.30769176, 4181.79487166, 4255.89743590, 4151.15384595,12.0
4107.82051255, 4158.07692287, 4144.99999980, 4087.17948684, 4121.66666639, 4123.07692280, 4098.71794837, 4100.89743555, 4091.28205094, 4127.43589716, 3989.35897381, 4171.15384602, 4251.15384616, 4147.56410236,12.0
4088.46153812, 4155.76923056, 4140.38461518, 4072.94871761, 4117.30769203, 4112.56410229, 4091.79487145, 4090.51282017, 4091.53846119, 4127.69230742, 3981.53846099, 4167.69230749, 4245.00000000, 4135.89743569,12.0
4140.38461518, 4185.12820499, 4163.97435877, 4098.97435863, 4134.61538434, 4137.05128185, 4127.82051255, 4121.92307665, 4127.17948691, 4127.56410229, 4003.33333278, 4182.82051269, 4260.51282052, 4157.05128185,12.0
4108.07692280, 4188.07692294, 4165.89743569, 4113.33333306, 4121.79487152, 4156.28205108, 4143.97435877, 4146.15384595, 4146.92307672, 4128.20512793, 4020.76923029, 4195.12820499, 4274.35897443, 4141.92307672,12.0
4085.64102530, 4162.43589723, 4150.51282031, 4088.33333299, 4115.51282024, 4141.41025621, 4115.89743562, 4114.23076896, 4122.05128178, 4129.99999973, 3993.58974304, 4173.20512807, 4255.38461539, 4132.05128178,12.0
4127.05128178, 4144.23076903, 4135.12820485, 4055.51282010, 4127.69230742, 4131.41025614, 4109.23076896, 4093.33333299, 4090.76923043, 4129.74358947, 3967.30769169, 4138.46153826, 4236.79487180, 4153.33333313,12.0
4105.89743562, 4158.84615364, 4138.58974339, 4069.87179453, 4120.76923050, 4142.56410236, 4135.51282031, 4121.66666639, 4120.51282024, 4127.82051255, 3977.94871740, 4156.53846133, 4252.94871795, 4139.74358954,12.0
4116.53846126, 4191.15384602, 4176.79487166, 4117.05128178, 4122.69230742, 4170.25641012, 4163.71794851, 4169.35897422, 4183.71794858, 4129.23076896, 3999.99999945, 4207.56410250, 4281.53846161, 4143.07692287,12.0
4104.87179460, 4200.76923063, 4181.79487166, 4130.25640998, 4117.94871767, 4183.20512807, 4166.53846133, 4163.97435877, 4177.56410243, 4128.58974332, 3999.35897381, 4207.69230763, 4276.66666674, 4143.33333313,12.0
4107.30769203, 4192.43589730, 4163.46153826, 4113.20512793, 4123.97435870, 4174.23076910, 4149.61538441, 4117.30769203, 4127.17948691, 4125.25640998, 3986.79487124, 4176.02564089, 4258.33333334, 4138.97435877,12.0
4126.92307665, 4161.15384595, 4142.30769210, 4087.05128171, 4127.43589716, 4148.84615364, 4117.69230742, 4095.12820478, 4096.79487145, 4127.17948691, 3972.56410201, 4144.48717928, 4247.30769231, 4147.56410236,12.0
4099.87179453, 4141.28205108, 4133.58974332, 4079.23076889, 4115.64102537, 4118.71794844, 4097.43589709, 4090.12820478, 4089.23076889, 4129.61538434, 3969.61538399, 4138.07692287, 4242.56410257, 4140.64102544,12.0
4123.07692280, 4169.23076910, 4158.33333313, 4095.51282017, 4124.87179460, 4140.51282031, 4133.07692280, 4117.17948691, 4117.05128178, 4129.35897408, 3975.38461483, 4162.82051262, 4249.87179488, 4148.97435877,12.0
4116.28205101, 4184.10256397, 4160.64102544, 4105.64102537, 4118.97435870, 4162.30769210, 4157.69230749, 4147.17948697, 4149.99999980, 4128.84615357, 3974.74358919, 4170.76923063, 4254.23076923, 4144.35897415,12.0
4099.23076889, 4171.41025628, 4154.10256390, 4112.43589716, 4114.74358947, 4146.79487159, 4137.69230749, 4132.05128178, 4136.79487159, 4129.87179460, 3986.41025586, 4167.56410236, 4260.25641026, 4136.92307672,12.0
4119.35897408, 4167.94871774, 4167.30769210, 4112.17948691, 4124.48717921, 4158.58974339, 4140.12820492, 4123.71794844, 4122.94871767, 4132.17948691, 4010.38461490, 4182.30769217, 4268.71794879, 4152.82051262,12.0
4099.61538427, 4162.56410236, 4166.53846133, 4090.76923043, 4117.56410229, 4165.76923056, 4140.12820492, 4121.92307665, 4133.71794844, 4130.64102537, 4013.33333285, 4186.02564089, 4258.71794872, 4144.99999980,12.0
4113.58974332, 4150.89743569, 4160.76923056, 4077.43589709, 4121.53846126, 4141.28205108, 4114.23076896, 4111.02564075, 4126.66666639, 4128.20512793, 4003.07692252, 4168.46153833, 4250.64102564, 4145.64102544,12.0
4119.35897408, 4149.61538441, 4155.89743569, 4081.79487145, 4121.66666639, 4128.33333306, 4115.12820485, 4118.33333306, 4116.53846126, 4128.71794844, 4001.66666611, 4161.66666646, 4255.00000000, 4150.12820492,12.0
4100.25640991, 4153.58974339, 4154.99999980, 4083.71794837, 4118.71794844, 4141.02564082, 4135.12820485, 4124.87179460, 4128.97435870, 4129.23076896, 4001.02564047, 4165.38461518, 4254.10256411, 4141.28205108,12.0
4116.79487152, 4156.92307672, 4164.61538441, 4088.20512786, 4125.64102537, 4161.53846133, 4140.64102544, 4131.15384588, 4136.79487159, 4128.97435870, 4000.38461483, 4170.64102551, 4254.87179488, 4147.82051262,12.0
4104.23076896, 4159.35897415, 4165.38461518, 4093.46153812, 4120.38461511, 4155.89743569, 4133.97435870, 4133.84615357, 4127.05128178, 4128.46153819, 3998.46153791, 4175.89743576, 4254.74358975, 4140.89743569,12.0
4111.66666639, 4165.38461518, 4170.64102551, 4099.23076889, 4125.25640998, 4154.61538441, 4148.97435877, 4143.46153826, 4140.64102544, 4128.07692280, 4001.15384560, 4179.61538448, 4254.35897436, 4142.69230749,12.0
4118.58974332, 4168.46153833, 4170.51282038, 4102.05128171, 4126.02564075, 4173.97435884, 4160.64102544, 4158.71794851, 4155.38461518, 4128.84615357, 4008.46153798, 4181.53846140, 4261.53846154, 4148.84615364,12.0
4109.23076896, 4151.02564082, 4155.38461518, 4083.58974325, 4122.05128178, 4149.35897415, 4127.69230742, 4126.28205101, 4123.84615357, 4129.48717921, 3996.53846099, 4162.05128185, 4251.79487180, 4139.35897415,12.0
4122.43589716, 4150.38461518, 4161.41025621, 4089.10256376, 4127.43589716, 4134.48717921, 4131.41025614, 4117.94871767, 4119.61538434, 4129.10256383, 3993.58974304, 4164.61538441, 4247.82051282, 4146.53846133,12.0
4102.17948684, 4175.38461525, 4176.41025628, 4121.79487152, 4119.23076896, 4171.02564089, 4172.69230756, 4163.58974339, 4162.56410236, 4127.30769203, 4014.61538413, 4199.87179474, 4267.82051289, 4144.61538441,12.0
4118.58974332, 4189.35897422, 4183.20512807, 4131.53846126, 4123.46153819, 4188.58974345, 4179.74358961, 4180.51282038, 4178.07692294, 4129.48717921, 4025.38461490, 4207.17948711, 4273.20512828, 4145.25641005,12.0
4126.02564075, 4174.74358961, 4167.82051262, 4115.76923050, 4122.17948691, 4164.48717928, 4163.33333313, 4160.76923056, 4156.41025621, 4133.71794844, 4012.30769183, 4178.07692294, 4256.15384616, 4148.20512800,12.0
4098.97435863, 4138.33333313, 4141.15384595, 4088.97435863, 4113.58974332, 4141.92307672, 4130.25640998, 4126.66666639, 4128.20512793, 4129.87179460, 3989.61538406, 4142.43589723, 4235.00000000, 4139.99999980,12.0
4117.69230742, 4130.12820485, 4143.46153826, 4083.20512786, 4123.71794844, 4156.53846133, 4117.82051255, 4127.05128178, 4122.05128178, 4127.69230742, 3984.48717894, 4137.94871774, 4230.12820506, 4147.94871774,12.0
4104.10256383, 4175.25641012, 4166.15384595, 4125.12820485, 4118.84615357, 4182.30769217, 4159.99999980, 4170.51282038, 4157.56410236, 4129.99999973, 4007.56410208, 4180.25641012, 4248.33333334, 4142.69230749,12.0
4105.38461511, 4188.20512807, 4174.61538448, 4139.23076903, 4120.64102537, 4179.74358961, 4184.87179474, 4183.71794858, 4182.30769217, 4128.84615357, 4019.23076875, 4192.30769217, 4253.07692308, 4142.69230749,12.0
4118.46153819, 4135.38461518, 4146.53846133, 4092.43589709, 4127.56410229, 4158.33333313, 4148.84615364, 4152.43589723, 4149.87179467, 4129.48717921, 3997.43589688, 4142.05128185, 4228.46153840, 4152.30769210,12.0
4095.25640991, 4127.43589716, 4135.25640998, 4097.43589709, 4119.61538434, 4157.43589723, 4127.05128178, 4132.82051255, 4126.92307665, 4130.76923050, 3992.05128150, 4136.28205108, 4225.25641019, 4142.05128185,12.0
4117.82051255, 4165.25641005, 4166.15384595, 4132.05128178, 4125.89743562, 4181.66666653, 4160.64102544, 4162.82051262, 4154.87179467, 4129.35897408, 4015.25640977, 4180.76923063, 4252.43589744, 4147.94871774,12.0
4111.02564075, 4152.05128185, 4164.61538441, 4101.41025607, 4120.64102537, 4181.02564089, 4180.38461525, 4175.38461525, 4170.12820499, 4128.58974332, 4012.82051234, 4174.99999986, 4248.20512821, 4142.94871774,12.0
4096.66666632, 4136.53846133, 4149.48717928, 4098.07692273, 4116.66666639, 4169.61538448, 4157.69230749, 4138.33333313, 4149.87179467, 4129.48717921, 3994.99999945, 4152.94871774, 4225.76923070, 4134.74358947,12.0
4124.23076896, 4165.38461518, 4163.07692287, 4158.46153826, 4128.71794844, 4178.07692294, 4139.99999980, 4127.56410229, 4132.82051255, 4129.35897408, 4002.30769176, 4169.61538448, 4231.15384609, 4149.48717928,12.0
4109.23076896, 4177.56410243, 4170.12820499, 4173.58974345, 4124.87179460, 4175.38461525, 4143.33333313, 4140.38461518, 4135.12820485, 4128.71794844, 4009.48717900, 4180.89743576, 4240.00000000, 4140.89743569,12.0
4109.10256383, 4164.48717928, 4170.76923063, 4142.05128185, 4124.61538434, 4163.84615364, 4153.33333313, 4146.15384595, 4150.89743569, 4130.64102537, 4000.64102509, 4174.99999986, 4238.33333334, 4142.94871774,12.0
4113.97435870, 4158.20512800, 4169.23076910, 4135.51282031, 4123.97435870, 4166.02564082, 4149.10256390, 4140.89743569, 4155.89743569, 4131.15384588, 3998.71794817, 4177.30769217, 4234.74358975, 4151.66666646,12.0
4111.28205101, 4164.74358954, 4170.64102551, 4152.05128185, 4123.58974332, 4172.43589730, 4144.61538441, 4132.17948691, 4146.53846133, 4128.71794844, 4004.87179439, 4185.64102551, 4230.51282045, 4143.46153826,12.0
4126.92307665, 4170.12820499, 4173.71794858, 4162.05128185, 4127.69230742, 4182.43589730, 4158.07692287, 4147.05128185, 4146.79487159, 4128.97435870, 4006.15384567, 4184.48717935, 4230.89743583, 4148.33333313,12.0
4105.51282024, 4172.43589730, 4172.05128192, 4163.46153826, 4117.69230742, 4185.89743576, 4169.61538448, 4162.69230749, 4158.07692287, 4132.69230742, 4008.58974311, 4185.64102551, 4238.07692308, 4140.76923056,12.0
4111.66666639, 4164.48717928, 4169.35897422, 4147.69230749, 4121.66666639, 4174.48717935, 4169.48717935, 4154.99999980, 4155.38461518, 4131.66666639, 4009.23076875, 4177.56410243, 4237.05128206, 4142.05128185,12.0
4121.92307665, 4146.15384595, 4154.99999980, 4134.74358947, 4123.33333306, 4178.20512807, 4166.15384595, 4150.64102544, 4147.56410236, 4127.30769203, 4003.07692252, 4156.66666646, 4223.46153840, 4147.05128185,12.0
4103.58974332, 4135.76923056, 4145.38461518, 4137.17948697, 4118.71794844, 4183.20512807, 4152.43589723, 4143.71794851, 4143.46153826, 4128.07692280, 3998.07692252, 4151.53846133, 4217.56410250, 4139.61538441,12.0
4117.82051255, 4130.51282024, 4143.84615364, 4122.69230742, 4128.46153819, 4164.61538441, 4138.20512800, 4133.71794844, 4129.10256383, 4132.17948691, 3992.05128150, 4146.41025621, 4216.28205122, 4150.51282031,12.0
4107.17948691, 4125.64102537, 4131.28205101, 4109.61538434, 4123.46153819, 4159.23076903, 4137.05128185, 4139.87179467, 4133.46153819, 4131.53846126, 3985.51281996, 4132.17948691, 4209.35897429, 4147.30769210,12.0
4109.35897408, 4137.17948697, 4141.53846133, 4137.30769210, 4123.20512793, 4173.97435884, 4153.07692287, 4156.79487159, 4156.15384595, 4128.07692280, 3992.94871740, 4142.94871774, 4216.79487173, 4144.48717928,12.0
4117.94871767, 4147.69230749, 4160.64102544, 4150.25641005, 4126.66666639, 4169.87179474, 4180.89743576, 4179.48717935, 4164.99999980, 4127.94871767, 4002.17948663, 4165.64102544, 4229.99999993, 4145.25641005,12.0
4095.51282017, 4137.05128185, 4154.61538441, 4127.05128178, 4120.89743562, 4164.10256390, 4189.23076910, 4182.82051269, 4164.10256390, 4130.38461511, 4001.02564047, 4168.71794858, 4226.53846147, 4139.23076903,12.0
4121.66666639, 4131.53846126, 4153.84615364, 4140.25641005, 4127.69230742, 4184.23076910, 4174.23076910, 4173.58974345, 4159.99999980, 4132.30769203, 4003.58974304, 4158.97435877, 4218.84615378, 4150.89743569,12.0
4117.82051255, 4137.94871774, 4147.56410236, 4173.33333320, 4122.05128178, 4172.17948704, 4150.38461518, 4158.97435877, 4141.66666646, 4129.10256383, 3998.20512765, 4144.61538441, 4208.71794865, 4140.12820492,12.0
4101.02564068, 4138.20512800, 4135.51282031, 4172.05128192, 4120.64102537, 4144.10256390, 4129.48717921, 4128.07692280, 4121.15384588, 4126.15384588, 3982.69230714, 4129.74358947, 4196.15384602, 4136.15384595,12.0
4123.20512793, 4142.30769210, 4140.76923056, 4172.69230756, 4128.20512793, 4170.12820499, 4143.33333313, 4127.56410229, 4124.74358947, 4128.58974332, 3986.02564047, 4138.58974339, 4199.87179474, 4151.92307672,12.0
4110.64102537, 4146.79487159, 4142.43589723, 4179.48717935, 4121.66666639, 4181.92307679, 4156.66666646, 4139.74358954, 4131.41025614, 4128.33333306, 3989.74358919, 4147.82051262, 4203.33333327, 4141.41025621,12.0
4116.79487152, 4123.33333306, 4131.92307665, 4152.43589723, 4125.12820485, 4151.02564082, 4136.41025621, 4121.79487152, 4116.79487152, 4128.20512793, 3971.79487124, 4121.15384588, 4190.89743576, 4143.20512800,12.0
4116.66666639, 4110.89743562, 4125.38461511, 4139.10256390, 4121.15384588, 4150.64102544, 4129.35897408, 4108.71794844, 4108.07692280, 4129.87179460, 3971.53846099, 4111.66666639, 4186.79487166, 4144.87179467,12.0
4104.10256383, 4127.82051255, 4132.43589716, 4155.25641005, 4117.56410229, 4164.10256390, 4140.51282031, 4119.74358947, 4119.61538434, 4130.12820485, 3990.25640970, 4133.07692280, 4194.99999986, 4142.56410236,12.0
4118.71794844, 4124.23076896, 4134.23076896, 4150.38461518, 4125.51282024, 4160.76923056, 4134.74358947, 4136.53846133, 4130.51282024, 4131.28205101, 3990.38461483, 4131.15384588, 4195.64102551, 4151.41025621,12.0
4108.20512793, 4124.48717921, 4135.38461518, 4153.33333313, 4119.48717921, 4157.94871774, 4137.30769210, 4150.25641005, 4141.53846133, 4130.76923050, 3988.58974304, 4131.66666639, 4195.76923063, 4143.33333313,12.0
4118.33333306, 4151.66666646, 4156.41025621, 4177.30769217, 4122.82051255, 4167.82051262, 4168.46153833, 4175.51282038, 4164.23076903, 4127.43589716, 4003.97435842, 4159.99999980, 4205.38461532, 4147.43589723,12.0
4115.51282024, 4161.28205108, 4159.99999980, 4182.30769217, 4122.69230742, 4172.05128192, 4181.53846140, 4196.41025628, 4185.38461525, 4127.56410229, 4009.10256362, 4173.58974345, 4209.23076917, 4146.92307672,12.0
4099.48717914, 4159.35897415, 4151.28205108, 4182.69230756, 4118.84615357, 4166.41025621, 4163.46153826, 4189.61538448, 4197.30769217, 4130.12820485, 4006.02564054, 4165.38461518, 4208.07692301, 4142.56410236,12.0
4120.76923050, 4161.66666646, 4156.15384595, 4190.64102551, 4126.02564075, 4173.71794858, 4156.41025621, 4179.48717935, 4184.48717935, 4129.99999973, 4009.87179439, 4163.20512800, 4205.89743583, 4151.66666646,12.0
4105.51282024, 4154.23076903, 4148.97435877, 4184.99999986, 4120.89743562, 4167.30769210, 4155.89743569, 4166.92307672, 4157.82051262, 4129.10256383, 4008.84615336, 4162.43589723, 4197.94871781, 4141.15384595,12.0
4109.23076896, 4151.15384595, 4147.94871774, 4177.56410243, 4127.43589716, 4146.41025621, 4163.07692287, 4164.74358954, 4163.33333313, 4132.56410229, 4005.38461490, 4160.89743569, 4202.94871788, 4144.99999980,12.0
4121.15384588, 4149.87179467, 4152.30769210, 4177.43589730, 4129.23076896, 4136.28205108, 4170.64102551, 4169.35897422, 4163.84615364, 4131.02564075, 3998.33333278, 4157.17948697, 4203.46153840, 4148.20512800,12.0
4106.66666639, 4135.76923056, 4144.99999980, 4164.87179467, 4119.61538434, 4121.53846126, 4149.10256390, 4144.87179467, 4134.23076896, 4126.28205101, 3992.05128150, 4144.74358954, 4183.33333320, 4138.07692287,12.0
4122.69230742, 4123.97435870, 4135.12820485, 4146.15384595, 4124.87179460, 4108.84615357, 4128.07692280, 4132.30769203, 4123.46153819, 4130.25640998, 3995.64102509, 4133.84615357, 4173.33333320, 4146.66666646,12.0
4107.82051255, 4125.38461511, 4130.25640998, 4151.28205108, 4121.41025614, 4107.69230742, 4129.48717921, 4141.41025621, 4136.02564082, 4132.69230742, 3999.99999945, 4140.12820492, 4182.69230756, 4140.76923056,12.0
4108.58974332, 4136.92307672, 4149.61538441, 4168.58974345, 4125.38461511, 4119.10256383, 4139.99999980, 4146.28205108, 4146.79487159, 4129.10256383, 4006.41025593, 4158.97435877, 4192.05128192, 4142.94871774,12.0
4123.84615357, 4142.82051262, 4155.89743569, 4163.58974339, 4126.79487152, 4127.43589716, 4140.89743569, 4152.05128185, 4144.48717928, 4129.48717921, 4007.43589695, 4161.92307672, 4188.46153833, 4148.84615364,12.0
4103.58974332, 4142.43589723, 4137.82051262, 4155.64102544, 4116.53846126, 4111.15384588, 4120.76923050, 4137.17948697, 4135.64102544, 4131.66666639, 4001.02564047, 4151.53846133, 4182.30769217, 4141.02564082,12.0
4120.76923050, 4142.43589723, 4141.15384595, 4160.51282031, 4124.35897408, 4100.38461504, 4116.28205101, 4133.20512793, 4138.46153826, 4129.99999973, 4001.66666611, 4149.99999980, 4183.46153833, 4151.28205108,12.0
4116.53846126, 4136.66666646, 4139.35897415, 4153.46153826, 4122.56410229, 4101.15384581, 4122.43589716, 4141.15384595, 4137.69230749, 4129.23076896, 4004.10256362, 4147.69230749, 4179.23076910, 4145.89743569,12.0
4107.43589716, 4124.87179460, 4118.84615357, 4134.74358947, 4121.02564075, 4099.61538427, 4105.12820485, 4119.48717921, 4119.74358947, 4130.89743562, 3995.12820458, 4127.82051255, 4168.97435884, 4141.02564082,12.0
4121.79487152, 4142.94871774, 4126.53846126, 4147.17948697, 4127.17948691, 4123.46153819, 4130.38461511, 4136.66666646, 4139.74358954, 4131.02564075, 3998.33333278, 4137.82051262, 4179.87179474, 4148.46153826,12.0
4102.94871767, 4148.84615364, 4132.69230742, 4144.87179467, 4120.25640998, 4112.82051255, 4144.48717928, 4144.23076903, 4147.82051262, 4129.74358947, 4003.07692252, 4146.02564082, 4183.84615371, 4142.17948697,12.0
4113.20512793, 4098.71794837, 4100.38461504, 4094.10256376, 4126.28205101, 4062.05128164, 4074.87179453, 4079.23076889, 4078.33333299, 4130.64102537, 3981.92307637, 4089.99999966, 4153.33333313, 4148.84615364,12.0
4111.66666639, 4096.79487145, 4093.84615350, 4104.48717921, 4125.51282024, 4081.41025607, 4063.97435856, 4071.15384581, 4068.58974318, 4132.69230742, 3980.89743535, 4082.69230735, 4146.28205108, 4142.56410236,12.0
4097.82051248, 4166.41025621, 4142.30769210, 4171.66666653, 4119.10256383, 4138.84615364, 4142.17948697, 4146.15384595, 4148.07692287, 4131.66666639, 4009.87179439, 4154.35897415, 4180.51282038, 4139.87179467,12.0
4120.38461511, 4192.17948704, 4166.92307672, 4179.10256397, 4126.53846126, 4148.58974339, 4180.38461525, 4191.53846140, 4177.30769217, 4129.87179460, 4020.51282003, 4179.74358961, 4197.05128192, 4153.20512800,12.0
4101.92307658, 4139.61538441, 4132.82051255, 4133.46153819, 4123.71794844, 4107.82051255, 4134.23076896, 4144.48717928, 4126.41025614, 4129.99999973, 4003.84615329, 4138.07692287, 4170.25641012, 4139.87179467,12.0
4106.15384588, 4107.30769203, 4118.46153819, 4116.53846126, 4126.79487152, 4078.33333299, 4087.82051248, 4086.41025607, 4082.17948684, 4130.51282024, 3991.02564047, 4112.43589716, 4150.51282031, 4143.46153826,12.0
4121.53846126, 4127.30769203, 4126.28205101, 4128.97435870, 4126.41025614, 4091.79487145, 4088.58974325, 4095.25640991, 4082.56410222, 4128.71794844, 3992.43589688, 4116.79487152, 4155.25641005, 4147.30769210,12.0
4101.15384581, 4131.92307665, 4119.74358947, 4129.61538434, 4121.41025614, 4098.97435863, 4097.30769196, 4113.58974332, 4100.25640991, 4127.69230742, 3995.38461483, 4115.12820485, 4153.33333313, 4134.10256383,12.0
4120.89743562, 4120.25640998, 4120.64102537, 4127.43589716, 4128.33333306, 4093.58974325, 4112.05128178, 4116.92307665, 4111.66666639, 4131.53846126, 3993.71794817, 4107.82051255, 4149.99999980, 4146.41025621,12.0
4115.51282024, 4127.30769203, 4125.12820485, 4136.02564082, 4121.92307665, 4098.97435863, 4123.07692280, 4113.58974332, 4106.53846126, 4133.07692280, 3991.66666611, 4115.89743562, 4155.12820492, 4143.84615364,12.0
4105.89743562, 4125.12820485, 4125.12820485, 4123.20512793, 4124.23076896, 4099.99999966, 4111.53846126, 4104.87179460, 4097.43589709, 4128.84615357, 3993.84615329, 4121.66666639, 4154.99999980, 4142.82051262,12.0
4129.87179460, 4089.61538427, 4108.71794844, 4088.20512786, 4129.23076896, 4083.58974325, 4087.69230735, 4095.25640991, 4083.84615350, 4127.43589716, 3986.66666611, 4092.17948684, 4138.58974339, 4157.05128185,12.0
4102.69230742, 4099.48717914, 4106.66666639, 4117.17948691, 4114.87179460, 4089.23076889, 4099.35897402, 4103.97435870, 4089.99999966, 4128.20512793, 3986.79487124, 4092.56410222, 4137.05128185, 4142.94871774,12.0
4091.41025607, 4156.28205108, 4139.61538441, 4187.69230756, 4117.56410229, 4120.89743562, 4129.23076896, 4132.30769203, 4124.61538434, 4129.23076896, 4007.69230721, 4142.94871774, 4156.41025621, 4140.64102544,12.0
4126.92307665, 4139.35897415, 4131.28205101, 4170.25641012, 4126.66666639, 4108.71794844, 4097.30769196, 4116.15384588, 4113.71794844, 4130.64102537, 3997.56410201, 4126.15384588, 4149.23076903, 4157.82051262,12.0
4119.48717921, 4096.79487145, 4103.84615357, 4123.84615357, 4122.05128178, 4085.12820478, 4081.02564068, 4086.41025607, 4082.82051248, 4130.76923050, 3974.87179432, 4083.20512786, 4133.20512793, 4149.23076903,12.0
4098.58974325, 4126.02564075, 4126.66666639, 4147.05128185, 4121.92307665, 4111.28205101, 4129.35897408, 4114.87179460, 4106.41025614, 4129.48717921, 3992.17948663, 4119.99999973, 4144.87179467, 4138.07692287,12.0
4107.82051255, 4147.30769210, 4143.46153826, 4163.46153826, 4124.99999973, 4122.17948691, 4126.92307665, 4132.69230742, 4127.30769203, 4129.87179460, 4004.35897388, 4145.76923056, 4150.64102544, 4142.94871774,12.0
4117.69230742, 4108.46153819, 4115.64102537, 4125.89743562, 4125.25640998, 4091.53846119, 4073.84615350, 4095.38461504, 4098.58974325, 4132.82051255, 3978.46153791, 4098.46153812, 4130.64102537, 4147.17948697,12.0
4105.38461511, 4092.17948684, 4100.64102530, 4109.61538434, 4120.38461511, 4081.53846119, 4068.84615343, 4080.76923043, 4081.92307658, 4132.30769203, 3967.30769169, 4077.05128171, 4119.61538434, 4140.38461518,12.0
4107.94871767, 4134.10256383, 4131.53846126, 4150.76923056, 4125.38461511, 4107.17948691, 4108.07692280, 4120.64102537, 4108.84615357, 4130.51282024, 3990.89743535, 4118.84615357, 4134.74358947, 4142.30769210,12.0
4122.94871767, 4163.33333313, 4159.23076903, 4186.79487166, 4129.35897408, 4132.56410229, 4142.69230749, 4157.56410236, 4138.07692287, 4131.92307665, 4008.46153798, 4156.41025621, 4149.87179467, 4147.43589723,12.0
4107.94871767, 4138.71794851, 4140.64102544, 4161.92307672, 4122.43589716, 4115.51282024, 4132.82051255, 4137.17948697, 4122.56410229, 4131.28205101, 3995.64102509, 4138.58974339, 4141.28205108, 4139.23076903,12.0
4115.38461511, 4106.15384588, 4113.84615357, 4121.92307665, 4127.43589716, 4077.82051248, 4087.94871761, 4090.25640991, 4074.48717914, 4130.12820485, 3973.07692252, 4091.66666632, 4121.53846126, 4146.41025621,12.0
4114.74358947, 4114.99999973, 4118.84615357, 4134.23076896, 4124.23076896, 4084.61538427, 4077.69230735, 4090.12820478, 4073.58974325, 4131.53846126, 3977.82051227, 4089.74358940, 4119.99999973, 4144.10256390,12.0
4108.71794844, 4145.76923056, 4142.82051262, 4167.43589723, 4122.05128178, 4119.48717921, 4105.51282024, 4119.74358947, 4120.76923050, 4131.15384588, 3998.46153791, 4127.30769203, 4134.74358947, 4139.99999980,12.0
4118.33333306, 4162.30769210, 4154.74358954, 4178.07692294, 4124.48717921, 4141.02564082, 4139.10256390, 4144.87179467, 4145.89743569, 4129.23076896, 4004.61538413, 4149.87179467, 4145.51282031, 4148.07692287,12.0
4108.71794844, 4156.79487159, 4148.46153826, 4170.64102551, 4118.20512793, 4131.79487152, 4143.33333313, 4144.48717928, 4133.46153819, 4129.61538434, 4001.92307637, 4146.02564082, 4140.51282031, 4143.58974339,12.0
4134.48717921, 4125.89743562, 4136.02564082, 4142.69230749, 4128.07692280, 4106.02564075, 4107.17948691, 4119.23076896, 4101.66666632, 4130.38461511, 3991.28205073, 4117.05128178, 4122.05128178, 4152.69230749,12.0
4086.92307658, 4113.07692280, 4118.71794844, 4128.84615357, 4115.38461511, 4097.69230735, 4092.69230735, 4106.66666639, 4092.69230735, 4129.10256383, 3981.28205073, 4104.48717921, 4112.94871767, 4131.92307665,12.0
4077.17948684, 4144.61538441, 4134.99999973, 4150.38461518, 4114.87179460, 4115.12820485, 4118.07692280, 4117.94871767, 4119.23076896, 4129.87179460, 3992.69230714, 4129.23076896, 4127.05128178, 4138.20512800,12.0
4156.53846133, 4155.12820492, 4156.66666646, 4157.69230749, 4138.07692287, 4136.41025621, 4136.79487159, 4146.28205108, 4130.89743562, 4132.94871767, 4001.28205073, 4139.48717928, 4136.66666646, 4172.05128192,12.0
4102.17948684, 4137.43589723, 4139.23076903, 4149.10256390, 4119.87179460, 4122.30769203, 4124.10256383, 4135.89743569, 4117.56410229, 4130.76923050, 3993.07692252, 4127.56410229, 4127.17948691, 4140.25641005,12.0
4096.53846119, 4131.15384588, 4137.17948697, 4145.38461518, 4120.51282024, 4109.48717921, 4104.35897408, 4101.41025607, 4106.66666639, 4129.10256383, 3993.46153791, 4121.66666639, 4122.30769203, 4141.28205108,12.0
4129.35897408, 4119.23076896, 4130.64102537, 4129.74358947, 4128.33333306, 4107.56410229, 4097.56410222, 4096.79487145, 4090.51282017, 4131.53846126, 3990.25640970, 4109.23076896, 4115.51282024, 4151.66666646,12.0
4093.33333299, 4105.76923050, 4119.74358947, 4126.92307665, 4120.76923050, 4093.58974325, 4106.02564075, 4099.35897402, 4088.07692273, 4132.17948691, 3982.94871740, 4104.10256383, 4107.69230742, 4136.66666646,12.0
4118.46153819, 4124.87179460, 4145.64102544, 4155.76923056, 4132.43589716, 4120.38461511, 4130.38461511, 4123.46153819, 4119.35897408, 4132.30769203, 3998.97435842, 4132.30769203, 4122.05128178, 4150.76923056,12.0
4110.25640998, 4144.23076903, 4155.64102544, 4170.38461525, 4126.92307665, 4141.53846133, 4131.41025614, 4134.48717921, 4125.64102537, 4130.12820485, 4012.05128157, 4152.69230749, 4131.66666639, 4140.51282031,12.0
4106.02564075, 4119.35897408, 4140.64102544, 4148.84615364, 4125.38461511, 4107.69230742, 4105.89743562, 4108.46153819, 4101.02564068, 4129.74358947, 4003.07692252, 4128.84615357, 4117.05128178, 4140.64102544,12.0
4126.02564075, 4091.15384581, 4123.58974332, 4123.84615357, 4128.71794844, 4092.05128171, 4091.02564068, 4099.87179453, 4089.10256376, 4132.82051255, 3991.53846099, 4094.61538427, 4102.17948684, 4150.25641005,12.0
4109.10256383, 4117.17948691, 4129.87179460, 4141.28205108, 4123.97435870, 4120.38461511, 4109.87179460, 4113.20512793, 4100.64102530, 4129.99999973, 3994.48717894, 4115.25640998, 4109.74358947, 4138.46153826,12.0
4117.43589716, 4148.84615364, 4161.53846133, 4181.92307679, 4128.58974332, 4147.30769210, 4153.84615364, 4137.82051262, 4133.33333306, 4126.28205101, 4014.48717900, 4168.97435884, 4130.64102537, 4143.84615364,12.0
4117.82051255, 4113.97435870, 4150.64102544, 4167.56410236, 4124.99999973, 4125.38461511, 4139.35897415, 4129.61538434, 4129.87179460, 4127.94871767, 4010.12820465, 4150.64102544, 4122.30769203, 4147.05128185,12.0
4116.79487152, 4066.28205087, 4112.82051255, 4111.15384588, 4123.97435870, 4100.25640991, 4087.17948684, 4096.41025607, 4082.30769196, 4130.38461511, 3973.84615329, 4086.53846119, 4092.30769196, 4146.15384595,12.0
4094.87179453, 4069.48717907, 4106.79487152, 4101.15384581, 4118.33333306, 4107.56410229, 4089.99999966, 4092.17948684, 4073.58974325, 4129.87179460, 3969.99999938, 4087.43589709, 4087.82051248, 4136.66666646,12.0
4121.79487152, 4078.97435863, 4132.30769203, 4116.66666639, 4124.61538434, 4106.53846126, 4109.87179460, 4094.61538427, 4093.46153812, 4130.51282024, 4002.43589688, 4121.41025614, 4105.38461511, 4154.61538441,12.0
4139.61538441, 4070.51282017, 4141.53846133, 4107.17948691, 4130.76923050, 4109.23076896, 4116.02564075, 4107.82051255, 4093.97435863, 4131.02564075, 4015.76923029, 4128.46153819, 4112.30769203, 4158.58974339,12.0
4077.69230735, 4073.20512786, 4128.07692280, 4094.99999966, 4116.79487152, 4123.58974332, 4126.15384588, 4121.53846126, 4105.89743562, 4128.07692280, 4014.99999952, 4131.79487152, 4112.05128178, 4128.33333306,12.0
4135.64102544, 4061.92307651, 4127.05128178, 4079.48717914, 4130.25640998, 4127.56410229, 4133.58974332, 4118.58974332, 4118.84615357, 4129.74358947, 4026.02564054, 4122.82051255, 4117.56410229, 4158.33333313,12.0
4111.28205101, 4021.15384567, 4099.23076889, 4043.07692266, 4121.53846126, 4097.82051248, 4104.61538434, 4101.41025607, 4092.43589709, 4131.28205101, 4015.51282003, 4084.35897402, 4106.53846126, 4144.87179467,12.0
4083.58974325, 4010.51282003, 4094.61538427, 4030.64102516, 4120.51282024, 4078.33333299, 4074.10256376, 4087.82051248, 4077.56410222, 4129.35897408, 4002.30769176, 4070.51282017, 4097.69230735, 4138.20512800,12.0
4151.41025621, 4030.25640977, 4120.64102537, 4051.79487138, 4135.76923056, 4116.15384588, 4103.20512793, 4112.82051255, 4100.76923043, 4129.61538434, 4013.20512772, 4090.76923043, 4106.28205101, 4162.17948697,12.0
4085.64102530, 4056.66666625, 4127.69230742, 4085.12820478, 4113.58974332, 4146.79487159, 4142.56410236, 4134.48717921, 4133.46153819, 4128.46153819, 4031.53846106, 4127.30769203, 4119.23076896, 4126.66666639,12.0
4116.28205101, 4077.30769196, 4155.25641005, 4108.97435870, 4129.10256383, 4153.07692287, 4161.02564082, 4157.82051262, 4159.74358954, 4129.74358947, 4050.64102523, 4158.07692287, 4136.28205108, 4147.56410236,12.0
4126.79487152, 4012.43589695, 4108.97435870, 4043.46153805, 4130.51282024, 4104.74358947, 4110.89743562, 4121.41025614, 4098.97435863, 4131.92307665, 4018.07692259, 4088.46153812, 4103.71794844, 4147.82051262,12.0
4136.28205108, 4068.97435856, 4143.46153826, 4104.23076896, 4128.20512793, 4144.35897415, 4152.30769210, 4146.53846133, 4160.76923056, 4129.99999973, 4039.61538420, 4145.64102544, 4120.38461511, 4156.02564082,12.0
4102.17948684, 4035.38461490, 4110.76923050, 4075.25640991, 4118.71794844, 4112.56410229, 4108.58974332, 4113.46153819, 4107.94871767, 4129.74358947, 4015.64102516, 4099.35897402, 4102.05128171, 4140.76923056,12.0
4110.89743562, 4061.53846113, 4128.33333306, 4104.35897408, 4119.35897408, 4127.56410229, 4124.10256383, 4137.43589723, 4135.25640998, 4129.99999973, 4030.76923029, 4125.76923050, 4115.64102537, 4146.15384595,12.0
4129.99999973, 4068.07692266, 4133.71794844, 4110.25640998, 4125.89743562, 4144.74358954, 4139.48717928, 4143.58974339, 4146.66666646, 4132.05128178, 4037.30769189, 4136.02564082, 4117.56410229, 4150.76923056,12.0
4092.82051248, 4040.89743548, 4109.48717921, 4086.15384581, 4122.17948691, 4124.23076896, 4107.43589716, 4103.46153819, 4100.12820478, 4132.17948691, 4015.76923029, 4103.20512793, 4097.17948684, 4136.53846133,12.0
4130.25640998, 4023.46153798, 4109.87179460, 4072.56410222, 4131.66666639, 4121.41025614, 4101.15384581, 4096.41025607, 4090.76923043, 4131.41025614, 4006.41025593, 4092.94871761, 4093.84615350, 4151.79487159,12.0
4108.84615357, 4013.33333285, 4102.17948684, 4064.87179446, 4123.20512793, 4121.92307665, 4116.28205101, 4119.87179460, 4121.28205101, 4130.64102537, 4008.33333285, 4096.66666632, 4091.92307658, 4142.43589723,12.0
4106.53846126, 4022.69230721, 4104.99999973, 4072.94871761, 4122.30769203, 4113.97435870, 4112.17948691, 4122.05128178, 4127.05128178, 4129.35897408, 4014.23076875, 4097.17948684, 4088.58974325, 4143.20512800,12.0
4132.69230742, 4054.99999959, 4127.94871767, 4105.76923050, 4129.48717921, 4140.38461518, 4116.79487152, 4128.58974332, 4131.41025614, 4129.35897408, 4028.71794824, 4119.23076896, 4105.38461511, 4148.84615364,12.0
4094.87179453, 4073.84615350, 4135.64102544, 4127.69230742, 4121.41025614, 4148.07692287, 4130.12820485, 4132.05128178, 4143.20512800, 4129.74358947, 4038.58974318, 4144.87179467, 4114.99999973, 4135.25640998,12.0
4125.64102537, 4058.84615343, 4133.33333306, 4112.43589716, 4129.35897408, 4125.64102537, 4129.23076896, 4119.87179460, 4124.99999973, 4130.38461511, 4027.43589695, 4131.53846126, 4104.35897408, 4149.48717928,12.0
4115.25640998, 4059.23076882, 4130.25640998, 4105.38461511, 4123.33333306, 4129.48717921, 4128.71794844, 4120.38461511, 4117.82051255, 4129.48717921, 4020.38461490, 4128.71794844, 4106.28205101, 4143.97435877,12.0
4102.30769196, 4084.23076889, 4146.15384595, 4132.17948691, 4117.82051255, 4144.74358954, 4137.69230749, 4129.74358947, 4137.82051262, 4127.43589716, 4040.12820472, 4156.53846133, 4117.43589716, 4140.89743569,12.0
4134.48717921, 4079.99999966, 4154.10256390, 4142.43589723, 4126.28205101, 4150.51282031, 4146.53846133, 4141.53846133, 4135.64102544, 4127.94871767, 4048.58974318, 4157.94871774, 4113.33333306, 4152.56410236,12.0
4100.38461504, 4059.10256369, 4136.53846133, 4124.74358947, 4118.71794844, 4141.53846133, 4125.25640998, 4121.66666639, 4114.61538434, 4128.58974332, 4031.66666618, 4140.12820492, 4102.43589709, 4139.61538441,12.0
4119.35897408, 4058.33333292, 4129.87179460, 4112.05128178, 4123.07692280, 4119.74358947, 4094.10256376, 4086.79487145, 4106.02564075, 4127.94871767, 4020.12820465, 4130.25640998, 4095.76923043, 4143.58974339,12.0
4122.05128178, 4072.56410222, 4134.99999973, 4126.66666639, 4123.71794844, 4124.48717921, 4119.35897408, 4114.23076896, 4123.71794844, 4127.43589716, 4029.10256362, 4141.92307672, 4098.46153812, 4146.28205108,12.0
4101.79487145, 4104.23076896, 4161.15384595, 4166.92307672, 4119.48717921, 4164.10256390, 4170.64102551, 4166.41025621, 4157.94871774, 4127.69230742, 4052.94871754, 4181.02564089, 4117.94871767, 4145.51282031,12.0
4124.35897408, 4115.38461511, 4173.20512807, 4178.07692294, 4125.25640998, 4180.12820499, 4173.33333320, 4177.30769217, 4171.79487166, 4128.33333306, 4059.35897395, 4194.61538448, 4128.20512793, 4148.71794851,12.0
4097.05128171, 4088.84615350, 4142.30769210, 4150.12820492, 4118.58974332, 4153.33333313, 4141.79487159, 4153.07692287, 4157.30769210, 4128.97435870, 4043.07692266, 4165.12820492, 4114.10256383, 4136.28205108,12.0
4125.38461511, 4089.61538427, 4146.28205108, 4143.07692287, 4125.25640998, 4159.87179467, 4151.53846133, 4151.66666646, 4158.20512800, 4130.38461511, 4044.87179446, 4159.10256390, 4112.30769203, 4151.41025621,12.0
4124.23076896, 4104.10256383, 4163.58974339, 4156.02564082, 4123.46153819, 4185.64102551, 4178.84615371, 4169.99999986, 4169.99999986, 4132.43589716, 4055.38461497, 4177.94871781, 4122.56410229, 4146.28205108,12.0
4092.17948684, 4063.33333292, 4136.41025621, 4129.61538434, 4115.38461511, 4142.05128185, 4130.76923050, 4128.58974332, 4129.99999973, 4130.76923050, 4034.35897388, 4146.53846133, 4107.82051255, 4133.84615357,12.0
4138.07692287, 4037.30769189, 4117.05128178, 4097.56410222, 4127.43589716, 4108.20512793, 4091.15384581, 4100.89743555, 4085.51282017, 4128.58974332, 4013.33333285, 4106.15384588, 4090.89743555, 4154.61538441,12.0
4085.51282017, 4068.97435856, 4113.20512793, 4107.69230742, 4116.02564075, 4124.48717921, 4114.10256383, 4120.25640998, 4102.69230742, 4128.33333306, 4022.05128157, 4116.15384588, 4091.53846119, 4134.10256383,12.0
4132.17948691, 4062.43589702, 4111.92307665, 4102.05128171, 4129.10256383, 4117.05128178, 4097.05128171, 4096.79487145, 4101.28205094, 4128.84615357, 4021.79487131, 4101.79487145, 4086.92307658, 4156.79487159,12.0
4141.66666646, 4042.05128164, 4094.61538427, 4088.58974325, 4124.10256383, 4102.43589709, 4083.84615350, 4094.35897402, 4078.97435863, 4127.69230742, 4005.89743541, 4081.15384581, 4078.46153812, 4147.82051262,12.0
3976.79487124, 4101.02564068, 4101.15384581, 4131.28205101, 4090.64102530, 4106.66666639, 4122.56410229, 4122.82051255, 4127.56410229, 4124.23076896, 4026.02564054, 4136.79487159, 4094.61538427, 4087.43589709,12.0
4142.30769210, 4166.79487159, 4173.71794858, 4176.28205115, 4146.15384595, 4158.46153826, 4166.79487159, 4156.41025621, 4192.30769217, 4132.43589716, 4069.35897395, 4188.97435884, 4132.69230742, 4178.84615371,12.0
4206.15384609, 4158.07692287, 4167.43589723, 4162.94871774, 4145.89743569, 4191.79487166, 4174.10256397, 4184.87179474, 4174.87179474, 4139.35897415, 4053.33333292, 4166.79487159, 4129.99999973, 4181.28205115,12.0
4064.61538420, 4150.64102544, 4129.48717921, 4147.56410236, 4103.97435870, 4154.61538441, 4151.79487159, 4158.84615364, 4139.99999980, 4128.97435870, 4032.82051234, 4151.53846133, 4113.84615357, 4116.02564075,12.0
4131.79487152, 4161.53846133, 4146.28205108, 4146.02564082, 4131.15384588, 4140.38461518, 4148.58974339, 4147.05128185, 4144.74358954, 4125.76923050, 4048.33333292, 4160.89743569, 4120.64102537, 4157.69230749,12.0
4124.48717921, 4137.94871774, 4129.10256383, 4120.89743562, 4125.12820485, 4140.89743569, 4138.58974339, 4155.12820492, 4152.30769210, 4131.28205101, 4017.82051234, 4138.71794851, 4110.38461511, 4145.64102544,12.0
4117.43589716, 4126.15384588, 4125.51282024, 4113.46153819, 4120.38461511, 4142.05128185, 4135.64102544, 4159.87179467, 4154.35897415, 4131.02564075, 4038.71794830, 4123.33333306, 4104.87179460, 4142.69230749,12.0
4122.82051255, 4142.17948697, 4136.02564082, 4131.28205101, 4124.35897408, 4159.99999980, 4156.53846133, 4165.64102544, 4145.38461518, 4126.92307665, 4172.69230756, 4139.23076903, 4110.25640998, 4146.02564082,12.0
4105.38461511, 4136.79487159, 4129.35897408, 4124.35897408, 4119.87179460, 4142.30769210, 4144.23076903, 4127.56410229, 4123.46153819, 4132.17948691, 4243.07692308, 4135.89743569, 4104.35897408, 4144.35897415,12.0
4134.87179460, 4114.35897408, 4123.58974332, 4106.41025614, 4125.89743562, 4122.43589716, 4122.94871767, 4104.99999973, 4101.53846119, 4139.99999980, 4189.87179474, 4112.05128178, 4093.46153812, 4157.82051262,12.0
4103.46153819, 4123.07692280, 4123.84615357, 4110.51282024, 4118.58974332, 4136.79487159, 4134.10256383, 4122.69230742, 4091.41025607, 4134.10256383, 4140.76923056, 4118.20512793, 4091.28205094, 4141.92307672,12.0
4124.74358947, 4138.46153826, 4138.46153826, 4109.48717921, 4125.38461511, 4138.84615364, 4142.17948697, 4127.56410229, 4111.02564075, 4132.94871767, 4132.82051255, 4133.46153819, 4101.28205094, 4154.48717928,12.0
4119.10256383, 4115.89743562, 4127.17948691, 4097.82051248, 4123.84615357, 4113.84615357, 4113.71794844, 4113.71794844, 4128.84615357, 4135.89743569, 4113.46153819, 4117.43589716, 4101.92307658, 4142.82051262,12.0
4107.82051255, 4113.46153819, 4126.79487152, 4112.94871767, 4120.12820485, 4118.20512793, 4104.99999973, 4117.69230742, 4120.89743562, 4133.84615357, 4116.28205101, 4125.12820485, 4108.33333306, 4137.43589723,12.0
4134.23076896, 4123.33333306, 4140.12820492, 4104.23076896, 4126.41025614, 4141.02564082, 4129.23076896, 4151.41025621, 4132.94871767, 4135.25640998, 4128.97435870, 4147.82051262, 4120.89743562, 4154.10256390,12.0
4102.30769196, 4091.28205094, 4121.41025614, 4048.46153805, 4119.23076896, 4125.38461511, 4127.69230742, 4146.53846133, 4154.61538441, 4134.48717921, 4116.53846126, 4125.89743562, 4114.87179460, 4139.23076903,12.0
4122.43589716, 4058.84615343, 4113.84615357, 4023.46153798, 4125.51282024, 4111.53846126, 4115.64102537, 4115.38461511, 4133.97435870, 4134.23076896, 4108.97435870, 4100.89743555, 4105.38461511, 4147.69230749,12.0
4122.69230742, 4057.94871754, 4112.56410229, 4031.53846106, 4126.02564075, 4119.99999973, 4116.79487152, 4123.71794844, 4120.38461511, 4134.74358947, 4089.61538427, 4104.10256383, 4101.66666632, 4145.38461518,12.0
4105.12820485, 4076.79487145, 4119.99999973, 4042.69230728, 4122.05128178, 4130.12820485, 4129.74358947, 4148.71794851, 4135.76923056, 4134.48717921, 4065.38461497, 4122.82051255, 4110.76923050, 4137.30769210,12.0
4131.28205101, 4071.28205094, 4128.71794844, 4043.97435856, 4130.64102537, 4141.53846133, 4145.89743569, 4151.92307672, 4123.33333306, 4134.48717921, 4054.74358933, 4125.76923050, 4118.84615357, 4148.97435877,12.0
4107.17948691, 4043.58974318, 4109.35897408, 4029.10256362, 4122.82051255, 4121.28205101, 4129.10256383, 4127.05128178, 4113.07692280, 4134.48717921, 4043.58974318, 4103.07692280, 4104.61538434, 4141.66666646,12.0
4121.79487152, 4047.17948677, 4110.12820485, 4028.84615336, 4123.33333306, 4107.69230742, 4117.94871767, 4124.74358947, 4134.99999973, 4134.48717921, 4036.66666618, 4096.79487145, 4097.43589709, 4147.69230749,12.0
4122.30769203, 4067.17948677, 4121.92307665, 4046.79487138, 4124.99999973, 4134.48717921, 4144.23076903, 4151.41025621, 4135.38461518, 4134.48717921, 4046.15384574, 4113.07692280, 4103.46153819, 4146.15384595,12.0
4103.58974332, 4076.79487145, 4127.43589716, 4068.33333292, 4119.23076896, 4144.23076903, 4145.25641005, 4141.28205108, 4126.66666639, 4134.48717921, 4066.28205087, 4127.94871767, 4114.87179460, 4140.12820492,12.0
4135.38461518, 4106.66666639, 4147.05128185, 4093.33333299, 4126.53846126, 4147.17948697, 4147.69230749, 4141.79487159, 4155.89743569, 4134.48717921, 4076.53846119, 4148.20512800, 4149.99999980, 4151.02564082,12.0
4110.64102537, 4100.64102530, 4143.07692287, 4084.48717914, 4122.94871767, 4149.48717928, 4169.99999986, 4162.30769210, 4164.61538441, 4134.48717921, 4079.10256376, 4148.71794851, 4144.10256390, 4145.64102544,12.0
4118.20512793, 4048.97435856, 4122.17948691, 4052.30769189, 4124.87179460, 4130.89743562, 4141.28205108, 4131.66666639, 4119.23076896, 4134.48717921, 4073.71794837, 4108.46153819, 4087.94871761, 4148.58974339,12.0
4129.87179460, 4072.17948684, 4124.10256383, 4071.53846119, 4127.82051255, 4129.99999973, 4121.53846126, 4114.61538434, 4102.43589709, 4134.48717921, 4038.20512779, 4107.69230742, 4114.10256383, 4151.53846133,12.0
4107.05128178, 4107.56410229, 4130.64102537, 4102.69230742, 4121.53846126, 4141.41025621, 4148.46153826, 4140.76923056, 4133.07692280, 4134.48717921, 3989.74358919, 4133.71794844, 4158.71794851, 4145.25641005,12.0
4133.71794844, 4061.53846113, 4111.41025614, 4080.51282017, 4125.76923050, 4131.53846126, 4136.02564082, 4136.28205108, 4135.64102544, 4134.48717921, 3996.41025586, 4098.46153812, 4110.25640998, 4146.02564082,12.0
4109.74358947, 4054.74358933, 4104.10256383, 4064.48717907, 4119.23076896, 4122.17948691, 4108.97435870, 4127.43589716, 4125.51282024, 4134.48717921, 3942.43589681, 4088.71794837, 4142.69230749, 4142.82051262,12.0
4107.69230742, 4089.23076889, 4132.69230742, 4088.20512786, 4120.89743562, 4131.79487152, 4129.99999973, 4144.87179467, 4138.71794851, 4134.48717921, 3727.17948607, 4135.25640998, 4233.46153840, 4143.84615364,12.0
4123.07692280, 4069.10256369, 4132.94871767, 4104.35897408, 4127.05128178, 4129.35897408, 4138.20512800, 4138.46153826, 4132.17948691, 4134.48717921, 3941.02564040, 4135.25640998, 4210.12820506, 4144.99999980,12.0
4098.07692273, 4077.30769196, 4131.02564075, 4124.35897408, 4121.53846126, 4135.76923056, 4134.87179460, 4131.28205101, 4135.38461518, 4134.48717921, 4010.38461490, 4133.58974332, 4243.07692308, 4143.84615364,12.0
4117.05128178, 4128.84615357, 4159.35897415, 4146.92307672, 4127.56410229, 4163.33333313, 4161.53846133, 4149.87179467, 4162.30769210, 4134.48717921, 2616.92307345, 4167.43589723, 4333.97435919, 4143.33333313,12.0
4089.99999966, 4110.51282024, 4138.20512800, 4128.97435870, 4121.79487152, 4141.92307672, 4134.35897408, 4117.17948691, 4125.76923050, 4134.48717921, 878.20512105, 4134.61538434, 4276.53846161, 4143.97435877,12.0
4085.64102530, 4106.02564075, 4119.61538434, 4133.58974332, 4121.92307665, 4123.46153819, 4099.10256376, 4108.20512793, 4103.84615357, 4134.48717921, 546.53845369, 4096.92307658, 4257.69230770, 4148.07692287,12.0
4107.05128178, 4163.07692287, 4157.43589723, 4187.17948704, 4128.46153819, 4172.17948704, 4158.07692287, 4195.89743576, 4190.76923063, 4134.48717921, 840.12819791, 4153.97435877, 4393.97435926, 4145.51282031,12.0
4073.71794837, 4167.82051262, 4171.53846140, 4201.15384609, 4120.51282024, 4186.15384602, 4188.97435884, 4193.97435884, 4223.84615378, 4134.48717921, 723.20512077, 4190.51282038, 4454.74359016, 4145.76923056,12.0
4100.12820478, 4140.12820492, 4156.15384595, 4190.12820499, 4127.05128178, 4157.43589723, 4144.48717928, 4105.51282024, 4149.87179467, 4134.48717921, 662.82050525, 4159.23076903, 4422.05128240, 4147.69230749,12.0
4088.58974325, 4151.53846133, 4150.12820492, 4230.89743583, 4125.89743562, 4160.38461518, 4133.07692280, 4121.28205101, 4128.07692280, 4134.48717921, 792.17947989, 4155.76923056, 4439.87179529, 4144.35897415,12.0
4075.89743555, 4154.61538441, 4147.94871774, 4250.38461539, 4123.97435870, 4160.76923056, 4143.46153826, 4153.97435877, 4148.33333313, 4134.48717921, 805.25640296, 4157.94871774, 4449.23076965, 4145.12820492,12.0
4104.23076896, 4122.43589716, 4137.30769210, 4215.12820506, 4131.53846126, 4151.15384595, 4135.51282031, 4125.12820485, 4132.69230742, 4134.48717921, 804.23076194, 4133.20512793, 4410.51282086, 4144.23076903,12.0
4066.02564061, 4134.99999973, 4138.46153826, 4237.82051282, 4122.94871767, 4155.89743569, 4128.58974332, 4130.38461511, 4137.17948697, 4134.48717921, 803.97435168, 4137.82051262, 4392.94871823, 4144.23076903,12.0
4088.33333299, 4203.71794865, 4169.61538448, 4307.82051296, 4125.25640998, 4176.41025628, 4148.20512800, 4168.46153833, 4183.20512807, 4134.48717921, 804.61537732, 4180.51282038, 4442.43589786, 4148.84615364,12.0
4087.30769196, 4197.94871781, 4162.17948697, 4297.82051289, 4125.76923050, 4177.17948704, 4163.71794851, 4167.17948697, 4188.84615371, 4134.48717921, 803.71794143, 4178.07692294, 4453.97435940, 4146.41025621,12.0
4062.30769189, 4141.92307672, 4130.38461511, 4257.82051282, 4123.20512793, 4145.51282031, 4137.30769210, 4137.56410236, 4151.28205108, 4134.48717921, 803.97435168, 4130.89743562, 4373.58974387, 4148.71794851,12.0
4095.89743555, 4186.28205115, 4138.58974339, 4293.58974366, 4131.41025614, 4147.69230749, 4139.99999980, 4150.25641005, 4151.66666646, 4134.48717921, 803.97435168, 4129.48717921, 4375.89743618, 4152.43589723,12.0
4062.56410215, 4246.28205129, 4133.84615357, 4307.56410271, 4124.87179460, 4153.97435877, 4156.92307672, 4158.97435877, 4149.48717928, 4134.48717921, 803.84614655, 4129.99999973, 4435.00000042, 4145.25641005,12.0
4073.84615350, 4210.51282045, 4104.48717921, 4251.41025641, 4124.48717921, 4112.69230742, 4110.38461511, 4097.56410222, 4096.79487145, 4134.48717921, 803.97435168, 4076.92307658, 4398.58974394, 4143.71794851,12.0
4083.07692273, 4195.12820499, 4100.51282017, 4250.51282052, 4127.30769203, 4090.64102530, 4073.46153812, 4067.30769189, 4080.12820478, 4134.48717921, 803.97435168, 4066.79487138, 4381.53846182, 4145.38461518,12.0
4054.10256369, 4266.53846154, 4147.94871774, 4344.87179508, 4125.38461511, 4143.71794851, 4121.92307665, 4128.33333306, 4137.82051262, 4134.48717921, 803.97435168, 4151.41025621, 4454.23076965, 4144.10256390,12.0
4084.10256376, 4335.89743611, 4196.02564089, 4430.51282086, 4129.61538434, 4216.53846147, 4188.58974345, 4194.99999986, 4203.97435891, 4134.48717921, 803.97435168, 4218.97435891, 4486.92307741, 4143.20512800,12.0
4061.92307651, 4353.20512842, 4191.53846140, 4430.25641061, 4124.87179460, 4224.10256404, 4203.84615378, 4201.79487173, 4221.53846147, 4134.48717921, 803.97435168, 4211.53846147, 4479.61538511, 4144.48717928,12.0
4063.33333292, 4321.92307707, 4167.94871774, 4374.74359003, 4127.43589716, 4179.74358961, 4168.71794858, 4161.79487159, 4170.38461525, 4134.48717921, 803.97435168, 4172.43589730, 4480.00000049, 4147.56410236,12.0
4075.89743555, 4301.66666681, 4146.66666646, 4357.94871816, 4129.10256383, 4149.23076903, 4129.87179460, 4126.02564075, 4123.97435870, 4134.48717921, 803.97435168, 4139.99999980, 4450.12820555, 4146.66666646,12.0
4052.94871754, 4317.94871809, 4137.82051262, 4368.84615413, 4123.97435870, 4139.74358954, 4121.79487152, 4117.82051255, 4131.53846126, 4134.48717921, 803.97435168, 4130.89743562, 4440.25641068, 4145.64102544,12.0
4076.28205094, 4291.53846161, 4135.25640998, 4327.05128219, 4129.10256383, 4131.53846126, 4114.10256383, 4115.12820485, 4123.46153819, 4134.48717921, 803.97435168, 4116.15384588, 4449.23076965, 4144.99999980,12.0
4063.07692266, 4251.02564103, 4129.74358947, 4303.07692322, 4124.87179460, 4136.41025621, 4100.12820478, 4109.99999973, 4104.23076896, 4134.48717921, 803.97435168, 4112.69230742, 4431.79487222, 4147.17948697,12.0
4060.64102523, 4323.46153860, 4172.05128192, 4370.51282079, 4124.48717921, 4170.64102551, 4140.38461518, 4137.30769210, 4148.33333313, 4134.48717921, 803.97435168, 4178.33333320, 4462.56410298, 4147.82051262,12.0
4063.20512779, 4410.12820548, 4217.56410250, 4427.94871830, 4129.74358947, 4209.74358968, 4208.07692301, 4188.46153833, 4212.69230763, 4134.48717921, 803.97435168, 4243.33333334, 4515.12820569, 4144.35897415,12.0
4041.53846113, 4370.25641054, 4200.25641012, 4419.10256445, 4124.61538434, 4212.17948711, 4198.07692294, 4186.02564089, 4212.17948711, 4134.48717921, 803.97435168, 4225.25641019, 4510.38461594, 4146.02564082,12.0
4068.58974318, 4297.82051289, 4164.74358954, 4382.56410285, 4128.33333306, 4176.92307679, 4136.28205108, 4134.99999973, 4159.10256390, 4134.48717921, 803.97435168, 4168.20512807, 4488.84615434, 4145.12820492,12.0
4049.74358933, 4319.10256425, 4158.46153826, 4347.30769252, 4129.23076896, 4158.84615364, 4133.97435870, 4120.25640998, 4134.87179460, 4134.48717921, 803.97435168, 4157.56410236, 4484.35897485, 4143.46153826,12.0
4043.20512779, 4367.17948746, 4181.53846140, 4366.92307720, 4126.79487152, 4187.56410243, 4177.56410243, 4151.53846133, 4167.05128185, 4134.48717921, 803.97435168, 4192.30769217, 4481.28205177, 4147.82051262,12.0
4063.07692266, 4346.15384637, 4191.92307679, 4407.82051317, 4128.71794844, 4222.69230763, 4199.35897422, 4180.64102551, 4198.71794858, 4134.48717921, 803.97435168, 4213.07692301, 4488.97435946, 4145.25641005,12.0
4037.69230728, 4286.15384623, 4160.12820492, 4377.56410285, 4127.94871767, 4193.58974345, 4162.43589723, 4154.10256390, 4164.35897415, 4134.48717921, 803.97435168, 4167.94871774, 4473.84615434, 4142.69230749,12.0
4056.02564061, 4263.33333334, 4126.66666639, 4332.94871816, 4130.38461511, 4139.10256390, 4103.33333306, 4097.82051248, 4103.84615357, 4134.48717921, 803.97435168, 4099.48717914, 4440.00000042, 4146.02564082,12.0
4048.20512779, 4273.20512828, 4128.58974332, 4345.38461560, 4124.74358947, 4138.20512800, 4100.51282017, 4102.05128171, 4108.58974332, 4134.48717921, 803.97435168, 4107.43589716, 4456.41025683, 4142.94871774,12.0
4039.87179446, 4274.35897443, 4153.20512800, 4362.43589765, 4124.35897408, 4163.71794851, 4133.20512793, 4136.79487159, 4146.92307672, 4134.48717921, 803.97435168, 4157.82051262, 4486.15384664, 4143.97435877,12.0
4060.76923036, 4284.87179495, 4159.48717928, 4364.74358996, 4130.89743562, 4173.46153833, 4147.30769210, 4143.33333313, 4159.35897415, 4134.48717921, 803.97435168, 4159.99999980, 4465.89743639, 4146.66666646,12.0
4035.76923029, 4334.87179508, 4163.46153826, 4394.61538490, 4125.89743562, 4183.20512807, 4168.84615371, 4164.99999980, 4178.97435884, 4134.48717921, 803.97435168, 4167.82051262, 4448.07692350, 4143.46153826,12.0
4055.12820472, 4346.41025662, 4175.38461525, 4402.94871830, 4128.97435870, 4192.94871781, 4178.33333320, 4177.43589730, 4181.66666653, 4134.48717921, 803.84614655, 4189.87179474, 4448.33333375, 4145.38461518,12.0
4055.12820472, 4308.71794886, 4165.76923056, 4387.17948746, 4130.64102537, 4185.51282038, 4159.99999980, 4161.28205108, 4160.12820492, 4134.48717921, 803.33332604, 4181.66666653, 4451.79487222, 4148.20512800,12.0
4038.20512779, 4316.92307707, 4165.38461518, 4405.25641061, 4127.17948691, 4188.58974345, 4175.64102551, 4179.10256397, 4181.41025628, 4134.48717921, 803.33332604, 4179.99999986, 4468.46153895, 4150.12820492,12.0
4055.76923036, 4324.48717963, 4164.61538441, 4396.53846182, 4129.87179460, 4198.71794858, 4186.28205115, 4178.33333320, 4191.15384602, 4134.48717921, 804.35896707, 4172.05128192, 4453.46153888, 4149.35897415,12.0
4030.12820465, 4290.64102571, 4137.43589723, 4355.76923098, 4127.82051255, 4168.58974345, 4134.74358947, 4114.10256383, 4141.92307672, 4134.48717921, 802.05127476, 4134.87179460, 4406.92307727, 4145.64102544,12.0
4040.76923036, 4300.25641040, 4139.74358954, 4357.30769252, 4127.17948691, 4147.56410236, 4119.61538434, 4099.48717914, 4128.33333306, 4134.48717921, 804.10255681, 4129.61538434, 4399.48717984, 4150.12820492,12.0
4046.15384574, 4337.17948739, 4170.76923063, 4387.82051310, 4127.05128178, 4187.94871781, 4178.84615371, 4168.84615371, 4178.07692294, 4134.48717921, 813.84614655, 4177.69230756, 4437.94871837, 4150.38461518,12.0
4028.71794824, 4337.30769252, 4182.56410243, 4403.33333368, 4127.43589716, 4205.38461532, 4194.99999986, 4196.15384602, 4204.10256404, 4134.48717921, 817.43589014, 4201.53846147, 4447.82051324, 4147.43589723,12.0
4043.07692266, 4305.00000014, 4167.43589723, 4383.58974387, 4129.87179460, 4162.69230749, 4156.41025621, 4158.07692287, 4173.71794858, 4134.48717921, 817.56409527, 4170.76923063, 4412.69230804, 4148.46153826,12.0
4027.56410208, 4285.25641033, 4152.17948697, 4347.94871816, 4127.43589716, 4152.56410236, 4149.87179467, 4141.66666646, 4141.66666646, 4134.48717921, 819.61537732, 4153.46153826, 4403.33333368, 4144.61538441,12.0
4037.43589702, 4315.38461553, 4179.23076910, 4369.23076951, 4128.97435870, 4213.97435891, 4193.07692294, 4173.07692294, 4176.28205115, 4134.48717921, 837.82050560, 4189.35897422, 4422.94871830, 4144.35897415,12.0
4038.84615343, 4340.64102585, 4192.69230756, 4405.25641061, 4131.53846126, 4234.87179488, 4207.82051275, 4188.07692294, 4215.76923070, 4134.48717921, 864.87178772, 4213.84615378, 4420.00000035, 4145.38461518,12.0
4023.33333285, 4315.12820527, 4154.87179467, 4376.02564131, 4128.84615357, 4185.89743576, 4172.94871781, 4157.17948697, 4181.28205115, 4134.48717921, 872.17948003, 4190.51282038, 4402.05128240, 4147.56410236,12.0
4043.71794830, 4307.82051296, 4136.66666646, 4358.84615406, 4127.56410229, 4180.76923063, 4172.69230756, 4150.38461518, 4155.25641005, 4134.48717921, 880.76922362, 4183.58974345, 4392.82051310, 4149.35897415,12.0
4031.79487131, 4320.89743604, 4142.69230749, 4375.38461567, 4127.94871767, 4209.99999993, 4193.58974345, 4172.82051269, 4177.69230756, 4134.48717921, 902.43589035, 4193.33333320, 4375.76923105, 4142.69230749,12.0
4033.84615336, 4292.82051289, 4128.07692280, 4348.07692329, 4129.99999973, 4189.10256397, 4170.89743576, 4153.07692287, 4157.69230749, 4134.48717921, 923.07691606, 4168.84615371, 4358.97435919, 4146.28205108,12.0
4036.15384567, 4284.61538469, 4123.84615357, 4329.35897450, 4128.71794844, 4169.74358961, 4164.61538441, 4142.30769210, 4139.23076903, 4134.48717921, 939.48717247, 4167.43589723, 4370.38461567, 4150.12820492,12.0
4026.41025593, 4306.28205142, 4142.69230749, 4343.33333355, 4125.38461511, 4183.46153833, 4178.46153833, 4163.71794851, 4167.69230749, 4134.48717921, 946.79486478, 4192.56410243, 4379.61538490, 4144.99999980,12.0
4044.87179446, 4289.48717956, 4140.38461518, 4322.05128219, 4126.02564075, 4172.56410243, 4155.12820492, 4155.25641005, 4170.12820499, 4134.48717921, 961.41024947, 4181.28205115, 4364.74358996, 4147.82051262,12.0
4028.20512772, 4266.02564103, 4123.20512793, 4288.20512828, 4128.58974332, 4148.20512800, 4139.23076903, 4139.87179467, 4145.12820492, 4134.48717921, 982.69230075, 4161.53846133, 4347.69230790, 4147.05128185,12.0
4031.53846106, 4266.79487187, 4128.58974332, 4282.17948725, 4130.64102537, 4159.74358954, 4165.51282031, 4149.87179467, 4137.69230749, 4134.48717921, 1004.87178800, 4163.20512800, 4335.12820534, 4146.66666646,12.0
4036.92307651, 4252.82051282, 4128.84615357, 4267.17948725, 4128.20512793, 4168.33333320, 4169.74358961, 4153.97435877, 4148.97435877, 4134.48717921, 1023.33332653, 4160.64102544, 4316.28205142, 4148.97435877,12.0
4017.30769183, 4224.35897429, 4113.58974332, 4233.20512814, 4126.41025614, 4139.87179467, 4130.64102537, 4131.02564075, 4140.89743569, 4134.48717921, 1027.82050601, 4146.53846133, 4292.05128212, 4147.05128185,12.0
4033.46153798, 4211.66666660, 4108.71794844, 4202.82051275, 4129.61538434, 4121.66666639, 4107.69230742, 4108.46153819, 4110.38461511, 4134.48717921, 1041.53845473, 4135.12820485, 4270.89743597, 4149.87179467,12.0
4020.76923029, 4220.38461532, 4120.12820485, 4200.64102551, 4127.94871767, 4145.89743569, 4139.87179467, 4125.25640998, 4124.61538434, 4134.48717921, 1071.15383942, 4148.97435877, 4253.33333334, 4144.99999980,12.0
4018.07692259, 4234.87179488, 4142.17948697, 4216.53846147, 4126.79487152, 4171.79487166, 4183.46153833, 4163.07692287, 4172.30769217, 4134.48717921, 1111.92307026, 4182.69230756, 4241.66666667, 4143.84615364,12.0
4028.58974311, 4217.82051275, 4140.38461518, 4198.20512807, 4127.94871767, 4164.87179467, 4173.71794858, 4166.79487159, 4165.76923056, 4134.48717921, 1132.05127545, 4180.51282038, 4221.66666660, 4147.82051262,12.0
4012.30769183, 4164.74358954, 4107.82051255, 4145.76923056, 4125.51282024, 4131.28205101, 4125.51282024, 4125.25640998, 4114.35897408, 4134.48717921, 1075.51281378, 4130.12820485, 4182.05128192, 4141.66666646,12.0
4026.66666618, 4128.97435870, 4103.71794844, 4128.07692280, 4127.30769203, 4118.20512793, 4108.58974332, 4104.61538434, 4101.02564068, 4134.48717921, 1027.82050601, 4117.17948691, 4155.64102544, 4145.38461518,12.0
4021.41025593, 4109.74358947, 4115.12820485, 4131.53846126, 4125.76923050, 4124.10256383, 4113.20512793, 4108.71794844, 4098.46153812, 4134.48717921, 1073.20512147, 4138.07692287, 4148.84615364, 4144.23076903,12.0
4019.23076875, 4079.23076889, 4109.61538434, 4108.33333306, 4123.84615357, 4124.99999973, 4116.92307665, 4098.46153812, 4081.53846119, 4134.48717921, 1121.53845494, 4124.48717921, 4138.46153826, 4142.17948697,12.0
4031.92307644, 4065.25640984, 4111.66666639, 4103.71794844, 4127.82051255, 4137.30769210, 4135.51282031, 4112.82051255, 4106.79487152, 4134.48717921, 1126.53845494, 4120.25640998, 4137.56410236, 4148.71794851,12.0
4016.41025593, 4077.94871761, 4127.82051255, 4131.66666639, 4126.79487152, 4151.41025621, 4150.12820492, 4150.89743569, 4148.46153826, 4134.48717921, 1157.69230116, 4155.89743569, 4149.23076903, 4141.41025621,12.0
4032.17948670, 4084.35897402, 4140.51282031, 4138.84615364, 4127.56410229, 4158.58974339, 4150.12820492, 4144.74358954, 4148.33333313, 4134.48717921, 1206.92307046, 4175.64102551, 4142.82051262, 4143.84615364,12.0
4023.84615336, 4059.61538420, 4123.33333306, 4106.79487152, 4128.84615357, 4141.66666646, 4133.58974332, 4099.35897402, 4112.69230742, 4134.48717921, 1211.66666021, 4148.33333313, 4121.28205101, 4149.61538441,12.0
4011.53846106, 4019.87179439, 4101.66666632, 4072.94871761, 4127.17948691, 4109.61538434, 4104.99999973, 4079.99999966, 4090.25640991, 4134.48717921, 1208.20512175, 4116.15384588, 4103.84615357, 4147.69230749,12.0
4033.07692259, 4003.97435842, 4100.51282017, 4061.41025600, 4127.30769203, 4101.92307658, 4096.66666632, 4095.51282017, 4099.23076889, 4134.48717921, 1241.15383976, 4109.99999973, 4088.20512786, 4151.15384595,12.0
4011.41025593, 4037.43589702, 4117.30769203, 4088.33333299, 4125.51282024, 4129.74358947, 4133.71794844, 4132.56410229, 4139.23076903, 4134.48717921, 1290.12819888, 4139.74358954, 4091.66666632, 4144.48717928,12.0
4021.41025593, 4041.15384574, 4141.66666646, 4122.82051255, 4126.66666639, 4159.10256390, 4173.20512807, 4169.35897422, 4162.82051262, 4134.48717921, 1329.87178869, 4174.99999986, 4115.38461511, 4146.15384595,12.0
4025.64102516, 3952.17948656, 4124.99999973, 4093.46153812, 4126.53846126, 4143.71794851, 4155.89743569, 4164.10256390, 4125.12820485, 4134.48717921, 1334.48717331, 4149.10256390, 4104.74358947, 4149.48717928,12.0
4003.07692252, 3893.46153770, 4098.84615350, 4052.43589702, 4126.41025614, 4117.30769203, 4118.33333306, 4126.66666639, 4108.07692280, 4134.48717921, 1339.74358356, 4113.46153819, 4079.35897402, 4143.71794851,12.0
4023.20512772, 3927.43589674, 4112.69230742, 4073.84615350, 4128.71794844, 4118.07692280, 4108.33333306, 4102.17948684, 4135.25640998, 4134.48717921, 1382.17948114, 4131.28205101, 4093.33333299, 4149.99999980,12.0
4011.53846106, 3958.07692246, 4125.12820485, 4101.66666632, 4124.99999973, 4130.25640998, 4128.07692280, 4116.15384588, 4138.97435877, 4134.48717921, 1418.33332736, 4153.97435877, 4102.82051255, 4148.07692287,12.0
4012.82051234, 3942.17948656, 4114.87179460, 4081.92307658, 4126.41025614, 4127.30769203, 4134.87179460, 4130.51282024, 4114.87179460, 4134.48717921, 1430.89742993, 4140.76923056, 4082.17948684, 4146.15384595,12.0
4021.92307644, 3916.53846085, 4101.15384581, 4057.30769189, 4129.74358947, 4109.23076896, 4105.12820485, 4113.84615357, 4102.69230742, 4134.48717921, 1450.64101974, 4118.58974332, 4071.15384581, 4145.38461518,12.0
4005.25640977, 3909.74358905, 4102.56410229, 4062.69230728, 4126.15384588, 4103.07692280, 4087.30769196, 4098.84615350, 4107.56410229, 4134.48717921, 1489.35896853, 4116.92307665, 4079.61538427, 4141.41025621,12.0
4005.25640977, 3909.74358905, 4102.56410229, 4062.69230728, 4126.15384588, 4103.07692280, 4087.30769196, 4098.84615350, 4107.56410229, 4134.48717921, 1489.35896853, 4116.92307665, 4079.61538427, 4141.41025621,12.0
4022.69230721, 3951.92307630, 4133.46153819, 4096.92307658, 4126.41025614, 4137.17948697, 4139.87179467, 4146.15384595, 4151.28205108, 4134.48717921, 1542.05127629, 4159.23076903, 4101.53846119, 4148.20512800,12.0
4015.25640977, 3986.28205073, 4151.41025621, 4115.38461511, 4125.25640998, 4167.30769210, 4185.12820499, 4191.66666653, 4192.17948704, 4134.48717921, 1578.58973797, 4193.84615371, 4108.97435870, 4143.71794851,12.0
4015.89743541, 3945.51281989, 4123.07692280, 4075.38461504, 4124.61538434, 4128.84615357, 4125.64102537, 4127.69230742, 4131.53846126, 4134.48717921, 1578.20512258, 4142.82051262, 4077.05128171, 4144.87179467,12.0
4021.79487131, 3912.43589674, 4094.61538427, 4038.46153805, 4128.20512793, 4099.87179453, 4087.94871761, 4077.82051248, 4076.28205094, 4134.48717921, 1584.23076361, 4098.58974325, 4058.84615343, 4152.05128185,12.0
4004.99999952, 3933.46153777, 4103.84615357, 4049.48717907, 4127.82051255, 4134.74358947, 4135.12820485, 4126.66666639, 4120.51282024, 4134.48717921, 1623.46153291, 4130.38461511, 4082.56410222, 4144.35897415,12.0
4026.41025593, 3948.33333271, 4118.84615357, 4064.35897395, 4126.28205101, 4148.58974339, 4140.12820492, 4140.25641005, 4142.17948697, 4134.48717921, 1661.92307144, 4143.58974339, 4087.82051248, 4144.61538441,12.0
4017.56410208, 3938.46153784, 4104.48717921, 4055.76923036, 4125.12820485, 4115.25640998, 4096.66666632, 4097.56410222, 4092.43589709, 4134.48717921, 1681.41025099, 4112.30769203, 4063.97435856, 4145.51282031,12.0
4014.10256362, 3945.51281989, 4103.33333306, 4060.76923036, 4127.69230742, 4111.02564075, 4106.15384588, 4100.38461504, 4075.25640991, 4134.48717921, 1708.71794337, 4114.61538434, 4059.35897395, 4146.66666646,12.0
4026.15384567, 3967.05128143, 4128.58974332, 4083.33333299, 4128.46153819, 4144.74358954, 4152.56410236, 4139.87179467, 4126.79487152, 4134.48717921, 1755.64102036, 4152.30769210, 4078.97435863, 4150.64102544,12.0
4002.05128150, 3956.28205066, 4131.15384588, 4076.79487145, 4123.97435870, 4137.56410236, 4144.99999980, 4143.20512800, 4156.66666646, 4134.48717921, 1791.66666146, 4159.23076903, 4083.46153812, 4145.89743569,12.0
4017.56410208, 3945.64102502, 4123.07692280, 4057.82051241, 4124.48717921, 4114.35897408, 4117.05128178, 4127.17948691, 4139.48717928, 4134.48717921, 1814.48717435, 4146.02564082, 4081.15384581, 4147.69230749,12.0
4016.02564054, 3959.35897374, 4119.48717921, 4061.53846113, 4125.12820485, 4124.35897408, 4121.02564075, 4126.66666639, 4121.79487152, 4134.48717921, 1835.25640512, 4142.30769210, 4079.61538427, 4148.46153826,12.0
4009.23076875, 3951.02564040, 4110.64102537, 4057.82051241, 4124.87179460, 4117.82051255, 4113.84615357, 4119.35897408, 4109.61538434, 4134.48717921, 1851.92307185, 4126.41025614, 4060.51282010, 4148.07692287,12.0
4022.56410208, 3926.79487110, 4102.94871767, 4030.89743541, 4126.66666639, 4097.94871761, 4095.38461504, 4109.35897408, 4098.58974325, 4134.48717921, 1875.25640526, 4110.89743562, 4046.53846113, 4147.94871774,12.0
4000.76923022, 3958.46153784, 4123.33333306, 4053.97435856, 4125.64102537, 4127.43589716, 4133.07692280, 4141.53846133, 4130.51282024, 4134.48717921, 1920.51281558, 4146.02564082, 4069.23076882, 4141.79487159,12.0
4011.53846106, 4000.64102509, 4147.82051262, 4102.56410229, 4126.53846126, 4161.53846133, 4173.33333320, 4173.33333320, 4162.56410236, 4134.48717921, 1956.92307206, 4181.02564089, 4092.17948684, 4143.46153826,12.0
4014.61538413, 3974.48717894, 4127.43589716, 4081.41025607, 4127.05128178, 4133.46153819, 4146.15384595, 4147.69230749, 4133.33333306, 4134.48717921, 1962.94871309, 4150.25641005, 4071.02564068, 4143.33333313,12.0
4006.28205080, 3958.33333271, 4118.58974332, 4057.43589702, 4127.05128178, 4122.94871767, 4137.43589723, 4131.28205101, 4122.43589716, 4134.48717921, 1987.94871316, 4134.35897408, 4059.61538420, 4144.48717928,12.0
4022.30769183, 3969.61538399, 4128.84615357, 4068.20512779, 4127.94871767, 4130.89743562, 4141.15384595, 4127.17948691, 4130.89743562, 4134.48717921, 2025.12820041, 4146.02564082, 4073.07692273, 4145.51282031,12.0
4008.58974311, 3956.41025579, 4111.66666639, 4057.30769189, 4124.35897408, 4096.15384581, 4094.48717914, 4092.17948684, 4098.84615350, 4134.48717921, 2039.23076458, 4123.20512793, 4068.20512779, 4139.23076903,12.0
4018.84615336, 3956.02564040, 4109.87179460, 4052.56410215, 4125.25640998, 4097.05128171, 4080.76923043, 4091.92307658, 4090.38461504, 4134.61538434, 2062.56409791, 4115.51282024, 4063.97435856, 4145.89743569,12.0
4016.41025593, 3959.74358912, 4113.33333306, 4055.25640984, 4127.69230742, 4119.87179460, 4104.74358947, 4114.61538434, 4103.71794844, 4134.48717921, 2092.56409798, 4125.76923050, 4057.94871754, 4148.33333313,12.0
4005.25640977, 3965.76923015, 4115.12820485, 4061.15384574, 4125.89743562, 4116.79487152, 4110.25640998, 4111.15384588, 4105.38461511, 4134.35897408, 2120.51281600, 4133.20512793, 4053.46153805, 4144.10256390,12.0
4028.46153798, 3983.84615329, 4128.33333306, 4079.23076889, 4125.64102537, 4118.58974332, 4114.10256383, 4111.79487152, 4122.30769203, 4134.74358947, 2155.64102120, 4144.35897415, 4065.38461497, 4146.92307672,12.0
4004.48717900, 3970.64102502, 4116.79487152, 4071.02564068, 4123.97435870, 4114.10256383, 4109.61538434, 4116.28205101, 4125.64102537, 4135.12820485, 2173.71794434, 4132.56410229, 4067.94871754, 4146.02564082,12.0
4008.07692259, 3965.12820451, 4115.38461511, 4066.53846113, 4126.53846126, 4116.53846126, 4117.30769203, 4124.74358947, 4121.41025614, 4134.48717921, 2189.35896999, 4134.99999973, 4066.79487138, 4149.61538441,12.0
4021.92307644, 4000.64102509, 4138.20512800, 4093.46153812, 4126.92307665, 4137.94871774, 4153.58974339, 4147.82051262, 4145.51282031, 4134.23076896, 2221.92307262, 4169.48717935, 4076.15384581, 4149.74358954,12.0
3997.94871740, 3993.07692252, 4125.12820485, 4078.07692273, 4122.82051255, 4127.05128178, 4139.74358954, 4130.38461511, 4126.15384588, 4134.48717921, 2236.66666243, 4151.15384595, 4064.74358933, 4143.33333313,12.0
4010.76923029, 3952.69230707, 4099.74358940, 4040.51282010, 4126.28205101, 4111.66666639, 4114.35897408, 4106.41025614, 4088.46153812, 4134.74358947, 2245.12820089, 4104.87179460, 4046.79487138, 4144.61538441,12.0
4002.69230714, 3956.41025579, 4105.51282024, 4053.07692266, 4126.66666639, 4133.58974332, 4142.30769210, 4131.66666639, 4116.92307665, 4133.71794844, 2277.82050866, 4114.23076896, 4051.15384574, 4144.99999980,12.0
4006.02564054, 3960.38461476, 4107.05128178, 4053.46153805, 4125.12820485, 4125.76923050, 4133.07692280, 4123.07692280, 4131.53846126, 4134.23076896, 2299.74358565, 4116.79487152, 4050.51282010, 4147.43589723,12.0
4016.53846106, 3946.79487117, 4092.56410222, 4026.41025593, 4124.87179460, 4091.92307658, 4091.15384581, 4093.71794837, 4097.17948684, 4135.64102544, 2307.94871385, 4093.46153812, 4042.05128164, 4145.89743569,12.0
3998.33333278, 3946.79487117, 4093.71794837, 4033.33333285, 4124.87179460, 4083.33333299, 4083.71794837, 4098.33333299, 4087.17948684, 4131.66666639, 2333.84614982, 4098.71794837, 4036.41025593, 4142.94871774,12.0
4017.05128157, 3956.41025579, 4105.76923050, 4056.02564061, 4128.84615357, 4090.76923043, 4086.15384581, 4093.84615350, 4096.15384581, 4128.71794844, 2367.56409861, 4115.89743562, 4039.99999959, 4146.28205108,12.0
4012.17948670, 3980.76923022, 4117.17948691, 4074.99999966, 4126.41025614, 4112.94871767, 4101.15384581, 4102.17948684, 4110.38461511, 4133.46153819, 2401.79486791, 4139.61538441, 4057.05128164, 4141.28205108,12.0
4011.66666618, 4009.74358926, 4140.38461518, 4096.53846119, 4123.84615357, 4136.79487159, 4135.76923056, 4143.07692287, 4142.82051262, 4136.28205108, 2441.41025259, 4175.12820499, 4069.99999966, 4143.33333313,12.0
4022.56410208, 4007.05128157, 4144.87179467, 4097.69230735, 4126.15384588, 4134.99999973, 4147.17948697, 4159.48717928, 4160.89743569, 4133.84615357, 2463.97435523, 4182.17948704, 4072.56410222, 4147.94871774,12.0
4004.87179439, 3988.46153791, 4123.84615357, 4081.15384581, 4125.12820485, 4124.23076896, 4132.82051255, 4140.51282031, 4149.99999980, 4133.97435870, 2472.17948343, 4155.76923056, 4068.71794830, 4145.89743569,12.0
4024.10256362, 3973.58974304, 4111.41025614, 4062.56410215, 4126.02564075, 4116.02564075, 4109.61538434, 4110.25640998, 4120.76923050, 4134.74358947, 2484.74358600, 4126.92307665, 4049.48717907, 4149.87179467,12.0
4011.53846106, 3965.25640963, 4105.38461511, 4051.28205087, 4126.15384588, 4103.46153819, 4095.38461504, 4095.64102530, 4095.12820478, 4132.94871767, 2496.15384247, 4117.69230742, 4038.84615343, 4146.41025621,12.0
4003.71794817, 3966.79487117, 4102.94871767, 4050.76923036, 4126.66666639, 4096.92307658, 4108.58974332, 4107.05128178, 4092.05128171, 4133.07692280, 2510.51281683, 4121.28205101, 4050.12820472, 4143.97435877,12.0
4026.15384567, 3972.30769176, 4108.07692280, 4057.94871754, 4126.79487152, 4109.10256383, 4126.79487152, 4121.66666639, 4107.82051255, 4133.46153819, 2544.48717588, 4130.64102537, 4049.61538420, 4146.53846133,12.0
4001.79487124, 3984.61538406, 4115.89743562, 4066.28205087, 4123.58974332, 4113.71794844, 4119.48717921, 4114.23076896, 4118.97435870, 4133.07692280, 2581.15384261, 4146.92307672, 4046.79487138, 4145.76923056,12.0
4012.05128157, 3979.23076868, 4113.71794844, 4057.30769189, 4125.25640998, 4096.02564068, 4086.92307658, 4088.58974325, 4101.41025607, 4133.33333306, 2591.79486825, 4140.51282031, 4052.69230728, 4147.69230749,12.0
4017.05128157, 3955.25640963, 4097.43589709, 4046.53846113, 4124.74358947, 4085.38461504, 4071.15384581, 4083.20512786, 4093.58974325, 4133.33333306, 2595.12820166, 4114.35897408, 4040.89743548, 4145.89743569,12.0
4005.12820465, 3959.48717887, 4098.33333299, 4056.02564061, 4124.10256383, 4095.12820478, 4104.10256383, 4109.10256383, 4111.41025614, 4133.33333306, 2622.56409909, 4113.46153819, 4032.82051234, 4145.64102544,12.0
4005.12820465, 3959.48717887, 4098.33333299, 4056.02564061, 4124.10256383, 4095.12820478, 4104.10256383, 4109.10256383, 4111.41025614, 4133.33333306, 2622.56409909, 4113.46153819, 4032.82051234, 4145.64102544,12.0
4018.84615336, 3989.74358919, 4112.69230742, 4076.28205094, 4127.30769203, 4116.79487152, 4134.99999973, 4132.69230742, 4124.99999973, 4133.33333306, 2657.17948378, 4136.41025621, 4049.99999959, 4144.99999980,12.0
4004.48717900, 4000.25640970, 4116.53846126, 4087.56410222, 4124.48717921, 4132.69230742, 4129.35897408, 4140.25641005, 4134.23076896, 4133.33333306, 2673.97435564, 4149.87179467, 4061.02564061, 4140.38461518,12.0
4012.69230721, 3990.64102509, 4114.99999973, 4080.25640991, 4123.84615357, 4129.61538434, 4119.35897408, 4134.48717921, 4138.97435877, 4133.33333306, 2684.48717616, 4139.23076903, 4051.41025600, 4145.38461518,12.0
4014.61538413, 3971.02564040, 4093.20512786, 4053.97435856, 4126.41025614, 4098.46153812, 4096.66666632, 4096.92307658, 4107.69230742, 4133.33333306, 2696.53845828, 4106.66666639, 4038.33333292, 4144.87179467,12.0
4008.07692259, 3962.82051220, 4080.25640991, 4042.82051241, 4126.53846126, 4078.07692273, 4073.07692273, 4071.79487145, 4073.58974325, 4133.33333306, 2708.97435571, 4095.89743555, 4037.56410215, 4144.35897415,12.0
4026.66666618, 3997.56410201, 4110.25640998, 4076.92307658, 4126.15384588, 4113.46153819, 4106.02564075, 4115.38461511, 4101.41025607, 4133.33333306, 2736.28204809, 4137.30769210, 4051.02564061, 4149.23076903,12.0
4009.74358926, 4027.94871747, 4129.99999973, 4107.56410229, 4125.38461511, 4139.48717928, 4144.10256390, 4151.66666646, 4147.05128185, 4133.33333306, 2768.07691995, 4167.30769210, 4058.58974318, 4145.38461518,12.0
4021.02564054, 4040.89743548, 4135.76923056, 4119.61538434, 4128.84615357, 4136.66666646, 4149.23076903, 4137.30769210, 4159.48717928, 4133.33333306, 2793.84615079, 4175.64102551, 4064.74358933, 4147.94871774,12.0
4025.89743541, 4046.79487138, 4138.58974339, 4122.30769203, 4128.71794844, 4137.94871774, 4154.35897415, 4132.94871767, 4153.46153826, 4133.33333306, 2808.58974054, 4184.74358961, 4071.41025607, 4147.82051262,12.0
4003.71794817, 4018.71794824, 4121.66666639, 4098.20512786, 4124.99999973, 4128.20512793, 4136.41025621, 4139.48717928, 4143.84615364, 4133.33333306, 2811.41025336, 4161.53846133, 4056.02564061, 4143.84615364,12.0
4026.79487131, 3985.89743535, 4102.17948684, 4066.28205087, 4124.99999973, 4108.84615357, 4098.46153812, 4121.92307665, 4127.17948691, 4133.33333306, 2816.28204823, 4122.05128178, 4036.53846106, 4150.25641005,12.0
4013.97435849, 3998.46153791, 4104.35897408, 4073.33333299, 4123.71794844, 4117.56410229, 4114.48717921, 4122.56410229, 4126.41025614, 4133.33333306, 2836.79486881, 4128.97435870, 4043.97435856, 4148.07692287,12.0
4006.28205080, 4020.51282003, 4118.20512793, 4097.69230735, 4126.53846126, 4143.20512800, 4151.15384595, 4147.69230749, 4143.97435877, 4133.58974332, 2867.94871503, 4153.33333313, 4058.33333292, 4144.74358954,12.0
4017.69230721, 3994.10256355, 4103.84615357, 4077.17948684, 4127.30769203, 4118.20512793, 4123.07692280, 4134.87179460, 4133.71794844, 4133.84615357, 2879.35897144, 4129.74358947, 4049.10256369, 4147.05128185,12.0
4001.79487124, 3990.12820458, 4101.41025607, 4070.64102530, 4124.10256383, 4097.05128171, 4118.71794844, 4121.79487152, 4132.30769203, 4132.30769203, 2890.64102280, 4126.53846126, 4044.74358933, 4146.41025621,12.0
4018.84615336, 4039.61538420, 4139.10256390, 4115.12820485, 4125.38461511, 4152.69230749, 4177.56410243, 4156.02564082, 4175.12820499, 4133.46153819, 2934.87179210, 4180.89743576, 4061.66666625, 4147.05128185,12.0
4013.07692259, 4037.69230728, 4133.97435870, 4108.20512793, 4124.23076896, 4166.79487159, 4168.20512807, 4156.79487159, 4173.07692294, 4135.51282031, 2962.56409986, 4177.05128192, 4058.33333292, 4142.82051262,12.0
4009.23076875, 3986.15384560, 4097.56410222, 4053.46153805, 4125.51282024, 4102.30769196, 4098.33333299, 4109.10256383, 4112.69230742, 4127.17948691, 2956.02563832, 4118.84615357, 4040.89743548, 4145.25641005,12.0
4022.94871747, 3985.25640970, 4106.02564075, 4062.05128164, 4129.48717921, 4097.43589709, 4098.71794837, 4110.25640998, 4114.99999973, 4123.07692280, 2970.12820242, 4125.64102537, 4047.82051241, 4147.82051262,12.0
4004.99999952, 4021.79487131, 4131.92307665, 4106.66666639, 4126.28205101, 4146.02564082, 4145.64102544, 4150.64102544, 4162.30769210, 4131.79487152, 3004.35897172, 4168.33333320, 4061.66666625, 4143.46153826,12.0
4018.97435849, 4026.66666618, 4127.82051255, 4101.41025607, 4123.33333306, 4150.25641005, 4156.15384595, 4158.84615364, 4155.64102544, 4134.10256383, 3020.12820256, 4158.20512800, 4057.43589702, 4149.10256390,12.0
4017.43589695, 4009.10256362, 4109.10256383, 4074.35897402, 4125.89743562, 4123.33333306, 4137.30769210, 4141.15384595, 4130.38461511, 4127.94871767, 3023.33333077, 4132.82051255, 4047.43589702, 4147.69230749,12.0
4014.35897388, 4000.76923022, 4109.35897408, 4070.89743555, 4130.25640998, 4105.51282024, 4107.94871767, 4117.17948691, 4128.71794844, 4128.07692280, 3033.46153589, 4131.92307665, 4043.46153805, 4145.12820492,12.0
4030.51282003, 4019.48717900, 4128.58974332, 4092.05128171, 4128.71794844, 4118.58974332, 4119.74358947, 4126.02564075, 4143.97435877, 4131.66666639, 3061.41025391, 4152.94871774, 4054.10256369, 4149.23076903,12.0
4008.33333285, 4040.12820472, 4136.92307672, 4106.79487152, 4123.20512793, 4137.82051262, 4156.41025621, 4163.33333313, 4157.05128185, 4128.97435870, 3091.92307449, 4172.82051269, 4065.38461497, 4144.35897415,12.0
4022.69230721, 4043.46153805, 4137.82051262, 4108.71794844, 4125.12820485, 4145.64102544, 4155.51282031, 4165.89743569, 4163.84615364, 4129.74358947, 3107.69230526, 4175.76923063, 4067.05128164, 4146.53846133,12.0
4021.41025593, 4050.38461497, 4140.25641005, 4112.30769203, 4125.12820485, 4149.74358954, 4144.61538441, 4147.17948697, 4170.76923063, 4133.71794844, 3119.87179251, 4175.89743576, 4068.33333292, 4148.84615364,12.0
4003.71794817, 4026.92307644, 4123.46153819, 4089.23076889, 4122.94871767, 4116.66666639, 4117.17948691, 4122.05128178, 4148.20512800, 4132.94871767, 3124.10256174, 4148.97435877, 4052.94871754, 4147.43589723,12.0
4026.66666618, 3994.87179432, 4104.48717921, 4067.94871754, 4123.84615357, 4090.25640991, 4092.82051248, 4104.61538434, 4122.05128178, 4133.71794844, 3132.30768995, 4119.87179460, 4037.69230728, 4148.71794851,12.0
4013.84615336, 4012.43589695, 4112.56410229, 4082.43589709, 4122.05128178, 4120.12820485, 4119.99999973, 4126.28205101, 4134.99999973, 4134.23076896, 3159.74358745, 4136.15384595, 4052.94871754, 4142.43589723,12.0
4018.07692259, 4041.15384574, 4132.69230742, 4100.38461504, 4124.87179460, 4145.25641005, 4153.46153826, 4157.69230749, 4169.23076910, 4133.33333306, 3186.15384393, 4159.99999980, 4065.76923036, 4142.43589723,12.0
4021.53846106, 4031.02564054, 4124.35897408, 4095.25640991, 4126.79487152, 4128.58974332, 4133.20512793, 4157.17948697, 4172.56410243, 4134.35897408, 3194.23076701, 4147.82051262, 4050.12820472, 4143.58974339,12.0
4005.12820465, 4018.97435849, 4107.05128178, 4079.10256376, 4125.12820485, 4109.23076896, 4105.89743562, 4138.07692287, 4138.58974339, 4134.61538434, 3200.76922855, 4123.97435870, 4041.79487138, 4142.43589723,12.0
4022.69230721, 4014.87179439, 4102.56410229, 4061.79487138, 4125.25640998, 4097.43589709, 4104.10256383, 4108.84615357, 4110.51282024, 4130.25640998, 3210.12820291, 4112.43589716, 4043.33333292, 4145.25641005,12.0
4011.92307644, 4009.74358926, 4102.56410229, 4067.82051241, 4121.41025614, 4097.17948684, 4107.05128178, 4101.28205094, 4123.07692280, 4128.33333306, 3224.23076708, 4120.25640998, 4041.28205087, 4141.53846133,12.0
4018.58974311, 4026.41025593, 4114.74358947, 4092.43589709, 4122.17948691, 4118.97435870, 4121.02564075, 4129.87179460, 4149.48717928, 4130.25640998, 3250.76922869, 4139.48717928, 4044.87179446, 4144.87179467,12.0
4027.82051234, 4037.43589702, 4116.66666639, 4088.71794837, 4126.15384588, 4125.51282024, 4127.69230742, 4132.82051255, 4144.87179467, 4127.43589716, 3267.30769023, 4135.12820485, 4043.97435856, 4147.05128185,12.0
4013.71794824, 4029.74358926, 4110.76923050, 4080.64102530, 4125.38461511, 4107.69230742, 4113.97435870, 4113.71794844, 4132.82051255, 4125.38461511, 3276.41025433, 4128.71794844, 4042.30769189, 4143.33333313,12.0
4033.46153798, 4021.41025593, 4111.79487152, 4078.84615350, 4125.64102537, 4103.07692280, 4103.20512793, 4116.41025614, 4127.82051255, 4126.79487152, 3293.58974158, 4130.89743562, 4045.51282010, 4146.02564082,12.0
4019.48717900, 4028.58974311, 4108.46153819, 4073.46153812, 4124.61538434, 4118.07692280, 4121.41025614, 4142.05128185, 4137.82051262, 4128.20512793, 3309.87179286, 4125.89743562, 4046.92307651, 4145.76923056,12.0
4021.28205080, 4027.56410208, 4103.33333306, 4070.89743555, 4123.71794844, 4106.79487152, 4120.76923050, 4144.99999980, 4140.12820492, 4125.25640998, 3321.02563908, 4111.41025614, 4038.84615343, 4148.97435877,12.0
4039.61538420, 4004.35897388, 4096.66666632, 4066.15384574, 4124.61538434, 4082.94871761, 4090.89743555, 4125.12820485, 4124.10256383, 4123.46153819, 3332.94871601, 4101.92307658, 4030.89743541, 4148.97435877,12.0
4012.69230721, 4014.10256362, 4100.51282017, 4074.48717914, 4124.99999973, 4099.61538427, 4104.10256383, 4133.58974332, 4130.25640998, 4131.53846126, 3356.53845967, 4116.79487152, 4038.58974318, 4145.38461518,12.0
4025.51282003, 4027.30769183, 4102.56410229, 4072.56410222, 4125.76923050, 4106.02564075, 4118.71794844, 4142.05128185, 4125.51282024, 4138.71794851, 3371.92307505, 4114.23076896, 4040.12820472, 4147.43589723,12.0
4023.33333285, 3994.99999945, 4084.23076889, 4047.56410215, 4123.20512793, 4073.20512786, 4085.89743555, 4123.07692280, 4092.17948684, 4135.12820485, 3372.82051095, 4085.51282017, 4025.64102516, 4141.41025621,12.0
4013.20512772, 3999.10256355, 4092.30769196, 4058.46153805, 4122.94871767, 4084.99999966, 4084.61538427, 4128.46153819, 4102.69230742, 4132.05128178, 3399.48717768, 4099.61538427, 4032.43589695, 4143.33333313,12.0
4028.20512772, 4049.10256369, 4118.33333306, 4095.38461504, 4125.38461511, 4117.82051255, 4119.99999973, 4152.69230749, 4141.28205108, 4138.33333313, 3435.64102391, 4136.66666646, 4053.07692266, 4148.46153826,12.0
4009.48717900, 4039.74358933, 4104.48717921, 4082.05128171, 4125.25640998, 4091.66666632, 4105.89743562, 4133.07692280, 4113.33333306, 4134.48717921, 3435.25640852, 4119.48717921, 4040.38461497, 4140.64102544,12.0
4022.56410208, 4016.66666618, 4097.43589709, 4070.89743555, 4127.43589716, 4086.28205094, 4090.38461504, 4121.41025614, 4087.94871761, 4124.48717921, 3439.35897263, 4104.61538434, 4028.71794824, 4145.89743569,12.0
4025.64102516, 4033.33333285, 4108.58974332, 4092.82051248, 4125.64102537, 4110.51282024, 4103.84615357, 4141.41025621, 4118.58974332, 4127.69230742, 3460.51281885, 4121.79487152, 4037.17948677, 4150.51282031,12.0
4014.10256362, 4030.89743541, 4099.74358940, 4081.41025607, 4124.35897408, 4096.15384581, 4097.43589709, 4132.56410229, 4130.51282024, 4132.82051255, 3467.69230603, 4110.64102537, 4034.61538413, 4146.15384595,12.0
4032.69230721, 4024.10256362, 4097.05128171, 4071.15384581, 4128.84615357, 4091.02564068, 4097.56410222, 4134.99999973, 4125.12820485, 4133.97435870, 3486.53845994, 4099.35897402, 4034.48717900, 4146.53846133,12.0
4022.17948670, 4027.30769183, 4093.58974325, 4074.10256376, 4126.79487152, 4087.56410222, 4088.46153812, 4151.15384595, 4115.12820485, 4131.53846126, 3505.76922917, 4098.33333299, 4032.69230721, 4143.58974339,12.0
4034.99999952, 4017.82051234, 4084.35897402, 4056.66666625, 4124.10256383, 4070.76923043, 4067.43589702, 4129.48717921, 4097.17948684, 4126.02564075, 3505.76922917, 4088.20512786, 4028.58974311, 4145.12820492,12.0
4036.41025593, 4012.82051234, 4084.74358940, 4049.99999959, 4123.33333306, 4081.53846119, 4085.12820478, 4116.02564075, 4100.12820478, 4126.92307665, 3519.48717796, 4093.58974325, 4036.92307651, 4144.99999980,12.0
4020.12820465, 4008.84615336, 4085.38461504, 4060.76923036, 4122.94871767, 4093.58974325, 4098.58974325, 4127.17948691, 4107.82051255, 4134.74358947, 3546.15384470, 4098.20512786, 4038.71794830, 4144.87179467,12.0
4041.41025600, 3998.20512765, 4081.41025607, 4055.64102523, 4123.20512793, 4074.10256376, 4075.89743555, 4118.33333306, 4094.61538427, 4135.25640998, 3552.69230624, 4084.99999966, 4025.64102516, 4148.97435877,12.0
4023.33333285, 4009.87179439, 4082.43589709, 4054.48717907, 4121.02564075, 4068.33333292, 4075.12820478, 4116.66666639, 4099.99999966, 4132.17948691, 3557.56410111, 4092.43589709, 4026.28205080, 4145.51282031,12.0
4024.10256362, 4049.35897395, 4105.76923050, 4093.33333299, 4122.43589716, 4107.43589716, 4114.35897408, 4150.38461518, 4139.10256390, 4136.15384595, 3590.38461400, 4134.23076896, 4052.56410215, 4147.05128185,12.0
4036.66666618, 4059.99999959, 4113.46153819, 4111.53846126, 4123.71794844, 4126.15384588, 4127.94871767, 4166.02564082, 4151.53846133, 4135.64102544, 3612.43589612, 4144.48717928, 4061.02564061, 4146.79487159,12.0
4018.84615336, 4031.02564054, 4093.71794837, 4072.56410222, 4123.20512793, 4096.66666632, 4104.35897408, 4144.23076903, 4130.76923050, 4134.35897408, 3606.02563964, 4108.84615357, 4040.12820472, 4144.48717928,12.0
4034.10256362, 4022.82051234, 4087.43589709, 4053.58974318, 4123.58974332, 4081.15384581, 4099.87179453, 4133.71794844, 4117.56410229, 4136.41025621, 3612.05128073, 4096.15384581, 4032.30769183, 4146.02564082,12.0
4024.74358926, 4033.71794824, 4088.07692273, 4073.20512786, 4121.41025614, 4088.07692273, 4098.84615350, 4142.94871774, 4119.10256383, 4135.51282031, 3628.84615253, 4108.46153819, 4044.74358933, 4140.64102544,12.0
4024.87179439, 4016.92307644, 4079.23076889, 4061.66666625, 4123.84615357, 4061.66666625, 4062.43589702, 4126.79487152, 4111.66666639, 4134.99999973, 3633.20512689, 4090.25640991, 4039.99999959, 4142.17948697,12.0
4035.89743541, 4000.89743535, 4074.74358940, 4041.02564061, 4125.76923050, 4038.33333292, 4062.17948677, 4106.15384588, 4102.56410229, 4134.61538434, 3643.84615260, 4077.56410222, 4021.15384567, 4144.48717928,12.0
4016.15384567, 4030.76923029, 4093.97435863, 4074.74358940, 4122.94871767, 4085.64102530, 4120.38461511, 4135.89743569, 4121.28205101, 4134.35897408, 3673.07692183, 4115.64102537, 4031.28205080, 4141.15384595,12.0
4032.82051234, 4043.97435856, 4100.25640991, 4089.48717914, 4123.20512793, 4116.41025614, 4119.10256383, 4154.61538441, 4125.38461511, 4134.61538434, 3685.76922959, 4121.41025614, 4043.33333292, 4146.15384595,12.0
4029.23076875, 4007.30769183, 4065.51282010, 4038.46153805, 4120.51282024, 4074.99999966, 4065.64102523, 4112.56410229, 4085.76923043, 4134.35897408, 3671.41025516, 4066.41025600, 4026.15384567, 4146.53846133,12.0
4025.89743541, 3986.79487124, 4049.61538420, 4015.38461490, 4120.51282024, 4048.33333292, 4049.48717907, 4076.41025607, 4065.76923036, 4134.48717921, 3666.53846029, 4045.12820472, 4012.43589695, 4146.28205108,12.0
4042.82051241, 4013.46153798, 4074.74358940, 4054.87179446, 4125.76923050, 4065.38461497, 4059.74358933, 4091.28205094, 4091.53846119, 4134.48717921, 3695.64102446, 4084.23076889, 4026.15384567, 4146.15384595,12.0
4027.94871747, 4057.94871754, 4101.79487145, 4094.61538427, 4123.84615357, 4091.92307658, 4095.64102530, 4138.71794851, 4126.28205101, 4134.48717921, 3740.51281940, 4129.99999973, 4047.17948677, 4144.35897415,12.0
4042.69230728, 4072.43589709, 4109.61538434, 4099.23076889, 4121.28205101, 4109.35897408, 4128.58974332, 4166.92307672, 4142.17948697, 4134.48717921, 3758.07692204, 4137.56410236, 4049.23076882, 4149.61538441,12.0
4033.20512772, 4040.89743548, 4088.84615350, 4076.28205094, 4122.43589716, 4085.89743555, 4085.12820478, 4132.05128178, 4125.51282024, 4134.48717921, 3745.38461435, 4106.53846126, 4042.69230728, 4146.53846133,12.0
4021.92307644, 4027.82051234, 4077.94871761, 4067.69230728, 4123.84615357, 4063.58974318, 4043.58974318, 4095.38461504, 4100.89743555, 4134.48717921, 3752.94871691, 4091.79487145, 4043.97435856, 4147.56410236,12.0
4048.33333292, 4059.35897395, 4096.15384581, 4091.79487145, 4123.33333306, 4098.33333299, 4098.33333299, 4133.58974332, 4123.07692280, 4134.48717921, 3784.74358877, 4118.84615357, 4045.76923036, 4151.28205108,12.0
4026.92307644, 4058.58974318, 4094.99999966, 4097.05128171, 4121.79487152, 4110.25640998, 4126.28205101, 4159.23076903, 4148.97435877, 4134.48717921, 3795.51281954, 4121.41025614, 4035.76923029, 4145.51282031,12.0
4032.94871747, 4033.97435849, 4084.99999966, 4080.51282017, 4124.10256383, 4087.30769196, 4092.43589709, 4127.30769203, 4131.28205101, 4134.48717921, 3796.53846057, 4099.61538427, 4036.02564054, 4147.94871774,12.0
4039.99999959, 4037.69230728, 4087.69230735, 4085.25640991, 4122.94871767, 4091.92307658, 4099.99999966, 4126.53846126, 4123.33333306, 4134.48717921, 3810.76922987, 4105.12820485, 4049.10256369, 4144.23076903,12.0
4022.30769183, 4038.07692266, 4085.89743555, 4091.66666632, 4121.66666639, 4094.74358940, 4108.84615357, 4135.64102544, 4124.35897408, 4134.48717921, 3820.12820423, 4105.89743562, 4044.87179446, 4140.51282031,12.0
4038.97435856, 4019.74358926, 4074.74358940, 4073.71794837, 4123.07692280, 4078.84615350, 4071.41025607, 4101.28205094, 4098.07692273, 4134.48717921, 3821.15384525, 4082.17948684, 4026.66666618, 4146.41025621,12.0
4027.82051234, 4024.48717900, 4075.64102530, 4074.87179453, 4120.89743562, 4087.05128171, 4060.76923036, 4091.02564068, 4092.05128171, 4134.48717921, 3832.82051192, 4082.94871761, 4023.58974311, 4145.51282031,12.0
4034.87179439, 4034.48717900, 4085.25640991, 4087.56410222, 4122.69230742, 4086.41025607, 4072.94871761, 4106.41025614, 4100.25640991, 4134.48717921, 3850.89743507, 4092.82051248, 4033.46153798, 4145.64102544,12.0
4039.35897395, 4009.35897388, 4068.97435856, 4066.92307651, 4123.97435870, 4048.97435856, 4056.41025600, 4096.66666632, 4083.71794837, 4134.48717921, 3857.69230686, 4073.58974325, 4029.74358926, 4143.07692287,12.0
4022.56410208, 3997.94871740, 4061.41025600, 4054.10256369, 4122.43589716, 4050.89743548, 4064.23076882, 4111.28205101, 4094.99999966, 4134.48717921, 3867.30769148, 4071.15384581, 4027.43589695, 4143.07692287,12.0
4046.79487138, 4020.76923029, 4081.28205094, 4075.89743555, 4125.76923050, 4096.15384581, 4101.79487145, 4146.28205108, 4129.35897408, 4134.74358947, 3890.38461462, 4098.46153812, 4041.15384574, 4148.20512800,12.0
4040.76923036, 4038.07692266, 4078.20512786, 4084.99999966, 4124.35897408, 4096.79487145, 4101.92307658, 4134.35897408, 4123.97435870, 4134.48717921, 3905.38461462, 4100.38461504, 4039.61538420, 4142.56410236,12.0
4043.58974318, 4043.33333292, 4070.38461504, 4071.92307658, 4122.56410229, 4079.23076889, 4093.33333299, 4113.07692280, 4104.99999973, 4134.10256383, 3912.43589674, 4088.46153812, 4032.82051234, 4143.84615364,12.0
4051.79487138, 4037.17948677, 4076.66666632, 4065.76923036, 4124.99999973, 4090.89743555, 4100.76923043, 4128.33333306, 4108.71794844, 4135.25640998, 3925.12820444, 4092.82051248, 4039.99999959, 4145.76923056,12.0
4031.28205080, 4031.79487131, 4072.94871761, 4075.12820478, 4125.25640998, 4087.56410222, 4090.64102530, 4132.17948691, 4114.35897408, 4134.10256383, 3935.25640957, 4095.51282017, 4040.38461497, 4142.43589723,12.0
4053.07692266, 4051.53846113, 4072.17948684, 4091.66666632, 4125.89743562, 4087.56410222, 4086.15384581, 4108.97435870, 4114.74358947, 4132.43589716, 3944.23076861, 4095.12820478, 4033.71794824, 4148.84615364,12.0
4044.48717907, 4063.71794830, 4072.05128171, 4088.97435863, 4123.33333306, 4099.87179453, 4099.74358940, 4100.64102530, 4108.07692280, 4132.82051255, 3956.41025579, 4095.76923043, 4035.25640977, 4147.43589723,12.0
4034.99999952, 4041.53846113, 4065.64102523, 4066.53846113, 4122.05128178, 4085.25640991, 4089.35897402, 4098.84615350, 4085.38461504, 4134.61538434, 3960.89743528, 4085.51282017, 4035.89743541, 4146.15384595,12.0
4052.43589702, 4032.56410208, 4064.10256369, 4060.89743548, 4123.84615357, 4070.51282017, 4074.61538427, 4092.82051248, 4078.33333299, 4137.56410236, 3963.20512758, 4076.02564068, 4027.94871747, 4147.94871774,12.0
4032.43589695, 4050.89743548, 4071.92307658, 4075.51282017, 4122.82051255, 4076.41025607, 4084.74358940, 4097.94871761, 4100.76923043, 4129.87179460, 3976.28205073, 4084.74358940, 4028.71794824, 4144.10256390,12.0
4043.97435856, 4067.56410215, 4086.28205094, 4087.69230735, 4123.20512793, 4092.05128171, 4104.35897408, 4122.69230742, 4124.48717921, 4122.43589716, 3990.51281996, 4099.48717914, 4042.05128164, 4145.38461518,12.0
4042.94871754, 4060.25640984, 4077.17948684, 4080.25640991, 4122.05128178, 4097.82051248, 4107.05128178, 4141.02564082, 4119.61538434, 4130.38461511, 3993.71794817, 4091.02564068, 4042.82051241, 4141.53846133,12.0
4033.46153798, 4034.74358926, 4060.12820472, 4062.94871754, 4124.35897408, 4073.07692273, 4082.82051248, 4117.69230742, 4088.84615350, 4134.48717921, 3993.07692252, 4067.43589702, 4031.66666618, 4142.17948697,12.0
4051.28205087, 4024.35897388, 4065.89743548, 4057.56410215, 4127.82051255, 4052.82051241, 4070.25640991, 4092.05128171, 4085.51282017, 4129.87179460, 4000.25640970, 4064.23076882, 4029.23076875, 4148.46153826,12.0
4034.23076875, 4039.61538420, 4075.64102530, 4068.84615343, 4122.30769203, 4073.07692273, 4087.69230735, 4105.64102537, 4109.99999973, 4132.17948691, 4011.53846106, 4078.84615350, 4031.79487131, 4145.25641005,12.0
4044.87179446, 4063.58974318, 4084.48717914, 4087.17948684, 4122.69230742, 4099.35897402, 4100.64102530, 4122.82051255, 4109.35897408, 4134.23076896, 4023.58974311, 4090.12820478, 4033.71794824, 4146.53846133,12.0
4049.61538420, 4065.89743548, 4081.66666632, 4085.51282017, 4126.53846126, 4087.82051248, 4085.38461504, 4103.20512793, 4085.64102530, 4128.58974332, 4030.89743541, 4085.12820478, 4033.58974311, 4143.97435877,12.0
4039.74358933, 4052.94871754, 4074.61538427, 4069.99999966, 4125.25640998, 4070.51282017, 4069.23076882, 4080.89743555, 4086.41025607, 4129.61538434, 4036.53846106, 4072.43589709, 4032.05128157, 4140.64102544,12.0
4059.87179446, 4061.66666625, 4082.69230735, 4078.07692273, 4125.89743562, 4085.89743555, 4091.79487145, 4094.23076889, 4106.28205101, 4133.07692280, 4054.35897395, 4082.30769196, 4040.89743548, 4144.74358954,12.0
4043.20512779, 4078.33333299, 4087.43589709, 4091.79487145, 4124.87179460, 4102.05128171, 4116.28205101, 4110.12820485, 4109.74358947, 4129.87179460, 4068.71794830, 4099.74358940, 4047.43589702, 4143.46153826,12.0
4049.99999959, 4062.56410215, 4076.66666632, 4069.61538420, 4125.51282024, 4082.17948684, 4084.74358940, 4096.28205094, 4095.64102530, 4129.48717921, 4065.12820472, 4078.33333299, 4031.53846106, 4147.30769210,12.0
4058.46153805, 4036.79487131, 4063.84615343, 4046.79487138, 4125.89743562, 4058.71794830, 4051.66666625, 4086.66666632, 4084.61538427, 4131.53846126, 4061.15384574, 4052.43589702, 4022.43589695, 4147.69230749,12.0
4041.15384574, 4048.71794830, 4074.35897402, 4065.51282010, 4123.46153819, 4070.12820478, 4081.92307658, 4102.94871767, 4094.48717914, 4130.25640998, 4079.74358940, 4077.17948684, 4038.07692266, 4144.61538441,12.0
4058.84615343, 4074.35897402, 4090.51282017, 4089.61538427, 4121.41025614, 4094.87179453, 4107.82051255, 4114.87179460, 4105.51282024, 4130.25640998, 4105.64102537, 4103.58974332, 4045.76923036, 4148.84615364,12.0
4041.66666625, 4078.46153812, 4086.28205094, 4085.64102530, 4120.38461511, 4092.17948684, 4091.28205094, 4112.82051255, 4105.76923050, 4132.56410229, 4112.17948691, 4095.12820478, 4040.51282010, 4144.99999980,12.0
4041.53846113, 4076.66666632, 4091.15384581, 4078.07692273, 4124.48717921, 4086.15384581, 4092.69230735, 4113.46153819, 4114.99999973, 4133.46153819, 4115.51282024, 4096.15384581, 4047.17948677, 4144.61538441,12.0
4056.66666625, 4073.33333299, 4097.30769196, 4072.05128171, 4124.99999973, 4097.30769196, 4105.51282024, 4118.46153819, 4125.38461511, 4132.82051255, 4123.33333306, 4103.33333306, 4051.41025600, 4146.92307672,12.0
4033.46153798, 4072.43589709, 4091.53846119, 4068.58974318, 4121.92307665, 4104.35897408, 4105.12820485, 4131.28205101, 4128.07692280, 4134.74358947, 4133.07692280, 4097.69230735, 4046.15384574, 4143.33333313,12.0
4049.10256369, 4084.99999966, 4094.74358940, 4079.99999966, 4124.61538434, 4093.33333299, 4102.94871767, 4133.46153819, 4127.56410229, 4136.92307672, 4144.99999980, 4099.48717914, 4046.92307651, 4145.76923056,12.0
4047.17948677, 4084.74358940, 4091.41025607, 4081.28205094, 4124.48717921, 4076.41025607, 4085.38461504, 4101.15384581, 4113.07692280, 4134.99999973, 4147.30769210, 4095.25640991, 4041.53846113, 4144.23076903,12.0
4045.76923036, 4081.28205094, 4091.53846119, 4081.02564068, 4123.20512793, 4088.07692273, 4088.71794837, 4083.84615350, 4102.43589709, 4131.79487152, 4151.28205108, 4090.89743555, 4037.30769189, 4146.15384595,12.0
4061.53846113, 4102.69230742, 4107.30769203, 4101.66666632, 4123.20512793, 4124.10256383, 4141.92307672, 4126.28205101, 4129.87179460, 4130.25640998, 4168.58974345, 4114.74358947, 4050.76923036, 4148.46153826,12.0
4045.89743548, 4108.07692280, 4102.69230742, 4101.53846119, 4121.28205101, 4125.89743562, 4140.89743569, 4140.38461518, 4138.71794851, 4128.58974332, 4177.94871781, 4116.41025614, 4050.25640984, 4140.64102544,12.0
