AF3,F7,F3,FC5,T7,P7,O1,O2,P8,T8,FC6,F4,F8,AF4,Label
4107.94871767, 4376.15384644, 4215.76923070, 4136.02564082, 4127.56410229, 4209.35897429, 4185.12820499, 4191.66666653, 4241.02564103, 4131.79487152, 3978.58974304, 4216.66666660, 4206.02564096, 4146.28205108,12.0
4109.87179460, 4370.76923105, 4208.46153840, 4119.87179460, 4126.53846126, 4210.25641019, 4200.51282038, 4203.97435891, 4240.89743590, 4135.76923056, 4040.51282010, 4205.51282045, 4211.53846147, 4145.12820492,12.0
4119.74358947, 4382.82051310, 4199.61538448, 4158.58974339, 4125.76923050, 4181.53846140, 4177.30769217, 4173.20512807, 4229.74358968, 4134.61538434, 4090.12820478, 4200.64102551, 4191.15384602, 4147.05128185,12.0
4112.43589716, 4351.79487201, 4184.61538448, 4154.99999980, 4125.76923050, 4143.46153826, 4133.71794844, 4127.43589716, 4186.79487166, 4132.43589716, 3954.48717887, 4186.28205115, 4172.17948704, 4148.46153826,12.0
4113.20512793, 4312.43589758, 4166.66666646, 4107.05128178, 4126.53846126, 4153.97435877, 4130.38461511, 4124.61538434, 4170.64102551, 4133.46153819, 4052.94871754, 4163.84615364, 4178.71794858, 4147.43589723,12.0
4119.61538434, 4321.41025655, 4165.38461518, 4136.66666646, 4126.79487152, 4182.43589730, 4158.97435877, 4151.02564082, 4199.61538448, 4134.23076896, 3929.35897367, 4155.64102544, 4180.51282038, 4145.64102544,12.0
4108.71794844, 4331.79487194, 4182.30769217, 4184.74358961, 4126.15384588, 4185.25641012, 4178.20512807, 4171.53846140, 4224.23076917, 4134.23076896, 2561.79486825, 4171.15384602, 4180.76923063, 4148.97435877,12.0
4101.66666632, 4297.05128212, 4167.82051262, 4156.41025621, 4126.53846126, 4173.33333320, 4162.94871774, 4158.58974339, 4202.69230763, 4134.35897408, 899.87178779, 4158.20512800, 4186.28205115, 4152.17948697,12.0
4094.35897402, 4265.38461539, 4133.84615357, 4125.51282024, 4127.17948691, 4150.12820492, 4131.41025614, 4121.66666639, 4154.74358954, 4134.10256383, 532.69229984, 4110.89743562, 4159.10256390, 4147.05128185,12.0
4094.23076889, 4281.15384623, 4145.64102544, 4149.35897415, 4126.66666639, 4137.69230749, 4143.20512800, 4129.35897408, 4157.17948697, 4134.48717921, 827.30768508, 4116.79487152, 4130.64102537, 4147.82051262,12.0
4097.69230735, 4290.89743597, 4162.56410236, 4166.79487159, 4127.56410229, 4146.79487159, 4158.71794851, 4160.38461518, 4191.02564089, 4134.23076896, 727.82050539, 4146.53846133, 4134.61538434, 4147.94871774,12.0
4089.10256376, 4249.48717949, 4133.58974332, 4140.76923056, 4127.56410229, 4119.23076896, 4110.51282024, 4133.46153819, 4159.74358954, 4134.23076896, 663.33332576, 4107.17948691, 4128.46153819, 4144.10256390,12.0
4090.25640991, 4196.79487166, 4100.38461504, 4092.82051248, 4126.53846126, 4063.33333292, 4054.48717907, 4083.84615350, 4100.89743555, 4134.48717921, 793.07691578, 4046.79487138, 4102.69230742, 4147.56410236,12.0
4086.66666632, 4165.64102544, 4087.94871761, 4054.10256369, 4126.66666639, 4051.53846113, 4041.02564061, 4064.99999959, 4094.87179453, 4134.87179460, 804.99999271, 4020.64102516, 4085.64102530, 4147.43589723,12.0
4082.69230735, 4177.30769217, 4089.87179453, 4065.76923036, 4127.30769203, 4074.74358940, 4053.20512779, 4071.28205094, 4115.12820485, 4134.87179460, 801.28204399, 4026.66666618, 4086.66666632, 4144.87179467,12.0
4084.23076889, 4200.25641012, 4103.84615357, 4086.28205094, 4127.43589716, 4069.48717907, 4062.94871754, 4079.87179453, 4109.10256383, 4134.74358947, 798.84614655, 4042.56410215, 4095.64102530, 4145.51282031,12.0
4078.97435863, 4176.92307679, 4104.10256383, 4063.33333292, 4124.23076896, 4047.17948677, 4062.30769189, 4074.10256376, 4087.43589709, 4134.74358947, 801.02563373, 4031.15384567, 4096.92307658, 4147.05128185,12.0
4083.71794837, 4139.48717928, 4083.07692273, 4025.12820465, 4123.71794844, 4040.25640984, 4036.02564054, 4045.12820472, 4061.79487138, 4134.87179460, 800.38460809, 3996.92307637, 4078.71794837, 4147.94871774,12.0
4081.02564068, 4120.12820485, 4065.51282010, 3998.20512765, 4130.51282024, 4024.23076875, 3995.12820458, 4007.82051234, 4022.43589695, 4134.74358947, 800.12819784, 3976.28205073, 4057.82051241, 4143.58974339,12.0
4076.53846119, 4101.02564068, 4065.51282010, 3992.17948663, 4132.69230742, 4009.99999952, 3983.07692252, 3997.43589688, 4003.33333278, 4134.74358947, 800.51281322, 3976.41025586, 4059.10256369, 4143.84615364,12.0
4083.07692273, 4090.64102530, 4063.33333292, 3972.17948663, 4127.17948691, 4008.97435849, 3994.87179432, 4010.64102516, 4015.89743541, 4134.99999973, 800.51281322, 3965.64102502, 4059.48717907, 4146.41025621,12.0
4079.74358940, 4085.51282017, 4052.82051241, 3931.53846085, 4125.12820485, 3995.89743535, 3990.64102509, 4011.92307644, 4014.23076875, 4134.61538434, 800.51281322, 3948.58974297, 4045.12820472, 4145.64102544,12.0
4080.38461504, 4075.64102530, 4056.79487138, 3924.48717880, 4126.66666639, 3989.61538406, 3980.38461483, 4005.76923029, 4010.51282003, 4133.58974332, 800.51281322, 3953.71794810, 4048.97435856, 4145.89743569,12.0
4078.84615350, 4098.33333299, 4067.05128164, 3940.38461476, 4124.74358947, 3998.46153791, 3988.71794817, 4020.89743541, 4030.51282003, 4133.71794844, 800.51281322, 3969.74358912, 4064.48717907, 4144.23076903,12.0
4073.97435863, 4118.46153819, 4060.76923036, 3932.17948649, 4122.94871767, 3978.20512765, 3973.46153791, 4016.92307644, 4022.82051234, 4134.48717921, 800.51281322, 3965.38461476, 4056.66666625, 4147.43589723,12.0
4077.17948684, 4105.38461511, 4058.33333292, 3928.71794803, 4125.89743562, 3963.84615322, 3952.05128143, 3995.89743535, 4004.23076875, 4134.48717921, 800.51281322, 3967.30769169, 4053.46153805, 4149.74358954,12.0
4070.89743555, 4130.25640998, 4075.89743555, 3958.33333271, 4127.30769203, 3993.20512765, 3971.28205073, 4013.97435849, 4024.61538413, 4134.23076896, 800.51281322, 4000.51281996, 4073.58974325, 4144.99999980,12.0
4071.41025607, 4156.53846133, 4081.41025607, 3961.28205066, 4126.66666639, 4003.46153791, 3979.61538406, 4025.12820465, 4031.41025593, 4134.35897408, 800.51281322, 4005.64102516, 4071.79487145, 4144.10256390,12.0
4072.30769196, 4121.02564075, 4062.05128164, 3926.53846085, 4126.66666639, 3981.28205073, 3953.84615322, 3988.20512765, 4002.30769176, 4134.48717921, 800.51281322, 3968.84615322, 4048.46153805, 4144.23076903,12.0
4063.58974318, 4100.64102530, 4049.48717907, 3911.92307623, 4126.79487152, 3974.87179432, 3953.20512758, 3968.46153784, 3981.28205073, 4134.35897408, 800.51281322, 3951.66666605, 4046.53846113, 4147.30769210,12.0
4065.12820472, 4116.28205101, 4052.43589702, 3919.87179418, 4126.02564075, 3990.51281996, 3984.48717894, 3991.53846099, 3984.87179432, 4134.35897408, 800.51281322, 3961.92307630, 4052.43589702, 4148.46153826,12.0
4060.12820472, 4130.12820485, 4065.51282010, 3933.71794803, 4123.84615357, 4019.99999952, 4015.12820465, 4022.05128157, 4019.10256362, 4134.35897408, 800.51281322, 3981.02564047, 4056.92307651, 4144.23076903,12.0
4059.61538420, 4154.99999980, 4079.10256376, 3953.71794810, 4125.38461511, 4047.43589702, 4035.38461490, 4042.94871754, 4048.58974318, 4134.35897408, 800.51281322, 3999.10256355, 4079.35897402, 4147.82051262,12.0
4060.38461497, 4169.48717935, 4084.23076889, 3976.15384560, 4127.05128178, 4054.61538420, 4049.35897395, 4059.99999959, 4039.23076882, 4134.35897408, 800.51281322, 4016.53846106, 4101.53846119, 4149.99999980,12.0
4054.23076882, 4164.61538441, 4089.10256376, 3994.87179432, 4122.94871767, 4060.51282010, 4059.74358933, 4080.25640991, 4051.53846113, 4134.35897408, 800.51281322, 4036.15384567, 4107.43589716, 4146.53846133,12.0
4059.87179446, 4171.92307679, 4089.35897402, 3994.23076868, 4122.56410229, 4059.23076882, 4048.71794830, 4076.79487145, 4079.23076889, 4134.35897408, 800.51281322, 4036.92307651, 4105.12820485, 4145.38461518,12.0
4056.53846113, 4186.28205115, 4089.87179453, 3987.82051227, 4126.79487152, 4047.69230728, 4040.25640984, 4066.02564061, 4076.53846119, 4134.35897408, 800.51281322, 4038.84615343, 4109.87179460, 4143.46153826,12.0
4056.53846113, 4186.28205115, 4089.87179453, 3987.82051227, 4126.79487152, 4047.69230728, 4040.25640984, 4066.02564061, 4076.53846119, 4134.35897408, 800.51281322, 4038.84615343, 4109.87179460, 4143.46153826,12.0
4055.38461497, 4209.35897429, 4110.25640998, 4014.74358926, 4127.05128178, 4076.92307658, 4072.82051248, 4095.38461504, 4091.15384581, 4134.35897408, 800.38460809, 4074.61538427, 4127.82051255, 4145.89743569,12.0
4058.07692266, 4211.41025634, 4119.99999973, 4032.56410208, 4124.35897408, 4102.82051255, 4082.43589709, 4109.99999973, 4099.74358940, 4134.35897408, 799.87178758, 4086.79487145, 4132.30769203, 4147.05128185,12.0
4051.66666625, 4187.30769217, 4108.58974332, 4013.07692259, 4124.48717921, 4076.41025607, 4050.25640984, 4079.74358940, 4071.41025607, 4134.35897408, 799.23076194, 4066.28205087, 4118.33333306, 4143.46153826,12.0
4057.30769189, 4217.69230763, 4126.28205101, 4030.38461490, 4126.15384588, 4086.15384581, 4069.61538420, 4085.12820478, 4087.30769196, 4134.35897408, 801.02563373, 4099.61538427, 4131.66666639, 4144.10256390,12.0
4053.20512779, 4260.76923077, 4151.53846133, 4073.33333299, 4125.76923050, 4132.30769203, 4112.69230742, 4121.92307665, 4127.94871767, 4134.35897408, 798.97435168, 4145.25641005, 4157.94871774, 4146.53846133,12.0
4050.51282010, 4241.15384616, 4142.82051262, 4064.61538420, 4123.33333306, 4128.33333306, 4100.25640991, 4118.97435870, 4119.87179460, 4134.35897408, 797.05127476, 4125.64102537, 4151.28205108, 4146.53846133,12.0
4059.35897395, 4242.82051282, 4147.56410236, 4063.71794830, 4122.69230742, 4124.99999973, 4104.61538434, 4119.74358947, 4128.46153819, 4134.35897408, 811.15383886, 4129.23076896, 4148.84615364, 4142.69230749,12.0
4051.41025600, 4271.41025648, 4166.92307672, 4105.64102537, 4123.71794844, 4153.20512800, 4128.58974332, 4131.28205101, 4153.84615364, 4134.35897408, 819.99999271, 4163.33333313, 4162.94871774, 4144.87179467,12.0
4052.56410215, 4247.17948718, 4155.64102544, 4096.79487145, 4125.12820485, 4152.82051262, 4108.71794844, 4106.28205101, 4134.10256383, 4134.35897408, 820.12819784, 4143.84615364, 4155.25641005, 4150.38461518,12.0
4054.74358933, 4209.87179481, 4129.74358947, 4042.82051241, 4126.15384588, 4124.10256383, 4078.84615350, 4083.97435863, 4108.71794844, 4134.35897408, 829.74358252, 4099.10256376, 4136.92307672, 4145.76923056,12.0
4046.28205087, 4240.64102564, 4143.20512800, 4056.92307651, 4122.94871767, 4128.84615357, 4099.23076889, 4103.71794844, 4126.53846126, 4134.35897408, 837.82050560, 4116.15384588, 4147.56410236, 4147.56410236,12.0
4047.69230728, 4284.10256418, 4174.99999986, 4117.69230742, 4120.64102537, 4154.10256390, 4134.61538434, 4127.69230742, 4148.33333313, 4134.35897408, 855.76922362, 4164.74358954, 4162.17948697, 4151.92307672,12.0
4042.43589702, 4277.56410264, 4172.82051269, 4135.25640998, 4123.46153819, 4152.82051262, 4128.84615357, 4124.99999973, 4141.02564082, 4134.35897408, 881.53845439, 4165.51282031, 4149.35897415, 4147.30769210,12.0
4042.56410215, 4244.61538462, 4153.33333313, 4110.38461511, 4124.35897408, 4134.74358947, 4104.61538434, 4107.30769203, 4121.92307665, 4134.35897408, 892.94871086, 4130.76923050, 4134.61538434, 4148.33333313,12.0
4043.97435856, 4235.89743590, 4154.87179467, 4098.58974325, 4123.84615357, 4137.56410236, 4112.56410229, 4112.82051255, 4119.87179460, 4134.35897408, 906.53845445, 4125.64102537, 4141.28205108, 4148.58974339,12.0
4039.23076882, 4258.97435898, 4173.33333320, 4114.35897408, 4124.61538434, 4156.66666646, 4147.30769210, 4150.25641005, 4144.48717928, 4134.35897408, 928.97435196, 4158.33333313, 4158.71794851, 4145.89743569,12.0
4045.12820472, 4269.35897443, 4174.23076910, 4121.66666639, 4125.25640998, 4150.76923056, 4138.71794851, 4153.84615364, 4155.12820492, 4134.35897408, 951.41024940, 4159.35897415, 4158.33333313, 4146.41025621,12.0
4039.48717907, 4270.25641033, 4171.66666653, 4119.35897408, 4123.46153819, 4142.17948697, 4114.10256383, 4136.28205108, 4158.97435877, 4134.61538434, 975.25640331, 4150.76923056, 4154.10256390, 4144.23076903,12.0
4037.05128164, 4257.17948718, 4183.07692294, 4118.58974332, 4123.46153819, 4146.15384595, 4124.99999973, 4151.15384595, 4168.71794858, 4134.48717921, 998.07691620, 4168.97435884, 4164.48717928, 4144.10256390,12.0
4041.02564061, 4248.20512821, 4183.58974345, 4117.82051255, 4124.87179460, 4146.66666646, 4138.71794851, 4159.10256390, 4154.99999980, 4134.23076896, 1026.15383935, 4167.30769210, 4158.84615364, 4145.64102544,12.0
4034.35897388, 4258.97435898, 4173.84615371, 4114.61538434, 4123.58974332, 4157.30769210, 4139.23076903, 4139.35897415, 4138.71794851, 4134.99999973, 1047.56409576, 4149.48717928, 4142.30769210, 4147.17948697,12.0
4039.48717907, 4249.23076923, 4170.25641012, 4112.17948691, 4123.20512793, 4159.87179467, 4131.41025614, 4127.43589716, 4136.79487159, 4134.35897408, 1071.66665993, 4143.20512800, 4146.53846133, 4146.41025621,12.0
4040.12820472, 4226.15384609, 4160.64102544, 4103.71794844, 4124.48717921, 4132.43589716, 4119.35897408, 4121.28205101, 4123.58974332, 4130.51282024, 1106.41024974, 4132.56410229, 4149.99999980, 4143.07692287,12.0
4040.25640984, 4235.51282052, 4154.48717928, 4094.48717914, 4124.48717921, 4127.30769203, 4132.94871767, 4124.99999973, 4107.69230742, 4128.97435870, 1129.48717289, 4117.94871767, 4135.76923056, 4147.43589723,12.0
4043.97435856, 4284.87179495, 4171.66666653, 4124.48717921, 4124.23076896, 4174.61538448, 4173.71794858, 4158.97435877, 4134.61538434, 4130.64102537, 1164.23076270, 4132.82051255, 4133.07692280, 4149.61538441,12.0
4035.25640977, 4305.51282066, 4173.84615371, 4144.10256390, 4122.94871767, 4186.28205115, 4170.51282038, 4159.61538441, 4148.71794851, 4130.25640998, 1213.33332687, 4141.28205108, 4144.74358954, 4149.74358954,12.0
4039.61538420, 4284.61538469, 4155.25641005, 4106.28205101, 4122.69230742, 4137.05128185, 4129.87179460, 4111.28205101, 4111.92307665, 4128.58974332, 1242.43589105, 4119.87179460, 4135.51282031, 4150.89743569,12.0
4038.71794830, 4273.71794879, 4150.25641005, 4091.28205094, 4125.12820485, 4115.25640998, 4106.41025614, 4094.99999966, 4093.46153812, 4129.74358947, 1260.64101932, 4109.87179460, 4119.87179460, 4147.30769210,12.0
4031.92307644, 4302.05128219, 4165.38461518, 4137.94871774, 4124.23076896, 4143.84615364, 4104.48717921, 4121.28205101, 4124.23076896, 4131.02564075, 1303.07691683, 4134.61538434, 4149.61538441, 4148.71794851,12.0
4043.07692266, 4343.46153867, 4173.58974345, 4159.35897415, 4122.43589716, 4154.74358954, 4111.66666639, 4130.51282024, 4143.20512800, 4130.38461511, 1344.10255792, 4152.30769210, 4173.97435884, 4146.66666646,12.0
4035.12820465, 4348.07692329, 4166.41025621, 4146.79487159, 4121.02564075, 4142.82051262, 4115.51282024, 4125.51282024, 4135.12820485, 4129.99999973, 1369.74358363, 4143.84615364, 4158.84615364, 4144.10256390,12.0
4032.56410208, 4365.89743618, 4183.84615371, 4182.17948704, 4121.79487152, 4161.02564082, 4136.41025621, 4156.02564082, 4156.66666646, 4130.38461511, 1409.35896832, 4167.17948697, 4158.71794851, 4148.97435877,12.0
4037.30769189, 4380.51282079, 4190.12820499, 4195.89743576, 4124.99999973, 4159.87179467, 4144.23076903, 4171.92307679, 4169.35897422, 4130.12820485, 1439.74358377, 4175.38461525, 4161.66666646, 4147.82051262,12.0
4026.53846106, 4347.69230790, 4160.12820492, 4147.43589723, 4123.58974332, 4125.51282024, 4105.64102537, 4128.58974332, 4136.41025621, 4130.38461511, 1464.74358384, 4134.99999973, 4157.56410236, 4147.56410236,12.0
4034.23076875, 4345.64102585, 4154.74358954, 4149.99999980, 4124.35897408, 4129.35897408, 4081.53846119, 4100.89743555, 4124.61538434, 4131.41025614, 1490.51281468, 4125.12820485, 4171.92307679, 4146.66666646,12.0
4032.43589695, 4370.89743618, 4173.58974345, 4198.58974345, 4126.15384588, 4153.33333313, 4108.07692280, 4132.69230742, 4142.17948697, 4131.28205101, 1515.64101988, 4146.41025621, 4182.69230756, 4146.41025621,12.0
4027.43589695, 4363.20512842, 4166.28205108, 4194.48717935, 4125.25640998, 4142.05128185, 4116.41025614, 4139.48717928, 4128.97435870, 4129.99999973, 1524.35896860, 4132.43589716, 4173.84615371, 4148.58974339,12.0
4034.23076875, 4348.58974380, 4146.79487159, 4154.23076903, 4124.35897408, 4123.07692280, 4089.74358940, 4094.35897402, 4095.76923043, 4130.76923050, 1529.10255834, 4107.05128178, 4192.43589730, 4143.20512800,12.0
4025.51282003, 4392.82051310, 4166.79487159, 4173.84615371, 4123.07692280, 4138.20512800, 4108.07692280, 4100.12820478, 4113.07692280, 4132.05128178, 1596.66666104, 4141.28205108, 4233.71794865, 4145.64102544,12.0
4030.25640977, 4434.23076965, 4197.69230756, 4236.53846154, 4124.74358947, 4172.43589730, 4155.89743569, 4154.87179467, 4150.25641005, 4131.53846126, 1652.30768682, 4177.56410243, 4266.28205129, 4149.23076903,12.0
4029.87179439, 4411.02564138, 4187.17948704, 4240.64102564, 4124.10256383, 4175.12820499, 4153.46153826, 4158.71794851, 4144.35897415, 4130.12820485, 1619.10255855, 4151.79487159, 4303.46153860, 4146.41025621,12.0
4028.33333285, 4392.56410285, 4167.94871774, 4199.10256397, 4123.71794844, 4148.20512800, 4115.25640998, 4120.38461511, 4128.07692280, 4129.99999973, 1630.89743034, 4124.87179460, 4348.20512842, 4149.10256390,12.0
4039.10256369, 4393.58974387, 4173.33333320, 4203.33333327, 4126.28205101, 4146.79487159, 4113.71794844, 4119.99999973, 4137.05128185, 4130.89743562, 1715.25640491, 4137.82051262, 4407.69230804, 4147.56410236,12.0
4028.07692259, 4413.71794907, 4176.79487166, 4244.61538462, 4122.05128178, 4156.92307672, 4139.35897415, 4143.46153826, 4138.84615364, 4130.25640998, 1722.43589209, 4139.23076903, 4461.28205170, 4145.89743569,12.0
4031.66666618, 4436.53846196, 4163.46153826, 4259.74358975, 4121.02564075, 4140.64102544, 4123.58974332, 4127.05128178, 4120.38461511, 4129.10256383, 1729.35896901, 4110.12820485, 4455.51282093, 4146.66666646,12.0
4034.87179439, 4433.20512863, 4167.43589723, 4276.66666674, 4125.76923050, 4142.56410236, 4113.46153819, 4120.51282024, 4127.69230742, 4130.25640998, 1823.71794358, 4124.10256383, 4455.76923119, 4146.41025621,12.0
4026.15384567, 4438.58974401, 4191.28205115, 4318.58974373, 4125.64102537, 4164.23076903, 4148.07692287, 4150.89743569, 4153.97435877, 4131.02564075, 1877.30768731, 4167.43589723, 4515.89743646, 4149.10256390,12.0
4034.48717900, 4449.74359016, 4196.02564089, 4341.28205149, 4124.48717921, 4168.84615371, 4164.48717928, 4161.41025621, 4156.79487159, 4130.76923050, 1909.99999507, 4167.69230749, 4511.92307748, 4146.53846133,12.0
4028.46153798, 4460.12820555, 4179.23076910, 4318.58974373, 4123.97435870, 4171.66666653, 4154.48717928, 4148.71794851, 4144.74358954, 4130.89743562, 1978.33332854, 4141.02564082, 4444.35897478, 4144.74358954,12.0
4031.28205080, 4467.94871844, 4176.92307679, 4298.33333341, 4125.38461511, 4174.61538448, 4146.79487159, 4142.94871774, 4138.71794851, 4131.02564075, 2037.05127740, 4131.92307665, 4456.79487222, 4147.17948697,12.0
4032.30769183, 4460.76923119, 4184.87179474, 4325.64102578, 4124.99999973, 4166.02564082, 4141.28205108, 4143.20512800, 4147.94871774, 4130.89743562, 2083.97435439, 4138.71794851, 4494.74359023, 4144.48717928,12.0
4020.12820465, 4448.97435940, 4189.61538448, 4359.35897457, 4122.56410229, 4176.15384602, 4146.79487159, 4153.71794851, 4168.07692287, 4131.02564075, 2124.99999549, 4154.99999980, 4490.76923126, 4146.02564082,12.0
4031.53846106, 4466.79487229, 4199.74358961, 4359.48717970, 4125.25640998, 4180.25641012, 4157.94871774, 4166.79487159, 4167.94871774, 4130.89743562, 2136.41025197, 4173.84615371, 4509.10256466, 4147.56410236,12.0
4027.94871747, 4471.15384664, 4196.92307679, 4341.92307714, 4125.25640998, 4148.33333313, 4142.56410236, 4149.35897415, 4149.99999980, 4130.89743562, 2138.97435453, 4162.05128185, 4529.23076986, 4144.48717928,12.0
4023.97435849, 4420.25641061, 4178.58974345, 4335.00000021, 4125.12820485, 4137.56410236, 4118.84615357, 4118.84615357, 4141.28205108, 4131.02564075, 2158.58973915, 4129.61538434, 4510.76923133, 4143.97435877,12.0
4029.48717900, 4419.48717984, 4176.66666653, 4343.97435919, 4128.20512793, 4169.48717935, 4126.53846126, 4122.30769203, 4141.28205108, 4130.89743562, 2185.25640588, 4131.92307665, 4512.94871851, 4144.35897415,12.0
4022.30769183, 4472.82051331, 4190.89743576, 4364.35897457, 4124.61538434, 4181.28205115, 4143.71794851, 4146.92307672, 4146.41025621, 4131.02564075, 2222.69230339, 4157.43589723, 4509.48718005, 4147.43589723,12.0
4028.33333285, 4463.71794921, 4190.76923063, 4366.66666695, 4124.23076896, 4158.33333313, 4133.33333306, 4142.82051262, 4150.25641005, 4130.89743562, 2261.92307269, 4154.99999980, 4477.43589793, 4148.07692287,12.0
4024.23076875, 4435.51282093, 4184.99999986, 4353.07692329, 4129.23076896, 4149.74358954, 4128.07692280, 4132.56410229, 4153.71794851, 4130.89743562, 2293.84614968, 4148.33333313, 4477.56410305, 4144.35897415,12.0
4022.17948670, 4437.56410298, 4196.53846140, 4367.82051310, 4128.46153819, 4165.76923056, 4146.53846133, 4145.25641005, 4161.15384595, 4131.02564075, 2315.89743180, 4162.82051262, 4500.00000056, 4145.89743569,12.0
4028.97435849, 4442.43589786, 4203.84615378, 4383.07692336, 4128.20512793, 4170.12820499, 4148.71794851, 4150.25641005, 4158.97435877, 4130.89743562, 2342.05127802, 4169.74358961, 4515.12820569, 4146.92307672,12.0
4021.66666618, 4460.38461581, 4204.74358968, 4385.89743618, 4127.94871767, 4164.35897415, 4153.84615364, 4164.35897415, 4162.05128185, 4130.89743562, 2386.02563707, 4179.48717935, 4525.64102620, 4144.48717928,12.0
4031.15384567, 4473.97435946, 4199.35897422, 4375.89743618, 4125.38461511, 4161.79487159, 4162.56410236, 4171.15384602, 4162.69230749, 4130.89743562, 2397.30768842, 4172.82051269, 4512.69230825, 4144.61538441,12.0
4029.74358926, 4423.20512856, 4174.10256397, 4329.23076937, 4126.15384588, 4149.99999980, 4129.48717921, 4137.17948697, 4134.87179460, 4130.89743562, 2384.23076527, 4129.35897408, 4502.30769287, 4146.02564082,12.0
4025.25640977, 4384.87179515, 4166.02564082, 4313.58974373, 4128.97435870, 4144.99999980, 4103.20512793, 4110.76923050, 4115.25640998, 4131.02564075, 2427.69230380, 4118.46153819, 4522.43589800, 4147.69230749,12.0
4034.48717900, 4415.89743625, 4186.28205115, 4351.66666688, 4128.33333306, 4160.12820492, 4127.82051255, 4122.82051255, 4134.35897408, 4130.89743562, 2491.66666292, 4151.66666646, 4535.25641089, 4146.41025621,12.0
4023.84615336, 4426.15384651, 4184.35897422, 4363.84615406, 4124.23076896, 4155.12820492, 4140.38461518, 4132.30769203, 4148.58974339, 4130.89743562, 2501.53845786, 4152.56410236, 4529.10256466, 4143.84615364,12.0
4027.17948670, 4422.43589779, 4176.92307679, 4344.35897457, 4126.15384588, 4146.02564082, 4134.87179460, 4136.53846133, 4150.89743569, 4131.02564075, 2499.23076555, 4140.51282031, 4529.23076986, 4146.66666646,12.0
4027.43589695, 4425.64102599, 4181.92307679, 4340.89743611, 4128.97435870, 4154.99999980, 4131.66666639, 4136.66666646, 4147.82051262, 4130.89743562, 2525.76922709, 4147.30769210, 4523.97435953, 4148.33333313,12.0
4020.76923029, 4393.33333362, 4173.84615371, 4331.92307707, 4126.53846126, 4143.33333313, 4110.89743562, 4109.10256383, 4124.10256383, 4131.02564075, 2554.23076562, 4134.23076896, 4507.17948774, 4146.41025621,12.0
4031.92307644, 4380.76923105, 4179.10256397, 4328.20512835, 4126.92307665, 4136.53846133, 4110.51282024, 4113.58974332, 4122.30769203, 4130.89743562, 2577.30768877, 4138.84615364, 4514.35897492, 4144.61538441,12.0
4024.10256362, 4413.07692343, 4197.56410243, 4348.97435919, 4126.66666639, 4158.84615364, 4133.20512793, 4153.58974339, 4146.79487159, 4130.89743562, 2602.94871448, 4171.66666653, 4529.35897499, 4144.99999980,12.0
4022.56410208, 4405.51282086, 4189.99999986, 4338.20512842, 4126.41025614, 4150.89743569, 4129.35897408, 4148.20512800, 4144.23076903, 4131.02564075, 2621.92307345, 4159.23076903, 4518.84615441, 4147.17948697,12.0
4022.69230721, 4385.76923105, 4174.23076910, 4329.87179501, 4126.41025614, 4133.71794844, 4121.28205101, 4126.28205101, 4137.69230749, 4130.89743562, 2634.99999660, 4132.94871767, 4507.56410312, 4147.05128185,12.0
4016.92307644, 4416.28205163, 4189.10256397, 4351.92307714, 4126.28205101, 4168.97435884, 4148.46153826, 4144.10256390, 4154.48717928, 4130.89743562, 2669.48717616, 4158.07692287, 4521.53846210, 4147.56410236,12.0
4029.74358926, 4428.58974394, 4208.84615378, 4348.46153867, 4129.35897408, 4196.79487166, 4175.25641012, 4173.46153833, 4159.99999980, 4131.02564075, 2713.84615058, 4188.84615371, 4540.76923140, 4148.07692287,12.0
4022.17948670, 4403.20512856, 4193.20512807, 4334.74358996, 4127.69230742, 4161.02564082, 4146.53846133, 4153.33333313, 4137.43589723, 4130.89743562, 2720.51281725, 4162.56410236, 4526.66666723, 4147.43589723,12.0
4023.46153798, 4391.66666695, 4179.61538448, 4327.17948732, 4125.89743562, 4133.58974332, 4111.92307665, 4117.30769203, 4120.12820485, 4131.02564075, 2719.99999674, 4136.15384595, 4493.97435946, 4148.97435877,12.0
4031.79487131, 4390.89743618, 4192.94871781, 4308.07692322, 4128.20512793, 4153.07692287, 4132.69230742, 4127.69230742, 4124.61538434, 4130.89743562, 2754.99999681, 4158.97435877, 4482.94871844, 4148.07692287,12.0
4022.05128157, 4381.66666695, 4198.33333320, 4301.41025655, 4129.10256383, 4163.84615364, 4145.25641005, 4140.51282031, 4134.61538434, 4130.89743562, 2779.23076611, 4168.84615371, 4485.76923126, 4146.53846133,12.0
4028.07692259, 4376.53846182, 4194.61538448, 4329.10256425, 4129.48717921, 4148.58974339, 4115.89743562, 4123.33333306, 4135.12820485, 4131.02564075, 2781.66666354, 4157.94871774, 4480.00000049, 4145.25641005,12.0
4024.23076875, 4373.71794900, 4202.69230763, 4335.89743611, 4127.82051255, 4144.10256390, 4121.66666639, 4135.38461518, 4138.84615364, 4130.89743562, 2799.10256105, 4174.87179474, 4479.87179536, 4143.97435877,12.0
4025.38461490, 4354.87179508, 4203.97435891, 4306.92307707, 4125.25640998, 4154.87179467, 4143.07692287, 4161.92307672, 4144.48717928, 4130.89743562, 2795.89743284, 4177.82051269, 4480.76923126, 4148.71794851,12.0
4033.71794824, 4351.02564124, 4187.69230756, 4299.87179501, 4124.99999973, 4152.56410236, 4120.76923050, 4140.51282031, 4133.84615357, 4130.89743562, 2780.89743277, 4144.87179467, 4462.30769273, 4146.28205108,12.0
4025.89743541, 4376.92307720, 4193.20512807, 4316.02564117, 4125.64102537, 4145.89743569, 4115.76923050, 4124.87179460, 4133.97435870, 4130.89743562, 2812.94871490, 4150.89743569, 4457.94871837, 4142.30769210,12.0
4035.51282003, 4375.51282079, 4209.48717942, 4312.43589758, 4127.43589716, 4150.25641005, 4142.56410236, 4144.99999980, 4143.20512800, 4131.15384588, 2837.94871496, 4179.23076910, 4465.89743639, 4147.94871774,12.0
4030.76923029, 4351.15384637, 4208.07692301, 4320.38461553, 4127.43589716, 4168.84615371, 4160.89743569, 4162.94871774, 4136.41025621, 4131.41025614, 2835.51281753, 4182.05128192, 4458.33333375, 4150.25641005,12.0
4025.76923029, 4373.58974387, 4221.79487173, 4345.25641047, 4126.66666639, 4189.74358961, 4176.79487166, 4172.30769217, 4144.48717928, 4129.99999973, 2873.07692016, 4198.71794858, 4458.20512863, 4148.84615364,12.0
4034.48717900, 4370.12820541, 4218.20512814, 4315.51282066, 4127.56410229, 4165.12820492, 4157.69230749, 4148.58974339, 4145.25641005, 4130.64102537, 2898.46153562, 4189.61538448, 4465.51282100, 4146.66666646,12.0
4022.69230721, 4314.23076937, 4181.02564089, 4266.79487187, 4126.02564075, 4121.15384588, 4113.46153819, 4108.97435870, 4113.46153819, 4132.56410229, 2878.97435606, 4145.25641005, 4443.71794914, 4146.66666646,12.0
4026.79487131, 4314.74358989, 4186.02564089, 4280.51282059, 4126.66666639, 4139.61538441, 4121.79487152, 4115.64102537, 4109.35897408, 4126.41025614, 2899.74358690, 4151.15384595, 4420.38461574, 4147.69230749,12.0
4027.69230721, 4341.28205149, 4208.58974352, 4299.61538476, 4129.10256383, 4174.61538448, 4144.61538441, 4141.15384595, 4134.48717921, 4121.92307665, 2937.69230492, 4172.30769217, 4418.46153881, 4145.76923056,12.0
4022.56410208, 4313.46153860, 4193.33333320, 4286.79487187, 4127.69230742, 4144.48717928, 4133.46153819, 4133.97435870, 4125.25640998, 4129.99999973, 2935.38461261, 4151.92307672, 4417.56410292, 4146.41025621,12.0
4032.05128157, 4284.35897443, 4179.23076910, 4274.35897443, 4125.51282024, 4128.71794844, 4134.48717921, 4136.92307672, 4117.94871767, 4137.30769210, 2943.97435620, 4138.71794851, 4421.15384651, 4146.79487159,12.0
4021.66666618, 4283.46153853, 4181.41025628, 4264.48717949, 4124.99999973, 4155.25641005, 4130.25640998, 4145.25641005, 4131.15384588, 4134.74358947, 2972.17948447, 4142.94871774, 4429.48717984, 4146.02564082,12.0
4023.84615336, 4285.51282059, 4182.30769217, 4265.64102564, 4128.33333306, 4150.12820492, 4108.58974332, 4115.89743562, 4109.74358947, 4133.20512793, 2987.43589480, 4138.46153826, 4420.12820548, 4147.82051262,12.0
4027.82051234, 4295.89743597, 4188.71794858, 4282.17948725, 4129.99999973, 4135.51282031, 4117.82051255, 4100.51282017, 4094.48717914, 4135.76923056, 2999.10256147, 4147.43589723, 4404.35897471, 4147.30769210,12.0
4021.53846106, 4295.00000007, 4191.28205115, 4279.74358982, 4128.58974332, 4136.66666646, 4117.94871767, 4111.15384588, 4107.05128178, 4135.12820485, 3011.15384352, 4155.89743569, 4404.23076958, 4146.41025621,12.0
4031.02564054, 4302.30769245, 4197.30769217, 4281.15384623, 4128.84615357, 4144.35897415, 4123.84615357, 4139.61538441, 4128.46153819, 4133.84615357, 3062.17948468, 4166.53846133, 4418.07692343, 4145.12820492,12.0
4026.28205080, 4324.87179501, 4211.15384609, 4294.10256418, 4127.56410229, 4146.41025621, 4162.43589723, 4164.10256390, 4152.17948697, 4133.33333306, 3149.48717713, 4189.35897422, 4419.87179522, 4142.82051262,12.0
4027.94871747, 4316.66666681, 4214.87179481, 4295.38461546, 4128.46153819, 4154.23076903, 4161.28205108, 4151.15384595, 4149.23076903, 4133.84615357, 3186.53845932, 4191.66666653, 4406.53846189, 4145.12820492,12.0
4032.05128157, 4302.05128219, 4215.12820506, 4294.35897443, 4129.61538434, 4171.66666653, 4139.23076903, 4155.51282031, 4134.23076896, 4134.87179460, 3170.64102335, 4188.71794858, 4400.76923112, 4145.64102544,12.0
4026.92307644, 4301.41025655, 4215.12820506, 4285.64102571, 4126.92307665, 4163.97435877, 4139.10256390, 4176.02564089, 4147.82051262, 4134.23076896, 3159.74358745, 4188.46153833, 4394.48717977, 4145.64102544,12.0
4037.82051241, 4292.56410264, 4204.23076917, 4266.41025641, 4127.43589716, 4139.87179467, 4127.05128178, 4152.94871774, 4159.23076903, 4134.35897408, 3158.84615156, 4170.38461525, 4373.20512849, 4146.92307672,12.0
4034.99999952, 4283.33333341, 4196.79487166, 4255.76923077, 4129.35897408, 4147.56410236, 4121.28205101, 4140.51282031, 4142.43589723, 4134.48717921, 3146.28204892, 4159.99999980, 4356.28205149, 4143.97435877,12.0
4035.25640977, 4287.69230777, 4202.17948711, 4239.87179488, 4128.84615357, 4159.87179467, 4136.66666646, 4161.41025621, 4137.43589723, 4134.35897408, 3118.07692072, 4170.51282038, 4345.89743611, 4144.99999980,12.0
4036.28205080, 4274.61538469, 4198.71794858, 4190.64102551, 4127.30769203, 4133.46153819, 4139.87179467, 4155.25641005, 4138.71794851, 4134.35897408, 3085.12820270, 4172.56410243, 4317.05128219, 4148.07692287,12.0
4028.97435849, 4248.33333334, 4190.25641012, 4136.53846133, 4126.79487152, 4122.94871767, 4132.17948691, 4139.48717928, 4126.28205101, 4134.35897408, 3077.94871545, 4162.05128185, 4281.92307700, 4147.94871774,12.0
4039.10256369, 4238.84615385, 4192.94871781, 4118.46153819, 4127.82051255, 4159.23076903, 4133.33333306, 4144.61538441, 4127.69230742, 4134.35897408, 3094.35897193, 4162.05128185, 4271.02564110, 4148.33333313,12.0
4029.48717900, 4240.12820513, 4199.87179474, 4108.71794844, 4126.79487152, 4162.05128185, 4155.76923056, 4156.66666646, 4147.56410236, 4134.35897408, 3100.89743347, 4179.10256397, 4272.43589751, 4145.76923056,12.0
4026.92307644, 4240.64102564, 4202.30769224, 4078.33333299, 4126.92307665, 4123.33333306, 4164.23076903, 4154.74358954, 4146.53846133, 4134.35897408, 3093.20512578, 4184.10256397, 4253.84615385, 4145.12820492,12.0
4036.41025593, 4212.17948711, 4187.17948704, 4046.02564061, 4129.74358947, 4116.28205101, 4113.33333306, 4124.99999973, 4114.74358947, 4134.35897408, 3091.53845911, 4155.51282031, 4221.41025634, 4146.02564082,12.0
4024.61538413, 4168.71794858, 4174.74358961, 4034.99999952, 4127.05128178, 4127.69230742, 4080.89743555, 4106.53846126, 4098.33333299, 4134.35897408, 3115.25640783, 4147.69230749, 4214.35897429, 4144.48717928,12.0
4028.71794824, 4161.15384595, 4181.53846140, 4040.38461497, 4123.97435870, 4119.61538434, 4105.25640998, 4117.94871767, 4113.46153819, 4134.35897408, 3132.43589508, 4170.25641012, 4214.61538455, 4144.35897415,12.0
4029.48717900, 4179.10256397, 4185.25641012, 4051.92307651, 4126.15384588, 4118.33333306, 4120.89743562, 4126.41025614, 4136.79487159, 4134.35897408, 3128.84615149, 4173.84615371, 4191.41025628, 4144.23076903,12.0
4029.35897388, 4159.74358954, 4178.33333320, 4049.23076882, 4125.76923050, 4142.17948697, 4112.05128178, 4127.43589716, 4129.10256383, 4134.35897408, 3125.89743354, 4160.64102544, 4170.38461525, 4145.76923056,12.0
4032.82051234, 4134.10256383, 4178.46153833, 4047.56410215, 4124.61538434, 4146.15384595, 4122.82051255, 4145.12820492, 4118.33333306, 4134.35897408, 3123.84615149, 4167.43589723, 4172.69230756, 4143.71794851,12.0
4022.56410208, 4149.23076903, 4191.92307679, 4070.76923043, 4128.84615357, 4122.17948691, 4155.51282031, 4168.33333320, 4152.30769210, 4134.35897408, 3129.23076687, 4192.56410243, 4177.56410243, 4141.41025621,12.0
4029.87179439, 4139.87179467, 4189.74358961, 4067.17948677, 4131.79487152, 4118.84615357, 4153.58974339, 4152.82051262, 4166.02564082, 4134.35897408, 3141.02563867, 4185.51282038, 4159.61538441, 4146.92307672,12.0
4032.05128157, 4096.02564068, 4161.28205108, 4028.46153798, 4126.79487152, 4131.79487152, 4117.30769203, 4110.38461511, 4118.46153819, 4134.35897408, 3136.66666431, 4142.94871774, 4132.43589716, 4147.43589723,12.0
4032.30769183, 4099.74358940, 4156.28205108, 4029.48717900, 4123.84615357, 4135.64102544, 4110.51282024, 4112.94871767, 4105.38461511, 4134.35897408, 3133.84615149, 4137.82051262, 4130.25640998, 4143.46153826,12.0
4037.82051241, 4129.35897408, 4172.69230756, 4054.48717907, 4127.43589716, 4124.87179460, 4128.84615357, 4134.74358947, 4141.66666646, 4134.35897408, 3150.89743361, 4162.69230749, 4138.84615364, 4142.56410236,12.0
4028.46153798, 4113.07692280, 4163.71794851, 4039.10256369, 4127.43589716, 4121.15384588, 4110.51282024, 4112.05128178, 4132.43589716, 4134.35897408, 3156.41025412, 4148.58974339, 4126.15384588, 4142.17948697,12.0
4037.30769189, 4101.02564068, 4162.05128185, 4018.58974311, 4125.76923050, 4133.58974332, 4097.82051248, 4108.20512793, 4110.89743562, 4134.35897408, 3162.56410027, 4141.15384595, 4121.66666639, 4145.89743569,12.0
4039.10256369, 4113.20512793, 4176.92307679, 4024.23076875, 4125.89743562, 4131.41025614, 4119.74358947, 4132.82051255, 4127.05128178, 4134.35897408, 3190.12820291, 4165.38461518, 4130.76923050, 4146.66666646,12.0
4032.82051234, 4098.33333299, 4171.92307679, 4032.94871747, 4125.89743562, 4109.48717921, 4120.51282024, 4128.84615357, 4129.35897408, 4134.35897408, 3208.84615163, 4162.30769210, 4128.71794844, 4145.89743569,12.0
4041.15384574, 4083.46153812, 4172.30769217, 4039.61538420, 4123.97435870, 4111.15384588, 4124.23076896, 4130.64102537, 4128.58974332, 4134.35897408, 3218.97435682, 4161.53846133, 4127.30769203, 4146.28205108,12.0
4035.12820465, 4084.10256376, 4183.07692294, 4042.17948677, 4123.58974332, 4141.79487159, 4135.25640998, 4136.02564082, 4141.92307672, 4134.35897408, 3230.38461323, 4178.20512807, 4130.64102537, 4143.84615364,12.0
4038.97435856, 4084.35897402, 4175.89743576, 4035.51282003, 4125.64102537, 4136.28205108, 4120.12820485, 4118.58974332, 4137.43589723, 4134.35897408, 3232.56410041, 4166.02564082, 4124.74358947, 4145.76923056,12.0
4038.58974318, 4091.15384581, 4166.79487159, 4028.33333285, 4124.35897408, 4097.30769196, 4118.71794844, 4128.33333306, 4139.48717928, 4134.35897408, 3238.84615170, 4153.07692287, 4114.61538434, 4146.28205108,12.0
4029.48717900, 4090.38461504, 4175.12820499, 4040.76923036, 4123.97435870, 4099.48717914, 4135.64102544, 4152.56410236, 4161.79487159, 4134.35897408, 3265.25640818, 4167.94871774, 4121.79487152, 4144.23076903,12.0
4038.97435856, 4074.61538427, 4178.07692294, 4055.25640984, 4128.07692280, 4137.94871774, 4119.10256383, 4135.12820485, 4151.92307672, 4134.35897408, 3286.02563901, 4171.53846140, 4132.82051255, 4144.87179467,12.0
4030.89743541, 4067.94871754, 4170.76923063, 4041.15384574, 4127.56410229, 4137.17948697, 4100.25640991, 4115.76923050, 4130.12820485, 4134.35897408, 3294.10256209, 4161.79487159, 4126.15384588, 4143.33333313,12.0
4030.38461490, 4088.84615350, 4186.79487166, 4035.89743541, 4125.12820485, 4122.82051255, 4137.43589723, 4143.84615364, 4158.07692287, 4134.35897408, 3312.30769030, 4185.51282038, 4137.56410236, 4143.84615364,12.0
4036.53846106, 4108.20512793, 4202.17948711, 4054.35897395, 4124.99999973, 4154.10256390, 4173.07692294, 4179.74358961, 4188.33333320, 4134.35897408, 3331.79486985, 4211.02564096, 4156.41025621, 4145.89743569,12.0
4028.07692259, 4091.92307658, 4181.53846140, 4044.48717907, 4122.69230742, 4165.25641005, 4146.66666646, 4163.58974339, 4162.94871774, 4134.35897408, 3341.53845960, 4180.38461525, 4132.94871767, 4144.61538441,12.0
4034.48717900, 4066.92307651, 4164.74358954, 4020.64102516, 4122.94871767, 4124.99999973, 4112.30769203, 4117.05128178, 4133.58974332, 4134.35897408, 3351.15384428, 4142.94871774, 4104.61538434, 4142.56410236,12.0
4033.33333285, 4062.30769189, 4170.12820499, 4014.23076875, 4126.15384588, 4105.51282024, 4105.89743562, 4104.35897408, 4139.74358954, 4134.35897408, 3363.58974172, 4149.61538441, 4115.89743562, 4143.58974339,12.0
4035.38461490, 4055.64102523, 4168.71794858, 4008.71794824, 4124.87179460, 4111.02564075, 4103.58974332, 4111.02564075, 4136.15384595, 4134.35897408, 3379.74358787, 4153.33333313, 4125.38461511, 4147.43589723,12.0
4039.61538420, 4061.41025600, 4171.53846140, 4020.51282003, 4123.84615357, 4119.23076896, 4113.84615357, 4122.05128178, 4133.84615357, 4134.35897408, 3400.25640845, 4153.97435877, 4132.69230742, 4145.64102544,12.0
4033.84615336, 4080.12820478, 4184.99999986, 4037.69230728, 4126.28205101, 4134.87179460, 4123.71794844, 4136.79487159, 4152.82051262, 4134.35897408, 3424.61538288, 4173.84615371, 4151.53846133, 4144.87179467,12.0
4042.17948677, 4059.23076882, 4175.89743576, 4020.12820465, 4126.66666639, 4135.38461518, 4103.07692280, 4126.79487152, 4136.15384595, 4134.35897408, 3446.28204962, 4163.58974339, 4145.12820492, 4150.25641005,12.0
4037.56410215, 4042.30769189, 4162.17948697, 4008.07692259, 4122.30769203, 4126.66666639, 4103.97435870, 4120.51282024, 4115.76923050, 4134.35897408, 3465.38461372, 4142.17948697, 4137.69230749, 4145.89743569,12.0
4036.66666618, 4059.87179446, 4168.97435884, 4018.33333285, 4122.05128178, 4136.02564082, 4125.76923050, 4127.69230742, 4132.43589716, 4134.35897408, 3481.92307533, 4148.97435877, 4143.84615364, 4142.43589723,12.0
4043.58974318, 4054.23076882, 4168.33333320, 4012.69230721, 4125.12820485, 4132.43589716, 4105.12820485, 4114.10256383, 4132.82051255, 4134.35897408, 3493.71794712, 4151.41025621, 4143.46153826, 4146.28205108,12.0
4036.02564054, 4046.53846113, 4167.69230749, 4013.84615336, 4124.87179460, 4117.30769203, 4100.38461504, 4116.15384588, 4124.61538434, 4134.35897408, 3510.64102405, 4157.17948697, 4154.48717928, 4144.74358954,12.0
4044.99999959, 4076.79487145, 4181.92307679, 4036.66666618, 4123.97435870, 4135.12820485, 4146.02564082, 4145.64102544, 4150.89743569, 4134.35897408, 3538.58974206, 4179.23076910, 4165.76923056, 4144.61538441,12.0
4042.17948677, 4095.51282017, 4181.02564089, 4033.71794824, 4123.84615357, 4156.15384595, 4150.12820492, 4155.25641005, 4161.79487159, 4134.35897408, 3554.10256265, 4179.99999986, 4159.10256390, 4145.25641005,12.0
4035.51282003, 4069.23076882, 4170.51282038, 4014.74358926, 4125.12820485, 4143.33333313, 4119.61538434, 4153.33333313, 4137.05128185, 4134.35897408, 3556.66666521, 4162.69230749, 4157.69230749, 4146.92307672,12.0
4043.46153805, 4029.48717900, 4160.25641005, 4007.56410208, 4126.15384588, 4129.35897408, 4118.20512793, 4150.12820492, 4136.41025621, 4134.35897408, 3570.51281906, 4150.25641005, 4158.97435877, 4149.74358954,12.0
4031.66666618, 4025.25640977, 4151.92307672, 4010.64102516, 4125.89743562, 4136.79487159, 4128.97435870, 4143.97435877, 4151.02564082, 4134.35897408, 3585.76922938, 4143.46153826, 4153.58974339, 4147.56410236,12.0
4036.53846106, 4054.87179446, 4159.35897415, 4013.33333285, 4128.46153819, 4145.51282031, 4122.30769203, 4138.97435877, 4138.84615364, 4134.35897408, 3593.97435759, 4146.66666646, 4159.10256390, 4146.28205108,12.0
4042.56410215, 4037.56410215, 4151.28205108, 3998.07692252, 4127.94871767, 4119.10256383, 4095.12820478, 4108.58974332, 4106.79487152, 4134.35897408, 3605.89743451, 4132.56410229, 4151.28205108, 4147.69230749,12.0
4034.99999952, 4004.48717900, 4138.84615364, 3992.05128150, 4123.71794844, 4093.33333299, 4086.15384581, 4089.10256376, 4100.64102530, 4134.35897408, 3617.43589612, 4119.48717921, 4132.05128178, 4148.20512800,12.0
4041.41025600, 4042.69230728, 4160.64102544, 4012.69230721, 4122.69230742, 4120.51282024, 4115.64102537, 4125.25640998, 4128.84615357, 4134.35897408, 3632.05128073, 4149.99999980, 4142.17948697, 4145.25641005,12.0
4035.12820465, 4080.64102530, 4176.92307679, 4029.48717900, 4123.58974332, 4152.69230749, 4131.02564075, 4150.89743569, 4144.48717928, 4134.35897408, 3653.07692183, 4173.33333320, 4157.69230749, 4143.20512800,12.0
4036.79487131, 4061.28205087, 4171.15384602, 4030.89743541, 4124.10256383, 4146.66666646, 4113.84615357, 4127.30769203, 4136.28205108, 4134.35897408, 3670.38461414, 4164.10256390, 4153.46153826, 4147.17948697,12.0
4042.05128164, 4063.07692266, 4179.10256397, 4040.64102523, 4123.33333306, 4143.97435877, 4122.56410229, 4133.84615357, 4133.07692280, 4134.35897408, 3685.51281934, 4174.35897422, 4159.87179467, 4146.41025621,12.0
4037.17948677, 4086.53846119, 4190.12820499, 4047.17948677, 4123.84615357, 4157.56410236, 4150.51282031, 4172.05128192, 4150.12820492, 4134.35897408, 3702.56410139, 4191.53846140, 4172.05128192, 4143.97435877,12.0
4044.10256369, 4062.30769189, 4177.94871781, 4024.74358926, 4127.30769203, 4146.02564082, 4152.30769210, 4166.79487159, 4161.79487159, 4134.35897408, 3710.12820402, 4169.10256397, 4158.97435877, 4146.15384595,12.0
4041.66666625, 4025.38461490, 4156.92307672, 3994.61538406, 4126.53846126, 4114.35897408, 4130.51282024, 4128.07692280, 4139.74358954, 4134.35897408, 3707.05128087, 4133.07692280, 4139.48717928, 4144.48717928,12.0
4046.28205087, 4022.69230721, 4153.46153826, 3989.10256355, 4123.46153819, 4112.30769203, 4101.15384581, 4112.82051255, 4114.87179460, 4134.35897408, 3716.79487069, 4130.12820485, 4142.56410236, 4143.71794851,12.0
4049.74358933, 4033.71794824, 4165.64102544, 4011.02564054, 4124.61538434, 4142.05128185, 4103.46153819, 4134.74358947, 4130.76923050, 4134.35897408, 3739.74358864, 4156.92307672, 4155.51282031, 4143.84615364,12.0
4039.87179446, 4035.51282003, 4167.94871774, 4019.61538413, 4125.51282024, 4149.23076903, 4123.97435870, 4148.46153826, 4150.38461518, 4134.35897408, 3753.97435794, 4160.76923056, 4153.46153826, 4144.23076903,12.0
4050.64102523, 4033.33333285, 4157.69230749, 4011.66666618, 4123.20512793, 4128.58974332, 4114.10256383, 4131.41025614, 4131.02564075, 4134.35897408, 3755.89743486, 4138.07692287, 4146.02564082, 4146.92307672,12.0
4048.58974318, 4039.74358933, 4164.61538441, 4030.12820465, 4122.05128178, 4138.97435877, 4117.56410229, 4126.53846126, 4125.51282024, 4134.35897408, 3767.69230665, 4156.15384595, 4154.61538441, 4144.99999980,12.0
4044.99999959, 4044.87179446, 4185.12820499, 4049.87179446, 4122.82051255, 4167.43589723, 4154.23076903, 4148.07692287, 4144.23076903, 4134.35897408, 3791.15384518, 4190.38461525, 4166.41025621, 4144.87179467,12.0
4051.66666625, 4029.10256362, 4176.53846140, 4030.12820465, 4123.07692280, 4154.61538441, 4145.64102544, 4147.69230749, 4133.07692280, 4134.35897408, 3798.20512724, 4168.84615371, 4156.53846133, 4147.30769210,12.0
4040.89743548, 4016.15384567, 4154.48717928, 4014.10256362, 4122.94871767, 4127.05128178, 4102.17948684, 4119.10256383, 4104.99999973, 4134.35897408, 3796.02564006, 4138.58974339, 4138.46153826, 4147.43589723,12.0
4048.33333292, 4020.12820465, 4162.94871774, 4031.92307644, 4124.23076896, 4135.76923056, 4099.74358940, 4107.17948691, 4111.41025614, 4134.35897408, 3806.28205031, 4153.58974339, 4142.05128185, 4148.07692287,12.0
4048.58974318, 4017.43589695, 4173.97435884, 4033.20512772, 4124.35897408, 4142.56410236, 4114.48717921, 4122.69230742, 4130.12820485, 4134.35897408, 3821.92307602, 4169.48717935, 4149.61538441, 4147.05128185,12.0
4040.89743548, 4021.53846106, 4171.15384602, 4025.12820465, 4123.33333306, 4129.61538434, 4119.87179460, 4144.74358954, 4121.41025614, 4134.35897408, 3835.25640936, 4167.05128185, 4144.35897415, 4147.56410236,12.0
4047.69230728, 4022.82051234, 4170.76923063, 4035.64102516, 4123.97435870, 4124.74358947, 4118.07692280, 4138.71794851, 4107.05128178, 4134.35897408, 3846.66666584, 4161.79487159, 4132.43589716, 4146.66666646,12.0
4040.51282010, 3994.61538406, 4164.10256390, 4028.07692259, 4124.87179460, 4124.74358947, 4099.99999966, 4111.41025614, 4112.30769203, 4134.35897408, 3854.87179404, 4149.35897415, 4118.58974332, 4144.74358954,12.0
4046.28205087, 3984.23076868, 4157.82051262, 4005.38461490, 4124.35897408, 4121.79487152, 4095.64102530, 4112.69230742, 4124.61538434, 4134.35897408, 3860.89743507, 4145.25641005, 4115.12820485, 4146.53846133,12.0
4047.94871754, 4000.12820458, 4161.15384595, 4006.41025593, 4123.58974332, 4121.15384588, 4115.76923050, 4139.99999980, 4130.64102537, 4134.35897408, 3858.07692225, 4149.61538441, 4116.66666639, 4143.20512800,12.0
4040.89743548, 4010.89743541, 4166.41025621, 4023.07692259, 4123.46153819, 4133.07692280, 4124.61538434, 4155.51282031, 4136.66666646, 4134.35897408, 3862.30769148, 4153.20512800, 4109.23076896, 4140.76923056,12.0
4049.35897395, 4017.43589695, 4171.41025628, 4034.87179439, 4123.84615357, 4141.41025621, 4124.74358947, 4155.25641005, 4138.97435877, 4134.35897408, 3877.56410180, 4164.10256390, 4104.23076896, 4142.43589723,12.0
4045.12820472, 4011.28205080, 4171.02564089, 4033.20512772, 4122.05128178, 4134.74358947, 4127.17948691, 4144.74358954, 4133.33333306, 4134.35897408, 3872.56410173, 4166.28205108, 4107.56410229, 4142.17948697,12.0
4049.61538420, 3988.07692252, 4168.97435884, 4024.99999952, 4122.43589716, 4135.64102544, 4124.87179460, 4135.38461518, 4128.46153819, 4134.35897408, 3853.71794789, 4156.28205108, 4099.23076889, 4146.53846133,12.0
4054.48717907, 3974.61538406, 4172.56410243, 4029.23076875, 4123.20512793, 4143.07692287, 4124.10256383, 4142.30769210, 4131.41025614, 4134.35897408, 3850.38461455, 4161.92307672, 4096.41025607, 4146.41025621,12.0
4047.56410215, 3976.92307637, 4183.07692294, 4047.82051241, 4122.30769203, 4139.87179467, 4124.61538434, 4150.25641005, 4141.53846133, 4134.35897408, 3862.43589661, 4179.99999986, 4106.28205101, 4143.07692287,12.0
4053.46153805, 3968.58974297, 4184.48717935, 4049.10256369, 4123.71794844, 4134.87179460, 4128.46153819, 4146.02564082, 4144.10256390, 4134.35897408, 3879.35897360, 4178.97435884, 4058.84615343, 4146.02564082,12.0
4052.43589702, 3942.94871733, 4170.25641012, 4034.10256362, 4125.12820485, 4138.07692287, 4124.74358947, 4135.76923056, 4131.66666639, 4134.35897408, 3884.99999924, 4164.10256390, 3958.20512758, 4146.41025621,12.0
4058.33333292, 3928.97435828, 4169.74358961, 4036.28205080, 4125.38461511, 4136.53846133, 4113.58974332, 4124.61538434, 4126.92307665, 4134.35897408, 3884.61538385, 4164.10256390, 3895.64102488, 4145.76923056,12.0
4061.28205087, 3932.30769162, 4176.28205115, 4044.87179446, 4123.33333306, 4129.35897408, 4110.51282024, 4113.07692280, 4128.71794844, 4134.35897408, 3896.15384539, 4168.46153833, 3880.64102488, 4147.30769210,12.0
4049.23076882, 3919.35897367, 4166.02564082, 4032.17948670, 4121.28205101, 4124.10256383, 4105.64102537, 4102.82051255, 4116.53846126, 4134.35897408, 3901.28205052, 4151.28205108, 3871.79487096, 4147.43589723,12.0
4055.51282010, 3897.94871719, 4160.76923056, 4023.46153798, 4123.20512793, 4128.71794844, 4107.17948691, 4110.12820485, 4111.92307665, 4134.35897408, 3898.97435821, 4145.51282031, 3868.46153763, 4147.94871774,12.0
4050.64102523, 3903.46153770, 4166.02564082, 4037.69230728, 4124.48717921, 4128.58974332, 4121.66666639, 4131.02564075, 4121.15384588, 4134.35897408, 3912.17948649, 4161.92307672, 3874.23076847, 4148.84615364,12.0
4049.48717907, 3922.30769162, 4170.76923063, 4052.30769189, 4123.20512793, 4129.48717921, 4127.69230742, 4136.79487159, 4134.35897408, 4134.35897408, 3921.41025572, 4168.58974345, 3879.23076847, 4149.99999980,12.0
4057.82051241, 3926.15384546, 4174.35897422, 4056.15384574, 4121.79487152, 4143.33333313, 4116.02564075, 4132.05128178, 4144.61538441, 4134.35897408, 3918.20512751, 4168.58974345, 3881.92307616, 4148.71794851,12.0
4046.66666625, 3920.51281982, 4165.89743569, 4047.69230728, 4122.82051255, 4138.33333313, 4105.12820485, 4130.89743562, 4127.69230742, 4134.35897408, 3931.92307623, 4160.76923056, 3872.56410173, 4146.79487159,12.0
4054.99999959, 3929.61538392, 4159.10256390, 4048.07692266, 4124.35897408, 4131.15384588, 4118.58974332, 4133.33333306, 4113.46153819, 4134.35897408, 3971.41025586, 4155.76923056, 3865.25640943, 4147.43589723,12.0
4057.17948677, 3954.99999938, 4175.76923063, 4068.97435856, 4122.30769203, 4155.12820492, 4161.02564082, 4151.28205108, 4141.28205108, 4134.35897408, 4007.30769183, 4181.28205115, 3877.56410180, 4144.35897415,12.0
4048.46153805, 3943.33333271, 4172.94871781, 4056.41025600, 4120.76923050, 4161.92307672, 4161.66666646, 4148.46153826, 4145.64102544, 4134.35897408, 4007.05128157, 4176.28205115, 3874.10256334, 4143.07692287,12.0
4052.56410215, 3889.61538385, 4128.46153819, 4010.25640977, 4123.97435870, 4129.48717921, 4101.92307658, 4109.87179460, 4097.56410222, 4134.35897408, 3988.07692252, 4113.07692280, 3852.82051199, 4145.25641005,12.0
4048.07692266, 3893.97435821, 4121.79487152, 4018.84615336, 4125.25640998, 4124.35897408, 4094.87179453, 4109.23076896, 4097.69230735, 4134.35897408, 4003.97435842, 4111.79487152, 3857.05128122, 4145.38461518,12.0
4056.79487138, 3943.33333271, 4160.25641005, 4060.51282010, 4122.56410229, 4141.02564082, 4124.23076896, 4131.28205101, 4130.76923050, 4134.35897408, 4026.15384567, 4167.05128185, 3876.92307616, 4146.66666646,12.0
4058.20512779, 3925.25640957, 4153.71794851, 4038.20512779, 4122.43589716, 4120.64102537, 4091.79487145, 4112.56410229, 4116.66666639, 4134.35897408, 4002.43589688, 4152.17948697, 3874.35897360, 4146.79487159,12.0
4052.17948677, 3895.25640950, 4129.99999973, 4010.89743541, 4123.71794844, 4104.61538434, 4073.97435863, 4108.84615357, 4111.41025614, 4134.35897408, 3984.61538406, 4121.79487152, 3866.02564020, 4147.56410236,12.0
4061.15384574, 3929.74358905, 4147.82051262, 4041.02564061, 4123.71794844, 4127.82051255, 4126.02564075, 4143.33333313, 4135.12820485, 4134.35897408, 4008.97435849, 4149.10256390, 3874.48717873, 4146.92307672,12.0
4054.74358933, 3949.35897374, 4159.35897415, 4057.56410215, 4122.43589716, 4145.51282031, 4144.99999980, 4151.92307672, 4132.69230742, 4134.35897408, 4024.61538413, 4163.97435877, 3880.25640950, 4143.20512800,12.0
4061.41025600, 3925.89743521, 4144.99999980, 4034.61538413, 4121.41025614, 4134.35897408, 4124.99999973, 4137.05128185, 4120.64102537, 4134.35897408, 4017.30769183, 4143.07692287, 3877.94871719, 4146.15384595,12.0
4067.94871754, 3913.46153777, 4131.53846126, 4016.92307644, 4121.79487152, 4118.46153819, 4123.84615357, 4131.66666639, 4113.46153819, 4134.35897408, 4013.33333285, 4125.38461511, 3876.02564027, 4147.69230749,12.0
4057.56410215, 3913.58974290, 4127.82051255, 4020.25640977, 4122.94871767, 4121.92307665, 4115.89743562, 4126.15384588, 4096.28205094, 4134.35897408, 4017.43589695, 4117.30769203, 3872.30769148, 4145.12820492,12.0
4064.99999959, 3925.51281982, 4138.33333313, 4036.15384567, 4124.48717921, 4145.12820492, 4114.99999973, 4126.53846126, 4109.99999973, 4134.35897408, 4031.79487131, 4129.87179460, 3877.17948642, 4145.12820492,12.0
4060.38461497, 3937.56410187, 4140.89743569, 4042.05128164, 4123.46153819, 4147.82051262, 4122.69230742, 4125.76923050, 4136.53846133, 4134.35897408, 4040.51282010, 4140.12820492, 3884.87179411, 4144.23076903,12.0
4059.48717907, 3921.53846085, 4125.89743562, 4028.46153798, 4123.33333306, 4121.15384588, 4100.25640991, 4105.12820485, 4113.58974332, 4134.35897408, 4033.97435849, 4121.53846126, 3881.02564027, 4146.92307672,12.0
4064.10256369, 3903.46153770, 4120.89743562, 4020.51282003, 4124.10256383, 4110.38461511, 4076.15384581, 4095.25640991, 4091.02564068, 4134.35897408, 4037.43589702, 4110.12820485, 3879.87179411, 4147.94871774,12.0
4053.84615343, 3917.56410187, 4130.51282024, 4026.53846106, 4123.33333306, 4118.84615357, 4090.12820478, 4112.05128178, 4101.41025607, 4134.35897408, 4054.35897395, 4121.15384588, 3888.33333257, 4146.66666646,12.0
4059.87179446, 3937.94871726, 4136.41025621, 4034.10256362, 4123.84615357, 4126.41025614, 4111.02564075, 4125.89743562, 4111.15384588, 4134.35897408, 4068.84615343, 4132.69230742, 3892.56410180, 4146.92307672,12.0
4058.33333292, 3937.43589674, 4140.89743569, 4036.66666618, 4122.82051255, 4133.33333306, 4121.92307665, 4131.15384588, 4123.84615357, 4134.35897408, 4076.41025607, 4143.58974339, 3895.38461462, 4144.74358954,12.0
4056.79487138, 3931.79487110, 4147.05128185, 4033.97435849, 4122.82051255, 4138.58974339, 4129.48717921, 4134.10256383, 4136.92307672, 4134.35897408, 4083.58974325, 4149.35897415, 3902.43589668, 4144.23076903,12.0
4061.66666625, 3934.35897367, 4141.28205108, 4032.94871747, 4123.97435870, 4134.10256383, 4119.61538434, 4134.23076896, 4133.20512793, 4134.35897408, 4092.94871761, 4141.53846133, 3906.92307623, 4144.61538441,12.0
4053.71794830, 3934.61538392, 4132.56410229, 4034.87179439, 4123.33333306, 4119.87179460, 4104.35897408, 4133.33333306, 4131.41025614, 4134.35897408, 4101.41025607, 4132.05128178, 3902.69230693, 4143.71794851,12.0
4060.76923036, 3922.94871726, 4135.12820485, 4029.61538413, 4124.74358947, 4113.46153819, 4102.17948684, 4129.23076896, 4131.53846126, 4134.35897408, 4104.10256383, 4126.53846126, 3897.82051206, 4144.10256390,12.0
4061.66666625, 3916.66666598, 4138.46153826, 4029.87179439, 4125.38461511, 4115.76923050, 4116.15384588, 4130.12820485, 4125.64102537, 4134.35897408, 4110.38461511, 4129.61538434, 3900.12820437, 4143.07692287,12.0
4061.15384574, 3919.35897367, 4133.07692280, 4031.66666618, 4123.33333306, 4110.38461511, 4119.10256383, 4125.51282024, 4115.25640998, 4134.35897408, 4117.30769203, 4129.99999973, 3904.48717873, 4144.61538441,12.0
4069.23076882, 3919.61538392, 4127.69230742, 4025.76923029, 4123.58974332, 4113.20512793, 4103.97435870, 4115.76923050, 4117.17948691, 4134.35897408, 4117.30769203, 4122.56410229, 3903.46153770, 4147.30769210,12.0
4061.66666625, 3925.12820444, 4137.17948697, 4033.46153798, 4123.97435870, 4132.30769203, 4110.25640998, 4134.23076896, 4139.10256390, 4134.87179460, 4129.99999973, 4131.66666639, 3908.33333264, 4145.25641005,12.0
4066.79487138, 3924.23076854, 4144.35897415, 4034.23076875, 4121.53846126, 4129.10256383, 4128.84615357, 4146.53846133, 4139.23076903, 4134.23076896, 4146.15384595, 4137.17948697, 3916.41025572, 4147.43589723,12.0
4069.87179453, 3912.56410187, 4134.48717921, 4020.38461490, 4120.51282024, 4111.15384588, 4126.66666639, 4124.48717921, 4120.25640998, 4133.97435870, 4148.71794851, 4122.69230742, 3912.30769162, 4149.48717928,12.0
4067.56410215, 3914.35897367, 4130.64102537, 4024.35897388, 4121.41025614, 4117.69230742, 4114.87179460, 4124.61538434, 4122.30769203, 4136.15384595, 4149.23076903, 4117.30769203, 3910.12820444, 4147.69230749,12.0
4072.56410222, 3924.10256341, 4133.84615357, 4030.64102516, 4123.20512793, 4119.48717921, 4107.82051255, 4139.23076903, 4124.99999973, 4134.61538434, 4151.92307672, 4118.20512793, 3910.38461469, 4146.41025621,12.0
4062.17948677, 3919.99999931, 4128.46153819, 4021.66666618, 4125.64102537, 4102.94871767, 4104.99999973, 4123.58974332, 4111.66666639, 4129.48717921, 4157.43589723, 4112.56410229, 3907.43589674, 4145.38461518,12.0
4070.12820478, 3916.28205059, 4134.99999973, 4027.05128157, 4126.66666639, 4109.48717921, 4115.38461511, 4125.89743562, 4117.30769203, 4129.23076896, 4173.07692294, 4123.20512793, 3913.46153777, 4146.28205108,12.0
4073.46153812, 3928.46153777, 4148.20512800, 4046.92307651, 4123.71794844, 4130.76923050, 4127.69230742, 4156.41025621, 4141.53846133, 4131.15384588, 4186.15384602, 4139.87179467, 3923.33333264, 4144.74358954,12.0
4062.94871754, 3943.58974297, 4145.25641005, 4051.53846113, 4121.41025614, 4120.38461511, 4116.53846126, 4148.46153826, 4144.99999980, 4129.10256383, 4187.94871781, 4134.61538434, 3927.69230700, 4145.25641005,12.0
4072.82051248, 3946.53846092, 4143.97435877, 4048.58974318, 4123.46153819, 4094.23076889, 4104.61538434, 4122.82051255, 4129.48717921, 4128.33333306, 4189.99999986, 4129.99999973, 3926.41025572, 4146.28205108,12.0
4065.12820472, 3934.61538392, 4147.05128185, 4047.17948677, 4122.82051255, 4097.43589709, 4109.10256383, 4133.97435870, 4120.25640998, 4130.38461511, 4197.05128192, 4135.64102544, 3924.74358905, 4143.46153826,12.0
4063.71794830, 3935.12820444, 4142.43589723, 4047.69230728, 4121.53846126, 4117.94871767, 4115.12820485, 4157.82051262, 4133.07692280, 4130.38461511, 4205.51282045, 4131.02564075, 3924.87179418, 4144.61538441,12.0
4072.56410222, 3953.71794810, 4140.76923056, 4048.46153805, 4123.20512793, 4124.35897408, 4117.30769203, 4160.89743569, 4149.74358954, 4129.99999973, 4211.02564096, 4127.43589716, 3927.69230700, 4144.74358954,12.0
4064.61538420, 3948.20512758, 4145.12820492, 4044.61538420, 4124.35897408, 4122.43589716, 4121.66666639, 4153.20512800, 4136.79487159, 4130.25640998, 4214.35897429, 4131.92307665, 3928.84615316, 4143.71794851,12.0
4068.71794830, 3933.58974290, 4142.17948697, 4045.12820472, 4124.87179460, 4127.94871767, 4127.30769203, 4142.17948697, 4116.92307665, 4130.25640998, 4222.94871788, 4129.10256383, 3927.69230700, 4145.64102544,12.0
4068.46153805, 3946.02564040, 4132.17948691, 4051.66666625, 4125.12820485, 4127.43589716, 4118.71794844, 4123.33333306, 4118.33333306, 4130.25640998, 4227.05128199, 4114.99999973, 3922.69230700, 4146.53846133,12.0
4071.28205094, 3949.74358912, 4133.97435870, 4057.17948677, 4126.15384588, 4117.17948691, 4100.64102530, 4107.56410229, 4109.23076896, 4130.25640998, 4221.15384609, 4109.10256383, 3916.41025572, 4147.17948697,12.0
4075.38461504, 3934.23076854, 4136.92307672, 4055.76923036, 4125.25640998, 4111.28205101, 4100.38461504, 4106.15384588, 4089.87179453, 4130.25640998, 4226.79487173, 4117.43589716, 3921.66666598, 4146.15384595,12.0
4065.89743548, 3931.28205059, 4128.20512793, 4046.15384574, 4124.10256383, 4107.30769203, 4105.89743562, 4108.33333306, 4095.12820478, 4130.25640998, 4244.87179488, 4121.79487152, 3931.92307623, 4144.87179467,12.0
4071.66666632, 3926.53846085, 4118.84615357, 4036.53846106, 4123.71794844, 4101.53846119, 4085.38461504, 4098.58974325, 4107.43589716, 4130.25640998, 4250.12820513, 4110.51282024, 3930.76923008, 4144.99999980,12.0
4071.53846119, 3915.25640957, 4114.61538434, 4038.46153805, 4122.69230742, 4088.33333299, 4059.48717907, 4093.46153812, 4102.82051255, 4130.25640998, 4248.71794872, 4096.92307658, 3928.97435828, 4142.30769210,12.0
4071.92307658, 3938.58974297, 4125.38461511, 4056.79487138, 4123.58974332, 4089.74358940, 4082.17948684, 4113.97435870, 4107.94871767, 4130.25640998, 4262.05128206, 4109.87179460, 3939.23076861, 4143.97435877,12.0
4076.66666632, 3960.64102502, 4137.69230749, 4072.30769196, 4124.48717921, 4114.35897408, 4124.61538434, 4137.94871774, 4126.15384588, 4130.25640998, 4276.92307700, 4129.48717921, 3946.92307630, 4145.64102544,12.0
4067.69230728, 3947.30769169, 4128.97435870, 4066.53846113, 4122.94871767, 4121.15384588, 4121.15384588, 4141.41025621, 4130.25640998, 4130.25640998, 4277.05128212, 4123.20512793, 3941.41025579, 4143.97435877,12.0
4077.43589709, 3953.33333271, 4125.76923050, 4066.79487138, 4123.97435870, 4116.02564075, 4103.20512793, 4141.53846133, 4135.64102544, 4130.25640998, 4281.15384623, 4119.99999973, 3942.17948656, 4147.05128185,12.0
4075.64102530, 3956.92307630, 4130.12820485, 4080.12820478, 4123.33333306, 4119.10256383, 4111.66666639, 4136.02564082, 4139.35897415, 4130.25640998, 4293.20512828, 4125.89743562, 3949.74358912, 4146.66666646,12.0
4069.48717907, 3913.97435828, 4124.99999973, 4069.48717907, 4120.76923050, 4116.92307665, 4111.15384588, 4112.56410229, 4119.61538434, 4130.25640998, 4294.10256418, 4119.23076896, 3949.61538399, 4146.92307672,12.0
4082.56410222, 3866.41025558, 4118.97435870, 4049.23076882, 4121.66666639, 4104.61538434, 4084.10256376, 4099.74358940, 4102.94871767, 4130.25640998, 4290.25641033, 4109.87179460, 3945.25640963, 4149.35897415,12.0
4070.12820478, 3857.82051199, 4122.05128178, 4057.94871754, 4120.25640998, 4100.38461504, 4071.41025607, 4106.28205101, 4103.97435870, 4130.25640998, 4297.43589751, 4112.30769203, 3941.02564040, 4146.66666646,12.0
4071.02564068, 3892.69230693, 4139.61538441, 4082.43589709, 4120.38461511, 4120.25640998, 4097.82051248, 4114.23076896, 4109.23076896, 4130.25640998, 4312.94871809, 4134.99999973, 3948.97435835, 4146.66666646,12.0
4077.82051248, 3911.79487110, 4143.58974339, 4084.74358940, 4125.51282024, 4125.89743562, 4113.71794844, 4110.12820485, 4104.35897408, 4130.25640998, 4317.05128219, 4143.97435877, 3956.79487117, 4145.89743569,12.0
4068.46153805, 3897.43589668, 4137.56410236, 4085.89743555, 4125.51282024, 4115.12820485, 4116.15384588, 4115.38461511, 4108.20512793, 4130.25640998, 4315.38461553, 4136.92307672, 3953.71794810, 4143.20512800,12.0
4076.41025607, 3910.25640957, 4153.33333313, 4108.97435870, 4122.30769203, 4133.20512793, 4140.76923056, 4151.92307672, 4143.20512800, 4130.25640998, 4335.51282073, 4160.51282031, 3967.94871733, 4144.10256390,12.0
4074.10256376, 3928.33333264, 4158.46153826, 4104.61538434, 4123.84615357, 4135.64102544, 4136.41025621, 4161.66666646, 4153.20512800, 4130.25640998, 4350.76923098, 4168.33333320, 3977.30769176, 4144.99999980,12.0
4076.66666632, 3904.10256334, 4137.30769210, 4075.64102530, 4124.99999973, 4102.05128171, 4104.48717921, 4129.23076896, 4119.10256383, 4130.25640998, 4339.48717970, 4131.79487152, 3959.10256348, 4144.99999980,12.0
4079.61538427, 3884.61538385, 4133.07692280, 4078.58974325, 4122.43589716, 4105.76923050, 4111.28205101, 4121.02564075, 4107.17948691, 4130.25640998, 4340.00000021, 4126.53846126, 3958.33333271, 4143.97435877,12.0
4070.51282017, 3906.92307623, 4152.56410236, 4094.61538427, 4121.79487152, 4133.33333306, 4134.23076896, 4140.51282031, 4129.48717921, 4130.25640998, 4360.12820534, 4158.07692287, 3977.82051227, 4144.87179467,12.0
4079.10256376, 3915.89743521, 4153.20512800, 4081.79487145, 4123.07692280, 4119.99999973, 4127.43589716, 4142.30769210, 4129.10256383, 4130.25640998, 4358.46153867, 4150.76923056, 3972.69230714, 4146.92307672,12.0
4078.07692273, 3899.48717873, 4141.53846133, 4067.69230728, 4122.43589716, 4108.71794844, 4121.66666639, 4134.35897408, 4116.28205101, 4130.25640998, 4348.58974380, 4130.51282024, 3963.58974297, 4144.87179467,12.0
4077.30769196, 3897.43589668, 4146.28205108, 4079.99999966, 4122.17948691, 4123.07692280, 4123.84615357, 4130.12820485, 4132.56410229, 4130.25640998, 4365.12820541, 4140.25641005, 3974.61538406, 4145.76923056,12.0
4083.97435863, 3904.61538385, 4149.35897415, 4090.38461504, 4123.46153819, 4117.56410229, 4106.15384588, 4126.41025614, 4138.46153826, 4130.25640998, 4380.51282079, 4143.07692287, 3981.28205073, 4145.51282031,12.0
4079.35897402, 3902.43589668, 4140.38461518, 4080.38461504, 4123.20512793, 4100.38461504, 4092.17948684, 4129.87179460, 4122.69230742, 4130.25640998, 4375.00000028, 4133.84615357, 3980.25640970, 4144.48717928,12.0
4084.10256376, 3904.35897360, 4138.46153826, 4079.10256376, 4122.56410229, 4106.92307665, 4101.53846119, 4136.41025621, 4121.53846126, 4130.25640998, 4375.51282079, 4134.99999973, 3982.30769176, 4148.07692287,12.0
4080.12820478, 3928.07692239, 4151.92307672, 4103.84615357, 4122.17948691, 4128.84615357, 4129.35897408, 4154.48717928, 4146.41025621, 4130.25640998, 4394.10256438, 4152.56410236, 3986.41025586, 4145.76923056,12.0
4080.89743555, 3944.35897374, 4161.28205108, 4113.07692280, 4122.69230742, 4126.41025614, 4144.99999980, 4166.66666646, 4157.17948697, 4130.25640998, 4407.30769266, 4159.35897415, 3986.28205073, 4145.12820492,12.0
4092.43589709, 3932.43589674, 4149.23076903, 4091.79487145, 4122.94871767, 4106.28205101, 4129.10256383, 4148.20512800, 4139.10256390, 4130.25640998, 4403.71794907, 4142.30769210, 3981.92307637, 4148.84615364,12.0
4082.56410222, 3914.87179418, 4133.20512793, 4084.99999966, 4122.17948691, 4118.07692280, 4118.84615357, 4136.53846133, 4131.79487152, 4130.25640998, 4399.87179522, 4130.25640998, 3980.25640970, 4146.15384595,12.0
4085.51282017, 3913.71794803, 4132.69230742, 4097.69230735, 4123.97435870, 4137.94871774, 4124.23076896, 4131.02564075, 4127.05128178, 4130.25640998, 4406.15384651, 4130.51282024, 3982.56410201, 4144.99999980,12.0
4084.99999966, 3919.48717880, 4135.25640998, 4095.51282017, 4123.84615357, 4125.51282024, 4123.58974332, 4119.23076896, 4113.97435870, 4130.25640998, 4414.87179522, 4132.82051255, 3985.12820458, 4145.89743569,12.0
4077.43589709, 3918.84615316, 4136.66666646, 4091.02564068, 4121.92307665, 4116.66666639, 4111.53846126, 4128.84615357, 4121.66666639, 4130.25640998, 4421.15384651, 4133.84615357, 3989.23076868, 4145.64102544,12.0
4085.25640991, 3926.28205059, 4140.25641005, 4100.25640991, 4123.58974332, 4118.20512793, 4108.07692280, 4144.23076903, 4141.15384595, 4130.25640998, 4423.33333368, 4135.64102544, 3993.97435842, 4146.15384595,12.0
4078.20512786, 3928.84615316, 4137.17948697, 4096.66666632, 4124.35897408, 4095.76923043, 4104.35897408, 4123.97435870, 4128.20512793, 4130.25640998, 4417.82051317, 4132.30769203, 3992.30769176, 4145.12820492,12.0
4082.17948684, 3924.10256341, 4139.74358954, 4090.25640991, 4123.33333306, 4087.05128171, 4085.64102530, 4099.10256376, 4103.46153819, 4130.25640998, 4423.84615420, 4135.12820485, 3992.69230714, 4146.66666646,12.0
4085.76923043, 3936.02564033, 4141.66666646, 4094.99999966, 4122.94871767, 4108.20512793, 4081.28205094, 4111.28205101, 4107.56410229, 4130.25640998, 4433.33333375, 4138.97435877, 3993.71794817, 4147.30769210,12.0
4078.71794837, 3941.66666605, 4130.12820485, 4091.53846119, 4122.30769203, 4113.71794844, 4099.10256376, 4131.79487152, 4118.97435870, 4130.25640998, 4428.46153881, 4123.33333306, 3991.53846099, 4145.12820492,12.0
4086.66666632, 3929.10256341, 4125.12820485, 4087.69230735, 4121.79487152, 4109.10256383, 4111.41025614, 4131.53846126, 4120.25640998, 4130.25640998, 4429.74359009, 4113.07692280, 3994.48717894, 4143.33333313,12.0
4081.79487145, 3941.41025579, 4136.41025621, 4100.76923043, 4121.53846126, 4116.02564075, 4118.33333306, 4133.58974332, 4122.69230742, 4130.25640998, 4443.84615427, 4128.20512793, 3999.87179432, 4143.07692287,12.0
4084.10256376, 3960.25640963, 4143.20512800, 4102.94871767, 4123.84615357, 4116.41025614, 4127.43589716, 4144.74358954, 4123.33333306, 4130.25640998, 4447.43589786, 4136.92307672, 3999.87179432, 4145.89743569,12.0
4088.84615350, 3943.97435835, 4131.28205101, 4086.79487145, 4126.28205101, 4104.10256383, 4117.05128178, 4135.25640998, 4115.25640998, 4130.25640998, 4442.17948760, 4121.41025614, 3996.41025586, 4144.99999980,12.0
4083.20512786, 3940.38461476, 4126.92307665, 4093.58974325, 4124.99999973, 4104.74358947, 4102.17948684, 4114.61538434, 4110.64102537, 4130.25640998, 4446.41025683, 4119.61538434, 3998.58974304, 4144.99999980,12.0
4091.79487145, 3966.79487117, 4135.76923056, 4105.12820485, 4122.94871767, 4118.46153819, 4109.99999973, 4119.87179460, 4112.05128178, 4130.25640998, 4456.15384657, 4132.43589716, 4002.30769176, 4147.56410236,12.0
4088.97435863, 3962.69230707, 4127.69230742, 4091.41025607, 4122.43589716, 4108.84615357, 4105.51282024, 4126.28205101, 4111.53846126, 4130.25640998, 4465.89743639, 4124.48717921, 4000.12820458, 4144.74358954,12.0
4090.51282017, 3936.92307623, 4114.61538434, 4083.71794837, 4123.58974332, 4085.89743555, 4083.46153812, 4108.20512793, 4111.28205101, 4130.25640998, 4472.82051331, 4109.23076896, 3996.02564047, 4145.64102544,12.0
4094.74358940, 3940.64102502, 4116.41025614, 4090.12820478, 4123.07692280, 4092.05128171, 4091.41025607, 4107.43589716, 4111.41025614, 4130.25640998, 4470.89743639, 4109.87179460, 3997.05128150, 4147.30769210,12.0
4084.87179453, 3955.12820451, 4116.15384588, 4084.99999966, 4122.56410229, 4111.66666639, 4114.99999973, 4131.53846126, 4107.94871767, 4130.25640998, 4474.10256459, 4108.71794844, 4001.41025586, 4144.99999980,12.0
4095.64102530, 3944.10256348, 4106.53846126, 4076.66666632, 4123.46153819, 4108.97435870, 4111.15384588, 4127.05128178, 4100.76923043, 4130.25640998, 4479.87179536, 4099.10256376, 3999.87179432, 4148.20512800,12.0
4092.56410222, 3932.05128136, 4106.41025614, 4079.74358940, 4121.41025614, 4099.48717914, 4107.94871767, 4111.53846126, 4098.97435863, 4130.25640998, 4483.33333382, 4104.87179460, 3997.43589688, 4149.48717928,12.0
4087.43589709, 3948.71794810, 4118.46153819, 4079.10256376, 4122.17948691, 4103.46153819, 4123.71794844, 4118.46153819, 4099.99999966, 4130.25640998, 4491.15384664, 4117.43589716, 4002.30769176, 4147.69230749,12.0
4097.30769196, 3967.94871733, 4121.92307665, 4078.07692273, 4126.02564075, 4115.76923050, 4132.17948691, 4131.79487152, 4106.15384588, 4130.25640998, 4494.74359023, 4123.33333306, 4013.20512772, 4147.17948697,12.0
4085.51282017, 3973.58974304, 4118.20512793, 4087.82051248, 4123.71794844, 4121.41025614, 4140.25641005, 4150.38461518, 4123.20512793, 4130.25640998, 4491.92307741, 4128.46153819, 4019.23076875, 4145.76923056,12.0
4087.69230735, 3970.89743528, 4118.33333306, 4093.71794837, 4120.51282024, 4113.07692280, 4146.15384595, 4151.92307672, 4131.28205101, 4130.25640998, 4497.30769287, 4123.46153819, 4015.76923029, 4145.51282031,12.0
4089.35897402, 3950.64102502, 4106.53846126, 4082.05128171, 4121.92307665, 4096.28205094, 4120.51282024, 4123.33333306, 4117.69230742, 4130.25640998, 4498.97435953, 4100.38461504, 4006.28205080, 4143.33333313,12.0
4085.12820478, 3938.07692239, 4095.76923043, 4072.69230735, 4122.94871767, 4093.84615350, 4094.23076889, 4115.38461511, 4110.89743562, 4130.25640998, 4494.10256459, 4090.51282017, 4004.35897388, 4142.94871774,12.0
4094.48717914, 3962.69230707, 4111.15384588, 4090.51282017, 4122.56410229, 4115.25640998, 4110.89743562, 4131.79487152, 4122.05128178, 4130.25640998, 4507.56410312, 4114.61538434, 4015.51282003, 4145.76923056,12.0
4087.17948684, 3994.74358919, 4130.25640998, 4117.94871767, 4123.07692280, 4122.43589716, 4126.41025614, 4129.10256383, 4129.61538434, 4130.25640998, 4525.25641082, 4142.69230749, 4026.53846106, 4143.58974339,12.0
4088.97435863, 3992.43589688, 4130.64102537, 4116.28205101, 4124.99999973, 4101.66666632, 4102.30769196, 4116.15384588, 4119.87179460, 4130.25640998, 4521.28205184, 4142.56410236, 4023.84615336, 4142.30769210,12.0
4091.92307658, 3987.05128150, 4122.69230742, 4096.53846119, 4124.99999973, 4089.35897402, 4091.02564068, 4122.05128178, 4106.53846126, 4130.25640998, 4513.84615441, 4129.35897408, 4021.02564054, 4144.35897415,12.0
4085.76923043, 4010.12820465, 4126.02564075, 4105.38461511, 4121.53846126, 4109.74358947, 4126.28205101, 4139.48717928, 4111.41025614, 4130.25640998, 4518.33333389, 4136.79487159, 4032.56410208, 4146.79487159,12.0
4091.41025607, 4015.89743541, 4131.53846126, 4122.82051255, 4121.79487152, 4127.94871767, 4145.89743569, 4144.35897415, 4126.02564075, 4130.25640998, 4525.00000056, 4144.99999980, 4033.20512772, 4147.30769210,12.0
4088.71794837, 3992.56410201, 4122.69230742, 4104.35897408, 4124.48717921, 4112.17948691, 4123.20512793, 4126.02564075, 4123.97435870, 4130.25640998, 4521.92307748, 4125.38461511, 4014.99999952, 4144.10256390,12.0
4095.25640991, 3983.58974304, 4115.12820485, 4086.15384581, 4124.74358947, 4093.97435863, 4111.79487152, 4114.48717921, 4122.69230742, 4130.25640998, 4519.10256466, 4111.66666639, 4012.82051234, 4143.46153826,12.0
4100.38461504, 3990.89743535, 4116.41025614, 4096.28205094, 4122.82051255, 4101.66666632, 4137.17948697, 4137.56410236, 4132.43589716, 4130.25640998, 4523.97435953, 4124.10256383, 4029.48717900, 4143.84615364,12.0
4093.71794837, 3988.58974304, 4114.99999973, 4101.79487145, 4121.79487152, 4115.25640998, 4145.51282031, 4153.07692287, 4127.56410229, 4130.25640998, 4526.92307748, 4126.79487152, 4033.33333285, 4146.28205108,12.0
4102.43589709, 3981.28205073, 4110.89743562, 4091.28205094, 4123.33333306, 4103.97435870, 4109.87179460, 4127.56410229, 4108.20512793, 4130.25640998, 4529.10256466, 4113.84615357, 4022.56410208, 4149.74358954,12.0
4097.43589709, 3989.23076868, 4116.15384588, 4094.99999966, 4123.84615357, 4093.58974325, 4106.02564075, 4115.12820485, 4109.87179460, 4130.25640998, 4540.00000063, 4122.30769203, 4022.43589695, 4145.89743569,12.0
4097.05128171, 4003.46153791, 4129.87179460, 4111.02564075, 4122.05128178, 4112.17948691, 4143.58974339, 4141.53846133, 4133.33333306, 4130.25640998, 4548.33333396, 4143.33333313, 4034.61538413, 4145.38461518,12.0
4103.84615357, 4008.84615336, 4127.69230742, 4105.64102537, 4121.53846126, 4122.56410229, 4137.69230749, 4150.38461518, 4132.56410229, 4130.25640998, 4541.41025704, 4136.28205108, 4038.71794830, 4147.56410236,12.0
4093.58974325, 4001.02564047, 4111.53846126, 4094.74358940, 4122.43589716, 4108.20512793, 4101.41025607, 4122.69230742, 4105.38461511, 4130.25640998, 4538.33333396, 4113.58974332, 4027.94871747, 4144.61538441,12.0
4101.28205094, 3993.71794817, 4111.53846126, 4102.56410229, 4121.28205101, 4093.58974325, 4100.51282017, 4102.43589709, 4096.02564068, 4130.25640998, 4545.64102627, 4112.69230742, 4024.99999952, 4145.76923056,12.0
4098.84615350, 4002.30769176, 4121.92307665, 4109.48717921, 4120.12820485, 4091.66666632, 4113.71794844, 4111.15384588, 4107.43589716, 4130.25640998, 4551.41025704, 4124.48717921, 4027.82051234, 4146.15384595,12.0
4090.51282017, 4006.66666618, 4119.10256383, 4099.23076889, 4123.84615357, 4092.17948684, 4102.94871767, 4113.58974332, 4110.64102537, 4130.25640998, 4556.53846217, 4121.66666639, 4022.94871747, 4144.23076903,12.0
4098.71794837, 4002.17948663, 4113.46153819, 4095.38461504, 4125.64102537, 4093.84615350, 4102.30769196, 4106.28205101, 4103.33333306, 4130.25640998, 4561.02564165, 4115.64102537, 4023.97435849, 4144.61538441,12.0
4094.10256376, 4009.35897388, 4117.43589716, 4106.28205101, 4121.66666639, 4092.94871761, 4133.84615357, 4126.15384588, 4099.35897402, 4130.25640998, 4562.82051352, 4124.35897408, 4035.12820465, 4144.87179467,12.0
4096.79487145, 4002.43589688, 4108.46153819, 4095.76923043, 4121.41025614, 4084.23076889, 4128.84615357, 4127.56410229, 4095.38461504, 4130.25640998, 4561.02564165, 4112.43589716, 4029.10256362, 4145.38461518,12.0
4096.53846119, 3985.76923022, 4093.33333299, 4083.58974325, 4123.97435870, 4087.94871761, 4090.89743555, 4099.61538427, 4106.15384588, 4130.25640998, 4561.41025704, 4091.02564068, 4016.92307644, 4145.51282031,12.0
4094.99999966, 3993.58974304, 4101.53846119, 4094.48717914, 4123.33333306, 4093.71794837, 4092.17948684, 4106.15384588, 4113.84615357, 4130.25640998, 4569.23076993, 4101.53846119, 4023.71794824, 4147.43589723,12.0
4099.61538427, 4007.30769183, 4110.76923050, 4100.38461504, 4122.43589716, 4088.84615350, 4111.02564075, 4132.69230742, 4106.15384588, 4130.25640998, 4579.35897506, 4115.89743562, 4030.89743541, 4146.79487159,12.0
4090.89743555, 4008.71794824, 4106.92307665, 4102.43589709, 4121.92307665, 4090.64102530, 4115.25640998, 4138.46153826, 4114.48717921, 4130.25640998, 4579.87179557, 4113.33333306, 4033.46153798, 4144.35897415,12.0
4102.56410229, 4018.07692259, 4116.02564075, 4116.79487152, 4121.79487152, 4102.69230742, 4132.17948691, 4148.71794851, 4124.99999973, 4130.25640998, 4579.87179557, 4124.23076896, 4043.46153805, 4147.69230749,12.0
4106.66666639, 4024.99999952, 4125.76923050, 4115.38461511, 4123.20512793, 4109.10256383, 4143.20512800, 4164.35897415, 4121.66666639, 4130.25640998, 4587.82051352, 4141.92307672, 4045.64102523, 4148.20512800,12.0
4096.92307658, 4010.38461490, 4116.15384588, 4094.48717914, 4124.23076896, 4099.99999966, 4118.84615357, 4139.74358954, 4114.87179460, 4130.25640998, 4588.71794942, 4128.97435870, 4036.15384567, 4147.56410236,12.0
4106.53846126, 3995.51281996, 4105.51282024, 4093.97435863, 4123.46153819, 4094.99999966, 4109.23076896, 4111.53846126, 4107.94871767, 4130.25640998, 4586.15384685, 4110.89743562, 4032.56410208, 4147.82051262,12.0
4102.56410229, 3986.28205073, 4098.97435863, 4095.64102530, 4121.66666639, 4091.79487145, 4108.07692280, 4115.51282024, 4101.41025607, 4130.25640998, 4587.69230839, 4111.15384588, 4031.92307644, 4144.35897415,12.0
4104.87179460, 3993.07692252, 4105.64102537, 4093.71794837, 4121.02564075, 4076.02564068, 4099.35897402, 4121.53846126, 4099.99999966, 4130.25640998, 4589.87179557, 4122.05128178, 4033.71794824, 4146.41025621,12.0
4107.82051255, 4013.58974311, 4120.76923050, 4108.71794844, 4120.51282024, 4076.66666632, 4119.99999973, 4127.43589716, 4111.79487152, 4130.25640998, 4596.28205205, 4137.69230749, 4046.15384574, 4147.82051262,12.0
4098.58974325, 4016.53846106, 4120.89743562, 4117.82051255, 4121.02564075, 4098.46153812, 4126.15384588, 4129.99999973, 4122.82051255, 4130.25640998, 4604.10256487, 4142.56410236, 4052.56410215, 4144.61538441,12.0
4106.28205101, 4008.33333285, 4114.10256383, 4107.69230742, 4123.33333306, 4097.30769196, 4093.84615350, 4114.23076896, 4111.66666639, 4130.25640998, 4601.15384692, 4131.41025614, 4039.99999959, 4146.02564082,12.0
4101.53846119, 4005.76923029, 4112.05128178, 4097.82051248, 4123.58974332, 4079.61538427, 4093.46153812, 4104.87179460, 4088.97435863, 4130.25640998, 4589.23076993, 4120.12820485, 4031.28205080, 4146.53846133,12.0
4102.43589709, 4002.69230714, 4108.97435870, 4097.30769196, 4123.97435870, 4088.71794837, 4121.53846126, 4114.74358947, 4092.43589709, 4130.25640998, 4588.71794942, 4114.61538434, 4037.69230728, 4146.53846133,12.0
4108.58974332, 3993.84615329, 4097.56410222, 4096.28205094, 4123.07692280, 4097.43589709, 4111.66666639, 4113.58974332, 4106.15384588, 4130.25640998, 4595.76923154, 4104.23076896, 4037.69230728, 4145.64102544,12.0
4098.33333299, 4000.64102509, 4102.69230742, 4105.25640998, 4121.02564075, 4091.28205094, 4108.07692280, 4123.71794844, 4107.30769203, 4130.25640998, 4602.82051359, 4111.15384588, 4042.05128164, 4144.35897415,12.0
4106.41025614, 4015.64102516, 4118.46153819, 4113.58974332, 4122.69230742, 4097.82051248, 4129.10256383, 4143.20512800, 4116.53846126, 4130.25640998, 4607.82051359, 4133.33333306, 4056.53846113, 4144.74358954,12.0
4102.82051255, 4010.64102516, 4108.58974332, 4105.89743562, 4123.58974332, 4092.56410222, 4112.17948691, 4128.58974332, 4127.17948691, 4130.25640998, 4605.89743667, 4124.23076896, 4051.15384574, 4142.43589723,12.0
4099.23076889, 4008.33333285, 4101.41025607, 4109.61538434, 4124.35897408, 4093.58974325, 4108.46153819, 4125.64102537, 4131.02564075, 4130.25640998, 4607.94871872, 4111.79487152, 4039.48717907, 4143.07692287,12.0
4109.10256383, 3999.74358919, 4106.92307665, 4114.99999973, 4124.99999973, 4110.12820485, 4127.69230742, 4137.05128185, 4126.28205101, 4130.25640998, 4609.87179564, 4119.23076896, 4042.82051241, 4145.38461518,12.0
4099.48717914, 3978.33333278, 4100.12820478, 4100.25640991, 4121.28205101, 4093.46153812, 4107.05128178, 4122.17948691, 4115.12820485, 4130.25640998, 4603.46153923, 4112.94871767, 4046.53846113, 4145.38461518,12.0
4102.56410229, 3995.25640970, 4102.43589709, 4100.89743555, 4120.76923050, 4088.46153812, 4099.23076889, 4127.82051255, 4120.89743562, 4130.25640998, 4610.25641102, 4114.48717921, 4051.15384574, 4147.69230749,12.0
4104.87179460, 4002.56410201, 4105.12820485, 4110.76923050, 4123.97435870, 4103.46153819, 4116.15384588, 4135.89743569, 4117.17948691, 4130.25640998, 4616.53846231, 4120.38461511, 4050.76923036, 4145.51282031,12.0
4103.33333306, 3957.30769169, 4088.20512786, 4091.53846119, 4123.71794844, 4079.61538427, 4093.07692273, 4088.97435863, 4079.61538427, 4130.25640998, 4604.10256487, 4095.51282017, 4033.58974311, 4142.30769210,12.0
4112.30769203, 3950.64102502, 4091.02564068, 4083.97435863, 4122.69230742, 4067.05128164, 4082.69230735, 4067.17948677, 4069.99999966, 4130.25640998, 4605.38461615, 4094.10256376, 4033.07692259, 4142.82051262,12.0
4107.56410229, 3994.35897381, 4116.15384588, 4113.84615357, 4122.30769203, 4099.48717914, 4120.51282024, 4113.07692280, 4110.38461511, 4130.25640998, 4623.84615461, 4134.61538434, 4053.20512779, 4142.17948697,12.0
4113.58974332, 3992.69230714, 4119.99999973, 4127.82051255, 4122.43589716, 4108.84615357, 4129.74358947, 4136.41025621, 4131.53846126, 4130.25640998, 4628.07692391, 4141.66666646, 4058.97435856, 4145.51282031,12.0
4111.41025614, 3966.28205066, 4105.51282024, 4115.12820485, 4122.94871767, 4097.43589709, 4103.07692280, 4115.38461511, 4115.76923050, 4130.25640998, 4624.35897513, 4118.71794844, 4056.92307651, 4146.66666646,12.0
4102.43589709, 3976.92307637, 4102.56410229, 4107.17948691, 4122.17948691, 4092.82051248, 4098.84615350, 4105.25640998, 4101.53846119, 4130.25640998, 4622.94871872, 4116.92307665, 4053.33333292, 4145.89743569,12.0
4114.48717921, 3984.48717894, 4106.79487152, 4108.97435870, 4122.05128178, 4083.84615350, 4118.58974332, 4116.53846126, 4105.89743562, 4130.25640998, 4616.79487256, 4118.71794844, 4042.56410215, 4146.53846133,12.0
4107.94871767, 3968.58974297, 4105.38461511, 4114.87179460, 4121.92307665, 4102.94871767, 4130.25640998, 4132.05128178, 4123.58974332, 4130.25640998, 4621.66666743, 4119.99999973, 4045.12820472, 4143.71794851,12.0
4107.43589716, 3956.53846092, 4101.15384581, 4112.30769203, 4121.53846126, 4116.79487152, 4110.51282024, 4130.12820485, 4128.07692280, 4130.25640998, 4635.76923161, 4125.12820485, 4058.71794830, 4146.02564082,12.0
4114.23076896, 3968.84615322, 4098.71794837, 4106.92307665, 4121.02564075, 4085.76923043, 4093.71794837, 4121.92307665, 4118.97435870, 4130.25640998, 4637.56410340, 4124.10256383, 4058.33333292, 4148.58974339,12.0
4103.33333306, 3984.48717894, 4106.41025614, 4118.71794844, 4123.71794844, 4087.05128171, 4119.87179460, 4133.07692280, 4127.94871767, 4130.25640998, 4636.53846238, 4130.51282024, 4054.99999959, 4146.15384595,12.0
4104.61538434, 3988.20512765, 4119.35897408, 4133.33333306, 4127.56410229, 4128.07692280, 4155.76923056, 4150.89743569, 4150.64102544, 4130.25640998, 4645.00000084, 4147.69230749, 4065.76923036, 4147.17948697,12.0
4103.84615357, 3983.46153791, 4111.79487152, 4123.71794844, 4125.64102537, 4119.35897408, 4148.84615364, 4146.02564082, 4144.35897415, 4130.25640998, 4645.12820597, 4142.17948697, 4066.92307651, 4147.43589723,12.0
4109.87179460, 3959.74358912, 4090.51282017, 4099.10256376, 4122.05128178, 4088.20512786, 4107.69230742, 4108.84615357, 4111.41025614, 4130.25640998, 4631.53846238, 4107.56410229, 4046.53846113, 4145.12820492,12.0
4112.05128178, 3937.30769162, 4075.89743555, 4083.71794837, 4122.69230742, 4080.25640991, 4081.92307658, 4076.53846119, 4090.51282017, 4130.25640998, 4618.33333410, 4078.07692273, 4029.87179439, 4144.74358954,12.0
4100.12820478, 3944.23076861, 4077.43589709, 4090.89743555, 4123.46153819, 4080.51282017, 4103.33333306, 4093.46153812, 4101.28205094, 4130.25640998, 4620.64102641, 4085.12820478, 4037.82051241, 4146.15384595,12.0
4108.46153819, 3973.71794817, 4096.28205094, 4120.12820485, 4122.30769203, 4106.02564075, 4132.82051255, 4130.64102537, 4135.25640998, 4130.25640998, 4641.02564186, 4124.23076896, 4061.53846113, 4147.56410236,12.0
4107.56410229, 3984.99999945, 4103.71794844, 4128.33333306, 4122.05128178, 4121.92307665, 4117.43589716, 4131.66666639, 4145.51282031, 4130.25640998, 4652.05128289, 4140.12820492, 4067.94871754, 4146.66666646,12.0
4106.02564075, 3965.12820451, 4086.79487145, 4102.69230742, 4122.30769203, 4090.25640991, 4080.76923043, 4102.30769196, 4112.43589716, 4130.25640998, 4641.92307776, 4108.07692280, 4052.17948677, 4145.51282031,12.0
4114.35897408, 3959.61538399, 4080.76923043, 4094.23076889, 4122.43589716, 4077.43589709, 4090.76923043, 4104.23076896, 4101.15384581, 4130.25640998, 4635.89743674, 4097.17948684, 4049.87179446, 4143.58974339,12.0
4111.28205101, 3976.79487124, 4090.12820478, 4106.79487152, 4123.07692280, 4092.05128171, 4118.20512793, 4124.23076896, 4124.61538434, 4130.25640998, 4641.79487263, 4118.20512793, 4058.07692266, 4142.69230749,12.0
4118.97435870, 3973.84615329, 4088.46153812, 4105.12820485, 4123.33333306, 4082.43589709, 4113.97435870, 4120.64102537, 4125.64102537, 4130.25640998, 4644.23077007, 4113.46153819, 4053.84615343, 4146.02564082,12.0
4116.92307665, 3960.38461476, 4079.99999966, 4096.53846119, 4122.56410229, 4079.74358940, 4110.76923050, 4118.71794844, 4119.35897408, 4130.25640998, 4642.56410340, 4101.02564068, 4052.17948677, 4144.74358954,12.0
4114.74358947, 3973.71794817, 4078.58974325, 4097.56410222, 4121.66666639, 4093.97435863, 4108.20512793, 4118.20512793, 4126.66666639, 4130.25640998, 4638.84615468, 4104.99999973, 4055.51282010, 4143.71794851,12.0
4123.46153819, 3977.30769176, 4072.43589709, 4096.28205094, 4120.89743562, 4080.12820478, 4084.35897402, 4096.53846119, 4110.38461511, 4130.25640998, 4633.97435981, 4096.28205094, 4049.48717907, 4146.66666646,12.0
4112.43589716, 3977.05128150, 4068.20512779, 4095.89743555, 4120.25640998, 4075.25640991, 4079.87179453, 4092.17948684, 4100.12820478, 4130.25640998, 4643.20512904, 4091.15384581, 4051.15384574, 4148.33333313,12.0
4117.56410229, 4000.89743535, 4077.82051248, 4105.25640998, 4122.17948691, 4099.35897402, 4112.30769203, 4117.82051255, 4133.20512793, 4130.25640998, 4659.23077007, 4111.79487152, 4061.79487138, 4149.74358954,12.0
4119.99999973, 3992.56410201, 4073.33333299, 4102.43589709, 4122.43589716, 4099.23076889, 4120.12820485, 4117.94871767, 4146.28205108, 4130.25640998, 4653.20512904, 4112.56410229, 4056.53846113, 4146.15384595,12.0
4108.33333306, 3962.69230707, 4055.76923036, 4085.51282017, 4122.17948691, 4077.17948684, 4084.87179453, 4094.35897402, 4123.33333306, 4130.25640998, 4637.82051366, 4087.94871761, 4048.84615343, 4143.84615364,12.0
4116.28205101, 3985.25640970, 4057.43589702, 4087.43589709, 4123.97435870, 4078.46153812, 4081.28205094, 4102.30769196, 4133.97435870, 4130.25640998, 4644.74359058, 4091.28205094, 4056.41025600, 4148.84615364,12.0
4111.15384588, 4017.30769183, 4068.20512779, 4102.69230742, 4122.17948691, 4092.43589709, 4112.94871767, 4125.76923050, 4164.10256390, 4130.25640998, 4653.84615468, 4108.07692280, 4061.15384574, 4147.69230749,12.0
4111.92307665, 4001.02564047, 4065.38461497, 4100.76923043, 4120.38461511, 4095.64102530, 4115.25640998, 4114.87179460, 4151.92307672, 4130.25640998, 4643.58974443, 4100.89743555, 4055.25640984, 4144.74358954,12.0
4117.17948691, 3979.61538406, 4054.10256369, 4091.41025607, 4122.43589716, 4086.92307658, 4091.02564068, 4093.58974325, 4120.12820485, 4130.25640998, 4641.79487263, 4091.02564068, 4054.10256369, 4145.25641005,12.0
4108.84615357, 3983.71794817, 4051.28205087, 4088.58974325, 4122.69230742, 4076.02564068, 4085.25640991, 4104.87179460, 4112.94871767, 4130.25640998, 4648.84615468, 4091.02564068, 4055.12820472, 4145.38461518,12.0
4115.64102537, 3993.07692252, 4055.51282010, 4087.56410222, 4121.92307665, 4079.74358940, 4097.82051248, 4117.30769203, 4131.53846126, 4130.25640998, 4645.25641109, 4085.25640991, 4050.38461497, 4145.38461518,12.0
4113.58974332, 3983.58974304, 4049.61538420, 4083.46153812, 4122.05128178, 4081.02564068, 4096.66666632, 4099.99999966, 4139.10256390, 4130.25640998, 4638.58974443, 4072.82051248, 4041.15384574, 4143.84615364,12.0
4118.20512793, 3982.05128150, 4053.46153805, 4087.94871761, 4123.46153819, 4081.41025607, 4102.69230742, 4097.82051248, 4133.84615357, 4130.25640998, 4643.20512904, 4081.53846119, 4046.28205087, 4145.51282031,12.0
4122.69230742, 4005.76923029, 4066.15384574, 4098.71794837, 4123.84615357, 4094.10256376, 4123.46153819, 4121.92307665, 4149.10256390, 4130.25640998, 4652.43589827, 4101.28205094, 4062.17948677, 4143.97435877,12.0
4110.38461511, 4006.92307644, 4057.56410215, 4094.10256376, 4122.94871767, 4086.02564068, 4109.23076896, 4116.79487152, 4147.05128185, 4130.25640998, 4649.74359058, 4093.58974325, 4057.56410215, 4141.28205108,12.0
4120.25640998, 3989.74358919, 4050.89743548, 4086.41025607, 4124.23076896, 4066.53846113, 4082.56410222, 4098.97435863, 4112.17948691, 4130.25640998, 4644.48718032, 4081.15384581, 4048.33333292, 4146.28205108,12.0
4119.87179460, 3998.97435842, 4059.10256369, 4094.35897402, 4123.20512793, 4068.84615343, 4090.89743555, 4105.51282024, 4116.66666639, 4130.25640998, 4651.79487263, 4090.51282017, 4056.02564061, 4144.61538441,12.0
4117.56410229, 4014.48717900, 4063.07692266, 4106.66666639, 4121.79487152, 4081.66666632, 4108.84615357, 4111.66666639, 4155.25641005, 4130.25640998, 4662.82051373, 4099.74358940, 4064.87179446, 4144.35897415,12.0
4127.17948691, 4018.97435849, 4068.33333292, 4115.38461511, 4123.20512793, 4096.41025607, 4126.02564075, 4124.99999973, 4171.79487166, 4130.25640998, 4668.84615475, 4110.51282024, 4069.23076882, 4147.94871774,12.0
4119.35897408, 4021.41025593, 4074.10256376, 4116.92307665, 4122.30769203, 4100.64102530, 4140.25641005, 4143.84615364, 4171.79487166, 4130.25640998, 4669.35897527, 4118.97435870, 4070.64102530, 4144.23076903,12.0
4123.84615357, 4005.38461490, 4060.76923036, 4100.89743555, 4120.64102537, 4084.35897402, 4111.79487152, 4122.43589716, 4156.41025621, 4130.25640998, 4664.10256501, 4097.43589709, 4062.30769189, 4146.66666646,12.0
4122.05128178, 3987.94871740, 4046.15384574, 4088.97435863, 4119.87179460, 4072.69230735, 4076.28205094, 4096.92307658, 4133.20512793, 4130.25640998, 4656.15384699, 4079.74358940, 4055.12820472, 4151.02564082,12.0
4117.30769203, 4003.46153791, 4057.56410215, 4101.02564068, 4122.94871767, 4081.66666632, 4096.53846119, 4114.74358947, 4145.25641005, 4130.25640998, 4657.17948802, 4094.61538427, 4059.23076882, 4147.56410236,12.0
4126.53846126, 4002.82051227, 4054.74358933, 4101.53846119, 4126.28205101, 4072.17948684, 4092.05128171, 4104.35897408, 4143.71794851, 4130.25640998, 4656.66666750, 4090.25640991, 4055.76923036, 4144.99999980,12.0
4117.43589716, 3995.12820458, 4045.89743548, 4097.30769196, 4124.10256383, 4055.38461497, 4066.28205087, 4079.99999966, 4116.92307665, 4130.25640998, 4654.74359058, 4084.10256376, 4054.10256369, 4146.41025621,12.0
4119.35897408, 4024.74358926, 4070.38461504, 4114.23076896, 4122.05128178, 4083.84615350, 4113.84615357, 4118.71794844, 4139.48717928, 4130.25640998, 4667.56410347, 4116.66666639, 4069.48717907, 4147.05128185,12.0
4119.74358947, 4023.20512772, 4073.20512786, 4113.58974332, 4123.84615357, 4101.79487145, 4144.48717928, 4136.15384595, 4160.38461518, 4130.25640998, 4669.87179578, 4115.25640998, 4069.48717907, 4142.69230749,12.0
4110.76923050, 3982.56410201, 4039.61538420, 4087.56410222, 4127.17948691, 4070.51282017, 4093.33333299, 4086.79487145, 4118.84615357, 4130.25640998, 4651.41025725, 4069.99999966, 4051.53846113, 4141.41025621,12.0
4121.28205101, 3986.41025586, 4033.97435849, 4085.64102530, 4125.12820485, 4055.89743548, 4072.30769196, 4077.56410222, 4102.17948684, 4130.25640998, 4648.07692391, 4066.02564061, 4049.87179446, 4148.07692287,12.0
4119.23076896, 4010.64102516, 4051.28205087, 4102.17948684, 4120.76923050, 4076.92307658, 4101.92307658, 4113.33333306, 4145.89743569, 4130.25640998, 4662.17948809, 4086.92307658, 4057.43589702, 4148.20512800,12.0
4121.79487152, 4005.89743541, 4052.94871754, 4104.99999973, 4123.71794844, 4081.66666632, 4105.38461511, 4107.30769203, 4158.84615364, 4130.25640998, 4666.02564193, 4083.46153812, 4056.02564061, 4145.12820492,12.0
4125.12820485, 4012.56410208, 4053.84615343, 4102.43589709, 4126.92307665, 4077.17948684, 4104.35897408, 4092.17948684, 4134.99999973, 4130.25640998, 4664.61538552, 4087.56410222, 4061.15384574, 4142.69230749,12.0
4116.79487152, 4030.51282003, 4062.69230728, 4109.74358947, 4123.33333306, 4089.35897402, 4112.56410229, 4104.48717921, 4138.07692287, 4130.25640998, 4672.82051373, 4105.64102537, 4072.94871761, 4140.89743569,12.0
4126.41025614, 4013.58974311, 4058.07692266, 4110.89743562, 4121.53846126, 4089.99999966, 4099.99999966, 4102.56410229, 4144.35897415, 4130.25640998, 4673.33333424, 4096.92307658, 4070.12820478, 4144.61538441,12.0
4124.61538434, 3989.48717894, 4045.76923036, 4098.46153812, 4124.10256383, 4077.69230735, 4089.74358940, 4098.20512786, 4138.20512800, 4130.25640998, 4664.48718039, 4076.02564068, 4057.82051241, 4143.58974339,12.0
4125.76923050, 3993.97435842, 4044.99999959, 4094.99999966, 4123.97435870, 4069.61538420, 4087.94871761, 4106.53846126, 4142.82051262, 4130.25640998, 4663.84615475, 4073.33333299, 4055.51282010, 4143.97435877,12.0
4132.56410229, 4013.97435849, 4053.33333292, 4107.30769203, 4123.07692280, 4071.02564068, 4099.35897402, 4114.74358947, 4151.92307672, 4130.25640998, 4672.30769321, 4086.02564068, 4064.61538420, 4144.74358954,12.0
4124.10256383, 4020.89743541, 4060.25640984, 4115.64102537, 4123.84615357, 4089.99999966, 4124.61538434, 4124.74358947, 4158.46153826, 4130.25640998, 4677.56410347, 4102.94871767, 4074.74358940, 4143.07692287,12.0
4129.61538434, 4007.82051234, 4058.46153805, 4105.76923050, 4123.71794844, 4091.79487145, 4118.71794844, 4117.94871767, 4164.10256390, 4130.25640998, 4676.28205219, 4100.89743555, 4073.58974325, 4151.28205108,12.0
4124.23076896, 4007.82051234, 4053.58974318, 4100.12820478, 4121.66666639, 4070.25640991, 4090.64102530, 4103.33333306, 4159.87179467, 4130.25640998, 4673.46153937, 4090.12820478, 4065.38461497, 4152.30769210,12.0
4124.48717921, 4020.89743541, 4057.94871754, 4111.02564075, 4121.92307665, 4074.10256376, 4086.66666632, 4102.69230742, 4149.74358954, 4130.25640998, 4672.17948809, 4093.84615350, 4063.07692266, 4144.10256390,12.0
4136.02564082, 4019.87179439, 4058.58974318, 4112.82051255, 4122.69230742, 4082.43589709, 4093.20512786, 4094.61538427, 4148.58974339, 4130.25640998, 4671.28205219, 4097.56410222, 4063.71794830, 4144.23076903,12.0
4123.07692280, 4027.69230721, 4061.15384574, 4113.97435870, 4122.30769203, 4074.61538427, 4109.99999973, 4095.38461504, 4154.99999980, 4130.25640998, 4677.94871886, 4108.20512793, 4071.28205094, 4147.69230749,12.0
4124.23076896, 4051.28205087, 4077.56410222, 4130.51282024, 4124.61538434, 4097.17948684, 4131.41025614, 4120.38461511, 4169.48717935, 4130.25640998, 4691.28205219, 4130.89743562, 4086.02564068, 4146.02564082,12.0
4123.97435870, 4038.07692266, 4073.07692273, 4131.92307665, 4124.35897408, 4109.23076896, 4110.38461511, 4119.87179460, 4173.46153833, 4130.25640998, 4688.84615475, 4124.87179460, 4084.48717914, 4143.46153826,12.0
4118.33333306, 4005.25640977, 4050.12820472, 4106.53846126, 4122.17948691, 4074.35897402, 4084.48717914, 4095.25640991, 4152.43589723, 4130.25640998, 4673.33333424, 4092.30769196, 4070.76923043, 4147.94871774,12.0
4124.74358947, 4018.46153798, 4053.33333292, 4105.76923050, 4124.23076896, 4074.35897402, 4113.58974332, 4107.05128178, 4156.02564082, 4130.25640998, 4673.97435988, 4095.38461504, 4071.02564068, 4150.12820492,12.0
4117.94871767, 4046.41025600, 4067.30769189, 4125.25640998, 4124.74358947, 4106.15384588, 4130.64102537, 4127.69230742, 4170.38461525, 4130.25640998, 4685.38461629, 4118.20512793, 4077.82051248, 4143.58974339,12.0
4121.79487152, 4041.79487138, 4063.71794830, 4118.84615357, 4121.92307665, 4093.71794837, 4106.28205101, 4110.64102537, 4152.56410236, 4130.25640998, 4686.92307783, 4111.15384588, 4075.38461504, 4143.97435877,12.0
4123.58974332, 4021.53846106, 4049.74358933, 4100.64102530, 4121.53846126, 4068.07692266, 4096.02564068, 4094.10256376, 4141.28205108, 4130.25640998, 4678.20512911, 4092.17948684, 4071.79487145, 4146.92307672,12.0
4119.48717921, 4010.76923029, 4043.84615343, 4096.66666632, 4124.35897408, 4073.58974325, 4090.76923043, 4096.15384581, 4145.76923056, 4130.25640998, 4672.82051373, 4086.02564068, 4069.48717907, 4146.66666646,12.0
4128.46153819, 4017.43589695, 4053.33333292, 4103.33333306, 4124.74358947, 4084.74358940, 4082.43589709, 4100.38461504, 4143.58974339, 4130.25640998, 4675.12820604, 4090.76923043, 4072.43589709, 4145.64102544,12.0
4121.41025614, 4033.97435849, 4060.64102523, 4110.12820485, 4122.82051255, 4086.53846119, 4100.12820478, 4103.20512793, 4155.25641005, 4130.25640998, 4679.74359065, 4100.38461504, 4077.94871761, 4143.33333313,12.0
4127.05128178, 4047.69230728, 4064.23076882, 4121.79487152, 4123.71794844, 4093.97435863, 4128.07692280, 4111.15384588, 4171.28205115, 4130.25640998, 4688.33333424, 4112.82051255, 4078.33333299, 4146.41025621,12.0
4131.66666639, 4042.94871754, 4062.30769189, 4123.97435870, 4124.48717921, 4100.38461504, 4129.10256383, 4115.64102537, 4154.87179467, 4130.12820485, 4691.53846245, 4110.89743562, 4078.97435863, 4146.53846133,12.0
4120.76923050, 4016.28205080, 4050.51282010, 4103.97435870, 4122.69230742, 4082.56410222, 4101.66666632, 4096.28205094, 4139.10256390, 4129.87179460, 4678.71794963, 4086.92307658, 4076.53846119, 4144.99999980,12.0
4131.92307665, 4003.46153791, 4043.46153805, 4094.35897402, 4122.17948691, 4066.28205087, 4078.84615350, 4078.97435863, 4146.79487159, 4130.12820485, 4670.64102655, 4074.99999966, 4072.17948684, 4148.84615364,12.0
4130.38461511, 4027.43589695, 4047.56410215, 4108.84615357, 4121.79487152, 4079.74358940, 4092.56410222, 4096.15384581, 4160.76923056, 4130.38461511, 4681.92307783, 4088.97435863, 4076.28205094, 4145.12820492,12.0
4130.12820485, 4038.97435856, 4051.41025600, 4114.99999973, 4121.79487152, 4095.64102530, 4114.48717921, 4113.20512793, 4167.30769210, 4129.35897408, 4688.58974450, 4095.12820478, 4079.61538427, 4144.35897415,12.0
4134.61538434, 4024.61538413, 4047.69230728, 4104.48717921, 4122.30769203, 4086.28205094, 4108.07692280, 4098.84615350, 4153.58974339, 4130.76923050, 4677.94871886, 4086.92307658, 4071.15384581, 4149.23076903,12.0
4123.07692280, 4044.35897395, 4057.56410215, 4111.66666639, 4121.66666639, 4086.02564068, 4120.89743562, 4097.94871761, 4151.15384595, 4135.25640998, 4677.05128296, 4103.20512793, 4073.07692273, 4148.33333313,12.0
4132.30769203, 4064.10256369, 4067.30769189, 4123.97435870, 4123.07692280, 4114.48717921, 4142.69230749, 4112.05128178, 4168.20512807, 4136.41025621, 4688.97435988, 4117.17948691, 4084.48717914, 4146.15384595,12.0
4128.07692280, 4030.38461490, 4049.99999959, 4112.82051255, 4122.94871767, 4107.82051255, 4113.71794844, 4102.94871767, 4154.48717928, 4135.25640998, 4689.23077014, 4090.64102530, 4076.79487145, 4147.05128185,12.0
4120.38461511, 4013.71794824, 4042.17948677, 4107.05128178, 4121.02564075, 4066.02564061, 4083.20512786, 4092.05128171, 4132.30769203, 4135.64102544, 4684.23077014, 4078.71794837, 4071.53846119, 4148.20512800,12.0
4131.02564075, 4039.23076882, 4053.84615343, 4117.94871767, 4122.05128178, 4068.84615343, 4093.58974325, 4093.20512786, 4151.28205108, 4134.23076896, 4689.35897527, 4098.71794837, 4083.33333299, 4145.89743569,12.0
4124.23076896, 4050.89743548, 4052.05128164, 4120.12820485, 4121.53846126, 4094.87179453, 4103.20512793, 4093.33333299, 4169.10256397, 4132.05128178, 4687.05128296, 4098.97435863, 4084.61538427, 4145.51282031,12.0
4126.79487152, 4043.46153805, 4043.71794830, 4109.10256383, 4121.28205101, 4082.56410222, 4096.15384581, 4089.35897402, 4150.51282031, 4133.71794844, 4674.23077014, 4078.97435863, 4074.35897402, 4150.12820492,12.0
4129.35897408, 4018.20512772, 4039.87179446, 4097.17948684, 4123.58974332, 4062.82051241, 4085.76923043, 4083.20512786, 4132.30769203, 4135.64102544, 4673.20512911, 4068.97435856, 4068.07692266, 4147.05128185,12.0
4127.17948691, 4006.66666618, 4043.20512779, 4104.10256383, 4123.58974332, 4074.35897402, 4088.71794837, 4089.10256376, 4141.15384595, 4135.51282031, 4682.43589834, 4081.41025607, 4071.79487145, 4144.23076903,12.0
4132.94871767, 4038.33333292, 4054.48717907, 4122.17948691, 4122.43589716, 4082.43589709, 4106.92307665, 4102.17948684, 4153.71794851, 4135.64102544, 4683.07692398, 4097.43589709, 4077.30769196, 4145.89743569,12.0
4125.76923050, 4055.64102523, 4054.74358933, 4121.53846126, 4123.20512793, 4078.33333299, 4107.82051255, 4095.38461504, 4141.79487159, 4135.76923056, 4677.82051373, 4091.41025607, 4072.30769196, 4143.84615364,12.0
4133.46153819, 4059.23076882, 4058.71794830, 4127.69230742, 4125.12820485, 4101.66666632, 4107.69230742, 4094.23076889, 4139.99999980, 4135.12820485, 4685.00000091, 4097.69230735, 4074.35897402, 4145.12820492,12.0
4131.92307665, 4073.33333299, 4069.99999966, 4146.66666646, 4123.46153819, 4118.20512793, 4127.05128178, 4114.35897408, 4166.41025621, 4135.38461518, 4689.87179578, 4118.71794844, 4082.56410222, 4147.69230749,12.0
4121.28205101, 4059.23076882, 4064.10256369, 4137.17948697, 4122.56410229, 4092.56410222, 4118.20512793, 4106.92307665, 4171.28205115, 4135.38461518, 4678.07692398, 4103.58974332, 4074.10256376, 4147.82051262,12.0
4133.46153819, 4046.79487138, 4062.56410215, 4128.07692280, 4125.76923050, 4085.38461504, 4098.07692273, 4093.58974325, 4159.23076903, 4135.25640998, 4680.51282142, 4095.76923043, 4072.56410222, 4147.69230749,12.0
4131.79487152, 4064.35897395, 4070.12820478, 4141.92307672, 4125.76923050, 4108.33333306, 4107.94871767, 4105.64102537, 4155.51282031, 4135.25640998, 4692.94871886, 4118.33333306, 4087.94871761, 4143.58974339,12.0
4133.20512793, 4054.48717907, 4057.17948677, 4127.56410229, 4122.43589716, 4096.79487145, 4096.66666632, 4090.25640991, 4140.12820492, 4135.25640998, 4681.28205219, 4097.94871761, 4082.43589709, 4145.38461518,12.0
4134.48717921, 4037.56410215, 4045.76923036, 4106.02564075, 4120.64102537, 4073.20512786, 4090.76923043, 4077.82051248, 4137.94871774, 4135.25640998, 4670.51282142, 4072.82051248, 4073.84615350, 4149.87179467,12.0
4129.48717921, 4052.69230728, 4055.89743548, 4120.89743562, 4122.43589716, 4085.25640991, 4115.76923050, 4105.12820485, 4157.43589723, 4135.25640998, 4682.94871886, 4092.05128171, 4081.66666632, 4149.61538441,12.0
4139.74358954, 4052.17948677, 4053.58974318, 4124.35897408, 4123.84615357, 4094.87179453, 4108.33333306, 4108.07692280, 4148.33333313, 4135.25640998, 4681.28205219, 4089.74358940, 4075.12820478, 4148.46153826,12.0
4129.48717921, 4034.61538413, 4039.87179446, 4105.64102537, 4122.56410229, 4085.76923043, 4085.64102530, 4086.92307658, 4127.82051255, 4135.25640998, 4663.97435988, 4065.64102523, 4064.61538420, 4146.79487159,12.0
4128.07692280, 4040.25640984, 4046.92307651, 4109.74358947, 4122.82051255, 4089.87179453, 4099.10256376, 4091.41025607, 4137.43589723, 4135.25640998, 4667.69230860, 4075.51282017, 4070.64102530, 4148.07692287,12.0
4137.05128185, 4057.56410215, 4057.30769189, 4124.74358947, 4123.20512793, 4107.56410229, 4124.35897408, 4108.97435870, 4156.79487159, 4135.25640998, 4680.89743680, 4095.51282017, 4079.35897402, 4146.41025621,12.0
4125.64102537, 4061.66666625, 4051.53846113, 4118.97435870, 4122.17948691, 4107.94871767, 4114.23076896, 4102.05128171, 4154.74358954, 4135.25640998, 4676.92307783, 4089.61538427, 4081.02564068, 4143.46153826,12.0
4128.71794844, 4055.38461497, 4046.53846113, 4109.87179460, 4122.94871767, 4088.46153812, 4091.92307658, 4084.61538427, 4139.10256390, 4135.25640998, 4668.07692398, 4076.66666632, 4074.61538427, 4145.51282031,12.0
4128.20512793, 4047.30769189, 4041.66666625, 4108.84615357, 4123.84615357, 4075.25640991, 4089.35897402, 4081.92307658, 4136.02564082, 4135.38461518, 4666.66666757, 4072.69230735, 4067.30769189, 4143.84615364,12.0
4128.84615357, 4049.10256369, 4036.92307651, 4105.12820485, 4123.84615357, 4085.51282017, 4088.97435863, 4077.30769196, 4137.56410236, 4135.64102544, 4667.17948809, 4073.97435863, 4069.10256369, 4145.12820492,12.0
4133.97435870, 4053.33333292, 4035.51282003, 4101.79487145, 4125.64102537, 4097.17948684, 4080.25640991, 4062.56410215, 4124.10256383, 4134.87179460, 4665.25641116, 4069.74358940, 4072.56410222, 4147.82051262,12.0
4126.02564075, 4052.43589702, 4038.07692266, 4099.10256376, 4125.12820485, 4089.61538427, 4088.58974325, 4069.74358940, 4122.94871767, 4135.25640998, 4663.97435988, 4068.97435856, 4074.23076889, 4145.12820492,12.0
4140.51282031, 4058.84615343, 4056.92307651, 4112.94871767, 4122.17948691, 4092.17948684, 4099.23076889, 4077.17948684, 4130.76923050, 4135.38461518, 4667.43589834, 4076.92307658, 4084.23076889, 4145.89743569,12.0
4132.94871767, 4095.25640991, 4066.53846113, 4137.94871774, 4121.28205101, 4114.35897408, 4112.17948691, 4096.79487145, 4161.15384595, 4135.38461518, 4679.48718039, 4097.82051248, 4086.28205094, 4146.92307672,12.0
4141.15384595, 4071.66666632, 4054.48717907, 4111.02564075, 4122.43589716, 4089.48717914, 4095.38461504, 4088.84615350, 4145.76923056, 4134.10256383, 4670.38461629, 4083.33333299, 4080.64102530, 4149.61538441,12.0
4133.33333306, 4061.41025600, 4049.10256369, 4093.84615350, 4121.92307665, 4069.48717907, 4083.33333299, 4083.46153812, 4137.05128185, 4134.61538434, 4660.76923168, 4076.92307658, 4079.61538427, 4147.05128185,12.0
4134.87179460, 4080.76923043, 4055.89743548, 4111.92307665, 4122.82051255, 4089.35897402, 4095.64102530, 4096.66666632, 4142.94871774, 4134.61538434, 4668.33333424, 4083.58974325, 4079.10256376, 4147.82051262,12.0
4138.84615364, 4059.87179446, 4045.38461497, 4101.15384581, 4124.74358947, 4090.38461504, 4094.10256376, 4085.76923043, 4114.10256383, 4134.35897408, 4667.56410347, 4066.92307651, 4073.71794837, 4147.69230749,12.0
4127.56410229, 4041.79487138, 4035.38461490, 4078.71794837, 4123.46153819, 4075.38461504, 4085.64102530, 4062.94871754, 4096.28205094, 4134.48717921, 4659.74359058, 4054.87179446, 4072.43589709, 4145.51282031,12.0
4131.92307665, 4072.05128171, 4051.02564061, 4097.05128171, 4121.28205101, 4088.46153812, 4104.35897408, 4078.33333299, 4121.41025614, 4134.48717921, 4668.33333424, 4076.41025607, 4079.35897402, 4147.43589723,12.0
4130.12820485, 4088.58974325, 4059.35897395, 4119.35897408, 4122.17948691, 4097.17948684, 4112.43589716, 4097.56410222, 4128.20512793, 4134.48717921, 4674.87179578, 4090.76923043, 4083.58974325, 4146.02564082,12.0
4137.17948697, 4071.41025607, 4051.41025600, 4112.05128178, 4123.97435870, 4088.07692273, 4096.28205094, 4086.02564068, 4118.71794844, 4134.48717921, 4665.38461629, 4079.48717914, 4081.41025607, 4145.89743569,12.0
4138.20512800, 4071.28205094, 4054.74358933, 4105.64102537, 4123.58974332, 4090.25640991, 4099.87179453, 4086.92307658, 4133.33333306, 4134.48717921, 4664.35897527, 4076.79487145, 4081.66666632, 4146.28205108,12.0
4124.23076896, 4083.33333299, 4066.41025600, 4113.46153819, 4122.82051255, 4096.79487145, 4108.33333306, 4103.33333306, 4144.10256390, 4134.48717921, 4671.79487270, 4090.64102530, 4088.97435863, 4146.15384595,12.0
4135.76923056, 4083.58974325, 4065.76923036, 4117.17948691, 4123.46153819, 4098.84615350, 4096.66666632, 4101.66666632, 4135.12820485, 4134.48717921, 4668.58974450, 4094.61538427, 4094.35897402, 4148.07692287,12.0
4133.71794844, 4081.28205094, 4058.46153805, 4111.79487152, 4123.07692280, 4089.99999966, 4088.71794837, 4095.64102530, 4134.87179460, 4134.48717921, 4665.64102655, 4086.92307658, 4091.02564068, 4144.61538441,12.0
4130.76923050, 4083.58974325, 4067.05128164, 4114.23076896, 4124.48717921, 4087.05128171, 4104.74358947, 4102.05128171, 4143.84615364, 4134.48717921, 4673.07692398, 4092.69230735, 4089.87179453, 4144.99999980,12.0
4139.48717928, 4085.51282017, 4072.69230735, 4116.79487152, 4126.15384588, 4100.25640991, 4116.02564075, 4093.97435863, 4130.12820485, 4134.48717921, 4672.17948809, 4096.53846119, 4089.74358940, 4146.92307672,12.0
4133.97435870, 4093.84615350, 4066.53846113, 4110.76923050, 4122.82051255, 4106.02564075, 4105.76923050, 4076.92307658, 4104.23076896, 4134.48717921, 4660.25641109, 4083.71794837, 4086.53846119, 4143.97435877,12.0
4140.12820492, 4093.71794837, 4065.76923036, 4111.53846126, 4120.12820485, 4099.74358940, 4092.17948684, 4077.69230735, 4101.02564068, 4134.48717921, 4654.35897520, 4076.28205094, 4081.92307658, 4143.97435877,12.0
4137.69230749, 4080.25640991, 4067.43589702, 4115.12820485, 4119.87179460, 4092.17948684, 4086.15384581, 4080.25640991, 4105.12820485, 4134.48717921, 4657.17948802, 4079.48717914, 4078.20512786, 4145.12820492,12.0
4137.30769210, 4089.48717914, 4072.05128171, 4117.05128178, 4122.56410229, 4086.53846119, 4090.76923043, 4077.82051248, 4100.76923043, 4134.48717921, 4663.33333424, 4084.48717914, 4080.89743555, 4148.46153826,12.0
4145.12820492, 4097.82051248, 4075.51282017, 4116.28205101, 4124.74358947, 4081.53846119, 4090.89743555, 4075.12820478, 4102.05128171, 4134.48717921, 4661.28205219, 4086.41025607, 4085.38461504, 4150.76923056,12.0
4134.23076896, 4091.02564068, 4075.38461504, 4117.69230742, 4123.20512793, 4091.02564068, 4095.12820478, 4078.58974325, 4121.41025614, 4134.48717921, 4659.23077007, 4092.30769196, 4088.33333299, 4147.69230749,12.0
4139.23076903, 4114.10256383, 4087.56410222, 4128.97435870, 4123.46153819, 4121.28205101, 4129.99999973, 4100.89743555, 4149.74358954, 4134.48717921, 4672.43589834, 4115.38461511, 4098.71794837, 4147.43589723,12.0
4139.23076903, 4125.76923050, 4096.41025607, 4134.48717921, 4123.20512793, 4130.12820485, 4144.99999980, 4122.94871767, 4147.43589723, 4134.48717921, 4678.97435988, 4125.89743562, 4106.02564075, 4148.46153826,12.0
4134.23076896, 4095.25640991, 4085.51282017, 4123.07692280, 4122.30769203, 4107.17948691, 4117.43589716, 4120.76923050, 4131.66666639, 4134.48717921, 4668.84615475, 4104.61538434, 4097.82051248, 4148.46153826,12.0
4143.20512800, 4098.84615350, 4082.05128171, 4126.92307665, 4122.82051255, 4105.76923050, 4114.48717921, 4116.02564075, 4146.92307672, 4134.48717921, 4671.28205219, 4104.99999973, 4098.20512786, 4148.07692287,12.0
4131.41025614, 4119.35897408, 4085.51282017, 4135.38461518, 4121.02564075, 4122.56410229, 4128.97435870, 4118.84615357, 4152.56410236, 4134.48717921, 4678.46153937, 4118.71794844, 4105.51282024, 4145.64102544,12.0
4134.87179460, 4090.38461504, 4073.07692273, 4112.69230742, 4121.15384588, 4112.17948691, 4104.61538434, 4101.15384581, 4120.25640998, 4134.48717921, 4664.61538552, 4093.46153812, 4093.46153812, 4144.99999980,12.0
4139.35897415, 4073.33333299, 4064.99999959, 4096.92307658, 4124.23076896, 4091.92307658, 4088.20512786, 4083.84615350, 4114.23076896, 4134.48717921, 4649.74359058, 4077.94871761, 4082.17948684, 4142.94871774,12.0
4139.35897415, 4073.33333299, 4064.99999959, 4096.92307658, 4124.23076896, 4091.92307658, 4088.20512786, 4083.84615350, 4114.23076896, 4134.48717921, 4649.74359058, 4077.94871761, 4082.17948684, 4142.94871774,12.0
4128.97435870, 4097.82051248, 4077.05128171, 4112.30769203, 4125.76923050, 4092.94871761, 4104.48717921, 4089.99999966, 4125.25640998, 4134.48717921, 4652.56410340, 4097.82051248, 4090.51282017, 4144.74358954,12.0
4135.64102544, 4105.38461511, 4084.61538427, 4121.41025614, 4123.84615357, 4098.84615350, 4111.15384588, 4094.10256376, 4108.20512793, 4134.48717921, 4660.51282142, 4103.84615357, 4097.43589709, 4146.66666646,12.0
4131.02564075, 4104.87179460, 4082.05128171, 4116.02564075, 4122.30769203, 4103.97435870, 4116.28205101, 4097.05128171, 4108.46153819, 4134.48717921, 4663.20512911, 4099.87179453, 4094.23076889, 4144.35897415,12.0
4134.48717921, 4116.41025614, 4086.41025607, 4118.71794844, 4124.99999973, 4112.05128178, 4117.43589716, 4104.23076896, 4122.94871767, 4134.48717921, 4661.92307783, 4104.61538434, 4095.51282017, 4147.82051262,12.0
4140.25641005, 4117.82051255, 4094.74358940, 4129.35897408, 4126.53846126, 4118.58974332, 4121.79487152, 4121.02564075, 4134.35897408, 4134.48717921, 4665.12820604, 4112.56410229, 4101.28205094, 4147.56410236,12.0
4133.46153819, 4109.35897408, 4098.07692273, 4129.48717921, 4124.10256383, 4122.69230742, 4132.94871767, 4132.69230742, 4146.41025621, 4134.48717921, 4671.66666757, 4117.56410229, 4105.25640998, 4144.74358954,12.0
4141.02564082, 4109.99999973, 4097.17948684, 4126.53846126, 4123.20512793, 4119.74358947, 4127.56410229, 4119.87179460, 4137.69230749, 4134.48717921, 4670.64102655, 4117.05128178, 4109.99999973, 4146.66666646,12.0
4139.10256390, 4109.35897408, 4090.89743555, 4124.74358947, 4124.23076896, 4108.97435870, 4121.15384588, 4111.28205101, 4117.05128178, 4134.48717921, 4662.05128296, 4111.66666639, 4107.43589716, 4145.25641005,12.0
4141.15384595, 4105.25640998, 4092.05128171, 4124.35897408, 4124.23076896, 4112.05128178, 4127.43589716, 4118.33333306, 4119.10256383, 4134.48717921, 4660.64102655, 4112.69230742, 4101.66666632, 4146.66666646,12.0
4144.87179467, 4119.23076896, 4101.02564068, 4131.79487152, 4123.07692280, 4127.17948691, 4130.25640998, 4116.53846126, 4134.87179460, 4134.48717921, 4667.43589834, 4122.82051255, 4105.38461511, 4148.71794851,12.0
4135.64102544, 4119.10256383, 4094.35897402, 4126.02564075, 4121.28205101, 4117.69230742, 4114.87179460, 4095.38461504, 4122.05128178, 4134.48717921, 4665.51282142, 4112.17948691, 4105.89743562, 4145.89743569,12.0
4146.02564082, 4095.64102530, 4085.12820478, 4113.58974332, 4121.92307665, 4102.43589709, 4103.84615357, 4087.56410222, 4107.17948691, 4134.48717921, 4659.74359058, 4097.56410222, 4103.20512793, 4145.25641005,12.0
4141.92307672, 4098.58974325, 4093.46153812, 4127.82051255, 4123.84615357, 4116.41025614, 4117.82051255, 4104.74358947, 4122.05128178, 4134.48717921, 4658.20512904, 4113.71794844, 4107.43589716, 4146.53846133,12.0
4135.76923056, 4119.48717921, 4106.79487152, 4144.74358954, 4123.97435870, 4136.92307672, 4137.05128185, 4120.25640998, 4144.23076903, 4134.48717921, 4663.33333424, 4135.38461518, 4112.17948691, 4148.84615364,12.0
4144.87179467, 4112.30769203, 4104.87179460, 4133.58974332, 4123.20512793, 4130.25640998, 4140.64102544, 4121.53846126, 4138.07692287, 4134.48717921, 4671.02564193, 4133.84615357, 4114.61538434, 4145.25641005,12.0
4135.38461518, 4087.30769196, 4098.20512786, 4127.30769203, 4124.23076896, 4114.48717921, 4135.51282031, 4119.99999973, 4125.12820485, 4134.48717921, 4672.43589834, 4127.05128178, 4116.28205101, 4142.43589723,12.0
4138.58974339, 4069.87179453, 4098.20512786, 4129.99999973, 4126.28205101, 4116.15384588, 4124.61538434, 4112.30769203, 4128.46153819, 4134.48717921, 4665.25641116, 4122.69230742, 4112.69230742, 4147.94871774,12.0
4140.51282031, 4063.33333292, 4093.20512786, 4116.66666639, 4124.23076896, 4121.66666639, 4113.84615357, 4096.92307658, 4117.30769203, 4134.48717921, 4657.30769315, 4114.48717921, 4109.23076896, 4146.41025621,12.0
4135.51282031, 4077.43589709, 4094.10256376, 4118.71794844, 4123.58974332, 4128.97435870, 4129.10256383, 4103.20512793, 4111.15384588, 4134.48717921, 4660.64102655, 4117.94871767, 4110.76923050, 4143.33333313,12.0
4143.33333313, 4077.30769196, 4088.46153812, 4126.28205101, 4125.25640998, 4121.79487152, 4132.69230742, 4110.25640998, 4119.48717921, 4134.48717921, 4655.89743674, 4108.33333306, 4103.07692280, 4144.35897415,12.0
4138.84615364, 4062.05128164, 4073.97435863, 4113.97435870, 4124.10256383, 4108.20512793, 4117.43589716, 4109.74358947, 4128.07692280, 4134.48717921, 4645.25641109, 4089.99999966, 4101.02564068, 4142.43589723,12.0
4143.71794851, 4062.69230728, 4074.61538427, 4106.92307665, 4124.23076896, 4117.56410229, 4117.56410229, 4120.89743562, 4130.25640998, 4134.48717921, 4649.61538545, 4092.17948684, 4109.74358947, 4145.25641005,12.0
4139.87179467, 4053.33333292, 4069.35897395, 4101.02564068, 4124.87179460, 4125.89743562, 4111.66666639, 4117.94871767, 4120.25640998, 4134.48717921, 4651.02564186, 4083.97435863, 4103.33333306, 4146.41025621,12.0
4130.64102537, 4035.76923029, 4060.25640984, 4088.33333299, 4122.05128178, 4112.43589716, 4103.33333306, 4101.66666632, 4114.48717921, 4134.48717921, 4640.89743674, 4069.23076882, 4093.84615350, 4143.58974339,12.0
4144.61538441, 4038.07692266, 4068.58974318, 4084.48717914, 4122.05128178, 4102.82051255, 4107.30769203, 4094.61538427, 4119.23076896, 4134.48717921, 4636.41025725, 4077.17948684, 4096.02564068, 4144.23076903,12.0
4141.79487159, 4061.92307651, 4083.20512786, 4097.43589709, 4123.46153819, 4114.74358947, 4107.94871767, 4100.12820478, 4124.10256383, 4134.48717921, 4647.69230853, 4099.74358940, 4105.12820485, 4144.23076903,12.0
4143.20512800, 4084.61538427, 4091.15384581, 4111.66666639, 4121.79487152, 4124.35897408, 4120.38461511, 4118.07692280, 4128.33333306, 4134.48717921, 4657.82051366, 4113.33333306, 4118.33333306, 4146.15384595,12.0
4147.56410236, 4081.92307658, 4087.69230735, 4110.25640998, 4122.17948691, 4124.99999973, 4137.56410236, 4131.28205101, 4133.07692280, 4134.48717921, 4654.23077007, 4112.69230742, 4119.48717921, 4145.64102544,12.0
4139.99999980, 4077.43589709, 4086.41025607, 4112.94871767, 4124.48717921, 4128.97435870, 4129.35897408, 4127.17948691, 4133.20512793, 4134.48717921, 4652.05128289, 4117.43589716, 4110.25640998, 4143.84615364,12.0
4149.48717928, 4095.38461504, 4098.71794837, 4130.76923050, 4124.74358947, 4134.61538434, 4124.87179460, 4117.05128178, 4131.66666639, 4134.48717921, 4660.89743680, 4127.82051255, 4114.10256383, 4145.64102544,12.0
4143.71794851, 4104.35897408, 4100.51282017, 4132.94871767, 4124.48717921, 4136.28205108, 4133.33333306, 4114.99999973, 4132.69230742, 4134.48717921, 4662.94871886, 4126.02564075, 4123.58974332, 4145.89743569,12.0
4140.76923056, 4091.53846119, 4091.79487145, 4116.79487152, 4124.10256383, 4129.61538434, 4122.56410229, 4114.10256383, 4129.48717921, 4134.48717921, 4655.64102648, 4118.84615357, 4120.76923050, 4148.46153826,12.0
4146.41025621, 4094.61538427, 4098.97435863, 4117.56410229, 4122.82051255, 4128.20512793, 4119.10256383, 4118.20512793, 4134.35897408, 4134.48717921, 4658.97435981, 4128.58974332, 4124.74358947, 4148.71794851,12.0
4135.89743569, 4105.25640998, 4108.46153819, 4131.92307665, 4122.30769203, 4131.92307665, 4137.69230749, 4129.99999973, 4149.48717928, 4134.48717921, 4667.17948809, 4141.15384595, 4133.97435870, 4147.56410236,12.0
4142.94871774, 4099.10256376, 4102.82051255, 4130.89743562, 4125.12820485, 4130.64102537, 4140.12820492, 4127.43589716, 4147.82051262, 4134.48717921, 4665.51282142, 4136.02564082, 4126.28205101, 4149.61538441,12.0
4138.84615364, 4101.79487145, 4101.15384581, 4127.69230742, 4125.51282024, 4130.12820485, 4127.56410229, 4125.25640998, 4141.66666646, 4134.48717921, 4661.02564193, 4130.51282024, 4119.10256383, 4146.66666646,12.0
4132.82051255, 4122.69230742, 4113.58974332, 4142.69230749, 4123.97435870, 4140.89743569, 4139.23076903, 4140.64102544, 4150.51282031, 4134.48717921, 4664.61538552, 4143.20512800, 4128.46153819, 4146.28205108,12.0
4143.46153826, 4126.66666639, 4115.76923050, 4150.38461518, 4123.46153819, 4144.74358954, 4145.51282031, 4144.74358954, 4154.99999980, 4134.48717921, 4667.82051373, 4149.87179467, 4131.41025614, 4147.69230749,12.0
4135.89743569, 4099.48717914, 4095.76923043, 4130.76923050, 4123.84615357, 4117.82051255, 4107.69230742, 4117.94871767, 4133.46153819, 4134.48717921, 4654.61538545, 4123.46153819, 4119.10256383, 4144.99999980,12.0
4141.28205108, 4093.84615350, 4093.58974325, 4124.61538434, 4124.74358947, 4107.94871767, 4093.58974325, 4107.30769203, 4115.25640998, 4134.48717921, 4647.43589827, 4114.35897408, 4119.74358947, 4144.74358954,12.0
4145.12820492, 4122.17948691, 4112.43589716, 4141.53846133, 4123.33333306, 4137.30769210, 4132.94871767, 4132.82051255, 4132.94871767, 4134.48717921, 4661.15384706, 4141.66666646, 4131.92307665, 4144.10256390,12.0
4139.10256390, 4120.64102537, 4105.25640998, 4130.89743562, 4122.82051255, 4147.43589723, 4138.33333313, 4132.56410229, 4142.30769210, 4134.48717921, 4658.33333417, 4131.66666639, 4124.10256383, 4143.46153826,12.0
