AF3,F7,F3,FC5,T7,P7,O1,O2,P8,T8,FC6,F4,F8,AF4,Label
4129.61538434, 4070.76923043, 4175.64102551, 4162.43589723, 4126.41025614, 4121.41025614, 4098.97435863, 4098.58974325, 4092.43589709, 4132.69230742, 4005.51282003, 4159.10256390, 4111.53846126, 4145.38461518,12.0
4115.12820485, 4089.48717914, 4195.51282038, 4204.74358968, 4126.92307665, 4125.64102537, 4110.64102537, 4112.30769203, 4105.51282024, 4131.41025614, 4011.02564054, 4193.46153833, 4121.92307665, 4143.58974339,12.0
4134.99999973, 4116.92307665, 4209.35897429, 4244.74358975, 4124.87179460, 4143.97435877, 4134.99999973, 4137.82051262, 4137.43589723, 4127.17948691, 4010.38461490, 4212.05128199, 4134.87179460, 4147.82051262,12.0
4131.92307665, 4132.94871767, 4207.69230763, 4272.30769238, 4122.56410229, 4158.33333313, 4138.97435877, 4149.99999980, 4147.43589723, 4127.30769203, 3997.05128150, 4206.66666660, 4128.33333306, 4143.71794851,12.0
4130.64102537, 4142.56410236, 4209.87179481, 4279.23076930, 4125.38461511, 4149.10256390, 4133.97435870, 4141.15384595, 4137.30769210, 4135.25640998, 3985.38461483, 4204.74358968, 4119.61538434, 4147.82051262,12.0
4142.69230749, 4141.28205108, 4207.56410250, 4280.25641033, 4126.79487152, 4140.12820492, 4134.10256383, 4129.99999973, 4129.48717921, 4136.28205108, 3979.10256355, 4202.82051275, 4117.17948691, 4146.92307672,12.0
4127.82051255, 4127.17948691, 4186.02564089, 4277.56410264, 4123.33333306, 4144.99999980, 4132.05128178, 4131.66666639, 4122.30769203, 4130.64102537, 3964.23076861, 4179.10256397, 4105.12820485, 4143.71794851,12.0
4138.58974339, 4108.20512793, 4165.38461518, 4248.33333334, 4124.61538434, 4141.28205108, 4120.25640998, 4112.94871767, 4098.33333299, 4133.58974332, 3939.99999938, 4143.58974339, 4082.30769196, 4153.71794851,12.0
4129.48717921, 4092.56410222, 4158.07692287, 4217.30769224, 4124.61538434, 4129.74358947, 4108.84615357, 4082.69230735, 4075.64102530, 4134.87179460, 3924.87179418, 4127.82051255, 4071.28205094, 4150.51282031,12.0
4121.92307665, 4105.12820485, 4163.58974339, 4227.05128199, 4124.35897408, 4136.79487159, 4111.92307665, 4091.02564068, 4084.10256376, 4128.84615357, 3930.76923008, 4137.05128185, 4084.99999966, 4147.94871774,12.0
4135.64102544, 4125.76923050, 4170.12820499, 4239.48717949, 4125.25640998, 4152.56410236, 4134.99999973, 4124.23076896, 4111.02564075, 4129.23076896, 3944.99999938, 4152.30769210, 4100.89743555, 4148.97435877,12.0
4114.35897408, 4105.25640998, 4167.94871774, 4223.07692301, 4123.07692280, 4141.92307672, 4141.28205108, 4129.23076896, 4115.25640998, 4129.87179460, 3947.43589681, 4153.84615364, 4099.10256376, 4145.25641005,12.0
4124.10256383, 4092.43589709, 4167.43589723, 4215.38461532, 4124.10256383, 4130.76923050, 4116.28205101, 4114.74358947, 4101.92307658, 4128.20512793, 3942.17948656, 4144.99999980, 4093.71794837, 4150.12820492,12.0
4126.41025614, 4121.53846126, 4168.46153833, 4223.71794865, 4125.25640998, 4143.58974339, 4112.56410229, 4124.10256383, 4108.58974332, 4130.64102537, 3941.79487117, 4146.79487159, 4099.87179453, 4145.38461518,12.0
4114.23076896, 4125.12820485, 4170.12820499, 4221.79487173, 4125.38461511, 4156.92307672, 4133.84615357, 4142.30769210, 4124.23076896, 4127.30769203, 3945.12820451, 4153.07692287, 4107.82051255, 4143.20512800,12.0
4130.51282024, 4118.33333306, 4176.66666653, 4226.41025634, 4126.02564075, 4150.25641005, 4135.89743569, 4137.56410236, 4126.41025614, 4123.46153819, 3948.07692246, 4153.46153826, 4107.82051255, 4146.79487159,12.0
4119.74358947, 4132.94871767, 4176.66666653, 4233.84615385, 4126.66666639, 4135.12820485, 4122.82051255, 4121.02564075, 4120.25640998, 4126.53846126, 3945.51281989, 4152.30769210, 4104.10256383, 4141.15384595,12.0
4128.33333306, 4119.99999973, 4169.74358961, 4218.84615378, 4128.33333306, 4141.15384595, 4129.74358947, 4119.61538434, 4117.05128178, 4129.35897408, 3939.61538399, 4147.30769210, 4104.99999973, 4144.35897415,12.0
4134.87179460, 4081.53846119, 4157.82051262, 4200.89743576, 4125.25640998, 4143.84615364, 4127.94871767, 4125.51282024, 4109.10256383, 4128.71794844, 3933.07692239, 4132.05128178, 4102.82051255, 4144.35897415,12.0
4122.17948691, 4083.58974325, 4150.64102544, 4186.66666653, 4124.48717921, 4137.05128185, 4109.48717921, 4124.10256383, 4108.97435870, 4126.28205101, 3928.46153777, 4118.71794844, 4093.84615350, 4143.33333313,12.0
4139.61538441, 4105.12820485, 4152.30769210, 4184.23076910, 4128.33333306, 4143.84615364, 4111.66666639, 4122.56410229, 4120.38461511, 4126.66666639, 3927.69230700, 4121.28205101, 4090.38461504, 4147.94871774,12.0
4130.51282024, 4096.53846119, 4155.38461518, 4211.92307686, 4125.25640998, 4145.25641005, 4119.23076896, 4118.46153819, 4116.53846126, 4128.97435870, 3930.64102495, 4132.30769203, 4096.66666632, 4144.87179467,12.0
4130.89743562, 4094.74358940, 4163.33333313, 4236.66666667, 4125.25640998, 4133.71794844, 4119.48717921, 4110.25640998, 4104.74358947, 4129.61538434, 3935.12820444, 4138.71794851, 4103.58974332, 4151.02564082,12.0
4134.99999973, 4108.84615357, 4157.94871774, 4230.12820506, 4128.20512793, 4128.07692280, 4114.35897408, 4105.51282024, 4097.56410222, 4127.56410229, 3922.43589674, 4129.87179460, 4096.41025607, 4151.92307672,12.0
4116.28205101, 4104.99999973, 4143.71794851, 4220.25641019, 4126.53846126, 4121.66666639, 4099.23076889, 4097.17948684, 4082.17948684, 4126.92307665, 3899.74358898, 4113.71794844, 4079.74358940, 4144.99999980,12.0
4127.69230742, 4097.82051248, 4148.07692287, 4227.69230763, 4126.15384588, 4122.05128178, 4093.84615350, 4093.84615350, 4076.92307658, 4127.56410229, 3898.97435821, 4115.38461511, 4078.46153812, 4149.61538441,12.0
4116.92307665, 4113.97435870, 4160.64102544, 4239.87179488, 4126.02564075, 4145.12820492, 4119.74358947, 4116.15384588, 4106.28205101, 4129.61538434, 3915.89743521, 4134.10256383, 4097.30769196, 4146.28205108,12.0
4116.28205101, 4133.20512793, 4167.94871774, 4242.17948718, 4128.07692280, 4158.58974339, 4142.56410236, 4133.71794844, 4123.20512793, 4134.87179460, 3922.82051213, 4147.43589723, 4112.30769203, 4147.30769210,12.0
4129.48717921, 4132.30769203, 4162.69230749, 4234.74358975, 4129.23076896, 4146.02564082, 4130.89743562, 4123.33333306, 4103.58974332, 4134.74358947, 3913.33333264, 4142.05128185, 4104.61538434, 4148.20512800,12.0
4113.33333306, 4116.92307665, 4148.97435877, 4226.02564096, 4126.79487152, 4133.71794844, 4113.46153819, 4110.51282024, 4091.53846119, 4130.38461511, 3907.69230700, 4124.74358947, 4092.30769196, 4139.99999980,12.0
4128.33333306, 4095.89743555, 4139.74358954, 4208.71794865, 4126.41025614, 4132.69230742, 4104.35897408, 4103.84615357, 4091.15384581, 4130.38461511, 3912.94871726, 4108.07692280, 4088.46153812, 4143.46153826,12.0
4124.23076896, 4089.87179453, 4131.02564075, 4186.28205115, 4126.28205101, 4119.74358947, 4088.58974325, 4089.23076889, 4079.23076889, 4129.87179460, 3905.64102495, 4099.10256376, 4081.53846119, 4145.12820492,12.0
4118.33333306, 4104.74358947, 4134.61538434, 4195.38461525, 4128.58974332, 4111.92307665, 4077.43589709, 4080.51282017, 4069.99999966, 4126.79487152, 3890.38461462, 4100.89743555, 4079.10256376, 4146.15384595,12.0
4138.33333313, 4119.87179460, 4154.10256390, 4221.92307686, 4129.87179460, 4135.64102544, 4103.97435870, 4103.84615357, 4087.43589709, 4128.07692280, 3900.76923001, 4121.66666639, 4094.10256376, 4145.38461518,12.0
4126.53846126, 4114.10256383, 4153.58974339, 4217.43589737, 4125.89743562, 4140.76923056, 4118.97435870, 4119.35897408, 4103.97435870, 4129.99999973, 3913.71794803, 4129.99999973, 4101.02564068, 4144.10256390,12.0
4133.97435870, 4107.56410229, 4138.84615364, 4204.87179481, 4126.28205101, 4127.30769203, 4092.82051248, 4100.12820478, 4094.10256376, 4126.66666639, 3907.17948649, 4115.25640998, 4091.41025607, 4152.05128185,12.0
4130.64102537, 4128.97435870, 4140.38461518, 4211.92307686, 4127.56410229, 4131.53846126, 4107.05128178, 4101.66666632, 4086.41025607, 4125.51282024, 3895.64102488, 4118.20512793, 4086.02564068, 4147.69230749,12.0
4121.41025614, 4134.10256383, 4148.58974339, 4204.99999993, 4126.28205101, 4141.66666646, 4149.48717928, 4130.25640998, 4097.94871761, 4130.51282024, 3879.35897360, 4122.43589716, 4084.87179453, 4147.43589723,12.0
4134.99999973, 4106.02564075, 4138.33333313, 4177.30769217, 4126.02564075, 4150.38461518, 4140.51282031, 4127.94871767, 4106.28205101, 4133.97435870, 3874.10256334, 4102.69230742, 4083.33333299, 4152.69230749,12.0
4113.46153819, 4095.51282017, 4127.56410229, 4160.64102544, 4124.99999973, 4152.05128185, 4114.10256383, 4110.76923050, 4104.99999973, 4129.87179460, 3901.66666591, 4100.38461504, 4090.51282017, 4147.43589723,12.0
4117.69230742, 4093.58974325, 4137.17948697, 4139.48717928, 4126.92307665, 4139.74358954, 4114.87179460, 4109.99999973, 4101.66666632, 4127.56410229, 3931.28205059, 4118.33333306, 4105.12820485, 4149.35897415,12.0
4124.48717921, 4065.64102523, 4133.58974332, 4087.05128171, 4129.10256383, 4122.94871767, 4110.89743562, 4106.53846126, 4098.20512786, 4129.10256383, 3929.10256341, 4105.89743562, 4109.61538434, 4145.76923056,12.0
4111.02564075, 4040.12820472, 4114.74358947, 4039.74358933, 4126.66666639, 4114.61538434, 4091.15384581, 4096.53846119, 4092.17948684, 4127.05128178, 3931.28205059, 4079.10256376, 4111.41025614, 4141.53846133,12.0
4126.15384588, 4035.89743541, 4115.25640998, 4021.66666618, 4124.87179460, 4112.05128178, 4087.30769196, 4096.41025607, 4093.97435863, 4125.89743562, 3956.92307630, 4083.58974325, 4123.33333306, 4145.64102544,12.0
4118.58974332, 4042.69230728, 4127.82051255, 4013.33333285, 4123.84615357, 4122.17948691, 4104.99999973, 4106.79487152, 4107.94871767, 4128.97435870, 3968.58974297, 4102.56410229, 4132.43589716, 4142.17948697,12.0
4125.25640998, 4053.46153805, 4136.02564082, 4011.53846106, 4125.51282024, 4128.33333306, 4122.30769203, 4120.64102537, 4119.48717921, 4129.23076896, 3964.74358912, 4110.25640998, 4135.89743569, 4143.97435877,12.0
4132.94871767, 4039.74358933, 4131.15384588, 4008.84615336, 4126.79487152, 4106.02564075, 4113.84615357, 4124.74358947, 4121.41025614, 4126.53846126, 3960.38461476, 4102.17948684, 4133.20512793, 4144.10256390,12.0
4120.12820485, 4030.64102516, 4133.84615357, 4012.30769183, 4125.89743562, 4105.38461511, 4102.43589709, 4117.69230742, 4119.99999973, 4127.82051255, 3964.48717887, 4109.10256383, 4134.10256383, 4144.99999980,12.0
4135.64102544, 4053.46153805, 4143.46153826, 4015.89743541, 4126.66666639, 4130.25640998, 4116.02564075, 4112.17948691, 4117.05128178, 4131.15384588, 3970.76923015, 4124.87179460, 4142.17948697, 4148.46153826,12.0
4124.74358947, 4052.82051241, 4132.17948691, 4004.87179439, 4123.07692280, 4120.76923050, 4116.79487152, 4106.66666639, 4107.94871767, 4128.33333306, 3963.84615322, 4111.53846126, 4140.12820492, 4143.33333313,12.0
4125.64102537, 4028.46153798, 4126.41025614, 4004.61538413, 4122.43589716, 4103.84615357, 4112.43589716, 4103.58974332, 4105.76923050, 4125.76923050, 3956.15384553, 4097.17948684, 4134.35897408, 4148.71794851,12.0
4135.76923056, 4021.28205080, 4127.82051255, 4016.53846106, 4124.87179460, 4119.99999973, 4118.33333306, 4104.74358947, 4106.66666639, 4127.82051255, 3955.51281989, 4096.28205094, 4133.58974332, 4150.12820492,12.0
4115.76923050, 4027.43589695, 4118.46153819, 4013.58974311, 4124.61538434, 4134.48717921, 4119.35897408, 4107.56410229, 4103.58974332, 4129.61538434, 3953.97435835, 4091.41025607, 4131.79487152, 4145.89743569,12.0
4129.48717921, 4032.05128157, 4117.17948691, 4010.38461490, 4126.15384588, 4128.84615357, 4121.02564075, 4110.64102537, 4103.33333306, 4125.51282024, 3947.05128143, 4086.41025607, 4126.53846126, 4150.38461518,12.0
4122.56410229, 4042.05128164, 4124.48717921, 4023.58974311, 4123.97435870, 4122.56410229, 4130.64102537, 4113.07692280, 4106.28205101, 4127.30769203, 3946.15384553, 4092.30769196, 4126.79487152, 4144.61538441,12.0
4113.46153819, 4053.58974318, 4129.48717921, 4035.12820465, 4122.94871767, 4126.92307665, 4138.71794851, 4119.74358947, 4111.66666639, 4139.35897415, 3956.02564040, 4100.12820478, 4135.64102544, 4144.87179467,12.0
4127.30769203, 4051.41025600, 4124.74358947, 4031.79487131, 4124.48717921, 4134.87179460, 4135.25640998, 4124.61538434, 4114.61538434, 4139.10256390, 3955.12820451, 4094.61538427, 4136.28205108, 4147.17948697,12.0
4111.66666639, 4037.17948677, 4114.61538434, 4016.41025593, 4123.58974332, 4121.02564075, 4125.89743562, 4118.33333306, 4108.20512793, 4130.38461511, 3943.20512758, 4083.46153812, 4125.51282024, 4140.38461518,12.0
4121.92307665, 4026.02564054, 4113.71794844, 4008.58974311, 4125.64102537, 4107.05128178, 4115.89743562, 4107.82051255, 4098.97435863, 4133.33333306, 3942.82051220, 4081.41025607, 4122.56410229, 4143.58974339,12.0
4122.94871767, 4029.48717900, 4119.35897408, 4024.10256362, 4126.53846126, 4121.66666639, 4117.56410229, 4114.48717921, 4105.38461511, 4134.35897408, 3948.20512758, 4092.30769196, 4128.58974332, 4144.87179467,12.0
4116.15384588, 4034.74358926, 4121.41025614, 4031.41025593, 4125.38461511, 4128.84615357, 4126.66666639, 4128.97435870, 4118.71794844, 4126.53846126, 3945.76923015, 4094.35897402, 4127.94871767, 4147.43589723,12.0
4135.12820485, 4035.64102516, 4126.41025614, 4024.48717900, 4126.15384588, 4122.69230742, 4133.20512793, 4135.64102544, 4121.28205101, 4125.12820485, 3943.07692246, 4095.64102530, 4127.30769203, 4147.82051262,12.0
4122.82051255, 4043.97435856, 4137.43589723, 4034.35897388, 4125.38461511, 4125.76923050, 4140.12820492, 4137.17948697, 4120.89743562, 4132.17948691, 3950.51281989, 4117.69230742, 4136.28205108, 4143.20512800,12.0
4131.02564075, 4048.58974318, 4143.84615364, 4048.46153805, 4126.02564075, 4137.17948697, 4133.33333306, 4128.71794844, 4120.38461511, 4135.76923056, 3951.02564040, 4126.66666639, 4139.23076903, 4150.25641005,12.0
4133.58974332, 4043.71794830, 4133.58974332, 4038.58974318, 4126.41025614, 4135.12820485, 4127.94871767, 4125.25640998, 4120.64102537, 4133.46153819, 3933.46153777, 4107.69230742, 4132.17948691, 4149.10256390,12.0
4118.33333306, 4052.82051241, 4127.05128178, 4037.69230728, 4125.12820485, 4114.61538434, 4129.61538434, 4126.41025614, 4116.66666639, 4127.82051255, 3925.38461469, 4100.25640991, 4127.43589716, 4147.17948697,12.0
4134.23076896, 4069.48717907, 4138.20512800, 4063.07692266, 4124.99999973, 4117.05128178, 4127.82051255, 4127.05128178, 4115.64102537, 4125.38461511, 3936.02564033, 4119.61538434, 4131.41025614, 4149.23076903,12.0
4116.02564075, 4069.61538420, 4148.97435877, 4077.17948684, 4123.71794844, 4143.97435877, 4124.99999973, 4133.46153819, 4130.64102537, 4130.25640998, 3936.92307623, 4138.46153826, 4145.12820492, 4146.92307672,12.0
4116.15384588, 4063.58974318, 4153.71794851, 4070.51282017, 4126.53846126, 4144.48717928, 4123.71794844, 4135.76923056, 4137.30769210, 4137.05128185, 3918.97435828, 4142.05128185, 4155.12820492, 4151.53846133,12.0
4126.53846126, 4051.53846113, 4146.66666646, 4064.74358933, 4127.43589716, 4121.41025614, 4118.33333306, 4132.05128178, 4125.89743562, 4133.46153819, 3899.23076847, 4138.07692287, 4149.23076903, 4146.41025621,12.0
4105.76923050, 4046.15384574, 4138.97435877, 4062.94871754, 4124.35897408, 4125.25640998, 4120.64102537, 4131.53846126, 4124.23076896, 4127.82051255, 3893.84615309, 4134.10256383, 4144.61538441, 4143.20512800,12.0
4122.30769203, 4068.46153805, 4146.92307672, 4069.48717907, 4126.15384588, 4147.43589723, 4145.12820492, 4134.48717921, 4134.23076896, 4130.76923050, 3897.30769155, 4136.28205108, 4152.17948697, 4147.30769210,12.0
4117.17948691, 4080.89743555, 4149.74358954, 4079.74358940, 4124.35897408, 4137.05128185, 4151.66666646, 4136.28205108, 4136.41025621, 4133.58974332, 3883.84615309, 4142.05128185, 4154.35897415, 4141.66666646,12.0
4114.74358947, 4069.48717907, 4148.33333313, 4075.89743555, 4124.35897408, 4114.23076896, 4124.10256383, 4127.17948691, 4123.20512793, 4133.71794844, 3852.17948635, 4138.84615364, 4143.84615364, 4145.12820492,12.0
4128.58974332, 4058.84615343, 4143.46153826, 4066.79487138, 4126.79487152, 4118.97435870, 4114.10256383, 4116.41025614, 4109.35897408, 4135.12820485, 3829.74358884, 4126.28205101, 4133.07692280, 4145.89743569,12.0
4112.30769203, 4036.15384567, 4127.05128178, 4058.84615343, 4123.07692280, 4116.15384588, 4105.38461511, 4102.82051255, 4095.76923043, 4130.89743562, 3821.02564013, 4105.76923050, 4123.58974332, 4143.71794851,12.0
4130.38461511, 4037.82051241, 4131.41025614, 4073.71794837, 4123.71794844, 4114.61538434, 4098.46153812, 4103.58974332, 4094.99999966, 4122.94871767, 3823.71794782, 4106.79487152, 4121.53846126, 4148.71794851,12.0
4129.99999973, 4089.10256376, 4158.33333313, 4116.28205101, 4125.38461511, 4139.61538441, 4143.20512800, 4139.48717928, 4123.07692280, 4126.79487152, 3836.41025551, 4146.53846133, 4135.51282031, 4146.15384595,12.0
4119.87179460, 4110.51282024, 4169.99999986, 4133.71794844, 4125.76923050, 4150.89743569, 4179.48717935, 4156.92307672, 4141.66666646, 4136.28205108, 3841.02564020, 4167.17948697, 4152.82051262, 4147.69230749,12.0
4135.76923056, 4080.89743555, 4153.07692287, 4112.94871767, 4125.64102537, 4146.79487159, 4150.38461518, 4133.84615357, 4122.17948691, 4134.48717921, 3828.46153756, 4140.12820492, 4146.53846133, 4145.76923056,12.0
4118.33333306, 4074.99999966, 4143.71794851, 4104.61538434, 4122.94871767, 4151.92307672, 4132.56410229, 4132.69230742, 4114.87179460, 4128.46153819, 3826.53846064, 4133.20512793, 4134.74358947, 4145.89743569,12.0
4127.56410229, 4093.33333299, 4161.79487159, 4121.28205101, 4127.05128178, 4151.53846133, 4154.48717928, 4150.12820492, 4142.05128185, 4128.71794844, 3841.28205045, 4160.51282031, 4146.53846133, 4151.92307672,12.0
4123.20512793, 4089.48717914, 4159.48717928, 4122.43589716, 4126.02564075, 4134.23076896, 4150.38461518, 4134.10256383, 4144.10256390, 4130.89743562, 3838.97435807, 4157.17948697, 4152.43589723, 4144.99999980,12.0
4105.12820485, 4076.02564068, 4140.12820492, 4106.15384588, 4122.17948691, 4124.99999973, 4123.33333306, 4107.05128178, 4115.38461511, 4132.69230742, 3826.15384525, 4128.07692280, 4136.79487159, 4146.53846133,12.0
4125.38461511, 4077.56410222, 4138.84615364, 4099.74358940, 4126.92307665, 4126.28205101, 4117.17948691, 4108.07692280, 4103.97435870, 4135.12820485, 3830.38461449, 4120.76923050, 4124.10256383, 4146.92307672,12.0
4106.92307665, 4090.51282017, 4148.71794851, 4115.89743562, 4124.48717921, 4119.87179460, 4122.30769203, 4115.76923050, 4113.20512793, 4131.41025614, 3848.97435814, 4131.92307665, 4133.07692280, 4142.82051262,12.0
4113.07692280, 4097.43589709, 4158.20512800, 4130.64102537, 4122.69230742, 4131.41025614, 4125.64102537, 4114.61538434, 4119.74358947, 4127.30769203, 3862.05128122, 4141.41025621, 4146.92307672, 4147.94871774,12.0
4125.12820485, 4095.25640991, 4159.10256390, 4125.76923050, 4127.56410229, 4145.64102544, 4136.15384595, 4118.71794844, 4115.76923050, 4131.02564075, 3877.69230693, 4145.12820492, 4143.84615364, 4142.82051262,12.0
4107.94871767, 4101.66666632, 4164.48717928, 4129.74358947, 4127.05128178, 4138.58974339, 4142.05128185, 4130.25640998, 4119.87179460, 4130.38461511, 3914.35897367, 4155.38461518, 4142.82051262, 4143.20512800,12.0
4107.94871767, 4101.66666632, 4164.48717928, 4129.74358947, 4127.05128178, 4138.58974339, 4142.05128185, 4130.25640998, 4119.87179460, 4130.38461511, 3914.35897367, 4155.38461518, 4142.82051262, 4143.20512800,12.0
4127.82051255, 4110.51282024, 4171.28205115, 4143.33333313, 4126.66666639, 4137.30769210, 4132.17948691, 4133.58974332, 4124.61538434, 4125.25640998, 3934.35897367, 4161.53846133, 4145.38461518, 4144.61538441,12.0
4121.92307665, 4097.17948684, 4158.20512800, 4132.56410229, 4126.41025614, 4128.07692280, 4116.66666639, 4115.64102537, 4103.07692280, 4129.48717921, 3916.66666598, 4143.84615364, 4132.56410229, 4140.38461518,12.0
4124.74358947, 4091.02564068, 4151.15384595, 4116.79487152, 4128.71794844, 4109.23076896, 4114.74358947, 4098.58974325, 4082.82051248, 4136.92307672, 3906.92307623, 4128.33333306, 4121.15384588, 4146.79487159,12.0
4134.35897408, 4102.69230742, 4156.02564082, 4125.89743562, 4129.87179460, 4116.28205101, 4116.02564075, 4102.56410229, 4091.79487145, 4134.61538434, 3917.56410187, 4134.48717921, 4126.41025614, 4146.53846133,12.0
4118.46153819, 4095.51282017, 4155.51282031, 4136.66666646, 4126.53846126, 4126.15384588, 4106.66666639, 4107.82051255, 4101.92307658, 4129.10256383, 3926.41025572, 4140.12820492, 4129.74358947, 4147.43589723,12.0
4130.51282024, 4097.43589709, 4156.15384595, 4134.87179460, 4125.51282024, 4132.82051255, 4122.69230742, 4118.46153819, 4110.89743562, 4126.66666639, 3933.46153777, 4142.43589723, 4132.56410229, 4149.61538441,12.0
4115.89743562, 4117.82051255, 4157.30769210, 4139.61538441, 4123.46153819, 4148.97435877, 4149.23076903, 4137.05128185, 4131.92307665, 4127.94871767, 3932.56410187, 4151.53846133, 4145.12820492, 4146.92307672,12.0
4118.07692280, 4113.33333306, 4157.69230749, 4146.66666646, 4124.61538434, 4147.30769210, 4141.53846133, 4136.28205108, 4136.66666646, 4134.99999973, 3929.61538392, 4151.79487159, 4145.12820492, 4152.05128185,12.0
4129.10256383, 4081.53846119, 4142.30769210, 4115.64102537, 4124.23076896, 4114.87179460, 4113.20512793, 4116.15384588, 4109.74358947, 4135.51282031, 3931.92307623, 4123.84615357, 4123.58974332, 4148.97435877,12.0
4101.53846119, 4073.58974325, 4129.23076896, 4094.74358940, 4121.15384588, 4092.94871761, 4101.66666632, 4105.89743562, 4092.69230735, 4127.30769203, 3940.12820451, 4110.89743562, 4114.74358947, 4147.69230749,12.0
4119.35897408, 4105.76923050, 4155.89743569, 4145.89743569, 4124.74358947, 4119.61538434, 4118.58974332, 4113.46153819, 4111.79487152, 4125.64102537, 3958.84615322, 4145.12820492, 4133.20512793, 4147.05128185,12.0
4117.17948691, 4136.66666646, 4179.10256397, 4193.58974345, 4123.33333306, 4155.76923056, 4131.02564075, 4124.48717921, 4137.43589723, 4131.53846126, 3969.23076861, 4175.64102551, 4147.82051262, 4138.97435877,12.0
4107.82051255, 4138.58974339, 4173.20512807, 4184.48717935, 4123.84615357, 4150.89743569, 4124.35897408, 4124.61538434, 4134.74358947, 4136.28205108, 3962.30769169, 4170.64102551, 4146.53846133, 4144.61538441,12.0
4125.76923050, 4122.69230742, 4171.79487166, 4173.71794858, 4129.10256383, 4123.33333306, 4123.07692280, 4118.20512793, 4115.89743562, 4132.82051255, 3954.48717887, 4167.56410236, 4144.35897415, 4143.58974339,12.0
4110.89743562, 4124.48717921, 4175.76923063, 4177.69230756, 4125.51282024, 4121.28205101, 4133.46153819, 4114.99999973, 4111.41025614, 4132.43589716, 3960.38461476, 4173.46153833, 4143.84615364, 4140.89743569,12.0
4123.46153819, 4124.74358947, 4163.07692287, 4158.97435877, 4123.84615357, 4141.79487159, 4121.66666639, 4100.64102530, 4103.58974332, 4135.64102544, 3955.64102502, 4151.28205108, 4134.74358947, 4150.38461518,12.0
4126.53846126, 4109.61538434, 4148.58974339, 4144.99999980, 4124.10256383, 4142.56410236, 4105.38461511, 4097.94871761, 4094.10256376, 4133.46153819, 3936.41025572, 4131.79487152, 4124.74358947, 4145.51282031,12.0
4117.05128178, 4122.05128178, 4164.61538441, 4168.46153833, 4124.99999973, 4132.69230742, 4128.20512793, 4127.94871767, 4114.99999973, 4134.10256383, 3936.92307623, 4152.05128185, 4134.10256383, 4144.23076903,12.0
4129.10256383, 4131.53846126, 4175.89743576, 4176.53846140, 4126.53846126, 4128.46153819, 4149.10256390, 4138.84615364, 4131.28205101, 4134.99999973, 3943.71794810, 4164.74358954, 4140.38461518, 4148.58974339,12.0
4115.38461511, 4097.94871761, 4153.07692287, 4143.20512800, 4123.20512793, 4118.84615357, 4122.69230742, 4112.43589716, 4112.30769203, 4135.12820485, 3934.74358905, 4141.79487159, 4126.66666639, 4145.89743569,12.0
4127.43589716, 4087.56410222, 4148.33333313, 4136.92307672, 4124.23076896, 4125.76923050, 4101.28205094, 4107.56410229, 4109.23076896, 4136.15384595, 3931.53846085, 4134.10256383, 4125.64102537, 4146.53846133,12.0
4120.51282024, 4116.92307665, 4161.92307672, 4163.46153826, 4125.51282024, 4141.92307672, 4118.46153819, 4127.05128178, 4130.25640998, 4134.48717921, 3941.15384553, 4152.82051262, 4138.58974339, 4145.25641005,12.0
4103.20512793, 4119.10256383, 4157.69230749, 4158.97435877, 4123.33333306, 4131.92307665, 4128.46153819, 4125.12820485, 4128.20512793, 4133.97435870, 3943.97435835, 4155.51282031, 4140.51282031, 4146.92307672,12.0
4124.99999973, 4109.10256383, 4156.02564082, 4148.07692287, 4123.58974332, 4124.23076896, 4133.33333306, 4120.64102537, 4124.23076896, 4135.12820485, 3943.97435835, 4153.71794851, 4137.43589723, 4145.38461518,12.0
4106.41025614, 4110.76923050, 4156.28205108, 4151.53846133, 4123.71794844, 4131.28205101, 4129.87179460, 4115.38461511, 4123.33333306, 4134.35897408, 3945.51281989, 4148.07692287, 4133.07692280, 4142.43589723,12.0
4111.79487152, 4101.15384581, 4146.28205108, 4145.12820492, 4126.79487152, 4124.61538434, 4108.84615357, 4096.66666632, 4102.05128171, 4131.28205101, 3945.51281989, 4129.99999973, 4122.56410229, 4148.33333313,12.0
4122.43589716, 4100.25640991, 4145.64102544, 4147.56410236, 4126.15384588, 4115.51282024, 4123.58974332, 4107.56410229, 4103.07692280, 4129.10256383, 3956.41025579, 4135.25640998, 4124.87179460, 4145.25641005,12.0
4102.94871767, 4109.61538434, 4157.82051262, 4158.20512800, 4124.87179460, 4128.84615357, 4141.15384595, 4136.02564082, 4128.20512793, 4129.99999973, 3968.33333271, 4154.35897415, 4138.20512800, 4142.82051262,12.0
4121.15384588, 4104.23076896, 4158.20512800, 4148.58974339, 4126.92307665, 4142.94871774, 4126.66666639, 4131.92307665, 4130.12820485, 4133.33333306, 3964.87179425, 4149.61538441, 4134.99999973, 4143.58974339,12.0
4116.41025614, 4106.92307665, 4145.64102544, 4140.89743569, 4123.58974332, 4131.15384588, 4119.74358947, 4115.51282024, 4117.43589716, 4134.35897408, 3958.97435835, 4139.61538441, 4126.92307665, 4140.76923056,12.0
4121.41025614, 4116.15384588, 4144.99999980, 4148.20512800, 4122.69230742, 4122.05128178, 4123.71794844, 4120.38461511, 4119.99999973, 4135.51282031, 3960.38461476, 4143.84615364, 4132.43589716, 4149.48717928,12.0
4132.56410229, 4104.10256383, 4141.41025621, 4146.53846133, 4125.38461511, 4131.66666639, 4114.23076896, 4129.10256383, 4126.92307665, 4138.46153826, 3957.30769169, 4138.58974339, 4134.23076896, 4150.38461518,12.0
4117.69230742, 4093.07692273, 4133.46153819, 4144.74358954, 4124.87179460, 4129.99999973, 4113.71794844, 4125.38461511, 4125.64102537, 4129.35897408, 3953.33333271, 4129.61538434, 4127.17948691, 4146.15384595,12.0
4132.94871767, 4101.02564068, 4139.99999980, 4150.51282031, 4123.97435870, 4125.76923050, 4127.43589716, 4118.07692280, 4122.30769203, 4121.15384588, 3956.53846092, 4135.76923056, 4129.23076896, 4148.71794851,12.0
4116.79487152, 4102.05128171, 4137.05128185, 4146.92307672, 4122.82051255, 4123.07692280, 4113.33333306, 4104.87179460, 4110.89743562, 4129.99999973, 3954.35897374, 4136.53846133, 4132.30769203, 4148.58974339,12.0
4113.46153819, 4102.94871767, 4127.82051255, 4141.66666646, 4124.10256383, 4116.15384588, 4098.33333299, 4094.23076889, 4100.38461504, 4135.76923056, 3950.25640963, 4126.41025614, 4124.35897408, 4153.58974339,12.0
4132.05128178, 4108.33333306, 4127.30769203, 4142.05128185, 4120.89743562, 4114.87179460, 4110.89743562, 4101.53846119, 4104.99999973, 4132.30769203, 3951.15384553, 4122.05128178, 4120.76923050, 4149.10256390,12.0
4108.07692280, 4105.25640998, 4135.12820485, 4148.33333313, 4118.97435870, 4125.38461511, 4121.28205101, 4115.76923050, 4122.82051255, 4133.46153819, 3956.92307630, 4135.51282031, 4130.51282024, 4144.23076903,12.0
4117.05128178, 4107.30769203, 4147.05128185, 4159.61538441, 4126.66666639, 4138.71794851, 4124.61538434, 4123.71794844, 4136.66666646, 4134.74358947, 3962.05128143, 4151.53846133, 4139.23076903, 4149.23076903,12.0
4114.48717921, 4109.87179460, 4139.48717928, 4155.64102544, 4126.66666639, 4133.97435870, 4122.05128178, 4121.66666639, 4127.94871767, 4133.07692280, 3951.41025579, 4143.58974339, 4128.84615357, 4143.20512800,12.0
4109.87179460, 4097.94871761, 4121.28205101, 4131.79487152, 4122.69230742, 4108.58974332, 4099.87179453, 4101.02564068, 4102.82051255, 4134.99999973, 3935.25640957, 4115.89743562, 4112.17948691, 4145.51282031,12.0
4124.10256383, 4095.76923043, 4122.69230742, 4128.58974332, 4125.25640998, 4103.46153819, 4091.28205094, 4093.84615350, 4102.69230742, 4136.28205108, 3941.53846092, 4114.74358947, 4117.17948691, 4150.25641005,12.0
4105.25640998, 4117.94871767, 4147.17948697, 4160.12820492, 4125.76923050, 4132.56410229, 4129.74358947, 4125.64102537, 4136.28205108, 4133.46153819, 3960.89743528, 4153.33333313, 4138.84615364, 4144.23076903,12.0
4120.89743562, 4129.61538434, 4160.76923056, 4173.71794858, 4127.69230742, 4152.43589723, 4149.99999980, 4140.76923056, 4148.20512800, 4133.46153819, 3963.46153784, 4170.51282038, 4142.43589723, 4145.25641005,12.0
4123.20512793, 4119.23076896, 4144.35897415, 4160.12820492, 4127.56410229, 4134.48717921, 4121.53846126, 4116.41025614, 4127.17948691, 4132.94871767, 3953.20512758, 4151.02564082, 4130.76923050, 4146.02564082,12.0
4113.33333306, 4124.10256383, 4139.74358954, 4165.51282031, 4126.79487152, 4116.15384588, 4117.30769203, 4107.56410229, 4121.15384588, 4131.53846126, 3952.56410194, 4145.76923056, 4133.33333306, 4147.56410236,12.0
4131.53846126, 4134.10256383, 4147.94871774, 4174.61538448, 4126.28205101, 4127.17948691, 4133.20512793, 4115.25640998, 4120.25640998, 4130.12820485, 3953.20512758, 4152.05128185, 4133.33333306, 4147.17948697,12.0
4117.94871767, 4117.69230742, 4137.30769210, 4155.25641005, 4123.33333306, 4130.38461511, 4104.48717921, 4095.76923043, 4096.15384581, 4130.12820485, 3949.10256348, 4138.97435877, 4121.28205101, 4143.33333313,12.0
4128.97435870, 4101.53846119, 4134.99999973, 4142.69230749, 4124.61538434, 4117.17948691, 4088.84615350, 4086.15384581, 4095.12820478, 4131.02564075, 3954.48717887, 4133.97435870, 4125.38461511, 4148.20512800,12.0
4124.61538434, 4109.87179460, 4142.43589723, 4153.97435877, 4123.71794844, 4116.02564075, 4120.89743562, 4118.46153819, 4126.53846126, 4129.87179460, 3962.82051220, 4152.17948697, 4136.53846133, 4147.94871774,12.0
4103.71794844, 4116.66666639, 4134.87179460, 4153.20512800, 4122.30769203, 4115.76923050, 4119.74358947, 4120.64102537, 4122.05128178, 4131.28205101, 3958.58974297, 4147.30769210, 4129.10256383, 4146.15384595,12.0
4125.38461511, 4108.46153819, 4124.48717921, 4140.76923056, 4126.79487152, 4111.66666639, 4090.64102530, 4082.43589709, 4088.58974325, 4132.43589716, 3947.17948656, 4121.92307665, 4114.48717921, 4147.43589723,12.0
4106.41025614, 4096.66666632, 4121.02564075, 4139.74358954, 4126.53846126, 4106.92307665, 4094.87179453, 4081.79487145, 4086.92307658, 4130.12820485, 3942.56410194, 4120.64102537, 4110.25640998, 4143.84615364,12.0
4107.69230742, 4101.02564068, 4131.53846126, 4151.41025621, 4124.87179460, 4118.33333306, 4113.33333306, 4112.05128178, 4111.28205101, 4129.74358947, 3950.25640963, 4139.74358954, 4118.71794844, 4145.12820492,12.0
4120.89743562, 4120.76923050, 4142.17948697, 4161.79487159, 4124.48717921, 4132.94871767, 4121.53846126, 4120.51282024, 4122.17948691, 4130.89743562, 3959.35897374, 4149.87179467, 4131.92307665, 4143.20512800,12.0
4102.30769196, 4133.71794844, 4145.12820492, 4164.74358954, 4127.43589716, 4131.53846126, 4137.05128185, 4122.17948691, 4126.41025614, 4130.64102537, 3959.99999938, 4154.10256390, 4135.64102544, 4142.30769210,12.0
4118.97435870, 4127.30769203, 4146.15384595, 4158.71794851, 4129.99999973, 4134.23076896, 4145.89743569, 4128.07692280, 4131.79487152, 4129.23076896, 3955.89743528, 4158.07692287, 4131.53846126, 4145.12820492,12.0
4112.69230742, 4107.56410229, 4138.58974339, 4149.61538441, 4124.10256383, 4127.05128178, 4117.05128178, 4118.71794844, 4127.43589716, 4129.23076896, 3955.76923015, 4151.15384595, 4130.51282024, 4141.79487159,12.0
4116.66666639, 4106.28205101, 4139.87179467, 4151.79487159, 4125.89743562, 4116.66666639, 4095.25640991, 4112.05128178, 4120.64102537, 4130.64102537, 3960.89743528, 4147.43589723, 4136.53846133, 4146.28205108,12.0
4129.99999973, 4137.05128185, 4155.25641005, 4161.79487159, 4129.99999973, 4139.48717928, 4129.87179460, 4128.46153819, 4129.23076896, 4130.89743562, 3967.43589681, 4165.76923056, 4147.17948697, 4147.82051262,12.0
4112.69230742, 4152.30769210, 4157.82051262, 4164.48717928, 4125.12820485, 4157.05128185, 4149.10256390, 4138.07692287, 4143.07692287, 4129.99999973, 3969.48717887, 4175.64102551, 4151.53846133, 4143.71794851,12.0
4129.35897408, 4125.12820485, 4142.43589723, 4154.99999980, 4124.23076896, 4126.53846126, 4114.10256383, 4118.97435870, 4135.25640998, 4130.12820485, 3965.76923015, 4157.43589723, 4140.64102544, 4150.76923056,12.0
4119.23076896, 4098.58974325, 4129.10256383, 4145.51282031, 4123.07692280, 4100.89743555, 4100.76923043, 4105.25640998, 4114.87179460, 4130.38461511, 3959.61538399, 4142.82051262, 4128.97435870, 4149.35897415,12.0
4113.07692280, 4103.07692280, 4132.17948691, 4141.02564082, 4123.97435870, 4122.30769203, 4118.07692280, 4114.10256383, 4108.46153819, 4130.12820485, 3958.20512758, 4142.05128185, 4128.20512793, 4147.05128185,12.0
4127.56410229, 4104.23076896, 4126.41025614, 4131.53846126, 4126.92307665, 4137.30769210, 4112.17948691, 4112.17948691, 4109.10256383, 4130.89743562, 3958.97435835, 4132.82051255, 4123.97435870, 4149.61538441,12.0
4104.74358947, 4093.46153812, 4114.87179460, 4123.84615357, 4125.12820485, 4122.82051255, 4105.25640998, 4099.87179453, 4104.61538434, 4131.15384588, 3955.64102502, 4126.53846126, 4113.71794844, 4148.58974339,12.0
4114.99999973, 4103.97435870, 4128.58974332, 4135.89743569, 4124.48717921, 4127.94871767, 4134.35897408, 4114.35897408, 4114.61538434, 4130.64102537, 3958.20512758, 4140.64102544, 4118.33333306, 4149.35897415,12.0
4110.64102537, 4100.89743555, 4129.99999973, 4137.94871774, 4122.82051255, 4137.69230749, 4141.28205108, 4132.94871767, 4129.61538434, 4130.25640998, 3959.87179425, 4139.61538441, 4129.87179460, 4144.10256390,12.0
4129.87179460, 4096.02564068, 4117.05128178, 4124.99999973, 4126.41025614, 4115.25640998, 4118.20512793, 4104.87179460, 4098.71794837, 4136.15384595, 3951.79487117, 4121.02564075, 4114.48717921, 4148.58974339,12.0
4115.89743562, 4085.51282017, 4116.79487152, 4126.92307665, 4122.56410229, 4125.25640998, 4114.48717921, 4102.17948684, 4096.79487145, 4135.38461518, 3954.10256348, 4123.33333306, 4117.56410229, 4144.99999980,12.0
4123.71794844, 4090.38461504, 4119.10256383, 4128.07692280, 4126.53846126, 4125.64102537, 4113.20512793, 4112.05128178, 4110.38461511, 4134.74358947, 3957.17948656, 4129.61538434, 4127.82051255, 4146.79487159,12.0
4125.51282024, 4098.97435863, 4119.99999973, 4131.66666639, 4127.30769203, 4124.61538434, 4113.97435870, 4115.38461511, 4117.05128178, 4134.35897408, 3961.92307630, 4137.94871774, 4128.84615357, 4147.05128185,12.0
4103.71794844, 4091.41025607, 4113.07692280, 4129.10256383, 4123.46153819, 4125.89743562, 4107.69230742, 4104.23076896, 4103.97435870, 4134.48717921, 3959.87179425, 4127.17948691, 4114.10256383, 4146.15384595,12.0
4123.33333306, 4082.94871761, 4111.15384588, 4122.17948691, 4124.35897408, 4122.69230742, 4113.07692280, 4107.56410229, 4098.20512786, 4134.61538434, 3952.05128143, 4114.99999973, 4112.56410229, 4148.84615364,12.0
4107.17948691, 4093.33333299, 4120.76923050, 4128.20512793, 4123.20512793, 4118.07692280, 4132.56410229, 4131.79487152, 4117.56410229, 4134.35897408, 3957.05128143, 4132.69230742, 4129.74358947, 4143.46153826,12.0
4103.84615357, 4101.02564068, 4129.74358947, 4135.38461518, 4123.97435870, 4129.35897408, 4132.56410229, 4136.15384595, 4125.76923050, 4134.48717921, 3968.20512758, 4143.71794851, 4132.94871767, 4143.20512800,12.0
4117.30769203, 4090.76923043, 4119.10256383, 4127.30769203, 4124.10256383, 4127.17948691, 4109.87179460, 4116.15384588, 4108.20512793, 4134.48717921, 3964.10256348, 4126.02564075, 4119.35897408, 4144.48717928,12.0
4103.33333306, 4083.97435863, 4113.20512793, 4127.94871767, 4124.87179460, 4111.02564075, 4106.15384588, 4110.89743562, 4101.79487145, 4134.48717921, 3957.94871733, 4123.33333306, 4118.97435870, 4145.38461518,12.0
4122.43589716, 4082.43589709, 4117.17948691, 4132.30769203, 4127.69230742, 4115.51282024, 4116.53846126, 4115.51282024, 4107.94871767, 4134.48717921, 3959.48717887, 4128.71794844, 4122.94871767, 4146.41025621,12.0
4111.79487152, 4080.51282017, 4107.56410229, 4126.02564075, 4123.58974332, 4111.15384588, 4108.20512793, 4104.87179460, 4101.66666632, 4134.48717921, 3957.30769169, 4117.56410229, 4117.56410229, 4139.61538441,12.0
4110.76923050, 4095.76923043, 4116.41025614, 4139.23076903, 4125.12820485, 4112.05128178, 4109.87179460, 4102.82051255, 4103.20512793, 4134.48717921, 3963.58974297, 4127.30769203, 4122.69230742, 4143.58974339,12.0
4129.23076896, 4114.99999973, 4140.38461518, 4166.92307672, 4128.46153819, 4141.41025621, 4130.76923050, 4123.33333306, 4125.64102537, 4134.48717921, 3980.76923022, 4158.20512800, 4139.10256390, 4147.56410236,12.0
4109.61538434, 4111.53846126, 4133.07692280, 4161.92307672, 4124.48717921, 4139.35897415, 4130.51282024, 4126.15384588, 4127.94871767, 4134.48717921, 3980.64102509, 4155.25641005, 4140.76923056, 4146.28205108,12.0
4124.48717921, 4096.41025607, 4113.58974332, 4135.64102544, 4124.87179460, 4117.82051255, 4118.33333306, 4109.61538434, 4106.53846126, 4134.48717921, 3964.48717887, 4127.94871767, 4126.92307665, 4149.23076903,12.0
4122.05128178, 4074.23076889, 4102.69230742, 4124.99999973, 4124.87179460, 4123.58974332, 4108.46153819, 4104.48717921, 4098.58974325, 4134.48717921, 3957.05128143, 4114.87179460, 4115.76923050, 4145.76923056,12.0
4118.46153819, 4071.79487145, 4109.87179460, 4133.46153819, 4124.10256383, 4126.41025614, 4117.82051255, 4116.41025614, 4114.74358947, 4134.48717921, 3964.48717887, 4124.74358947, 4118.97435870, 4149.10256390,12.0
4129.99999973, 4098.20512786, 4122.05128178, 4147.05128185, 4124.10256383, 4123.33333306, 4138.20512800, 4125.38461511, 4124.87179460, 4134.48717921, 3971.53846099, 4140.25641005, 4129.10256383, 4150.38461518,12.0
4101.15384581, 4098.84615350, 4115.12820485, 4144.23076903, 4122.94871767, 4129.10256383, 4127.30769203, 4115.38461511, 4107.43589716, 4134.48717921, 3965.76923015, 4139.10256390, 4130.25640998, 4142.05128185,12.0
4115.51282024, 4081.02564068, 4113.07692280, 4137.17948697, 4126.02564075, 4132.30769203, 4119.99999973, 4113.33333306, 4100.38461504, 4134.48717921, 3961.15384553, 4135.25640998, 4127.17948691, 4145.64102544,12.0
4116.66666639, 4080.64102530, 4112.69230742, 4138.58974339, 4126.02564075, 4132.82051255, 4137.43589723, 4134.35897408, 4122.05128178, 4134.48717921, 3961.53846092, 4130.89743562, 4123.58974332, 4144.61538441,12.0
4100.38461504, 4076.53846119, 4102.69230742, 4129.61538434, 4124.48717921, 4132.82051255, 4137.43589723, 4142.94871774, 4133.20512793, 4134.48717921, 3957.56410194, 4118.71794844, 4118.84615357, 4142.30769210,12.0
4118.71794844, 4060.89743548, 4099.87179453, 4113.46153819, 4124.23076896, 4120.38461511, 4119.74358947, 4126.15384588, 4114.61538434, 4134.48717921, 3950.51281989, 4112.69230742, 4120.89743562, 4148.58974339,12.0
4103.97435870, 4078.71794837, 4108.20512793, 4120.76923050, 4123.58974332, 4118.71794844, 4125.64102537, 4119.48717921, 4105.76923050, 4134.48717921, 3954.23076861, 4120.25640998, 4127.82051255, 4144.87179467,12.0
4116.79487152, 4101.92307658, 4119.35897408, 4140.76923056, 4129.48717921, 4141.28205108, 4141.92307672, 4132.43589716, 4127.30769203, 4134.48717921, 3966.15384553, 4131.53846126, 4132.17948691, 4142.56410236,12.0
4124.99999973, 4081.79487145, 4119.23076896, 4139.10256390, 4128.58974332, 4139.35897415, 4139.87179467, 4139.23076903, 4143.33333313, 4134.48717921, 3967.82051220, 4137.17948697, 4128.97435870, 4144.61538441,12.0
4108.33333306, 4083.33333299, 4128.20512793, 4141.41025621, 4123.97435870, 4124.23076896, 4139.74358954, 4141.15384595, 4140.76923056, 4134.48717921, 3973.33333278, 4153.46153826, 4135.51282031, 4145.76923056,12.0
4125.38461511, 4114.74358947, 4143.07692287, 4154.35897415, 4127.82051255, 4135.12820485, 4144.99999980, 4141.53846133, 4139.74358954, 4134.48717921, 3986.92307637, 4174.10256397, 4152.30769210, 4143.71794851,12.0
4116.79487152, 4105.12820485, 4132.56410229, 4145.51282031, 4126.92307665, 4136.66666646, 4138.97435877, 4135.12820485, 4138.84615364, 4134.48717921, 3985.38461483, 4166.15384595, 4150.64102544, 4140.89743569,12.0
4125.38461511, 4092.56410222, 4129.74358947, 4145.64102544, 4124.10256383, 4136.66666646, 4137.82051262, 4141.41025621, 4138.58974339, 4134.48717921, 3980.64102509, 4157.05128185, 4143.71794851, 4150.25641005,12.0
4127.05128178, 4122.69230742, 4143.46153826, 4172.82051269, 4122.94871767, 4156.79487159, 4155.76923056, 4160.25641005, 4154.35897415, 4134.48717921, 3987.17948663, 4177.43589730, 4150.51282031, 4149.99999980,12.0
4104.87179460, 4136.79487159, 4140.12820492, 4181.79487166, 4124.10256383, 4157.43589723, 4159.48717928, 4161.79487159, 4160.38461518, 4134.48717921, 3990.76923022, 4182.17948704, 4153.20512800, 4145.64102544,12.0
4125.25640998, 4118.07692280, 4126.15384588, 4163.71794851, 4126.41025614, 4146.28205108, 4145.89743569, 4146.66666646, 4138.97435877, 4134.48717921, 3984.99999945, 4157.05128185, 4145.12820492, 4151.66666646,12.0
4110.25640998, 4101.15384581, 4119.23076896, 4149.10256390, 4123.07692280, 4144.87179467, 4151.02564082, 4140.25641005, 4122.82051255, 4134.48717921, 3977.17948663, 4146.28205108, 4138.71794851, 4148.58974339,12.0
4104.99999973, 4084.23076889, 4113.84615357, 4133.58974332, 4124.61538434, 4136.41025621, 4152.56410236, 4133.20512793, 4118.07692280, 4134.48717921, 3968.84615322, 4140.38461518, 4129.99999973, 4146.92307672,12.0
4116.92307665, 4077.94871761, 4102.56410229, 4119.61538434, 4127.17948691, 4132.05128178, 4133.97435870, 4121.15384588, 4113.71794844, 4134.48717921, 3961.92307630, 4122.43589716, 4121.15384588, 4146.92307672,12.0
4099.35897402, 4087.82051248, 4104.99999973, 4126.15384588, 4125.12820485, 4147.05128185, 4130.76923050, 4123.20512793, 4118.71794844, 4134.48717921, 3965.12820451, 4122.69230742, 4124.99999973, 4144.61538441,12.0
4117.43589716, 4090.25640991, 4113.33333306, 4135.38461518, 4127.30769203, 4158.71794851, 4146.79487159, 4132.56410229, 4127.94871767, 4134.48717921, 3971.02564040, 4135.25640998, 4130.89743562, 4146.66666646,12.0
4110.12820485, 4081.02564068, 4103.97435870, 4126.15384588, 4126.53846126, 4142.94871774, 4143.46153826, 4130.38461511, 4124.10256383, 4134.48717921, 3965.38461476, 4127.82051255, 4125.12820485, 4141.92307672,12.0
4108.84615357, 4087.82051248, 4106.28205101, 4119.74358947, 4124.74358947, 4125.38461511, 4133.33333306, 4128.58974332, 4118.97435870, 4134.48717921, 3964.74358912, 4123.33333306, 4122.82051255, 4142.94871774,12.0
4127.43589716, 4091.53846119, 4112.69230742, 4126.79487152, 4125.76923050, 4128.46153819, 4133.84615357, 4137.17948697, 4123.97435870, 4134.48717921, 3971.15384553, 4133.20512793, 4128.46153819, 4143.58974339,12.0
4108.20512793, 4074.74358940, 4100.89743555, 4128.20512793, 4126.41025614, 4132.56410229, 4127.05128178, 4137.69230749, 4127.05128178, 4134.48717921, 3967.56410194, 4133.84615357, 4129.74358947, 4139.23076903,12.0
4125.12820485, 4077.30769196, 4100.12820478, 4126.79487152, 4127.69230742, 4133.84615357, 4122.17948691, 4128.58974332, 4120.51282024, 4134.48717921, 3965.89743528, 4127.94871767, 4127.43589716, 4143.58974339,12.0
4126.66666639, 4098.33333299, 4108.84615357, 4131.28205101, 4125.25640998, 4137.30769210, 4130.25640998, 4134.48717921, 4119.23076896, 4134.48717921, 3973.97435842, 4139.10256390, 4130.89743562, 4143.71794851,12.0
4116.02564075, 4105.76923050, 4113.07692280, 4139.74358954, 4124.74358947, 4144.99999980, 4138.33333313, 4142.56410236, 4131.79487152, 4134.61538434, 3981.66666611, 4158.46153826, 4139.23076903, 4146.92307672,12.0
4124.35897408, 4101.66666632, 4107.30769203, 4137.56410236, 4125.51282024, 4143.58974339, 4142.82051262, 4128.07692280, 4126.28205101, 4134.87179460, 3977.94871740, 4153.07692287, 4138.33333313, 4150.64102544,12.0
4103.46153819, 4092.82051248, 4091.53846119, 4121.92307665, 4123.20512793, 4129.10256383, 4136.41025621, 4110.64102537, 4106.41025614, 4134.23076896, 3967.43589681, 4133.97435870, 4127.69230742, 4146.66666646,12.0
4118.97435870, 4070.64102530, 4084.61538427, 4115.12820485, 4124.35897408, 4122.05128178, 4120.89743562, 4115.51282024, 4098.33333299, 4133.97435870, 3964.10256348, 4122.17948691, 4121.02564075, 4149.48717928,12.0
4113.71794844, 4061.41025600, 4088.20512786, 4120.89743562, 4123.97435870, 4125.25640998, 4123.84615357, 4128.33333306, 4101.66666632, 4135.89743569, 3967.82051220, 4126.41025614, 4122.82051255, 4147.17948697,12.0
4094.35897402, 4081.41025607, 4092.69230735, 4123.46153819, 4124.48717921, 4128.71794844, 4131.15384588, 4122.30769203, 4108.97435870, 4132.56410229, 3967.43589681, 4137.69230749, 4126.15384588, 4144.35897415,12.0
4120.51282024, 4093.46153812, 4093.97435863, 4129.23076896, 4125.89743562, 4130.64102537, 4121.92307665, 4117.17948691, 4113.33333306, 4128.20512793, 3965.64102502, 4137.82051262, 4126.28205101, 4145.51282031,12.0
4106.66666639, 4086.53846119, 4091.92307658, 4140.89743569, 4123.07692280, 4123.33333306, 4114.10256383, 4131.92307665, 4117.69230742, 4131.92307665, 3970.64102502, 4136.79487159, 4129.10256383, 4142.05128185,12.0
4108.84615357, 4080.38461504, 4092.30769196, 4139.23076903, 4126.41025614, 4112.05128178, 4115.38461511, 4129.23076896, 4112.43589716, 4136.28205108, 3972.94871740, 4137.05128185, 4130.25640998, 4146.66666646,12.0
4116.41025614, 4087.94871761, 4095.76923043, 4136.28205108, 4127.05128178, 4120.38461511, 4122.30769203, 4115.38461511, 4106.41025614, 4135.12820485, 3974.23076868, 4141.02564082, 4130.64102537, 4144.99999980,12.0
4105.76923050, 4084.99999966, 4095.51282017, 4134.35897408, 4122.56410229, 4135.89743569, 4121.02564075, 4117.43589716, 4108.58974332, 4134.23076896, 3974.10256355, 4137.56410236, 4134.48717921, 4139.10256390,12.0
4125.64102537, 4078.71794837, 4090.64102530, 4127.56410229, 4122.69230742, 4133.97435870, 4122.82051255, 4128.97435870, 4118.46153819, 4134.87179460, 3972.43589688, 4131.41025614, 4135.25640998, 4144.61538441,12.0
4113.97435870, 4084.48717914, 4090.51282017, 4132.56410229, 4121.02564075, 4122.43589716, 4138.33333313, 4138.84615364, 4128.84615357, 4133.20512793, 3978.33333278, 4140.12820492, 4135.25640998, 4146.92307672,12.0
4120.64102537, 4083.33333299, 4097.56410222, 4138.07692287, 4124.99999973, 4126.02564075, 4140.89743569, 4134.61538434, 4123.84615357, 4135.12820485, 3983.84615329, 4144.87179467, 4137.43589723, 4150.89743569,12.0
4130.12820485, 4089.74358940, 4095.64102530, 4138.07692287, 4128.84615357, 4142.82051262, 4136.02564082, 4133.71794844, 4123.84615357, 4137.94871774, 3982.69230714, 4144.23076903, 4137.05128185, 4150.51282031,12.0
4109.35897408, 4106.41025614, 4090.76923043, 4146.28205108, 4123.58974332, 4147.56410236, 4136.66666646, 4145.38461518, 4132.43589716, 4129.87179460, 3982.82051227, 4145.64102544, 4135.89743569, 4147.82051262,12.0
4126.79487152, 4090.12820478, 4089.87179453, 4142.17948697, 4123.07692280, 4142.94871774, 4135.76923056, 4146.66666646, 4129.35897408, 4124.74358947, 3983.46153791, 4139.74358954, 4134.87179460, 4150.76923056,12.0
4110.38461511, 4065.76923036, 4084.99999966, 4128.46153819, 4125.76923050, 4130.64102537, 4138.46153826, 4140.89743569, 4121.66666639, 4132.43589716, 3978.97435842, 4137.94871774, 4135.25640998, 4145.12820492,12.0
4104.99999973, 4093.97435863, 4094.99999966, 4141.53846133, 4126.53846126, 4130.76923050, 4147.56410236, 4145.64102544, 4124.87179460, 4137.30769210, 3979.23076868, 4150.89743569, 4141.92307672, 4144.23076903,12.0
4121.28205101, 4114.48717921, 4101.66666632, 4149.87179467, 4124.23076896, 4143.07692287, 4146.02564082, 4144.87179467, 4123.71794844, 4133.20512793, 3981.53846099, 4150.64102544, 4141.15384595, 4146.66666646,12.0
4097.17948684, 4078.97435863, 4083.97435863, 4123.58974332, 4123.46153819, 4128.20512793, 4135.38461518, 4125.12820485, 4106.41025614, 4132.69230742, 3976.28205073, 4127.56410229, 4128.97435870, 4144.10256390,12.0
4114.61538434, 4042.82051241, 4065.25640984, 4096.53846119, 4128.33333306, 4104.74358947, 4116.41025614, 4103.97435870, 4086.15384581, 4135.64102544, 3967.30769169, 4102.82051255, 4117.56410229, 4146.79487159,12.0
4114.87179460, 4040.89743548, 4058.20512779, 4095.51282017, 4128.58974332, 4108.84615357, 4094.74358940, 4102.30769196, 4082.17948684, 4135.25640998, 3961.79487117, 4093.33333299, 4112.30769203, 4141.41025621,12.0
4106.41025614, 4074.35897402, 4081.02564068, 4125.89743562, 4126.66666639, 4130.38461511, 4119.35897408, 4132.05128178, 4111.53846126, 4135.38461518, 3974.35897381, 4126.02564075, 4126.02564075, 4140.12820492,12.0
4124.74358947, 4100.25640991, 4103.97435870, 4150.89743569, 4125.51282024, 4145.12820492, 4158.20512800, 4156.66666646, 4132.82051255, 4134.87179460, 3990.76923022, 4158.71794851, 4145.64102544, 4143.97435877,12.0
4107.94871767, 4091.15384581, 4091.92307658, 4142.17948697, 4123.97435870, 4138.20512800, 4149.48717928, 4143.46153826, 4113.71794844, 4134.10256383, 3987.56410201, 4146.02564082, 4141.41025621, 4141.66666646,12.0
4123.20512793, 4079.61538427, 4084.61538427, 4131.53846126, 4124.99999973, 4129.23076896, 4129.48717921, 4126.53846126, 4099.99999966, 4134.74358947, 3982.56410201, 4133.58974332, 4131.79487152, 4146.28205108,12.0
4126.53846126, 4079.87179453, 4087.56410222, 4134.99999973, 4121.79487152, 4131.92307665, 4129.74358947, 4129.74358947, 4110.89743562, 4134.48717921, 3985.25640970, 4141.53846133, 4136.41025621, 4143.84615364,12.0
4113.58974332, 4078.71794837, 4086.53846119, 4129.23076896, 4122.05128178, 4130.51282024, 4143.58974339, 4138.71794851, 4113.71794844, 4134.35897408, 3983.97435842, 4138.97435877, 4135.89743569, 4142.56410236,12.0
4126.28205101, 4074.61538427, 4083.97435863, 4116.66666639, 4124.23076896, 4134.61538434, 4153.20512800, 4144.35897415, 4106.53846126, 4134.48717921, 3981.15384560, 4126.02564075, 4130.38461511, 4150.12820492,12.0
4106.53846126, 4070.38461504, 4074.10256376, 4111.53846126, 4120.25640998, 4135.89743569, 4134.99999973, 4139.10256390, 4106.28205101, 4134.48717921, 3977.43589688, 4118.46153819, 4129.48717921, 4146.66666646,12.0
4116.53846126, 4074.74358940, 4074.61538427, 4116.79487152, 4123.07692280, 4126.28205101, 4122.30769203, 4126.02564075, 4104.48717921, 4134.48717921, 3976.53846099, 4121.15384588, 4128.97435870, 4147.05128185,12.0
4114.48717921, 4078.58974325, 4079.87179453, 4119.61538434, 4125.89743562, 4114.23076896, 4131.02564075, 4119.99999973, 4096.28205094, 4134.48717921, 3979.87179432, 4127.43589716, 4131.53846126, 4147.05128185,12.0
4094.61538427, 4071.53846119, 4075.25640991, 4110.89743562, 4122.69230742, 4104.35897408, 4121.66666639, 4120.76923050, 4093.58974325, 4134.48717921, 3981.02564047, 4123.46153819, 4133.58974332, 4144.61538441,12.0
4119.74358947, 4064.99999959, 4070.38461504, 4106.66666639, 4121.66666639, 4112.17948691, 4113.07692280, 4125.89743562, 4104.48717921, 4134.48717921, 3983.46153791, 4117.30769203, 4133.97435870, 4146.53846133,12.0
4104.35897408, 4062.17948677, 4069.35897395, 4109.74358947, 4123.58974332, 4120.89743562, 4127.43589716, 4134.48717921, 4115.38461511, 4134.48717921, 3985.76923022, 4118.97435870, 4134.35897408, 4141.66666646,12.0
4104.35897408, 4062.17948677, 4069.35897395, 4109.74358947, 4123.58974332, 4120.89743562, 4127.43589716, 4134.48717921, 4115.38461511, 4134.48717921, 3985.76923022, 4118.97435870, 4134.35897408, 4141.66666646,12.0
4103.46153819, 4059.61538420, 4071.66666632, 4109.87179460, 4124.99999973, 4116.15384588, 4132.17948691, 4137.05128185, 4107.94871767, 4134.48717921, 3982.05128150, 4117.82051255, 4131.53846126, 4142.56410236,12.0
4115.76923050, 4058.07692266, 4070.64102530, 4106.66666639, 4121.28205101, 4107.56410229, 4119.74358947, 4132.43589716, 4103.46153819, 4134.48717921, 3979.23076868, 4114.10256383, 4126.02564075, 4143.20512800,12.0
4103.58974332, 4068.33333292, 4075.51282017, 4112.94871767, 4123.20512793, 4114.23076896, 4120.64102537, 4129.23076896, 4115.64102537, 4134.48717921, 3985.76923022, 4121.02564075, 4130.25640998, 4140.89743569,12.0
4125.12820485, 4081.02564068, 4081.66666632, 4120.25640998, 4127.69230742, 4125.89743562, 4132.69230742, 4127.94871767, 4113.07692280, 4134.48717921, 3993.33333278, 4126.41025614, 4138.20512800, 4145.25641005,12.0
4115.89743562, 4079.99999966, 4074.35897402, 4115.89743562, 4121.02564075, 4120.64102537, 4135.51282031, 4129.23076896, 4103.46153819, 4134.48717921, 3995.12820458, 4122.94871767, 4135.64102544, 4142.05128185,12.0
4116.79487152, 4073.84615350, 4074.87179453, 4113.20512793, 4121.15384588, 4117.56410229, 4127.69230742, 4127.43589716, 4111.79487152, 4134.48717921, 3996.66666611, 4121.92307665, 4129.61538434, 4143.71794851,12.0
4116.79487152, 4073.84615350, 4074.87179453, 4113.20512793, 4121.15384588, 4117.56410229, 4127.69230742, 4127.43589716, 4111.79487152, 4134.48717921, 3996.66666611, 4121.92307665, 4129.61538434, 4143.71794851,12.0
4132.56410229, 4068.71794830, 4080.12820478, 4112.56410229, 4126.66666639, 4121.79487152, 4131.53846126, 4128.46153819, 4119.61538434, 4134.48717921, 3997.82051227, 4122.94871767, 4132.30769203, 4148.58974339,12.0
4111.28205101, 4071.41025607, 4077.05128171, 4109.35897408, 4122.94871767, 4125.38461511, 4137.05128185, 4131.02564075, 4108.33333306, 4134.48717921, 3996.92307637, 4124.48717921, 4135.76923056, 4146.28205108,12.0
4125.25640998, 4075.76923043, 4073.84615350, 4106.41025614, 4124.48717921, 4123.20512793, 4121.66666639, 4113.97435870, 4095.25640991, 4134.48717921, 3995.51281996, 4122.82051255, 4129.10256383, 4147.82051262,12.0
4114.10256383, 4070.76923043, 4071.28205094, 4107.17948691, 4126.53846126, 4108.97435870, 4118.84615357, 4102.56410229, 4100.25640991, 4134.48717921, 3995.25640970, 4121.41025614, 4128.58974332, 4146.41025621,12.0
4105.25640998, 4078.07692273, 4079.61538427, 4119.23076896, 4124.74358947, 4116.41025614, 4140.89743569, 4122.56410229, 4116.28205101, 4134.48717921, 4002.30769176, 4131.15384588, 4139.87179467, 4148.58974339,12.0
4125.89743562, 4082.30769196, 4079.87179453, 4116.79487152, 4123.46153819, 4127.30769203, 4135.89743569, 4127.82051255, 4114.61538434, 4134.48717921, 4001.02564047, 4128.46153819, 4135.38461518, 4149.61538441,12.0
4102.05128171, 4049.61538420, 4056.66666625, 4088.33333299, 4121.92307665, 4101.15384581, 4098.58974325, 4101.79487145, 4089.87179453, 4134.48717921, 3982.05128150, 4097.82051248, 4112.05128178, 4142.30769210,12.0
4111.02564075, 4039.48717907, 4061.15384574, 4087.17948684, 4123.46153819, 4108.84615357, 4106.02564075, 4121.15384588, 4100.25640991, 4134.48717921, 3982.30769176, 4098.46153812, 4113.84615357, 4145.89743569,12.0
4113.97435870, 4085.76923043, 4087.05128171, 4120.38461511, 4124.10256383, 4147.05128185, 4146.92307672, 4162.05128185, 4138.46153826, 4134.48717921, 4002.30769176, 4133.97435870, 4138.46153826, 4145.51282031,12.0
4102.56410229, 4094.48717914, 4082.69230735, 4118.71794844, 4125.25640998, 4129.74358947, 4143.71794851, 4135.12820485, 4125.51282024, 4134.48717921, 3997.69230714, 4126.53846126, 4137.69230749, 4143.84615364,12.0
4120.38461511, 4054.99999959, 4063.58974318, 4097.56410222, 4127.69230742, 4111.53846126, 4119.23076896, 4099.23076889, 4093.33333299, 4134.48717921, 3983.58974304, 4096.02564068, 4117.69230742, 4147.30769210,12.0
4108.71794844, 4054.23076882, 4064.48717907, 4108.20512793, 4125.76923050, 4126.53846126, 4116.28205101, 4114.48717921, 4100.51282017, 4134.48717921, 3987.17948663, 4099.74358940, 4115.76923050, 4144.74358954,12.0
4121.02564075, 4084.48717914, 4080.89743555, 4121.28205101, 4126.02564075, 4121.92307665, 4126.92307665, 4126.28205101, 4113.07692280, 4134.48717921, 3994.87179432, 4118.97435870, 4129.61538434, 4148.20512800,12.0
4121.92307665, 4087.56410222, 4081.02564068, 4117.94871767, 4125.25640998, 4113.58974332, 4132.56410229, 4113.07692280, 4106.66666639, 4134.48717921, 3994.23076868, 4122.69230742, 4131.15384588, 4145.89743569,12.0
4107.17948691, 4061.92307651, 4070.12820478, 4119.61538434, 4125.38461511, 4129.35897408, 4128.20512793, 4112.69230742, 4111.02564075, 4134.48717921, 3993.84615329, 4114.99999973, 4123.84615357, 4144.87179467,12.0
4129.23076896, 4052.43589702, 4069.61538420, 4116.15384588, 4126.79487152, 4133.97435870, 4122.69230742, 4122.56410229, 4118.33333306, 4134.48717921, 4000.25640970, 4114.48717921, 4128.20512793, 4150.64102544,12.0
4129.23076896, 4052.43589702, 4069.61538420, 4116.15384588, 4126.79487152, 4133.97435870, 4122.69230742, 4122.56410229, 4118.33333306, 4134.48717921, 4000.25640970, 4114.48717921, 4128.20512793, 4150.64102544,12.0
4112.69230742, 4069.10256369, 4070.51282017, 4101.15384581, 4122.82051255, 4113.71794844, 4121.15384588, 4123.33333306, 4111.66666639, 4134.48717921, 4001.15384560, 4121.02564075, 4131.41025614, 4144.87179467,12.0
4116.15384588, 4071.28205094, 4067.30769189, 4099.87179453, 4124.87179460, 4106.79487152, 4116.15384588, 4115.25640998, 4099.48717914, 4134.74358947, 3993.97435842, 4116.53846126, 4123.58974332, 4146.53846133,12.0
4119.87179460, 4053.07692266, 4056.53846113, 4109.23076896, 4125.38461511, 4116.92307665, 4110.89743562, 4112.05128178, 4093.46153812, 4134.61538434, 3988.71794817, 4105.12820485, 4118.20512793, 4148.33333313,12.0
4097.43589709, 4047.56410215, 4051.79487138, 4107.17948691, 4121.66666639, 4119.99999973, 4123.46153819, 4125.38461511, 4102.94871767, 4134.23076896, 3989.35897381, 4104.35897408, 4115.76923050, 4145.51282031,12.0
4117.82051255, 4063.58974318, 4059.99999959, 4106.53846126, 4124.10256383, 4123.20512793, 4134.23076896, 4134.23076896, 4116.66666639, 4135.25640998, 3992.30769176, 4111.92307665, 4117.30769203, 4147.82051262,12.0
4103.07692280, 4079.35897402, 4064.74358933, 4117.30769203, 4123.20512793, 4133.46153819, 4130.12820485, 4141.66666646, 4128.20512793, 4134.35897408, 3994.61538406, 4121.92307665, 4129.10256383, 4143.07692287,12.0
4103.46153819, 4072.69230735, 4058.84615343, 4109.74358947, 4124.87179460, 4129.87179460, 4120.89743562, 4140.64102544, 4125.76923050, 4130.89743562, 3989.35897381, 4110.89743562, 4120.25640998, 4143.84615364,12.0
4120.51282024, 4046.41025600, 4043.07692266, 4079.23076889, 4129.35897408, 4112.56410229, 4121.41025614, 4119.48717921, 4102.17948684, 4129.87179460, 3978.71794817, 4082.30769196, 4097.43589709, 4145.51282031,12.0
4101.15384581, 4041.15384574, 4041.79487138, 4078.07692273, 4126.66666639, 4117.94871767, 4132.30769203, 4107.82051255, 4091.28205094, 4131.02564075, 3981.79487124, 4079.48717914, 4106.15384588, 4144.74358954,12.0
4101.15384581, 4041.15384574, 4041.79487138, 4078.07692273, 4126.66666639, 4117.94871767, 4132.30769203, 4107.82051255, 4091.28205094, 4131.02564075, 3981.79487124, 4079.48717914, 4106.15384588, 4144.74358954,12.0
4119.35897408, 4069.23076882, 4062.69230728, 4113.33333306, 4122.82051255, 4137.69230749, 4128.58974332, 4112.69230742, 4102.69230742, 4130.38461511, 3994.61538406, 4095.12820478, 4123.71794844, 4147.94871774,12.0
4115.12820485, 4084.99999966, 4069.10256369, 4129.35897408, 4122.56410229, 4131.92307665, 4114.48717921, 4113.20512793, 4111.41025614, 4129.10256383, 3999.48717894, 4097.82051248, 4123.58974332, 4141.15384595,12.0
4112.69230742, 4081.15384581, 4071.28205094, 4123.46153819, 4126.92307665, 4117.69230742, 4117.56410229, 4122.05128178, 4119.74358947, 4130.12820485, 4004.87179439, 4103.84615357, 4134.35897408, 4142.69230749,12.0
4128.58974332, 4087.56410222, 4082.05128171, 4129.48717921, 4124.61538434, 4125.25640998, 4135.89743569, 4149.87179467, 4142.05128185, 4130.51282024, 4015.51282003, 4122.69230742, 4148.46153826, 4149.87179467,12.0
4111.92307665, 4097.17948684, 4079.87179453, 4133.20512793, 4120.25640998, 4130.12820485, 4139.99999980, 4157.43589723, 4150.89743569, 4129.10256383, 4016.02564054, 4124.74358947, 4140.64102544, 4146.41025621,12.0
4127.17948691, 4088.97435863, 4073.07692273, 4121.15384588, 4126.15384588, 4130.76923050, 4132.94871767, 4142.17948697, 4136.28205108, 4130.51282024, 4009.61538413, 4112.69230742, 4135.76923056, 4147.69230749,12.0
4118.46153819, 4064.87179446, 4064.35897395, 4109.99999973, 4125.38461511, 4129.74358947, 4128.46153819, 4138.07692287, 4128.58974332, 4135.51282031, 4006.53846106, 4103.46153819, 4136.53846133, 4149.48717928,12.0
4107.05128178, 4057.82051241, 4057.69230728, 4108.07692280, 4121.28205101, 4120.12820485, 4115.89743562, 4129.35897408, 4124.74358947, 4135.25640998, 4006.28205080, 4095.76923043, 4128.33333306, 4151.41025621,12.0
4123.84615357, 4060.38461497, 4051.53846113, 4098.07692273, 4122.05128178, 4110.76923050, 4103.33333306, 4107.30769203, 4106.53846126, 4131.66666639, 3998.07692252, 4081.79487145, 4117.17948691, 4147.82051262,12.0
4099.10256376, 4057.69230728, 4044.35897395, 4091.02564068, 4121.66666639, 4111.79487152, 4100.25640991, 4096.92307658, 4091.92307658, 4133.20512793, 3987.69230714, 4072.05128171, 4110.89743562, 4141.53846133,12.0
4108.20512793, 4084.23076889, 4066.28205087, 4121.79487152, 4124.48717921, 4137.56410236, 4133.20512793, 4116.41025614, 4111.53846126, 4135.89743569, 4001.92307637, 4100.89743555, 4125.76923050, 4146.66666646,12.0
4112.30769203, 4102.05128171, 4084.10256376, 4144.10256390, 4123.84615357, 4149.35897415, 4158.97435877, 4131.79487152, 4129.99999973, 4134.10256383, 4017.05128157, 4126.28205101, 4142.69230749, 4144.99999980,12.0
4099.99999966, 4071.15384581, 4068.20512779, 4114.61538434, 4122.30769203, 4122.56410229, 4125.76923050, 4113.46153819, 4109.35897408, 4132.69230742, 4003.46153791, 4101.92307658, 4129.48717921, 4142.69230749,12.0
4119.61538434, 4053.07692266, 4057.69230728, 4095.51282017, 4125.89743562, 4113.84615357, 4100.38461504, 4102.94871767, 4094.10256376, 4133.58974332, 3993.46153791, 4081.79487145, 4113.71794844, 4143.20512800,12.0
4107.43589716, 4078.58974325, 4070.38461504, 4119.35897408, 4127.94871767, 4127.82051255, 4117.30769203, 4118.84615357, 4108.58974332, 4134.10256383, 4004.74358926, 4101.53846119, 4123.20512793, 4140.64102544,12.0
4118.84615357, 4092.94871761, 4079.99999966, 4131.02564075, 4126.79487152, 4124.23076896, 4121.02564075, 4123.33333306, 4118.20512793, 4134.35897408, 4009.99999952, 4113.33333306, 4131.79487152, 4145.89743569,12.0
4121.41025614, 4077.43589709, 4070.38461504, 4112.69230742, 4122.82051255, 4112.94871767, 4102.30769196, 4117.94871767, 4117.30769203, 4134.35897408, 4003.46153791, 4100.64102530, 4127.94871767, 4142.30769210,12.0
4106.28205101, 4078.71794837, 4072.69230735, 4109.23076896, 4124.61538434, 4116.92307665, 4114.23076896, 4133.71794844, 4129.61538434, 4133.84615357, 4006.53846106, 4106.41025614, 4135.76923056, 4141.02564082,12.0
4129.99999973, 4089.10256376, 4080.51282017, 4119.61538434, 4126.53846126, 4129.23076896, 4136.28205108, 4144.10256390, 4135.64102544, 4134.87179460, 4011.41025593, 4116.79487152, 4140.12820492, 4148.71794851,12.0
4112.05128178, 4075.76923043, 4059.87179446, 4112.30769203, 4121.02564075, 4122.05128178, 4112.94871767, 4117.17948691, 4117.82051255, 4135.51282031, 4002.82051227, 4097.43589709, 4122.30769203, 4146.41025621,12.0
4115.25640998, 4064.10256369, 4045.89743548, 4104.10256383, 4121.79487152, 4110.64102537, 4096.15384581, 4095.76923043, 4101.28205094, 4135.12820485, 3999.61538406, 4080.51282017, 4114.74358947, 4149.48717928,12.0
4125.64102537, 4081.66666632, 4059.99999959, 4114.23076896, 4123.46153819, 4125.89743562, 4126.53846126, 4116.02564075, 4105.51282024, 4136.28205108, 4011.15384567, 4097.17948684, 4129.99999973, 4149.35897415,12.0
4097.43589709, 4098.58974325, 4071.53846119, 4123.07692280, 4121.53846126, 4136.92307672, 4139.10256390, 4132.69230742, 4119.23076896, 4134.35897408, 4016.53846106, 4113.07692280, 4140.64102544, 4146.28205108,12.0
4111.66666639, 4076.15384581, 4060.64102523, 4112.69230742, 4125.38461511, 4121.79487152, 4106.79487152, 4114.61538434, 4112.69230742, 4133.07692280, 4006.41025593, 4094.87179453, 4129.35897408, 4148.58974339,12.0
4107.82051255, 4039.61538420, 4038.20512779, 4091.53846119, 4126.53846126, 4096.15384581, 4080.38461504, 4098.33333299, 4090.89743555, 4133.84615357, 3993.46153791, 4066.66666625, 4109.99999973, 4143.07692287,12.0
4107.94871767, 4053.97435856, 4049.99999959, 4094.74358940, 4125.38461511, 4100.76923043, 4106.92307665, 4112.30769203, 4092.94871761, 4132.30769203, 3998.84615329, 4079.23076889, 4119.74358947, 4144.10256390,12.0
4117.30769203, 4082.56410222, 4071.66666632, 4110.64102537, 4126.02564075, 4124.48717921, 4138.58974339, 4120.89743562, 4108.33333306, 4131.66666639, 4009.23076875, 4107.05128178, 4138.84615364, 4144.23076903,12.0
4098.84615350, 4053.71794830, 4054.10256369, 4096.15384581, 4126.15384588, 4120.38461511, 4107.94871767, 4092.69230735, 4091.53846119, 4134.10256383, 3998.07692252, 4085.51282017, 4116.15384588, 4138.07692287,12.0
4121.79487152, 4035.12820465, 4043.58974318, 4081.02564068, 4126.15384588, 4107.05128178, 4083.71794837, 4078.58974325, 4075.25640991, 4135.76923056, 3987.43589688, 4061.28205087, 4094.10256376, 4143.97435877,12.0
4118.58974332, 4063.58974318, 4059.35897395, 4095.25640991, 4121.79487152, 4106.15384588, 4112.56410229, 4102.17948684, 4096.28205094, 4134.74358947, 3994.35897381, 4082.43589709, 4113.20512793, 4144.35897415,12.0
4111.28205101, 4068.97435856, 4064.74358933, 4104.99999973, 4122.17948691, 4113.97435870, 4120.64102537, 4114.23076896, 4107.05128178, 4133.07692280, 4002.56410201, 4095.64102530, 4129.10256383, 4144.74358954,12.0
4127.05128178, 4059.23076882, 4058.58974318, 4101.53846119, 4124.87179460, 4118.07692280, 4104.99999973, 4108.71794844, 4097.69230735, 4129.87179460, 4004.74358926, 4088.97435863, 4126.41025614, 4148.46153826,12.0
4110.76923050, 4073.46153812, 4066.79487138, 4108.71794844, 4121.28205101, 4117.69230742, 4120.25640998, 4111.79487152, 4106.92307665, 4129.35897408, 4009.61538413, 4102.69230742, 4130.76923050, 4146.66666646,12.0
4127.05128178, 4080.89743555, 4079.74358940, 4115.25640998, 4122.82051255, 4129.23076896, 4132.30769203, 4118.84615357, 4121.02564075, 4131.41025614, 4016.02564054, 4115.76923050, 4134.10256383, 4150.64102544,12.0
4120.25640998, 4084.99999966, 4075.12820478, 4116.92307665, 4123.20512793, 4128.07692280, 4128.33333306, 4132.17948691, 4122.43589716, 4130.89743562, 4016.28205080, 4112.05128178, 4129.74358947, 4149.48717928,12.0
4105.89743562, 4088.97435863, 4069.99999966, 4115.12820485, 4122.69230742, 4111.02564075, 4121.53846126, 4134.61538434, 4118.07692280, 4130.64102537, 4010.38461490, 4107.69230742, 4131.15384588, 4148.07692287,12.0
4124.87179460, 4066.66666625, 4064.74358933, 4103.46153819, 4126.02564075, 4111.92307665, 4097.43589709, 4110.12820485, 4105.76923050, 4130.25640998, 4002.05128150, 4094.99999966, 4122.94871767, 4148.58974339,12.0
4101.66666632, 4057.94871754, 4062.30769189, 4101.66666632, 4124.35897408, 4120.25640998, 4096.79487145, 4104.23076896, 4104.10256383, 4130.89743562, 4002.30769176, 4097.05128171, 4117.05128178, 4144.99999980,12.0
4109.74358947, 4084.10256376, 4076.92307658, 4112.17948691, 4124.10256383, 4126.28205101, 4132.05128178, 4124.48717921, 4120.89743562, 4132.17948691, 4011.66666618, 4117.30769203, 4128.84615357, 4149.35897415,12.0
4114.10256383, 4075.25640991, 4069.23076882, 4102.82051255, 4126.28205101, 4123.07692280, 4129.48717921, 4110.76923050, 4110.25640998, 4131.15384588, 4005.51282003, 4105.25640998, 4123.84615357, 4145.25641005,12.0
4096.92307658, 4053.46153805, 4058.33333292, 4092.82051248, 4127.05128178, 4114.23076896, 4107.43589716, 4085.89743555, 4091.15384581, 4129.61538434, 3995.89743535, 4090.51282017, 4112.94871767, 4142.94871774,12.0
4119.61538434, 4079.74358940, 4080.89743555, 4113.84615357, 4127.43589716, 4128.71794844, 4121.92307665, 4101.79487145, 4114.35897408, 4130.64102537, 4008.33333285, 4115.12820485, 4127.69230742, 4147.05128185,12.0
4108.33333306, 4094.87179453, 4085.51282017, 4126.15384588, 4123.84615357, 4138.20512800, 4115.64102537, 4115.51282024, 4127.17948691, 4130.38461511, 4014.23076875, 4120.51282024, 4132.69230742, 4140.38461518,12.0
4115.76923050, 4079.48717914, 4074.48717914, 4116.41025614, 4124.87179460, 4122.17948691, 4094.74358940, 4109.99999973, 4114.23076896, 4129.23076896, 4009.35897388, 4104.10256383, 4123.58974332, 4144.87179467,12.0
4102.17948684, 4088.84615350, 4072.94871761, 4117.17948691, 4122.94871767, 4117.69230742, 4136.41025621, 4113.20512793, 4108.71794844, 4132.56410229, 4001.41025586, 4105.25640998, 4118.71794844, 4145.64102544,12.0
4122.69230742, 4080.12820478, 4065.76923036, 4103.46153819, 4123.84615357, 4120.51282024, 4124.48717921, 4114.61538434, 4107.30769203, 4130.12820485, 4003.33333278, 4094.99999966, 4119.48717921, 4151.15384595,12.0
4108.84615357, 4044.10256369, 4046.92307651, 4080.38461504, 4124.48717921, 4117.43589716, 4097.56410222, 4094.10256376, 4100.89743555, 4127.94871767, 3992.17948663, 4063.46153805, 4110.51282024, 4145.51282031,12.0
4108.84615357, 4044.10256369, 4046.92307651, 4080.38461504, 4124.48717921, 4117.43589716, 4097.56410222, 4094.10256376, 4100.89743555, 4127.94871767, 3992.17948663, 4063.46153805, 4110.51282024, 4145.51282031,12.0
4095.38461504, 4038.07692266, 4042.56410215, 4082.82051248, 4125.25640998, 4108.97435870, 4093.58974325, 4088.20512786, 4100.64102530, 4129.10256383, 3986.53846099, 4054.23076882, 4106.15384588, 4143.84615364,12.0
4119.10256383, 4068.33333292, 4055.64102523, 4098.84615350, 4126.41025614, 4112.94871767, 4104.99999973, 4109.74358947, 4115.12820485, 4134.87179460, 3997.30769176, 4074.61538427, 4115.89743562, 4146.53846133,12.0
4103.71794844, 4074.10256376, 4063.07692266, 4098.84615350, 4125.38461511, 4116.02564075, 4105.64102537, 4115.51282024, 4128.84615357, 4134.74358947, 4006.28205080, 4085.76923043, 4123.58974332, 4141.66666646,12.0
4113.58974332, 4059.61538420, 4065.64102523, 4092.56410222, 4126.92307665, 4113.46153819, 4100.38461504, 4094.87179453, 4121.53846126, 4128.97435870, 4005.12820465, 4080.89743555, 4121.79487152, 4143.33333313,12.0
4114.61538434, 4062.69230728, 4062.56410215, 4096.53846119, 4125.51282024, 4107.94871767, 4092.56410222, 4087.05128171, 4107.94871767, 4131.79487152, 4002.56410201, 4078.46153812, 4118.07692280, 4142.17948697,12.0
4110.89743562, 4079.35897402, 4069.35897395, 4109.35897408, 4125.38461511, 4105.51282024, 4091.79487145, 4100.76923043, 4117.43589716, 4136.15384595, 4009.23076875, 4091.41025607, 4122.69230742, 4142.69230749,12.0
4130.76923050, 4093.07692273, 4087.94871761, 4118.97435870, 4128.20512793, 4113.71794844, 4105.89743562, 4115.38461511, 4127.30769203, 4131.79487152, 4018.84615336, 4114.10256383, 4133.58974332, 4144.48717928,12.0
4115.25640998, 4097.56410222, 4093.71794837, 4121.41025614, 4124.87179460, 4116.66666639, 4108.97435870, 4119.74358947, 4116.02564075, 4131.66666639, 4022.82051234, 4125.51282024, 4141.28205108, 4142.94871774,12.0
4125.38461511, 4090.64102530, 4089.23076889, 4119.35897408, 4124.23076896, 4112.56410229, 4101.92307658, 4109.10256383, 4116.79487152, 4136.28205108, 4020.64102516, 4118.71794844, 4136.02564082, 4149.48717928,12.0
4121.28205101, 4079.10256376, 4078.07692273, 4112.05128178, 4124.35897408, 4110.64102537, 4109.74358947, 4096.79487145, 4123.97435870, 4134.35897408, 4008.58974311, 4102.17948684, 4122.69230742, 4149.87179467,12.0
4105.89743562, 4086.53846119, 4076.41025607, 4109.87179460, 4125.38461511, 4119.35897408, 4125.64102537, 4110.12820485, 4113.58974332, 4132.43589716, 4000.89743535, 4095.38461504, 4121.66666639, 4149.23076903,12.0
4127.05128178, 4085.64102530, 4080.25640991, 4102.94871767, 4125.76923050, 4127.82051255, 4125.64102537, 4126.28205101, 4109.23076896, 4134.23076896, 4000.89743535, 4094.48717914, 4122.94871767, 4151.15384595,12.0
4104.23076896, 4058.58974318, 4066.02564061, 4082.43589709, 4121.79487152, 4114.23076896, 4111.15384588, 4105.64102537, 4110.76923050, 4133.84615357, 3995.38461483, 4083.07692273, 4108.97435870, 4147.82051262,12.0
4107.56410229, 4063.46153805, 4066.41025600, 4088.33333299, 4124.74358947, 4115.12820485, 4119.99999973, 4091.53846119, 4114.10256383, 4133.97435870, 3998.58974304, 4082.94871761, 4105.64102537, 4152.56410236,12.0
4117.69230742, 4083.07692273, 4083.07692273, 4115.12820485, 4126.66666639, 4138.97435877, 4138.20512800, 4114.23076896, 4133.84615357, 4135.89743569, 4010.64102516, 4103.20512793, 4122.56410229, 4149.23076903,12.0
4096.79487145, 4067.82051241, 4081.66666632, 4108.46153819, 4124.35897408, 4123.07692280, 4116.66666639, 4112.94871767, 4139.99999980, 4134.35897408, 4009.48717900, 4106.92307665, 4131.66666639, 4140.25641005,12.0
4116.41025614, 4049.74358933, 4074.74358940, 4089.48717914, 4125.12820485, 4094.35897402, 4093.58974325, 4094.10256376, 4128.20512793, 4132.05128178, 4002.05128150, 4092.17948684, 4124.23076896, 4142.30769210,12.0
4110.76923050, 4046.02564061, 4075.25640991, 4093.71794837, 4122.30769203, 4107.05128178, 4097.30769196, 4107.05128178, 4133.07692280, 4133.07692280, 4001.02564047, 4089.61538427, 4113.58974332, 4141.66666646,12.0
4112.43589716, 4034.10256362, 4079.99999966, 4099.61538427, 4121.92307665, 4117.69230742, 4097.43589709, 4120.51282024, 4137.43589723, 4134.87179460, 4003.58974304, 4092.69230735, 4110.51282024, 4145.76923056,12.0
4122.82051255, 4028.07692259, 4081.15384581, 4100.12820478, 4123.84615357, 4107.94871767, 4098.71794837, 4106.66666639, 4136.92307672, 4137.05128185, 4010.89743541, 4094.61538427, 4114.61538434, 4146.53846133,12.0
4107.82051255, 4038.46153805, 4082.05128171, 4103.46153819, 4123.84615357, 4112.56410229, 4104.61538434, 4095.12820478, 4140.25641005, 4131.66666639, 4017.82051234, 4097.82051248, 4122.30769203, 4143.07692287,12.0
4128.33333306, 4026.53846106, 4086.15384581, 4100.76923043, 4124.10256383, 4123.97435870, 4108.33333306, 4100.89743555, 4121.66666639, 4125.12820485, 4013.20512772, 4097.43589709, 4123.97435870, 4149.48717928,12.0
4118.84615357, 3987.82051227, 4082.82051248, 4098.07692273, 4123.97435870, 4123.33333306, 4124.74358947, 4107.69230742, 4117.30769203, 4128.71794844, 4007.69230721, 4097.30769196, 4119.35897408, 4149.35897415,12.0
4115.51282024, 3960.64102502, 4082.17948684, 4099.10256376, 4127.69230742, 4124.35897408, 4140.25641005, 4105.51282024, 4148.07692287, 4133.46153819, 4011.79487131, 4097.43589709, 4117.82051255, 4149.99999980,12.0
4126.79487152, 3968.84615322, 4085.38461504, 4102.69230742, 4128.97435870, 4141.02564082, 4134.87179460, 4110.25640998, 4155.76923056, 4131.79487152, 4019.48717900, 4100.38461504, 4123.84615357, 4148.97435877,12.0
4101.41025607, 3989.48717894, 4088.58974325, 4109.61538434, 4124.87179460, 4149.74358954, 4130.64102537, 4129.35897408, 4146.53846133, 4133.33333306, 4022.69230721, 4110.76923050, 4133.71794844, 4146.66666646,12.0
4116.92307665, 3978.84615329, 4093.07692273, 4105.76923050, 4123.20512793, 4136.41025621, 4125.38461511, 4131.79487152, 4155.89743569, 4136.53846133, 4019.35897388, 4113.84615357, 4137.43589723, 4152.43589723,12.0
4111.53846126, 3956.66666605, 4086.02564068, 4090.51282017, 4121.79487152, 4113.33333306, 4105.38461511, 4110.25640998, 4156.92307672, 4134.61538434, 4012.17948670, 4102.30769196, 4129.87179460, 4147.17948697,12.0
4100.38461504, 3965.64102502, 4088.71794837, 4091.02564068, 4125.89743562, 4117.94871767, 4105.12820485, 4099.99999966, 4156.15384595, 4135.25640998, 4013.58974311, 4101.66666632, 4125.25640998, 4146.41025621,12.0
4118.97435870, 3981.53846099, 4094.48717914, 4097.43589709, 4127.94871767, 4131.66666639, 4112.82051255, 4102.30769196, 4153.84615364, 4136.53846133, 4019.99999952, 4107.30769203, 4131.28205101, 4147.94871774,12.0
4099.35897402, 3966.92307630, 4077.69230735, 4079.10256376, 4122.43589716, 4108.33333306, 4096.15384581, 4094.48717914, 4135.89743569, 4134.99999973, 4007.56410208, 4090.89743555, 4120.25640998, 4141.79487159,12.0
4110.25640998, 3946.92307630, 4063.20512779, 4059.35897395, 4126.15384588, 4096.28205094, 4086.92307658, 4075.25640991, 4128.84615357, 4134.99999973, 3989.87179432, 4065.25640984, 4096.66666632, 4145.64102544,12.0
4114.23076896, 3951.92307630, 4066.28205087, 4060.12820472, 4127.43589716, 4112.30769203, 4099.99999966, 4073.46153812, 4134.10256383, 4134.35897408, 3990.12820458, 4064.48717907, 4102.30769196, 4143.20512800,12.0
4107.82051255, 3968.20512758, 4085.51282017, 4072.30769196, 4123.97435870, 4117.17948691, 4107.43589716, 4097.30769196, 4134.48717921, 4134.48717921, 4005.76923029, 4090.51282017, 4126.15384588, 4142.30769210,12.0
4128.33333306, 3989.10256355, 4103.84615357, 4095.89743555, 4127.82051255, 4120.89743562, 4114.99999973, 4121.66666639, 4155.38461518, 4134.61538434, 4022.17948670, 4115.51282024, 4132.94871767, 4148.71794851,12.0
4111.15384588, 4001.53846099, 4103.97435870, 4114.35897408, 4127.30769203, 4126.41025614, 4125.51282024, 4123.97435870, 4182.05128192, 4134.35897408, 4024.87179439, 4123.71794844, 4127.94871767, 4146.28205108,12.0
4123.07692280, 3998.71794817, 4101.02564068, 4111.92307665, 4125.89743562, 4129.61538434, 4116.15384588, 4116.66666639, 4171.66666653, 4134.48717921, 4019.99999952, 4118.97435870, 4132.30769203, 4147.56410236,12.0
4128.20512793, 3998.07692252, 4099.10256376, 4107.30769203, 4127.69230742, 4130.12820485, 4103.33333306, 4121.15384588, 4160.76923056, 4134.48717921, 4021.66666618, 4115.76923050, 4140.51282031, 4147.56410236,12.0
4109.35897408, 4011.92307644, 4101.66666632, 4114.10256383, 4126.66666639, 4126.66666639, 4114.61538434, 4119.87179460, 4179.61538448, 4134.48717921, 4028.71794824, 4126.02564075, 4142.82051262, 4147.43589723,12.0
4109.35897408, 4011.92307644, 4101.66666632, 4114.10256383, 4126.66666639, 4126.66666639, 4114.61538434, 4119.87179460, 4179.61538448, 4134.48717921, 4028.71794824, 4126.02564075, 4142.82051262, 4147.43589723,12.0
4124.10256383, 4013.71794824, 4103.20512793, 4108.97435870, 4125.76923050, 4121.28205101, 4119.74358947, 4104.74358947, 4166.28205108, 4134.87179460, 4021.79487131, 4121.92307665, 4134.35897408, 4148.20512800,12.0
4102.69230742, 3989.23076868, 4085.38461504, 4086.92307658, 4124.61538434, 4117.30769203, 4100.38461504, 4092.43589709, 4130.25640998, 4133.97435870, 4001.92307637, 4093.20512786, 4113.97435870, 4143.84615364,12.0
4108.07692280, 3984.74358919, 4081.28205094, 4084.74358940, 4126.15384588, 4127.94871767, 4105.64102537, 4097.82051248, 4147.43589723, 4134.61538434, 4001.41025586, 4089.10256376, 4111.92307665, 4149.23076903,12.0
4117.30769203, 4002.30769176, 4096.79487145, 4098.46153812, 4124.74358947, 4134.61538434, 4130.51282024, 4111.15384588, 4188.84615371, 4135.64102544, 4017.17948670, 4111.41025614, 4131.79487152, 4149.23076903,12.0
4092.82051248, 4004.23076875, 4096.53846119, 4094.23076889, 4124.61538434, 4127.05128178, 4116.66666639, 4101.66666632, 4173.46153833, 4132.05128178, 4015.38461490, 4109.61538434, 4128.58974332, 4145.12820492,12.0
4115.51282024, 3995.76923022, 4091.41025607, 4082.43589709, 4127.17948691, 4122.17948691, 4095.12820478, 4092.05128171, 4133.84615357, 4131.79487152, 4003.20512765, 4094.61538427, 4111.02564075, 4148.20512800,12.0
4110.38461511, 3999.23076868, 4096.92307658, 4086.41025607, 4123.71794844, 4111.79487152, 4101.53846119, 4113.07692280, 4136.92307672, 4135.51282031, 4005.76923029, 4104.23076896, 4116.66666639, 4143.58974339,12.0
4110.38461511, 3999.23076868, 4096.92307658, 4086.41025607, 4123.71794844, 4111.79487152, 4101.53846119, 4113.07692280, 4136.92307672, 4135.51282031, 4005.76923029, 4104.23076896, 4116.66666639, 4143.58974339,12.0
4110.51282024, 4017.94871747, 4108.84615357, 4099.48717914, 4124.99999973, 4111.79487152, 4105.89743562, 4127.05128178, 4171.41025628, 4133.97435870, 4017.94871747, 4123.07692280, 4131.15384588, 4143.97435877,12.0
4126.79487152, 4025.51282003, 4111.79487152, 4100.51282017, 4127.30769203, 4125.51282024, 4099.35897402, 4117.05128178, 4192.69230756, 4132.56410229, 4018.58974311, 4129.35897408, 4133.07692280, 4142.94871774,12.0
4107.43589716, 4020.51282003, 4114.87179460, 4099.35897402, 4125.64102537, 4122.05128178, 4097.69230735, 4117.17948691, 4182.69230756, 4134.87179460, 4014.10256362, 4131.15384588, 4132.05128178, 4141.92307672,12.0
4123.07692280, 4020.76923029, 4118.97435870, 4102.56410229, 4127.69230742, 4115.25640998, 4099.35897402, 4108.07692280, 4162.17948697, 4136.28205108, 4016.79487131, 4127.94871767, 4129.10256383, 4150.89743569,12.0
4121.15384588, 4022.94871747, 4105.51282024, 4096.41025607, 4125.51282024, 4116.79487152, 4096.53846119, 4078.20512786, 4157.17948697, 4133.33333306, 4019.61538413, 4117.69230742, 4122.94871767, 4147.05128185,12.0
4117.30769203, 4033.20512772, 4106.28205101, 4097.17948684, 4123.58974332, 4122.94871767, 4102.94871767, 4081.41025607, 4155.89743569, 4124.35897408, 4023.07692259, 4119.10256383, 4132.43589716, 4143.46153826,12.0
4126.79487152, 4040.64102523, 4112.30769203, 4103.07692280, 4122.30769203, 4130.51282024, 4114.99999973, 4103.84615357, 4148.46153826, 4123.20512793, 4021.28205080, 4118.58974332, 4136.28205108, 4146.53846133,12.0
4102.94871767, 4021.92307644, 4091.53846119, 4090.89743555, 4120.25640998, 4124.99999973, 4107.30769203, 4096.79487145, 4149.87179467, 4132.69230742, 4014.48717900, 4097.69230735, 4117.05128178, 4147.30769210,12.0
4121.41025614, 4008.33333285, 4081.66666632, 4077.94871761, 4124.61538434, 4117.05128178, 4099.61538427, 4090.64102530, 4156.15384595, 4134.99999973, 4014.48717900, 4090.51282017, 4113.71794844, 4150.12820492,12.0
4117.17948691, 4027.30769183, 4093.20512786, 4086.53846119, 4123.84615357, 4124.10256383, 4111.92307665, 4107.82051255, 4154.74358954, 4131.53846126, 4021.02564054, 4108.33333306, 4127.69230742, 4147.69230749,12.0
4099.35897402, 4043.46153805, 4102.05128171, 4099.10256376, 4122.43589716, 4132.94871767, 4120.89743562, 4110.89743562, 4154.23076903, 4135.25640998, 4026.28205080, 4116.28205101, 4127.82051255, 4154.10256390,12.0
4121.53846126, 4039.48717907, 4101.02564068, 4102.17948684, 4127.05128178, 4136.28205108, 4112.69230742, 4096.79487145, 4153.58974339, 4136.92307672, 4022.94871747, 4109.35897408, 4117.56410229, 4156.66666646,12.0
4103.71794844, 4032.94871747, 4094.48717914, 4097.69230735, 4123.97435870, 4125.25640998, 4094.74358940, 4093.97435863, 4139.74358954, 4133.58974332, 4015.89743541, 4103.84615357, 4116.41025614, 4143.20512800,12.0
4108.58974332, 4025.64102516, 4096.02564068, 4088.58974325, 4121.15384588, 4112.17948691, 4091.02564068, 4100.89743555, 4136.66666646, 4132.30769203, 4020.76923029, 4102.56410229, 4120.38461511, 4142.94871774,12.0
4113.71794844, 4028.71794824, 4103.07692280, 4091.28205094, 4124.74358947, 4117.94871767, 4105.64102537, 4104.99999973, 4165.89743569, 4130.38461511, 4033.20512772, 4109.99999973, 4126.28205101, 4145.12820492,12.0
4102.30769196, 4049.61538420, 4110.51282024, 4106.41025614, 4127.94871767, 4126.79487152, 4111.02564075, 4101.92307658, 4177.94871781, 4129.99999973, 4034.74358926, 4122.30769203, 4139.99999980, 4146.15384595,12.0
4122.94871767, 4067.05128164, 4121.53846126, 4117.94871767, 4125.51282024, 4132.05128178, 4111.15384588, 4106.28205101, 4158.84615364, 4131.02564075, 4030.38461490, 4133.20512793, 4147.05128185, 4149.48717928,12.0
4110.25640998, 4060.38461497, 4119.87179460, 4114.35897408, 4122.05128178, 4131.28205101, 4108.97435870, 4111.02564075, 4151.79487159, 4129.87179460, 4027.94871747, 4127.69230742, 4136.79487159, 4143.58974339,12.0
4119.35897408, 4035.76923029, 4100.76923043, 4089.99999966, 4125.12820485, 4115.64102537, 4089.99999966, 4089.23076889, 4145.38461518, 4130.25640998, 4021.02564054, 4097.43589709, 4116.79487152, 4144.99999980,12.0
4128.58974332, 4028.20512772, 4090.12820478, 4073.84615350, 4123.33333306, 4109.10256383, 4089.23076889, 4078.20512786, 4131.79487152, 4130.76923050, 4014.61538413, 4084.23076889, 4109.10256383, 4147.69230749,12.0
4109.23076896, 4041.28205087, 4099.87179453, 4082.94871761, 4120.12820485, 4123.71794844, 4113.58974332, 4094.48717914, 4134.74358947, 4130.51282024, 4016.15384567, 4098.07692273, 4114.48717921, 4149.74358954,12.0
4124.74358947, 4044.23076882, 4101.79487145, 4088.20512786, 4124.48717921, 4135.25640998, 4112.82051255, 4097.56410222, 4137.56410236, 4130.76923050, 4015.38461490, 4098.71794837, 4112.17948691, 4151.15384595,12.0
4108.58974332, 4050.12820472, 4096.92307658, 4091.79487145, 4124.35897408, 4132.05128178, 4103.33333306, 4103.46153819, 4143.58974339, 4129.35897408, 4016.41025593, 4098.33333299, 4114.48717921, 4144.23076903,12.0
4109.23076896, 4074.87179453, 4112.17948691, 4109.23076896, 4124.74358947, 4132.43589716, 4112.43589716, 4121.79487152, 4166.02564082, 4129.87179460, 4029.61538413, 4115.64102537, 4125.25640998, 4148.07692287,12.0
4120.38461511, 4068.71794830, 4112.94871767, 4104.23076896, 4125.64102537, 4124.23076896, 4102.56410229, 4103.46153819, 4162.30769210, 4132.56410229, 4031.02564054, 4112.94871767, 4121.79487152, 4149.10256390,12.0
4097.69230735, 4049.74358933, 4105.76923050, 4095.38461504, 4122.43589716, 4119.10256383, 4092.94871761, 4087.30769196, 4142.69230749, 4126.28205101, 4026.53846106, 4109.35897408, 4122.82051255, 4141.53846133,12.0
4117.69230742, 4078.07692273, 4129.48717921, 4123.58974332, 4123.33333306, 4147.56410236, 4123.07692280, 4117.17948691, 4160.89743569, 4123.71794844, 4043.58974318, 4140.64102544, 4144.74358954, 4145.51282031,12.0
4113.58974332, 4098.46153812, 4138.46153826, 4126.79487152, 4124.48717921, 4152.43589723, 4136.28205108, 4124.61538434, 4180.38461525, 4131.66666639, 4048.33333292, 4150.76923056, 4149.87179467, 4145.12820492,12.0
4109.48717921, 4071.79487145, 4121.41025614, 4094.87179453, 4124.48717921, 4125.12820485, 4113.58974332, 4103.46153819, 4165.89743569, 4135.12820485, 4029.74358926, 4121.79487152, 4132.05128178, 4144.74358954,12.0
4125.76923050, 4055.89743548, 4115.76923050, 4091.92307658, 4125.89743562, 4123.33333306, 4105.51282024, 4107.56410229, 4155.76923056, 4134.99999973, 4026.41025593, 4106.53846126, 4124.61538434, 4146.28205108,12.0
4108.07692280, 4065.89743548, 4114.10256383, 4100.25640991, 4126.02564075, 4124.23076896, 4107.69230742, 4112.43589716, 4171.28205115, 4131.41025614, 4032.56410208, 4107.30769203, 4125.51282024, 4145.25641005,12.0
4122.05128178, 4074.10256376, 4119.23076896, 4098.71794837, 4126.79487152, 4123.20512793, 4113.84615357, 4113.58974332, 4184.87179474, 4123.58974332, 4034.99999952, 4114.87179460, 4129.10256383, 4148.84615364,12.0
4122.05128178, 4086.53846119, 4135.25640998, 4112.56410229, 4123.58974332, 4147.17948697, 4136.02564082, 4139.23076903, 4182.82051269, 4126.15384588, 4043.07692266, 4137.82051262, 4139.87179467, 4145.64102544,12.0
4116.79487152, 4088.97435863, 4134.74358947, 4112.43589716, 4122.30769203, 4155.38461518, 4129.48717921, 4139.87179467, 4174.23076910, 4137.17948697, 4042.17948677, 4134.61538434, 4141.66666646, 4145.51282031,12.0
4128.84615357, 4063.58974318, 4110.64102537, 4082.82051248, 4123.58974332, 4131.15384588, 4096.92307658, 4107.17948691, 4168.71794858, 4136.41025621, 4028.58974311, 4098.97435863, 4131.15384588, 4147.43589723,12.0
4107.94871767, 4048.97435856, 4100.76923043, 4075.38461504, 4121.66666639, 4122.56410229, 4097.94871761, 4101.79487145, 4166.66666646, 4132.82051255, 4024.99999952, 4093.46153812, 4122.30769203, 4145.12820492,12.0
4124.99999973, 4072.94871761, 4119.74358947, 4097.43589709, 4125.38461511, 4138.46153826, 4118.58974332, 4113.71794844, 4166.02564082, 4136.79487159, 4033.20512772, 4120.25640998, 4122.17948691, 4149.23076903,12.0
4120.38461511, 4089.23076889, 4127.69230742, 4106.79487152, 4126.41025614, 4140.64102544, 4118.84615357, 4113.71794844, 4171.53846140, 4136.66666646, 4038.07692266, 4128.84615357, 4132.30769203, 4147.94871774,12.0
4098.84615350, 4081.28205094, 4126.79487152, 4101.92307658, 4124.23076896, 4129.48717921, 4119.48717921, 4116.28205101, 4168.46153833, 4133.84615357, 4038.46153805, 4125.51282024, 4143.84615364, 4148.58974339,12.0
4122.69230742, 4085.25640991, 4129.87179460, 4100.51282017, 4124.61538434, 4130.25640998, 4124.99999973, 4118.71794844, 4158.97435877, 4134.10256383, 4034.35897388, 4124.48717921, 4139.35897415, 4148.97435877,12.0
4106.92307665, 4092.69230735, 4125.25640998, 4100.64102530, 4122.43589716, 4132.82051255, 4108.20512793, 4104.10256383, 4155.25641005, 4130.38461511, 4032.43589695, 4118.71794844, 4129.48717921, 4142.94871774,12.0
4110.51282024, 4080.89743555, 4123.71794844, 4098.58974325, 4124.23076896, 4129.99999973, 4090.38461504, 4089.74358940, 4140.25641005, 4127.82051255, 4033.71794824, 4109.48717921, 4131.02564075, 4147.43589723,12.0
4118.71794844, 4070.64102530, 4119.23076896, 4093.71794837, 4125.12820485, 4121.53846126, 4092.43589709, 4088.71794837, 4123.46153819, 4132.43589716, 4022.94871747, 4098.71794837, 4123.20512793, 4146.15384595,12.0
4104.48717921, 4089.99999966, 4125.12820485, 4100.51282017, 4124.10256383, 4122.56410229, 4104.48717921, 4097.17948684, 4140.64102544, 4135.12820485, 4018.84615336, 4111.15384588, 4116.28205101, 4142.05128185,12.0
4124.48717921, 4097.43589709, 4138.07692287, 4107.82051255, 4124.23076896, 4136.79487159, 4111.41025614, 4105.38461511, 4159.74358954, 4130.12820485, 4036.15384567, 4131.92307665, 4133.20512793, 4144.74358954,12.0
4112.30769203, 4063.97435856, 4122.56410229, 4086.41025607, 4121.41025614, 4128.33333306, 4098.71794837, 4101.15384581, 4141.66666646, 4128.58974332, 4036.66666618, 4112.56410229, 4135.12820485, 4141.92307672,12.0
4116.28205101, 4056.15384574, 4113.07692280, 4072.82051248, 4123.33333306, 4117.30769203, 4089.48717914, 4094.10256376, 4141.92307672, 4131.92307665, 4022.69230721, 4091.53846119, 4122.69230742, 4148.20512800,12.0
4128.07692280, 4083.33333299, 4130.89743562, 4095.89743555, 4122.82051255, 4132.17948691, 4102.43589709, 4105.64102537, 4171.28205115, 4131.02564075, 4032.94871747, 4119.48717921, 4137.43589723, 4149.61538441,12.0
4108.97435870, 4090.89743555, 4138.58974339, 4112.43589716, 4119.99999973, 4141.53846133, 4110.25640998, 4118.33333306, 4174.61538448, 4127.69230742, 4046.92307651, 4141.53846133, 4150.25641005, 4145.76923056,12.0
4124.99999973, 4083.07692273, 4128.33333306, 4099.87179453, 4123.71794844, 4144.87179467, 4113.97435870, 4114.99999973, 4166.02564082, 4131.02564075, 4038.33333292, 4122.17948691, 4133.33333306, 4149.35897415,12.0
4113.46153819, 4084.35897402, 4120.25640998, 4089.74358940, 4122.82051255, 4146.02564082, 4115.64102537, 4115.64102537, 4170.64102551, 4135.64102544, 4027.69230721, 4110.51282024, 4123.97435870, 4144.35897415,12.0
4111.79487152, 4082.94871761, 4125.51282024, 4089.87179453, 4122.30769203, 4129.35897408, 4093.58974325, 4110.38461511, 4161.41025621, 4133.97435870, 4029.10256362, 4115.12820485, 4133.33333306, 4146.53846133,12.0
4124.87179460, 4084.35897402, 4127.30769203, 4089.99999966, 4123.20512793, 4114.35897408, 4080.12820478, 4093.33333299, 4148.97435877, 4131.41025614, 4033.71794824, 4114.99999973, 4134.61538434, 4149.35897415,12.0
4099.87179453, 4098.07692273, 4126.92307665, 4100.76923043, 4121.79487152, 4122.05128178, 4099.61538427, 4095.64102530, 4163.07692287, 4134.99999973, 4037.94871754, 4120.51282024, 4131.66666639, 4143.33333313,12.0
4117.05128178, 4102.82051255, 4134.74358947, 4112.69230742, 4126.02564075, 4135.89743569, 4117.30769203, 4111.15384588, 4171.28205115, 4136.92307672, 4040.76923036, 4129.87179460, 4134.99999973, 4147.05128185,12.0
4112.43589716, 4086.28205094, 4126.28205101, 4101.28205094, 4127.43589716, 4132.69230742, 4108.33333306, 4109.48717921, 4152.69230749, 4134.74358947, 4031.92307644, 4118.33333306, 4126.66666639, 4147.82051262,12.0
4112.43589716, 4086.28205094, 4126.28205101, 4101.28205094, 4127.43589716, 4132.69230742, 4108.33333306, 4109.48717921, 4152.69230749, 4134.74358947, 4031.92307644, 4118.33333306, 4126.66666639, 4147.82051262,12.0
4101.79487145, 4071.28205094, 4112.56410229, 4082.56410222, 4126.41025614, 4124.61538434, 4092.05128171, 4091.28205094, 4128.20512793, 4134.48717921, 4021.53846106, 4094.99999966, 4112.94871767, 4145.25641005,12.0
4122.82051255, 4081.53846119, 4119.23076896, 4087.56410222, 4127.43589716, 4125.76923050, 4091.79487145, 4092.69230735, 4125.64102537, 4134.10256383, 4024.48717900, 4098.33333299, 4115.51282024, 4144.10256390,12.0
4106.66666639, 4109.99999973, 4137.56410236, 4112.69230742, 4126.66666639, 4131.15384588, 4109.74358947, 4123.71794844, 4166.53846133, 4133.97435870, 4040.76923036, 4130.51282024, 4133.84615357, 4144.74358954,12.0
4119.61538434, 4124.74358947, 4152.43589723, 4127.82051255, 4126.02564075, 4141.79487159, 4125.64102537, 4139.23076903, 4203.71794865, 4136.02564082, 4056.28205087, 4151.53846133, 4150.12820492, 4148.33333313,12.0
4120.38461511, 4114.74358947, 4146.28205108, 4120.38461511, 4121.28205101, 4144.23076903, 4118.84615357, 4119.74358947, 4192.69230756, 4135.12820485, 4053.07692266, 4139.87179467, 4145.51282031, 4142.05128185,12.0
4106.92307665, 4100.89743555, 4134.61538434, 4107.94871767, 4119.23076896, 4140.89743569, 4109.87179460, 4108.58974332, 4178.71794858, 4133.97435870, 4041.41025600, 4121.66666639, 4131.02564075, 4143.46153826,12.0
4126.41025614, 4096.41025607, 4130.89743562, 4100.38461504, 4121.92307665, 4148.71794851, 4116.92307665, 4121.28205101, 4176.28205115, 4134.61538434, 4039.10256369, 4118.46153819, 4132.05128178, 4151.41025621,12.0
4111.79487152, 4095.64102530, 4124.23076896, 4090.25640991, 4121.66666639, 4150.89743569, 4119.87179460, 4120.64102537, 4167.69230749, 4134.61538434, 4038.97435856, 4115.76923050, 4134.35897408, 4149.23076903,12.0
4119.61538434, 4093.20512786, 4121.53846126, 4080.51282017, 4122.05128178, 4135.89743569, 4110.51282024, 4103.46153819, 4158.33333313, 4134.35897408, 4031.41025593, 4103.71794844, 4118.71794844, 4151.02564082,12.0
4116.92307665, 4083.84615350, 4118.46153819, 4076.79487145, 4119.61538434, 4120.38461511, 4103.84615357, 4105.25640998, 4153.58974339, 4134.48717921, 4019.48717900, 4096.41025607, 4106.79487152, 4148.07692287,12.0
4097.43589709, 4086.28205094, 4121.02564075, 4084.48717914, 4119.35897408, 4126.15384588, 4104.74358947, 4112.94871767, 4155.64102544, 4134.48717921, 4020.38461490, 4104.61538434, 4118.20512793, 4145.38461518,12.0
4121.53846126, 4106.02564075, 4135.64102544, 4103.33333306, 4124.35897408, 4146.28205108, 4111.92307665, 4108.71794844, 4169.35897422, 4134.48717921, 4039.48717907, 4124.23076896, 4134.99999973, 4149.23076903,12.0
4105.12820485, 4117.94871767, 4142.69230749, 4111.28205101, 4124.74358947, 4145.64102544, 4118.97435870, 4111.66666639, 4177.30769217, 4134.48717921, 4051.28205087, 4138.20512800, 4139.10256390, 4145.51282031,12.0
4104.61538434, 4110.25640998, 4140.25641005, 4097.05128171, 4124.10256383, 4129.87179460, 4113.84615357, 4118.33333306, 4170.12820499, 4134.48717921, 4043.97435856, 4127.69230742, 4129.35897408, 4145.76923056,12.0
4115.51282024, 4087.05128171, 4129.87179460, 4084.23076889, 4121.53846126, 4121.15384588, 4097.43589709, 4104.87179460, 4155.51282031, 4134.48717921, 4033.58974311, 4105.89743562, 4119.61538434, 4141.92307672,12.0
4100.12820478, 4072.17948684, 4119.61538434, 4079.61538427, 4122.30769203, 4121.66666639, 4090.64102530, 4091.15384581, 4140.76923056, 4134.48717921, 4024.87179439, 4096.02564068, 4123.33333306, 4139.23076903,12.0
4120.64102537, 4075.38461504, 4120.51282024, 4074.99999966, 4127.69230742, 4133.46153819, 4104.74358947, 4102.56410229, 4139.10256390, 4134.99999973, 4019.48717900, 4091.15384581, 4122.94871767, 4145.64102544,12.0
4112.94871767, 4073.20512786, 4121.41025614, 4071.53846119, 4122.94871767, 4133.07692280, 4109.61538434, 4107.30769203, 4138.07692287, 4134.10256383, 4020.51282003, 4087.17948684, 4112.94871767, 4143.58974339,12.0
4114.61538434, 4078.33333299, 4129.48717921, 4079.35897402, 4120.89743562, 4126.41025614, 4104.48717921, 4097.56410222, 4135.25640998, 4133.97435870, 4030.89743541, 4102.30769196, 4118.46153819, 4146.79487159,12.0
4130.38461511, 4105.64102537, 4147.05128185, 4100.64102530, 4124.87179460, 4145.89743569, 4117.94871767, 4110.25640998, 4155.89743569, 4136.28205108, 4042.43589702, 4131.15384588, 4142.17948697, 4149.10256390,12.0
4115.38461511, 4123.07692280, 4155.89743569, 4116.53846126, 4122.43589716, 4162.56410236, 4134.74358947, 4133.20512793, 4180.25641012, 4132.17948691, 4047.56410215, 4144.10256390, 4153.84615364, 4145.38461518,12.0
4130.25640998, 4119.87179460, 4153.33333313, 4116.92307665, 4121.28205101, 4157.30769210, 4135.38461518, 4136.79487159, 4187.94871781, 4127.69230742, 4048.07692266, 4137.43589723, 4143.07692287, 4149.74358954,12.0
4115.89743562, 4110.64102537, 4145.51282031, 4107.17948691, 4121.28205101, 4148.46153826, 4125.25640998, 4129.48717921, 4179.61538448, 4132.69230742, 4044.74358933, 4131.66666639, 4136.79487159, 4148.97435877,12.0
4109.35897408, 4117.05128178, 4153.07692287, 4114.35897408, 4122.69230742, 4147.69230749, 4118.46153819, 4127.30769203, 4168.58974345, 4135.89743569, 4046.41025600, 4142.69230749, 4145.38461518, 4149.87179467,12.0
4127.82051255, 4133.71794844, 4161.79487159, 4128.84615357, 4121.79487152, 4148.97435877, 4123.84615357, 4134.23076896, 4170.38461525, 4133.07692280, 4051.66666625, 4151.15384595, 4143.84615364, 4151.92307672,12.0
4103.20512793, 4121.28205101, 4146.79487159, 4112.94871767, 4119.23076896, 4141.02564082, 4124.48717921, 4134.61538434, 4171.41025628, 4134.35897408, 4045.25640984, 4129.61538434, 4129.61538434, 4146.79487159,12.0
4113.71794844, 4098.20512786, 4138.84615364, 4094.99999966, 4123.07692280, 4140.38461518, 4117.82051255, 4121.28205101, 4166.79487159, 4136.28205108, 4032.43589695, 4110.25640998, 4126.28205101, 4146.41025621,12.0
4112.94871767, 4101.15384581, 4141.28205108, 4097.43589709, 4122.94871767, 4141.79487159, 4121.53846126, 4119.35897408, 4166.28205108, 4133.20512793, 4027.30769183, 4114.61538434, 4127.17948691, 4143.71794851,12.0
4100.51282017, 4106.79487152, 4138.84615364, 4096.53846119, 4120.76923050, 4133.58974332, 4123.58974332, 4126.92307665, 4155.76923056, 4133.20512793, 4034.10256362, 4114.10256383, 4121.79487152, 4145.76923056,12.0
4119.61538434, 4094.48717914, 4134.87179460, 4087.30769196, 4121.92307665, 4135.12820485, 4113.58974332, 4117.94871767, 4147.05128185, 4135.89743569, 4037.43589702, 4107.82051255, 4123.58974332, 4146.92307672,12.0
4106.41025614, 4089.99999966, 4134.35897408, 4086.41025607, 4121.79487152, 4140.64102544, 4105.38461511, 4103.46153819, 4157.94871774, 4135.12820485, 4029.48717900, 4112.30769203, 4129.10256383, 4139.87179467,12.0
4120.25640998, 4096.53846119, 4136.15384595, 4086.41025607, 4125.12820485, 4134.87179460, 4105.38461511, 4102.30769196, 4156.28205108, 4134.10256383, 4024.10256362, 4111.15384588, 4127.56410229, 4145.51282031,12.0
4125.25640998, 4099.74358940, 4133.46153819, 4081.66666632, 4125.25640998, 4133.07692280, 4116.66666639, 4112.43589716, 4151.53846133, 4135.12820485, 4027.82051234, 4107.94871767, 4128.20512793, 4147.30769210,12.0
4112.05128178, 4102.43589709, 4136.66666646, 4084.10256376, 4122.30769203, 4139.35897415, 4125.64102537, 4116.28205101, 4163.33333313, 4135.38461518, 4031.41025593, 4114.61538434, 4130.25640998, 4142.30769210,12.0
4131.41025614, 4107.94871767, 4142.69230749, 4090.76923043, 4123.33333306, 4141.28205108, 4116.41025614, 4107.69230742, 4164.23076903, 4133.58974332, 4033.97435849, 4117.69230742, 4129.99999973, 4143.33333313,12.0
4115.64102537, 4122.17948691, 4144.23076903, 4100.38461504, 4123.71794844, 4142.43589723, 4117.94871767, 4118.58974332, 4154.99999980, 4133.58974332, 4037.94871754, 4129.10256383, 4139.48717928, 4146.66666646,12.0
4121.92307665, 4134.99999973, 4152.56410236, 4104.74358947, 4122.69230742, 4144.74358954, 4141.02564082, 4149.61538441, 4152.30769210, 4136.02564082, 4038.33333292, 4149.35897415, 4150.38461518, 4153.84615364,12.0
4123.84615357, 4127.69230742, 4145.12820492, 4094.10256376, 4119.23076896, 4132.56410229, 4133.33333306, 4142.05128185, 4158.84615364, 4136.15384595, 4036.79487131, 4137.69230749, 4139.99999980, 4147.56410236,12.0
4102.30769196, 4125.38461511, 4132.94871767, 4097.05128171, 4120.38461511, 4121.79487152, 4098.46153812, 4107.82051255, 4164.48717928, 4132.30769203, 4038.71794830, 4117.56410229, 4126.53846126, 4143.84615364,12.0
4126.53846126, 4142.43589723, 4145.89743569, 4116.15384588, 4124.74358947, 4134.48717921, 4099.35897402, 4109.99999973, 4152.30769210, 4131.15384588, 4040.38461497, 4134.10256383, 4135.51282031, 4150.12820492,12.0
4111.53846126, 4146.92307672, 4156.41025621, 4121.79487152, 4121.66666639, 4140.51282031, 4125.64102537, 4127.56410229, 4145.38461518, 4134.74358947, 4040.64102523, 4156.02564082, 4149.10256390, 4145.25641005,12.0
4106.02564075, 4136.02564082, 4152.30769210, 4114.10256383, 4121.79487152, 4133.71794844, 4128.20512793, 4118.46153819, 4154.74358954, 4135.64102544, 4041.79487138, 4148.07692287, 4147.82051262, 4146.41025621,12.0
4120.51282024, 4126.53846126, 4138.97435877, 4103.71794844, 4125.12820485, 4132.17948691, 4111.66666639, 4106.92307665, 4148.84615364, 4133.33333306, 4036.41025593, 4124.35897408, 4132.56410229, 4146.15384595,12.0
4102.69230742, 4119.87179460, 4129.48717921, 4095.51282017, 4123.97435870, 4126.66666639, 4107.43589716, 4105.76923050, 4132.30769203, 4134.61538434, 4030.38461490, 4113.97435870, 4125.25640998, 4142.43589723,12.0
4117.56410229, 4125.12820485, 4141.41025621, 4102.43589709, 4123.46153819, 4133.97435870, 4127.82051255, 4118.84615357, 4134.10256383, 4136.41025621, 4037.17948677, 4126.53846126, 4135.76923056, 4150.12820492,12.0
4113.71794844, 4139.87179467, 4151.15384595, 4111.15384588, 4122.30769203, 4149.10256390, 4146.92307672, 4142.05128185, 4147.05128185, 4134.48717921, 4041.79487138, 4140.12820492, 4139.23076903, 4147.05128185,12.0
4117.30769203, 4133.46153819, 4140.51282031, 4099.23076889, 4125.38461511, 4141.41025621, 4133.20512793, 4136.53846133, 4153.46153826, 4134.10256383, 4033.58974311, 4124.87179460, 4125.38461511, 4141.66666646,12.0
4132.69230742, 4107.05128178, 4122.05128178, 4085.51282017, 4128.07692280, 4122.69230742, 4106.92307665, 4117.05128178, 4157.30769210, 4134.74358947, 4025.89743541, 4100.38461504, 4117.94871767, 4143.97435877,12.0
4112.56410229, 4110.38461511, 4123.71794844, 4097.43589709, 4124.48717921, 4125.12820485, 4107.30769203, 4126.41025614, 4159.23076903, 4134.48717921, 4031.02564054, 4107.30769203, 4125.64102537, 4146.28205108,12.0
4128.07692280, 4138.84615364, 4144.23076903, 4110.89743562, 4124.99999973, 4141.41025621, 4125.64102537, 4136.28205108, 4153.07692287, 4134.35897408, 4040.38461497, 4125.25640998, 4138.20512800, 4150.12820492,12.0
4118.07692280, 4143.07692287, 4147.94871774, 4109.35897408, 4123.71794844, 4139.48717928, 4128.33333306, 4123.71794844, 4153.84615364, 4134.48717921, 4041.41025600, 4130.51282024, 4146.92307672, 4148.84615364,12.0
4106.53846126, 4133.07692280, 4143.46153826, 4110.51282024, 4122.69230742, 4135.64102544, 4121.02564075, 4123.71794844, 4153.33333313, 4134.48717921, 4041.92307651, 4136.79487159, 4145.25641005, 4151.15384595,12.0
4127.82051255, 4137.56410236, 4147.94871774, 4117.30769203, 4124.35897408, 4141.79487159, 4125.76923050, 4130.89743562, 4145.12820492, 4134.48717921, 4048.33333292, 4144.48717928, 4140.12820492, 4148.97435877,12.0
4106.15384588, 4143.97435877, 4146.28205108, 4115.89743562, 4121.92307665, 4129.87179460, 4123.97435870, 4114.61538434, 4140.64102544, 4134.48717921, 4047.82051241, 4140.25641005, 4143.07692287, 4143.33333313,12.0
4114.99999973, 4144.99999980, 4147.05128185, 4117.17948691, 4123.46153819, 4124.35897408, 4116.02564075, 4109.23076896, 4150.12820492, 4134.74358947, 4045.25640984, 4138.33333313, 4152.17948697, 4152.17948697,12.0
4114.48717921, 4151.41025621, 4154.23076903, 4129.35897408, 4124.99999973, 4145.25641005, 4126.53846126, 4127.94871767, 4161.92307672, 4134.23076896, 4051.02564061, 4150.76923056, 4154.87179467, 4150.25641005,12.0
4114.48717921, 4151.41025621, 4154.23076903, 4129.35897408, 4124.99999973, 4145.25641005, 4126.53846126, 4127.94871767, 4161.92307672, 4134.23076896, 4051.02564061, 4150.76923056, 4154.87179467, 4150.25641005,12.0
4114.48717921, 4151.41025621, 4154.23076903, 4129.35897408, 4124.99999973, 4145.25641005, 4126.53846126, 4127.94871767, 4161.92307672, 4134.23076896, 4051.02564061, 4150.76923056, 4154.87179467, 4150.25641005,12.0
4100.51282017, 4147.56410236, 4150.38461518, 4123.58974332, 4124.23076896, 4143.84615364, 4126.28205101, 4118.58974332, 4147.17948697, 4134.23076896, 4048.46153805, 4143.46153826, 4145.76923056, 4144.87179467,12.0
4120.89743562, 4134.74358947, 4142.82051262, 4107.17948691, 4123.71794844, 4128.84615357, 4113.07692280, 4104.87179460, 4128.71794844, 4135.76923056, 4042.56410215, 4128.46153819, 4142.30769210, 4147.43589723,12.0
4104.35897408, 4140.76923056, 4149.23076903, 4116.28205101, 4122.17948691, 4135.25640998, 4122.05128178, 4129.48717921, 4141.66666646, 4132.94871767, 4046.02564061, 4142.17948697, 4148.46153826, 4145.38461518,12.0
4114.99999973, 4149.10256390, 4155.12820492, 4123.33333306, 4124.99999973, 4141.02564082, 4137.17948697, 4138.46153826, 4158.20512800, 4131.02564075, 4042.82051241, 4144.74358954, 4148.58974339, 4149.23076903,12.0
4127.69230742, 4140.89743569, 4140.38461518, 4109.61538434, 4123.84615357, 4133.07692280, 4136.66666646, 4126.15384588, 4153.33333313, 4134.48717921, 4036.53846106, 4121.15384588, 4140.25641005, 4146.79487159,12.0
4112.05128178, 4140.25641005, 4139.74358954, 4116.02564075, 4122.30769203, 4142.05128185, 4139.99999980, 4144.35897415, 4162.43589723, 4134.35897408, 4045.64102523, 4124.35897408, 4142.56410236, 4143.33333313,12.0
4125.25640998, 4153.46153826, 4158.20512800, 4136.28205108, 4127.43589716, 4162.17948697, 4144.35897415, 4155.12820492, 4173.71794858, 4132.17948691, 4057.05128164, 4146.66666646, 4151.79487159, 4147.82051262,12.0
4114.99999973, 4157.69230749, 4154.10256390, 4130.51282024, 4124.87179460, 4148.84615364, 4130.25640998, 4124.48717921, 4149.35897415, 4134.74358947, 4053.71794830, 4142.69230749, 4149.35897415, 4146.66666646,12.0
4124.61538434, 4149.61538441, 4147.94871774, 4117.17948691, 4123.07692280, 4131.53846126, 4121.02564075, 4103.71794844, 4134.48717921, 4136.15384595, 4051.66666625, 4134.61538434, 4148.46153826, 4150.12820492,12.0
4129.10256383, 4138.07692287, 4146.79487159, 4111.15384588, 4124.48717921, 4132.94871767, 4121.28205101, 4110.51282024, 4139.23076903, 4134.10256383, 4049.48717907, 4134.10256383, 4149.87179467, 4150.12820492,12.0
4105.51282024, 4136.79487159, 4143.46153826, 4113.20512793, 4122.94871767, 4132.05128178, 4115.25640998, 4116.41025614, 4140.25641005, 4135.38461518, 4045.51282010, 4131.79487152, 4145.12820492, 4146.92307672,12.0
4126.41025614, 4151.53846133, 4152.30769210, 4131.79487152, 4124.87179460, 4140.25641005, 4124.87179460, 4118.97435870, 4156.02564082, 4136.66666646, 4051.53846113, 4139.87179467, 4146.41025621, 4150.25641005,12.0
4113.71794844, 4145.38461518, 4145.12820492, 4130.89743562, 4124.74358947, 4144.74358954, 4132.43589716, 4118.58974332, 4164.10256390, 4134.74358947, 4049.35897395, 4134.35897408, 4143.46153826, 4146.53846133,12.0
4107.05128178, 4119.35897408, 4124.87179460, 4098.07692273, 4123.71794844, 4120.89743562, 4108.58974332, 4108.84615357, 4124.23076896, 4134.10256383, 4033.46153798, 4100.89743555, 4126.28205101, 4146.66666646,12.0
4121.28205101, 4117.82051255, 4123.71794844, 4088.97435863, 4124.74358947, 4107.05128178, 4096.41025607, 4107.43589716, 4102.82051255, 4136.02564082, 4027.05128157, 4091.79487145, 4118.71794844, 4146.15384595,12.0
4099.99999966, 4138.46153826, 4142.17948697, 4117.69230742, 4125.64102537, 4132.30769203, 4123.84615357, 4129.35897408, 4146.66666646, 4135.38461518, 4042.56410215, 4123.07692280, 4134.87179460, 4142.56410236,12.0
4117.94871767, 4154.61538441, 4160.25641005, 4141.41025621, 4126.28205101, 4154.23076903, 4151.79487159, 4157.56410236, 4178.46153833, 4131.28205101, 4057.17948677, 4148.20512800, 4148.07692287, 4146.15384595,12.0
4117.69230742, 4160.38461518, 4157.17948697, 4138.33333313, 4122.82051255, 4148.46153826, 4146.28205108, 4158.46153826, 4165.38461518, 4131.53846126, 4051.15384574, 4141.28205108, 4148.58974339, 4139.48717928,12.0
4108.97435870, 4156.53846133, 4147.94871774, 4127.05128178, 4123.33333306, 4136.15384595, 4122.05128178, 4132.43589716, 4150.76923056, 4135.64102544, 4044.99999959, 4125.76923050, 4145.89743569, 4139.99999980,12.0
4128.20512793, 4143.58974339, 4145.64102544, 4126.41025614, 4124.87179460, 4127.05128178, 4110.89743562, 4114.10256383, 4144.48717928, 4134.74358947, 4048.33333292, 4126.15384588, 4139.35897415, 4147.69230749,12.0
4113.71794844, 4142.43589723, 4149.48717928, 4131.28205101, 4121.79487152, 4131.02564075, 4120.64102537, 4115.89743562, 4138.58974339, 4132.43589716, 4053.33333292, 4134.99999973, 4143.20512800, 4142.43589723,12.0
4124.23076896, 4144.99999980, 4149.61538441, 4122.05128178, 4123.07692280, 4145.38461518, 4131.53846126, 4117.56410229, 4137.56410236, 4133.33333306, 4051.28205087, 4132.56410229, 4147.56410236, 4143.33333313,12.0
4121.28205101, 4126.53846126, 4129.99999973, 4100.64102530, 4122.82051255, 4134.10256383, 4117.30769203, 4102.56410229, 4136.15384595, 4134.23076896, 4040.38461497, 4111.15384588, 4134.23076896, 4147.56410236,12.0
4112.17948691, 4125.38461511, 4124.99999973, 4102.05128171, 4123.07692280, 4118.71794844, 4105.76923050, 4099.10256376, 4141.41025621, 4134.23076896, 4039.99999959, 4105.38461511, 4131.02564075, 4150.89743569,12.0
4130.12820485, 4147.43589723, 4142.82051262, 4122.30769203, 4125.38461511, 4138.20512800, 4124.48717921, 4128.07692280, 4145.76923056, 4134.35897408, 4049.87179446, 4129.48717921, 4149.87179467, 4149.35897415,12.0
4105.38461511, 4144.87179467, 4141.53846133, 4118.46153819, 4122.43589716, 4137.56410236, 4130.64102537, 4137.69230749, 4143.33333313, 4134.23076896, 4048.33333292, 4135.25640998, 4155.51282031, 4143.97435877,12.0
4111.66666639, 4133.46153819, 4136.15384595, 4105.89743562, 4123.46153819, 4113.97435870, 4114.23076896, 4115.25640998, 4147.69230749, 4134.35897408, 4045.12820472, 4120.38461511, 4142.56410236, 4149.61538441,12.0
4116.28205101, 4138.07692287, 4140.51282031, 4111.92307665, 4125.89743562, 4117.82051255, 4113.84615357, 4114.87179460, 4147.82051262, 4134.23076896, 4048.20512779, 4124.61538434, 4139.61538441, 4147.94871774,12.0
4100.76923043, 4142.94871774, 4143.97435877, 4119.87179460, 4125.38461511, 4136.41025621, 4132.05128178, 4134.48717921, 4148.33333313, 4134.23076896, 4049.74358933, 4138.71794851, 4152.56410236, 4143.20512800,12.0
4122.94871767, 4147.56410236, 4144.23076903, 4118.07692280, 4124.99999973, 4141.66666646, 4134.61538434, 4137.17948697, 4153.71794851, 4134.35897408, 4053.20512779, 4130.64102537, 4158.46153826, 4145.38461518,12.0
4107.43589716, 4143.07692287, 4137.30769210, 4110.51282024, 4121.92307665, 4132.56410229, 4119.48717921, 4130.89743562, 4147.94871774, 4134.10256383, 4049.23076882, 4118.33333306, 4145.64102544, 4142.56410236,12.0
4110.76923050, 4133.58974332, 4139.10256390, 4109.48717921, 4124.10256383, 4134.10256383, 4119.48717921, 4129.74358947, 4140.89743569, 4134.48717921, 4041.79487138, 4124.74358947, 4140.76923056, 4142.82051262,12.0
4124.35897408, 4136.02564082, 4142.17948697, 4112.82051255, 4125.25640998, 4138.97435877, 4129.74358947, 4126.92307665, 4149.48717928, 4134.61538434, 4048.20512779, 4127.17948691, 4147.17948697, 4141.28205108,12.0
4107.82051255, 4130.89743562, 4133.84615357, 4103.71794844, 4122.69230742, 4127.05128178, 4121.53846126, 4115.25640998, 4139.61538441, 4134.48717921, 4055.12820472, 4115.76923050, 4142.17948697, 4143.97435877,12.0
4124.23076896, 4124.87179460, 4132.30769203, 4098.71794837, 4123.07692280, 4123.71794844, 4113.07692280, 4103.71794844, 4117.94871767, 4135.12820485, 4050.51282010, 4114.23076896, 4138.71794851, 4151.15384595,12.0
4118.71794844, 4141.15384595, 4139.10256390, 4110.64102537, 4121.66666639, 4127.82051255, 4119.87179460, 4109.99999973, 4123.84615357, 4135.51282031, 4048.58974318, 4125.64102537, 4143.97435877, 4147.05128185,12.0
4121.66666639, 4138.20512800, 4136.28205108, 4106.15384588, 4123.58974332, 4114.99999973, 4108.33333306, 4114.87179460, 4123.84615357, 4134.99999973, 4050.38461497, 4117.56410229, 4138.46153826, 4149.61538441,12.0
4129.23076896, 4120.51282024, 4125.64102537, 4094.23076889, 4122.82051255, 4106.28205101, 4099.87179453, 4114.48717921, 4124.74358947, 4135.64102544, 4046.41025600, 4105.38461511, 4134.99999973, 4151.53846133,12.0
4106.92307665, 4144.10256390, 4136.41025621, 4114.74358947, 4119.10256383, 4121.92307665, 4129.10256383, 4131.79487152, 4145.89743569, 4135.12820485, 4047.43589702, 4125.12820485, 4142.82051262, 4148.58974339,12.0
4124.61538434, 4158.71794851, 4149.74358954, 4123.07692280, 4123.97435870, 4130.64102537, 4133.71794844, 4130.51282024, 4141.15384595, 4134.61538434, 4052.82051241, 4135.12820485, 4137.82051262, 4150.12820492,12.0
4112.94871767, 4122.05128178, 4131.28205101, 4099.99999966, 4125.89743562, 4112.05128178, 4094.87179453, 4105.12820485, 4112.30769203, 4133.97435870, 4048.33333292, 4110.38461511, 4127.82051255, 4146.41025621,12.0
4104.61538434, 4119.99999973, 4127.69230742, 4103.33333306, 4123.33333306, 4111.41025614, 4099.87179453, 4115.76923050, 4122.17948691, 4131.02564075, 4045.64102523, 4107.43589716, 4136.92307672, 4148.58974339,12.0
4123.46153819, 4154.35897415, 4146.66666646, 4121.02564075, 4124.74358947, 4132.94871767, 4136.15384595, 4143.58974339, 4158.20512800, 4131.79487152, 4052.56410215, 4132.82051255, 4150.12820492, 4147.82051262,12.0
4101.15384581, 4152.30769210, 4147.17948697, 4120.76923050, 4125.76923050, 4128.46153819, 4129.35897408, 4138.71794851, 4159.99999980, 4133.20512793, 4056.02564061, 4137.43589723, 4148.20512800, 4139.87179467,12.0
4111.92307665, 4137.56410236, 4143.84615364, 4122.56410229, 4126.28205101, 4118.97435870, 4118.07692280, 4129.87179460, 4141.53846133, 4133.07692280, 4054.61538420, 4128.07692280, 4144.99999980, 4144.87179467,12.0
4113.71794844, 4134.61538434, 4139.87179467, 4119.10256383, 4124.35897408, 4118.33333306, 4125.76923050, 4131.02564075, 4133.46153819, 4133.33333306, 4049.48717907, 4121.15384588, 4139.10256390, 4145.64102544,12.0
4109.10256383, 4123.71794844, 4132.30769203, 4100.76923043, 4124.23076896, 4109.35897408, 4113.07692280, 4119.23076896, 4129.35897408, 4132.82051255, 4044.87179446, 4111.41025614, 4130.25640998, 4145.51282031,12.0
4128.97435870, 4116.28205101, 4130.25640998, 4094.10256376, 4124.74358947, 4112.94871767, 4108.33333306, 4122.17948691, 4121.79487152, 4132.43589716, 4045.89743548, 4106.66666639, 4128.20512793, 4147.30769210,12.0
4111.15384588, 4121.53846126, 4126.02564075, 4097.30769196, 4121.53846126, 4123.07692280, 4124.23076896, 4142.69230749, 4120.64102537, 4134.48717921, 4041.92307651, 4102.43589709, 4125.51282024, 4143.33333313,12.0
4122.82051255, 4132.56410229, 4129.23076896, 4099.99999966, 4123.71794844, 4123.71794844, 4126.66666639, 4140.64102544, 4137.17948697, 4135.25640998, 4039.99999959, 4102.69230742, 4129.87179460, 4148.84615364,12.0
4123.84615357, 4146.79487159, 4141.41025621, 4113.20512793, 4122.17948691, 4125.51282024, 4127.69230742, 4132.05128178, 4160.51282031, 4134.23076896, 4052.43589702, 4122.94871767, 4142.94871774, 4148.07692287,12.0
4108.84615357, 4154.61538441, 4150.89743569, 4131.66666639, 4119.74358947, 4128.71794844, 4133.58974332, 4138.84615364, 4160.12820492, 4137.43589723, 4063.97435856, 4142.43589723, 4147.69230749, 4143.97435877,12.0
4127.17948691, 4144.74358954, 4151.41025621, 4136.66666646, 4122.56410229, 4127.69230742, 4129.74358947, 4141.53846133, 4141.28205108, 4138.71794851, 4062.05128164, 4139.74358954, 4145.64102544, 4148.07692287,12.0
4106.79487152, 4135.12820485, 4143.84615364, 4125.38461511, 4119.61538434, 4116.53846126, 4124.48717921, 4130.12820485, 4139.87179467, 4137.05128185, 4057.05128164, 4132.43589716, 4148.33333313, 4149.35897415,12.0
4112.56410229, 4144.99999980, 4149.35897415, 4126.15384588, 4119.48717921, 4117.94871767, 4128.84615357, 4128.20512793, 4153.33333313, 4137.82051262, 4063.97435856, 4141.79487159, 4150.89743569, 4150.51282031,12.0
4120.89743562, 4160.51282031, 4159.99999980, 4146.53846133, 4121.79487152, 4134.61538434, 4133.07692280, 4142.30769210, 4161.28205108, 4137.82051262, 4070.38461504, 4156.53846133, 4151.53846133, 4143.84615364,12.0
4098.71794837, 4153.84615364, 4155.12820492, 4144.99999980, 4120.51282024, 4128.97435870, 4121.66666639, 4140.51282031, 4153.58974339, 4137.56410236, 4061.28205087, 4149.74358954, 4152.43589723, 4142.82051262,12.0
4117.17948691, 4131.28205101, 4143.20512800, 4118.71794844, 4119.48717921, 4111.02564075, 4107.05128178, 4129.61538434, 4141.79487159, 4137.56410236, 4047.05128164, 4128.97435870, 4144.35897415, 4148.33333313,12.0
4111.53846126, 4126.79487152, 4139.35897415, 4111.92307665, 4119.61538434, 4109.99999973, 4102.17948684, 4128.71794844, 4138.33333313, 4137.56410236, 4040.76923036, 4124.23076896, 4131.66666639, 4142.30769210,12.0
4114.74358947, 4130.25640998, 4142.05128185, 4119.35897408, 4123.84615357, 4114.87179460, 4103.46153819, 4118.46153819, 4119.87179460, 4137.56410236, 4040.25640984, 4122.94871767, 4126.02564075, 4143.33333313,12.0
4122.69230742, 4116.41025614, 4136.41025621, 4111.79487152, 4124.48717921, 4109.74358947, 4109.61538434, 4107.43589716, 4099.10256376, 4137.56410236, 4035.64102516, 4110.51282024, 4121.41025614, 4146.92307672,12.0
4105.38461511, 4112.05128178, 4137.05128185, 4110.64102537, 4122.05128178, 4116.02564075, 4124.99999973, 4121.66666639, 4121.66666639, 4137.56410236, 4036.28205080, 4114.99999973, 4123.33333306, 4144.48717928,12.0
4126.02564075, 4123.20512793, 4142.30769210, 4118.97435870, 4123.84615357, 4134.48717921, 4131.28205101, 4124.74358947, 4150.64102544, 4137.56410236, 4042.30769189, 4126.02564075, 4129.35897408, 4144.74358954,12.0
4118.07692280, 4120.51282024, 4132.94871767, 4112.82051255, 4123.97435870, 4126.66666639, 4117.82051255, 4110.64102537, 4123.58974332, 4137.56410236, 4040.76923036, 4116.02564075, 4129.10256383, 4142.30769210,12.0
4117.82051255, 4123.20512793, 4139.87179467, 4116.28205101, 4125.38461511, 4119.35897408, 4126.41025614, 4129.23076896, 4110.64102537, 4137.56410236, 4042.69230728, 4116.79487152, 4134.10256383, 4147.56410236,12.0
4131.53846126, 4139.23076903, 4152.56410236, 4134.48717921, 4123.97435870, 4136.79487159, 4145.89743569, 4153.07692287, 4148.07692287, 4137.56410236, 4054.10256369, 4137.17948697, 4143.46153826, 4149.74358954,12.0
4107.17948691, 4141.66666646, 4143.84615364, 4131.79487152, 4120.51282024, 4133.33333306, 4127.69230742, 4135.25640998, 4157.17948697, 4137.56410236, 4056.79487138, 4139.23076903, 4138.71794851, 4143.07692287,12.0
4125.25640998, 4145.76923056, 4141.92307672, 4122.82051255, 4123.97435870, 4114.48717921, 4109.99999973, 4115.76923050, 4128.20512793, 4137.56410236, 4048.58974318, 4130.38461511, 4129.48717921, 4146.28205108,12.0
4118.58974332, 4157.82051262, 4144.61538441, 4132.30769203, 4123.58974332, 4114.87179460, 4122.94871767, 4129.61538434, 4120.38461511, 4137.56410236, 4044.35897395, 4133.58974332, 4133.97435870, 4146.79487159,12.0
4103.46153819, 4143.20512800, 4135.38461518, 4129.35897408, 4122.05128178, 4117.05128178, 4123.58974332, 4133.97435870, 4130.38461511, 4137.56410236, 4046.02564061, 4129.99999973, 4134.48717921, 4147.94871774,12.0
4122.05128178, 4120.51282024, 4124.23076896, 4108.07692280, 4123.20512793, 4112.17948691, 4105.76923050, 4114.99999973, 4122.94871767, 4137.56410236, 4046.15384574, 4116.02564075, 4125.12820485, 4146.66666646,12.0
4102.69230742, 4135.51282031, 4124.35897408, 4109.48717921, 4122.30769203, 4115.25640998, 4110.76923050, 4117.43589716, 4116.92307665, 4137.56410236, 4044.74358933, 4116.53846126, 4126.66666639, 4140.38461518,12.0
4111.92307665, 4158.58974339, 4137.82051262, 4129.87179460, 4123.58974332, 4129.35897408, 4135.76923056, 4138.20512800, 4129.35897408, 4137.94871774, 4046.79487138, 4129.61538434, 4132.30769203, 4145.64102544,12.0
4113.07692280, 4148.84615364, 4140.51282031, 4135.64102544, 4122.05128178, 4139.35897415, 4145.64102544, 4140.89743569, 4135.76923056, 4137.82051262, 4052.05128164, 4137.05128185, 4130.25640998, 4142.69230749,12.0
4103.97435870, 4139.74358954, 4138.71794851, 4130.38461511, 4121.66666639, 4131.53846126, 4137.05128185, 4128.97435870, 4127.94871767, 4136.79487159, 4054.99999959, 4137.69230749, 4133.58974332, 4139.23076903,12.0
