AF3,F7,F3,FC5,T7,P7,O1,O2,P8,T8,FC6,F4,F8,AF4,Label
4123.20512793, 4346.02564124, 4228.20512814, 4305.89743604, 4130.25640998, 4170.51282038, 4150.25641005, 4118.84615357, 4126.15384588, 4134.23076896, 4192.43589730, 4217.43589737, 4163.84615364, 4144.87179467,12.0
4125.38461511, 4319.87179501, 4215.89743583, 4285.89743597, 4128.07692280, 4158.84615364, 4141.53846133, 4109.35897408, 4122.17948691, 4134.23076896, 4183.46153833, 4200.51282038, 4151.28205108, 4149.61538441,12.0
4120.64102537, 4292.05128212, 4201.79487173, 4262.69230770, 4125.76923050, 4161.66666646, 4133.20512793, 4113.07692280, 4118.84615357, 4134.23076896, 4174.48717935, 4185.51282038, 4151.53846133, 4147.30769210,12.0
4124.10256383, 4291.15384623, 4200.25641012, 4268.97435905, 4130.12820485, 4171.66666653, 4141.15384595, 4118.97435870, 4124.48717921, 4134.23076896, 4177.17948704, 4180.51282038, 4152.17948697, 4146.41025621,12.0
4120.76923050, 4300.76923091, 4202.56410250, 4277.56410264, 4133.71794844, 4166.79487159, 4151.02564082, 4119.99999973, 4129.61538434, 4134.23076896, 4178.58974345, 4177.82051269, 4147.30769210, 4147.43589723,12.0
4120.25640998, 4295.51282059, 4202.82051275, 4268.46153853, 4131.53846126, 4162.05128185, 4148.97435877, 4124.23076896, 4134.87179460, 4134.23076896, 4173.58974345, 4178.97435884, 4152.17948697, 4146.28205108,12.0
4124.23076896, 4275.25641033, 4203.33333327, 4256.28205129, 4130.12820485, 4164.87179467, 4149.74358954, 4131.92307665, 4142.69230749, 4134.23076896, 4176.15384602, 4181.15384602, 4155.76923056, 4146.66666646,12.0
4119.87179460, 4260.51282052, 4197.94871781, 4254.74358975, 4130.38461511, 4163.71794851, 4157.82051262, 4143.33333313, 4148.46153826, 4134.23076896, 4179.87179474, 4172.56410243, 4152.30769210, 4147.30769210,12.0
4122.69230742, 4270.12820520, 4190.89743576, 4253.84615385, 4128.97435870, 4163.20512800, 4151.92307672, 4141.41025621, 4139.48717928, 4134.23076896, 4171.15384602, 4162.05128185, 4148.84615364, 4145.12820492,12.0
4119.99999973, 4273.07692315, 4187.17948704, 4248.46153847, 4127.82051255, 4167.56410236, 4139.35897415, 4125.64102537, 4127.94871767, 4134.23076896, 4164.74358954, 4158.71794851, 4144.35897415, 4141.79487159,12.0
4121.15384588, 4247.30769231, 4183.84615371, 4247.17948718, 4129.87179460, 4169.10256397, 4142.56410236, 4117.69230742, 4123.97435870, 4134.23076896, 4166.53846133, 4155.12820492, 4139.48717928, 4144.61538441,12.0
4128.33333306, 4241.79487180, 4180.38461525, 4249.61538462, 4132.69230742, 4169.23076910, 4151.15384595, 4115.25640998, 4114.10256383, 4134.23076896, 4164.74358954, 4150.25641005, 4136.92307672, 4146.92307672,12.0
4122.56410229, 4246.28205129, 4179.23076910, 4242.17948718, 4130.64102537, 4170.89743576, 4147.30769210, 4107.05128178, 4106.28205101, 4134.23076896, 4164.10256390, 4150.51282031, 4136.92307672, 4146.02564082,12.0
4126.02564075, 4227.69230763, 4179.61538448, 4233.97435898, 4128.07692280, 4154.87179467, 4135.38461518, 4096.28205094, 4100.51282017, 4134.23076896, 4168.33333320, 4149.87179467, 4139.87179467, 4146.15384595,12.0
4124.74358947, 4219.23076917, 4179.48717935, 4237.82051282, 4130.38461511, 4141.28205108, 4134.74358947, 4097.43589709, 4092.69230735, 4134.23076896, 4164.87179467, 4145.89743569, 4141.79487159, 4143.46153826,12.0
4120.25640998, 4206.41025634, 4173.58974345, 4226.28205122, 4130.51282024, 4152.17948697, 4134.99999973, 4101.15384581, 4094.74358940, 4134.23076896, 4157.43589723, 4138.46153826, 4134.87179460, 4144.74358954,12.0
4124.74358947, 4182.17948704, 4161.79487159, 4205.12820506, 4130.12820485, 4154.35897415, 4122.82051255, 4097.30769196, 4102.69230742, 4134.23076896, 4158.33333313, 4126.15384588, 4129.74358947, 4149.87179467,12.0
4119.48717921, 4193.97435884, 4162.17948697, 4216.53846147, 4131.53846126, 4149.61538441, 4125.76923050, 4110.25640998, 4110.89743562, 4134.23076896, 4165.89743569, 4126.28205101, 4136.53846133, 4148.20512800,12.0
4121.92307665, 4214.74358968, 4177.94871781, 4240.51282052, 4130.51282024, 4153.46153826, 4140.38461518, 4129.61538434, 4124.48717921, 4134.23076896, 4171.92307679, 4144.10256390, 4141.41025621, 4146.79487159,12.0
4120.76923050, 4203.71794865, 4185.12820499, 4236.41025641, 4130.76923050, 4150.12820492, 4130.25640998, 4124.99999973, 4127.94871767, 4134.23076896, 4172.05128192, 4157.94871774, 4139.74358954, 4147.05128185,12.0
4115.38461511, 4191.02564089, 4179.10256397, 4225.25641019, 4131.02564075, 4135.51282031, 4112.56410229, 4107.56410229, 4112.43589716, 4134.23076896, 4172.17948704, 4153.84615364, 4140.51282031, 4146.28205108,12.0
4123.58974332, 4196.28205115, 4180.51282038, 4228.58974352, 4129.10256383, 4135.12820485, 4119.74358947, 4107.30769203, 4102.82051255, 4134.23076896, 4171.53846140, 4144.61538441, 4141.53846133, 4147.56410236,12.0
4126.02564075, 4199.99999986, 4189.10256397, 4241.79487180, 4130.89743562, 4147.05128185, 4130.76923050, 4116.79487152, 4108.33333306, 4134.23076896, 4169.74358961, 4151.41025621, 4140.51282031, 4148.33333313,12.0
4128.46153819, 4203.07692301, 4195.12820499, 4259.61538462, 4131.53846126, 4153.58974339, 4131.79487152, 4110.76923050, 4114.74358947, 4134.23076896, 4177.69230756, 4171.41025628, 4144.99999980, 4145.12820492,12.0
4126.53846126, 4182.82051269, 4178.46153833, 4217.05128199, 4127.94871767, 4140.89743569, 4126.41025614, 4099.61538427, 4096.41025607, 4134.23076896, 4171.53846140, 4152.82051262, 4140.25641005, 4142.17948697,12.0
4121.41025614, 4159.48717928, 4158.46153826, 4163.71794851, 4128.07692280, 4131.28205101, 4126.28205101, 4103.20512793, 4081.41025607, 4134.23076896, 4149.99999980, 4117.82051255, 4129.23076896, 4144.99999980,12.0
4128.20512793, 4180.38461525, 4171.66666653, 4223.33333327, 4131.15384588, 4151.79487159, 4138.84615364, 4111.53846126, 4111.92307665, 4134.23076896, 4157.82051262, 4135.38461518, 4136.41025621, 4148.46153826,12.0
4123.84615357, 4202.30769224, 4187.30769217, 4310.00000014, 4130.25640998, 4156.41025621, 4132.56410229, 4107.17948691, 4131.92307665, 4134.23076896, 4175.89743576, 4164.61538441, 4142.43589723, 4146.28205108,12.0
4123.07692280, 4193.33333320, 4177.82051269, 4302.69230784, 4128.33333306, 4137.43589723, 4113.58974332, 4098.58974325, 4108.46153819, 4134.23076896, 4154.23076903, 4148.33333313, 4129.61538434, 4147.05128185,12.0
4126.92307665, 4190.12820499, 4164.61538441, 4289.48717956, 4130.25640998, 4138.07692287, 4115.51282024, 4101.15384581, 4099.35897402, 4134.23076896, 4126.92307665, 4127.56410229, 4119.99999973, 4149.35897415,12.0
4121.15384588, 4202.05128199, 4170.89743576, 4340.64102585, 4130.38461511, 4145.64102544, 4128.71794844, 4112.17948691, 4112.94871767, 4134.23076896, 4131.02564075, 4140.51282031, 4121.15384588, 4147.30769210,12.0
4124.99999973, 4205.38461532, 4177.05128192, 4353.07692329, 4129.23076896, 4143.20512800, 4132.30769203, 4120.12820485, 4112.94871767, 4134.23076896, 4128.20512793, 4147.82051262, 4122.05128178, 4147.82051262,12.0
4122.69230742, 4189.48717935, 4164.61538441, 4311.15384630, 4132.17948691, 4145.51282031, 4127.05128178, 4120.76923050, 4107.17948691, 4134.23076896, 4111.15384588, 4129.87179460, 4114.74358947, 4148.58974339,12.0
4120.76923050, 4174.74358961, 4154.10256390, 4302.30769245, 4130.76923050, 4146.02564082, 4111.53846126, 4112.69230742, 4102.69230742, 4134.23076896, 4107.30769203, 4115.25640998, 4103.46153819, 4149.10256390,12.0
4123.97435870, 4175.12820499, 4158.97435877, 4320.76923091, 4125.76923050, 4136.02564082, 4101.79487145, 4102.69230742, 4092.05128171, 4134.23076896, 4110.64102537, 4117.43589716, 4102.43589709, 4148.20512800,12.0
4118.71794844, 4181.15384602, 4162.17948697, 4316.66666681, 4128.33333306, 4134.87179460, 4114.23076896, 4100.51282017, 4085.38461504, 4134.23076896, 4115.51282024, 4120.12820485, 4108.97435870, 4143.20512800,12.0
4122.69230742, 4164.23076903, 4144.61538441, 4290.64102571, 4133.71794844, 4139.61538441, 4120.76923050, 4097.69230735, 4081.79487145, 4134.23076896, 4106.79487152, 4096.28205094, 4100.51282017, 4141.79487159,12.0
4121.79487152, 4144.99999980, 4128.58974332, 4263.84615385, 4133.33333306, 4139.74358954, 4115.25640998, 4091.79487145, 4078.33333299, 4134.23076896, 4081.66666632, 4067.56410215, 4081.79487145, 4142.82051262,12.0
4121.41025614, 4153.84615364, 4134.23076896, 4252.17948718, 4129.48717921, 4139.35897415, 4109.35897408, 4083.84615350, 4074.87179453, 4134.23076896, 4084.23076889, 4071.41025607, 4084.61538427, 4144.87179467,12.0
4129.48717921, 4151.28205108, 4142.82051262, 4252.17948718, 4129.87179460, 4125.76923050, 4100.64102530, 4074.99999966, 4073.71794837, 4134.23076896, 4116.53846126, 4088.71794837, 4099.48717914, 4147.30769210,12.0
4124.48717921, 4117.82051255, 4138.20512800, 4227.82051275, 4131.28205101, 4115.38461511, 4097.05128171, 4078.46153812, 4081.79487145, 4134.23076896, 4131.15384588, 4086.92307658, 4105.25640998, 4146.02564082,12.0
4126.66666639, 4106.41025614, 4141.15384595, 4192.30769217, 4128.58974332, 4131.66666639, 4103.07692280, 4089.35897402, 4092.69230735, 4134.23076896, 4139.99999980, 4088.20512786, 4116.15384588, 4147.05128185,12.0
4126.53846126, 4121.66666639, 4148.71794851, 4175.25641012, 4128.84615357, 4135.76923056, 4109.10256383, 4093.97435863, 4098.46153812, 4134.23076896, 4156.79487159, 4100.76923043, 4128.71794844, 4148.46153826,12.0
4121.02564075, 4097.82051248, 4128.84615357, 4147.94871774, 4130.64102537, 4112.43589716, 4092.94871761, 4087.17948684, 4091.79487145, 4134.23076896, 4148.58974339, 4083.07692273, 4122.30769203, 4147.69230749,12.0
4124.61538434, 4078.71794837, 4111.41025614, 4127.69230742, 4129.99999973, 4107.17948691, 4085.89743555, 4083.46153812, 4084.74358940, 4134.23076896, 4135.89743569, 4059.87179446, 4112.56410229, 4146.92307672,12.0
4120.64102537, 4112.30769203, 4126.66666639, 4147.05128185, 4128.71794844, 4120.64102537, 4119.10256383, 4101.66666632, 4098.46153812, 4134.23076896, 4145.89743569, 4076.02564068, 4123.46153819, 4144.87179467,12.0
4121.92307665, 4099.48717914, 4128.33333306, 4150.89743569, 4127.94871767, 4117.30769203, 4123.07692280, 4105.51282024, 4099.10256376, 4134.23076896, 4145.12820492, 4079.48717914, 4127.56410229, 4146.02564082,12.0
4121.92307665, 4055.64102523, 4108.58974332, 4128.20512793, 4128.84615357, 4113.07692280, 4092.17948684, 4095.12820478, 4082.82051248, 4134.23076896, 4133.84615357, 4055.51282010, 4114.99999973, 4148.33333313,12.0
4117.94871767, 4079.87179453, 4109.48717921, 4128.46153819, 4129.23076896, 4126.02564075, 4105.64102537, 4114.10256383, 4089.74358940, 4134.23076896, 4136.02564082, 4055.64102523, 4110.25640998, 4146.02564082,12.0
4124.10256383, 4109.23076896, 4121.28205101, 4137.05128185, 4130.25640998, 4124.23076896, 4125.12820485, 4124.99999973, 4103.33333306, 4134.23076896, 4144.48717928, 4065.89743548, 4105.25640998, 4141.79487159,12.0
4120.12820485, 4084.61538427, 4119.74358947, 4139.61538441, 4130.25640998, 4110.64102537, 4101.92307658, 4105.38461511, 4103.20512793, 4134.23076896, 4146.92307672, 4063.20512779, 4109.99999973, 4143.71794851,12.0
4120.12820485, 4084.61538427, 4119.74358947, 4139.61538441, 4130.25640998, 4110.64102537, 4101.92307658, 4105.38461511, 4103.20512793, 4134.23076896, 4146.92307672, 4063.20512779, 4109.99999973, 4143.71794851,12.0
4122.05128178, 4092.43589709, 4121.92307665, 4150.76923056, 4128.71794844, 4110.51282024, 4103.84615357, 4100.76923043, 4097.05128171, 4134.23076896, 4142.17948697, 4069.99999966, 4123.84615357, 4150.38461518,12.0
4123.58974332, 4113.58974332, 4124.87179460, 4140.38461518, 4129.87179460, 4117.30769203, 4126.41025614, 4112.05128178, 4089.61538427, 4134.23076896, 4134.99999973, 4075.12820478, 4111.66666639, 4149.48717928,12.0
4117.56410229, 4090.38461504, 4116.02564075, 4116.92307665, 4130.25640998, 4117.05128178, 4111.53846126, 4106.66666639, 4085.76923043, 4134.23076896, 4134.23076896, 4061.41025600, 4102.05128171, 4146.41025621,12.0
4128.20512793, 4091.41025607, 4118.58974332, 4130.64102537, 4128.71794844, 4113.33333306, 4103.07692280, 4095.12820478, 4091.53846119, 4134.23076896, 4140.64102544, 4063.84615343, 4125.64102537, 4147.94871774,12.0
4125.12820485, 4119.10256383, 4129.23076896, 4156.92307672, 4129.10256383, 4115.38461511, 4120.64102537, 4105.89743562, 4097.43589709, 4134.23076896, 4146.15384595, 4081.79487145, 4132.17948691, 4147.30769210,12.0
4121.15384588, 4124.99999973, 4128.33333306, 4151.92307672, 4129.99999973, 4121.92307665, 4116.41025614, 4118.84615357, 4097.30769196, 4134.23076896, 4153.97435877, 4080.25640991, 4106.92307665, 4146.92307672,12.0
4131.02564075, 4126.66666639, 4130.76923050, 4140.76923056, 4131.15384588, 4122.17948691, 4117.69230742, 4119.61538434, 4105.38461511, 4134.23076896, 4158.33333313, 4078.58974325, 4103.71794844, 4148.84615364,12.0
4122.30769203, 4128.46153819, 4142.43589723, 4147.05128185, 4131.15384588, 4116.53846126, 4144.35897415, 4127.43589716, 4116.92307665, 4134.23076896, 4140.38461518, 4093.46153812, 4135.25640998, 4148.33333313,12.0
4124.35897408, 4110.12820485, 4137.69230749, 4155.89743569, 4128.71794844, 4116.53846126, 4134.48717921, 4121.41025614, 4105.51282024, 4134.23076896, 4129.61538434, 4084.99999966, 4141.15384595, 4146.66666646,12.0
4126.66666639, 4121.92307665, 4124.35897408, 4170.38461525, 4127.69230742, 4120.76923050, 4105.38461511, 4095.25640991, 4084.35897402, 4134.23076896, 4156.15384595, 4066.53846113, 4109.35897408, 4147.56410236,12.0
4119.61538434, 4152.17948697, 4130.25640998, 4182.43589730, 4127.94871767, 4123.97435870, 4117.43589716, 4088.58974325, 4087.69230735, 4134.23076896, 4175.12820499, 4078.97435863, 4102.82051255, 4150.12820492,12.0
4126.53846126, 4140.89743569, 4134.87179460, 4172.43589730, 4130.64102537, 4111.66666639, 4132.30769203, 4103.58974332, 4098.07692273, 4134.23076896, 4161.53846133, 4086.02564068, 4126.92307665, 4148.07692287,12.0
4119.99999973, 4132.56410229, 4122.05128178, 4160.76923056, 4131.02564075, 4082.94871761, 4109.23076896, 4098.84615350, 4082.30769196, 4134.23076896, 4159.23076903, 4065.51282010, 4132.05128178, 4145.12820492,12.0
4123.84615357, 4140.12820492, 4114.10256383, 4169.48717935, 4129.74358947, 4076.02564068, 4072.56410222, 4066.15384574, 4065.12820472, 4134.23076896, 4168.84615371, 4050.89743548, 4130.64102537, 4145.12820492,12.0
4130.76923050, 4138.58974339, 4120.64102537, 4185.25641012, 4131.15384588, 4093.58974325, 4067.94871754, 4061.02564061, 4078.58974325, 4134.23076896, 4159.61538441, 4062.30769189, 4148.97435877, 4143.58974339,12.0
4119.87179460, 4152.43589723, 4140.76923056, 4212.69230763, 4130.89743562, 4115.64102537, 4121.53846126, 4104.99999973, 4117.30769203, 4134.23076896, 4172.82051269, 4094.74358940, 4159.23076903, 4144.87179467,12.0
4126.92307665, 4184.61538448, 4161.28205108, 4247.17948718, 4131.92307665, 4137.43589723, 4169.99999986, 4142.82051262, 4143.20512800, 4134.23076896, 4204.61538455, 4121.66666639, 4160.12820492, 4144.87179467,12.0
4123.33333306, 4212.17948711, 4159.61538441, 4249.48717949, 4132.17948691, 4133.07692280, 4143.46153826, 4134.99999973, 4132.05128178, 4134.35897408, 4200.89743576, 4119.23076896, 4166.79487159, 4145.38461518,12.0
4123.84615357, 4215.89743583, 4156.41025621, 4240.12820513, 4129.10256383, 4101.15384581, 4115.76923050, 4112.82051255, 4120.25640998, 4134.23076896, 4193.07692294, 4114.87179460, 4181.79487166, 4146.92307672,12.0
4130.25640998, 4179.61538448, 4154.23076903, 4245.12820513, 4129.35897408, 4092.43589709, 4124.99999973, 4106.41025614, 4114.87179460, 4134.61538434, 4199.48717935, 4110.25640998, 4190.89743576, 4144.10256390,12.0
4121.92307665, 4152.30769210, 4137.30769210, 4244.87179488, 4128.46153819, 4108.97435870, 4123.07692280, 4109.87179460, 4100.25640991, 4134.61538434, 4190.51282038, 4088.33333299, 4177.69230756, 4146.41025621,12.0
4132.56410229, 4178.33333320, 4136.79487159, 4243.46153847, 4129.87179460, 4117.43589716, 4125.89743562, 4112.69230742, 4103.20512793, 4134.74358947, 4184.61538448, 4085.38461504, 4176.02564089, 4146.53846133,12.0
4124.35897408, 4177.56410243, 4140.64102544, 4242.43589744, 4130.89743562, 4111.53846126, 4131.41025614, 4108.71794844, 4106.92307665, 4136.79487159, 4192.05128192, 4091.53846119, 4187.30769217, 4144.87179467,12.0
4117.30769203, 4172.17948704, 4136.41025621, 4241.92307693, 4128.20512793, 4101.92307658, 4118.46153819, 4106.28205101, 4101.02564068, 4134.61538434, 4192.69230756, 4091.15384581, 4187.43589730, 4149.87179467,12.0
4130.25640998, 4206.28205122, 4142.05128185, 4250.51282052, 4130.89743562, 4106.02564075, 4119.99999973, 4108.07692280, 4106.02564075, 4128.97435870, 4191.15384602, 4100.76923043, 4190.76923063, 4150.12820492,12.0
4119.74358947, 4205.38461532, 4144.61538441, 4255.00000000, 4130.64102537, 4107.17948691, 4126.41025614, 4101.15384581, 4106.28205101, 4130.12820485, 4194.74358961, 4104.61538434, 4199.61538448, 4145.76923056,12.0
4125.38461511, 4179.48717935, 4138.97435877, 4246.41025641, 4128.84615357, 4100.12820478, 4107.43589716, 4097.17948684, 4096.41025607, 4135.64102544, 4194.23076910, 4094.48717914, 4194.99999986, 4142.56410236,12.0
4128.33333306, 4186.79487166, 4137.43589723, 4247.82051282, 4130.25640998, 4113.97435870, 4104.23076896, 4107.30769203, 4103.46153819, 4135.51282031, 4191.53846140, 4094.87179453, 4193.84615371, 4144.48717928,12.0
4122.05128178, 4205.12820506, 4148.58974339, 4258.58974359, 4130.25640998, 4121.28205101, 4129.10256383, 4106.66666639, 4118.71794844, 4132.43589716, 4195.38461525, 4113.71794844, 4210.12820506, 4146.53846133,12.0
4131.92307665, 4198.97435884, 4157.17948697, 4259.35897436, 4129.99999973, 4098.20512786, 4129.35897408, 4096.66666632, 4106.66666639, 4133.20512793, 4194.87179474, 4123.97435870, 4213.71794865, 4143.71794851,12.0
4124.74358947, 4197.43589730, 4151.02564082, 4260.89743590, 4128.71794844, 4096.28205094, 4106.53846126, 4094.74358940, 4088.07692273, 4134.99999973, 4188.20512807, 4115.38461511, 4202.94871788, 4143.97435877,12.0
4129.35897408, 4211.92307686, 4150.12820492, 4268.33333341, 4129.10256383, 4121.41025614, 4105.25640998, 4091.02564068, 4095.25640991, 4135.51282031, 4189.48717935, 4111.53846126, 4200.64102551, 4143.71794851,12.0
4133.20512793, 4214.74358968, 4153.97435877, 4265.64102564, 4128.84615357, 4117.56410229, 4119.87179460, 4094.61538427, 4107.05128178, 4134.74358947, 4192.56410243, 4119.87179460, 4204.74358968, 4143.58974339,12.0
4123.97435870, 4204.61538455, 4145.38461518, 4247.69230770, 4127.69230742, 4100.51282017, 4106.41025614, 4094.23076889, 4097.05128171, 4134.23076896, 4183.07692294, 4113.33333306, 4193.58974345, 4145.12820492,12.0
4130.64102537, 4182.94871781, 4131.41025614, 4234.23076923, 4130.38461511, 4101.66666632, 4077.94871761, 4073.58974325, 4079.74358940, 4134.74358947, 4168.46153833, 4090.76923043, 4171.66666653, 4142.69230749,12.0
4128.07692280, 4166.66666646, 4137.82051262, 4238.07692308, 4128.33333306, 4105.25640998, 4093.71794837, 4076.53846119, 4090.38461504, 4134.61538434, 4171.28205115, 4100.38461504, 4173.71794858, 4145.12820492,12.0
4132.05128178, 4183.71794858, 4153.97435877, 4246.28205129, 4124.74358947, 4110.12820485, 4125.76923050, 4103.46153819, 4113.84615357, 4134.35897408, 4175.25641012, 4130.38461511, 4196.79487166, 4148.71794851,12.0
4130.89743562, 4202.43589737, 4147.82051262, 4246.15384616, 4127.56410229, 4124.61538434, 4122.69230742, 4106.02564075, 4123.07692280, 4134.35897408, 4170.38461525, 4127.94871767, 4201.15384609, 4144.87179467,12.0
4122.94871767, 4176.15384602, 4137.82051262, 4238.07692308, 4129.48717921, 4124.74358947, 4106.92307665, 4089.23076889, 4118.71794844, 4134.48717921, 4173.58974345, 4112.05128178, 4190.38461525, 4143.84615364,12.0
4129.35897408, 4170.64102551, 4149.48717928, 4239.48717949, 4130.64102537, 4116.79487152, 4124.48717921, 4097.17948684, 4113.46153819, 4134.35897408, 4171.41025628, 4123.58974332, 4193.46153833, 4145.12820492,12.0
4121.15384588, 4211.53846147, 4159.35897415, 4251.79487180, 4131.53846126, 4136.53846133, 4168.07692287, 4128.07692280, 4130.76923050, 4134.10256383, 4167.82051262, 4144.99999980, 4203.20512814, 4144.99999980,12.0
4126.28205101, 4206.02564096, 4150.25641005, 4248.97435898, 4130.38461511, 4147.56410236, 4159.87179467, 4124.87179460, 4138.46153826, 4134.99999973, 4174.48717935, 4133.20512793, 4194.10256397, 4145.76923056,12.0
4131.92307665, 4164.87179467, 4137.17948697, 4230.12820506, 4129.87179460, 4122.05128178, 4109.35897408, 4094.87179453, 4120.51282024, 4135.89743569, 4168.46153833, 4105.76923050, 4177.30769217, 4143.58974339,12.0
4122.43589716, 4155.89743569, 4133.46153819, 4224.35897429, 4129.35897408, 4105.64102537, 4092.17948684, 4086.92307658, 4108.46153819, 4135.12820485, 4154.99999980, 4101.79487145, 4171.53846140, 4144.23076903,12.0
4128.07692280, 4165.51282031, 4136.53846133, 4232.43589737, 4129.48717921, 4112.17948691, 4109.48717921, 4092.82051248, 4099.87179453, 4134.23076896, 4161.41025621, 4109.74358947, 4171.92307679, 4146.79487159,12.0
4126.41025614, 4166.53846133, 4141.02564082, 4234.74358975, 4128.20512793, 4103.46153819, 4113.84615357, 4093.20512786, 4096.66666632, 4134.48717921, 4168.97435884, 4111.28205101, 4183.84615371, 4145.12820492,12.0
4129.23076896, 4166.02564082, 4139.87179467, 4235.12820513, 4126.79487152, 4097.05128171, 4098.46153812, 4090.64102530, 4104.48717921, 4134.61538434, 4156.28205108, 4108.46153819, 4188.33333320, 4145.12820492,12.0
4131.02564075, 4154.99999980, 4131.92307665, 4233.71794865, 4129.99999973, 4113.46153819, 4101.41025607, 4090.38461504, 4117.43589716, 4134.35897408, 4149.48717928, 4107.69230742, 4173.07692294, 4146.92307672,12.0
4125.64102537, 4137.94871774, 4128.20512793, 4225.89743583, 4131.66666639, 4111.28205101, 4114.23076896, 4089.87179453, 4115.76923050, 4134.48717921, 4154.48717928, 4105.51282024, 4168.84615371, 4147.56410236,12.0
4134.61538434, 4132.82051255, 4126.15384588, 4217.94871788, 4129.99999973, 4096.66666632, 4100.51282017, 4079.61538427, 4098.58974325, 4134.48717921, 4150.51282031, 4093.71794837, 4171.92307679, 4143.97435877,12.0
4126.28205101, 4133.58974332, 4120.64102537, 4213.97435891, 4130.25640998, 4102.56410229, 4082.94871761, 4073.20512786, 4090.51282017, 4134.48717921, 4142.17948697, 4088.97435863, 4168.20512807, 4143.97435877,12.0
4124.48717921, 4136.15384595, 4127.94871767, 4222.43589737, 4131.41025614, 4113.46153819, 4095.76923043, 4080.76923043, 4097.05128171, 4134.48717921, 4147.17948697, 4103.71794844, 4170.25641012, 4148.46153826,12.0
4130.38461511, 4129.87179460, 4133.97435870, 4234.10256411, 4131.15384588, 4118.33333306, 4113.58974332, 4087.43589709, 4104.10256383, 4134.48717921, 4152.56410236, 4112.30769203, 4171.15384602, 4146.41025621,12.0
4120.89743562, 4105.89743562, 4126.66666639, 4222.30769224, 4128.71794844, 4111.79487152, 4116.28205101, 4090.38461504, 4106.15384588, 4134.74358947, 4152.69230749, 4101.15384581, 4168.46153833, 4142.56410236,12.0
4127.17948691, 4088.71794837, 4122.43589716, 4202.69230763, 4127.30769203, 4098.07692273, 4109.61538434, 4089.61538427, 4103.97435870, 4134.61538434, 4147.82051262, 4091.02564068, 4173.58974345, 4141.41025621,12.0
4126.02564075, 4096.28205094, 4123.46153819, 4206.28205122, 4128.33333306, 4101.41025607, 4092.56410222, 4084.35897402, 4092.17948684, 4134.23076896, 4138.58974339, 4089.74358940, 4169.74358961, 4143.84615364,12.0
4122.82051255, 4112.17948691, 4126.28205101, 4214.74358968, 4129.48717921, 4117.05128178, 4091.79487145, 4081.02564068, 4087.17948684, 4135.12820485, 4139.23076903, 4091.79487145, 4162.17948697, 4146.53846133,12.0
4126.41025614, 4103.07692280, 4126.28205101, 4206.66666660, 4129.23076896, 4118.71794844, 4104.87179460, 4081.02564068, 4092.69230735, 4134.23076896, 4142.82051262, 4093.84615350, 4162.43589723, 4145.89743569,12.0
4120.76923050, 4079.35897402, 4120.51282024, 4199.35897422, 4128.71794844, 4106.79487152, 4099.10256376, 4080.51282017, 4088.58974325, 4130.38461511, 4136.02564082, 4087.69230735, 4151.79487159, 4145.51282031,12.0
4127.94871767, 4079.99999966, 4120.64102537, 4206.66666660, 4131.66666639, 4110.12820485, 4095.64102530, 4080.25640991, 4089.61538427, 4129.23076896, 4134.99999973, 4083.07692273, 4151.15384595, 4144.48717928,12.0
4127.94871767, 4093.84615350, 4128.84615357, 4208.33333327, 4132.82051255, 4116.28205101, 4111.28205101, 4089.10256376, 4104.99999973, 4130.89743562, 4146.79487159, 4094.35897402, 4172.43589730, 4143.71794851,12.0
4128.84615357, 4091.41025607, 4132.56410229, 4203.71794865, 4129.23076896, 4103.97435870, 4108.20512793, 4092.17948684, 4102.82051255, 4130.89743562, 4146.53846133, 4104.10256383, 4172.05128192, 4144.61538441,12.0
4134.23076896, 4090.51282017, 4130.64102537, 4208.46153840, 4129.35897408, 4103.33333306, 4101.28205094, 4087.17948684, 4089.61538427, 4130.64102537, 4137.69230749, 4102.69230742, 4158.71794851, 4144.10256390,12.0
4122.94871767, 4094.23076889, 4131.28205101, 4213.84615378, 4131.66666639, 4112.56410229, 4114.35897408, 4089.48717914, 4093.46153812, 4131.02564075, 4138.33333313, 4102.69230742, 4165.89743569, 4145.76923056,12.0
4129.10256383, 4086.02564068, 4130.12820485, 4208.33333327, 4129.48717921, 4100.38461504, 4109.61538434, 4087.69230735, 4095.51282017, 4130.38461511, 4134.99999973, 4100.51282017, 4163.07692287, 4148.07692287,12.0
4131.79487152, 4083.46153812, 4121.41025614, 4196.53846140, 4128.71794844, 4084.48717914, 4087.82051248, 4080.76923043, 4085.89743555, 4131.02564075, 4131.92307665, 4088.20512786, 4148.84615364, 4146.15384595,12.0
4127.82051255, 4093.33333299, 4118.84615357, 4196.66666653, 4130.38461511, 4103.97435870, 4088.46153812, 4088.71794837, 4084.87179453, 4132.05128178, 4139.10256390, 4087.30769196, 4153.07692287, 4146.92307672,12.0
4133.84615357, 4091.41025607, 4126.92307665, 4212.30769224, 4130.51282024, 4121.79487152, 4107.17948691, 4101.15384581, 4091.92307658, 4128.58974332, 4139.74358954, 4104.35897408, 4159.10256390, 4147.43589723,12.0
4122.82051255, 4078.46153812, 4126.92307665, 4217.43589737, 4129.10256383, 4094.74358940, 4102.43589709, 4091.53846119, 4082.56410222, 4130.38461511, 4133.97435870, 4106.92307665, 4155.64102544, 4144.74358954,12.0
4123.20512793, 4084.87179453, 4123.84615357, 4204.99999993, 4130.25640998, 4081.92307658, 4094.87179453, 4077.69230735, 4068.97435856, 4135.12820485, 4137.05128185, 4095.89743555, 4158.33333313, 4144.87179467,12.0
4126.79487152, 4095.64102530, 4123.46153819, 4197.82051269, 4133.07692280, 4106.15384588, 4104.48717921, 4084.35897402, 4076.92307658, 4132.30769203, 4138.46153826, 4090.12820478, 4156.92307672, 4146.79487159,12.0
4121.41025614, 4077.82051248, 4115.51282024, 4201.28205122, 4131.15384588, 4113.58974332, 4103.33333306, 4085.64102530, 4088.33333299, 4130.76923050, 4133.07692280, 4084.48717914, 4147.56410236, 4146.92307672,12.0
4127.82051255, 4074.74358940, 4122.82051255, 4205.25641019, 4128.84615357, 4110.25640998, 4114.23076896, 4083.84615350, 4091.02564068, 4133.33333306, 4137.94871774, 4095.76923043, 4158.84615364, 4144.74358954,12.0
4124.23076896, 4097.17948684, 4135.25640998, 4207.94871788, 4129.87179460, 4113.71794844, 4123.58974332, 4093.97435863, 4088.58974325, 4133.33333306, 4143.84615364, 4111.53846126, 4170.76923063, 4144.61538441,12.0
4125.12820485, 4094.35897402, 4124.48717921, 4206.79487173, 4131.41025614, 4104.99999973, 4090.89743555, 4091.28205094, 4081.53846119, 4132.69230742, 4138.71794851, 4096.66666632, 4155.64102544, 4144.99999980,12.0
4128.20512793, 4083.33333299, 4122.30769203, 4213.84615378, 4131.15384588, 4099.35897402, 4080.51282017, 4087.43589709, 4090.89743555, 4134.74358947, 4140.51282031, 4091.28205094, 4150.51282031, 4143.07692287,12.0
4128.07692280, 4100.51282017, 4142.17948697, 4229.61538455, 4129.74358947, 4111.28205101, 4122.69230742, 4103.71794844, 4111.15384588, 4136.28205108, 4151.92307672, 4121.53846126, 4169.99999986, 4144.74358954,12.0
4133.33333306, 4112.56410229, 4146.92307672, 4229.99999993, 4129.35897408, 4119.74358947, 4132.69230742, 4107.43589716, 4106.79487152, 4134.74358947, 4153.71794851, 4133.33333306, 4178.20512807, 4144.99999980,12.0
4123.46153819, 4109.35897408, 4134.10256383, 4214.61538455, 4129.35897408, 4129.23076896, 4111.53846126, 4101.53846119, 4091.53846119, 4132.56410229, 4143.97435877, 4120.25640998, 4166.41025621, 4144.48717928,12.0
4127.56410229, 4100.51282017, 4126.28205101, 4206.15384609, 4128.58974332, 4131.92307665, 4110.51282024, 4096.66666632, 4088.84615350, 4132.30769203, 4139.87179467, 4110.25640998, 4156.41025621, 4148.20512800,12.0
4133.71794844, 4069.61538420, 4114.48717921, 4200.89743576, 4128.97435870, 4107.43589716, 4098.46153812, 4076.15384581, 4080.76923043, 4135.12820485, 4142.56410236, 4092.69230735, 4152.94871774, 4146.66666646,12.0
4124.10256383, 4062.05128164, 4113.20512793, 4199.74358961, 4129.61538434, 4097.30769196, 4089.61538427, 4074.48717914, 4072.05128171, 4133.84615357, 4139.99999980, 4088.33333299, 4152.56410236, 4144.10256390,12.0
4129.61538434, 4087.82051248, 4128.33333306, 4211.28205122, 4130.12820485, 4105.51282024, 4106.79487152, 4097.56410222, 4078.33333299, 4132.05128178, 4138.84615364, 4108.20512793, 4152.56410236, 4146.66666646,12.0
4124.87179460, 4085.12820478, 4127.69230742, 4215.38461532, 4131.28205101, 4098.46153812, 4109.48717921, 4094.87179453, 4078.58974325, 4134.10256383, 4141.66666646, 4110.12820485, 4154.87179467, 4146.79487159,12.0
4123.46153819, 4069.48717907, 4123.07692280, 4210.64102558, 4129.87179460, 4105.64102537, 4099.99999966, 4081.28205094, 4079.87179453, 4133.97435870, 4144.48717928, 4104.35897408, 4159.48717928, 4145.64102544,12.0
4127.30769203, 4069.99999966, 4123.07692280, 4208.84615378, 4127.56410229, 4121.02564075, 4095.89743555, 4086.15384581, 4088.84615350, 4133.71794844, 4147.69230749, 4106.41025614, 4155.38461518, 4145.89743569,12.0
4118.71794844, 4068.20512779, 4117.43589716, 4210.12820506, 4128.20512793, 4113.20512793, 4096.28205094, 4087.56410222, 4084.61538427, 4136.15384595, 4146.66666646, 4098.07692273, 4150.25641005, 4146.28205108,12.0
4126.53846126, 4069.87179453, 4121.15384588, 4213.71794865, 4128.58974332, 4111.02564075, 4111.53846126, 4084.87179453, 4080.38461504, 4133.97435870, 4145.38461518, 4100.64102530, 4153.46153826, 4146.02564082,12.0
4127.30769203, 4075.51282017, 4130.25640998, 4214.99999993, 4128.46153819, 4119.10256383, 4122.05128178, 4097.94871761, 4092.43589709, 4129.99999973, 4146.79487159, 4115.76923050, 4154.10256390, 4145.64102544,12.0
4125.89743562, 4072.05128171, 4127.43589716, 4213.58974352, 4129.35897408, 4115.51282024, 4115.89743562, 4117.05128178, 4101.92307658, 4130.76923050, 4146.02564082, 4113.07692280, 4156.28205108, 4145.76923056,12.0
4131.28205101, 4068.07692266, 4123.71794844, 4210.51282045, 4130.89743562, 4109.99999973, 4122.56410229, 4124.23076896, 4098.46153812, 4126.41025614, 4145.64102544, 4112.43589716, 4163.71794851, 4145.38461518,12.0
4124.61538434, 4060.12820472, 4126.66666639, 4211.92307686, 4129.99999973, 4113.07692280, 4129.35897408, 4114.87179460, 4099.87179453, 4123.97435870, 4144.99999980, 4117.56410229, 4158.33333313, 4146.66666646,12.0
4132.30769203, 4057.30769189, 4125.76923050, 4219.35897429, 4128.33333306, 4123.71794844, 4120.38461511, 4092.17948684, 4105.25640998, 4132.43589716, 4144.61538441, 4110.64102537, 4145.76923056, 4147.17948697,12.0
4131.79487152, 4072.17948684, 4131.28205101, 4224.87179481, 4129.61538434, 4129.74358947, 4139.87179467, 4094.74358940, 4107.05128178, 4136.02564082, 4149.48717928, 4123.07692280, 4158.07692287, 4144.74358954,12.0
4122.94871767, 4071.92307658, 4135.25640998, 4218.20512814, 4129.23076896, 4117.69230742, 4146.92307672, 4110.51282024, 4091.79487145, 4132.43589716, 4152.05128185, 4135.25640998, 4166.92307672, 4146.02564082,12.0
4131.41025614, 4044.74358933, 4120.89743562, 4204.48717942, 4128.07692280, 4100.25640991, 4093.84615350, 4090.38461504, 4075.89743555, 4132.69230742, 4140.38461518, 4108.97435870, 4150.12820492, 4148.20512800,12.0
4126.92307665, 4042.82051241, 4114.61538434, 4206.53846147, 4129.99999973, 4092.82051248, 4068.07692266, 4077.82051248, 4090.89743555, 4134.35897408, 4131.92307665, 4099.74358940, 4145.64102544, 4146.66666646,12.0
4127.56410229, 4069.74358940, 4131.02564075, 4223.84615378, 4130.89743562, 4099.23076889, 4103.71794844, 4101.53846119, 4108.84615357, 4133.58974332, 4140.89743569, 4127.94871767, 4156.53846133, 4145.51282031,12.0
4129.87179460, 4071.53846119, 4142.30769210, 4231.15384609, 4129.87179460, 4120.89743562, 4131.02564075, 4119.48717921, 4112.17948691, 4134.61538434, 4152.30769210, 4141.66666646, 4163.20512800, 4144.10256390,12.0
4123.97435870, 4056.41025600, 4137.82051262, 4221.66666660, 4128.58974332, 4127.69230742, 4123.71794844, 4114.99999973, 4113.71794844, 4136.02564082, 4151.79487159, 4134.61538434, 4164.61538441, 4146.15384595,12.0
4129.74358947, 4053.46153805, 4129.23076896, 4211.15384609, 4130.64102537, 4107.82051255, 4112.43589716, 4103.33333306, 4109.99999973, 4133.20512793, 4141.28205108, 4124.23076896, 4157.05128185, 4147.43589723,12.0
4122.56410229, 4043.97435856, 4118.33333306, 4207.43589737, 4132.43589716, 4104.99999973, 4118.07692280, 4096.41025607, 4097.56410222, 4129.61538434, 4138.71794851, 4113.20512793, 4150.89743569, 4143.46153826,12.0
4122.43589716, 4043.07692266, 4117.05128178, 4203.84615378, 4131.28205101, 4116.15384588, 4126.15384588, 4097.43589709, 4098.20512786, 4129.48717921, 4141.53846133, 4109.61538434, 4153.97435877, 4142.69230749,12.0
4129.10256383, 4056.79487138, 4120.64102537, 4198.07692294, 4131.28205101, 4102.05128171, 4111.15384588, 4092.30769196, 4104.74358947, 4135.38461518, 4135.38461518, 4105.64102537, 4144.23076903, 4146.15384595,12.0
4123.97435870, 4045.51282010, 4115.76923050, 4198.20512807, 4129.48717921, 4104.74358947, 4100.38461504, 4080.89743555, 4099.48717914, 4137.56410236, 4134.61538434, 4100.89743555, 4137.82051262, 4145.64102544,12.0
4129.61538434, 4029.87179439, 4116.02564075, 4206.15384609, 4127.82051255, 4131.53846126, 4116.66666639, 4084.87179453, 4092.30769196, 4127.69230742, 4141.53846133, 4106.66666639, 4149.23076903, 4141.41025621,12.0
4126.92307665, 4034.10256362, 4117.56410229, 4208.58974352, 4128.97435870, 4120.38461511, 4110.51282024, 4089.99999966, 4089.61538427, 4122.56410229, 4138.46153826, 4108.07692280, 4149.48717928, 4143.33333313,12.0
4127.56410229, 4027.69230721, 4115.51282024, 4203.07692301, 4129.74358947, 4095.12820478, 4089.87179453, 4081.92307658, 4101.02564068, 4131.79487152, 4135.51282031, 4104.10256383, 4140.89743569, 4149.48717928,12.0
4131.79487152, 4030.38461490, 4112.69230742, 4201.28205122, 4128.46153819, 4104.99999973, 4101.66666632, 4088.20512786, 4104.48717921, 4136.53846133, 4139.61538441, 4103.58974332, 4141.53846133, 4148.20512800,12.0
4123.58974332, 4052.56410215, 4116.41025614, 4200.25641012, 4126.66666639, 4117.17948691, 4119.10256383, 4108.84615357, 4095.12820478, 4131.41025614, 4137.05128185, 4106.92307665, 4144.61538441, 4146.41025621,12.0
4130.25640998, 4041.53846113, 4123.97435870, 4193.46153833, 4128.33333306, 4111.53846126, 4110.12820485, 4103.33333306, 4093.84615350, 4132.05128178, 4132.69230742, 4111.28205101, 4140.25641005, 4148.58974339,12.0
4125.64102537, 4017.43589695, 4116.53846126, 4193.07692294, 4130.76923050, 4100.51282017, 4085.38461504, 4075.38461504, 4088.84615350, 4137.30769210, 4134.74358947, 4104.23076896, 4135.89743569, 4148.33333313,12.0
4120.51282024, 4030.12820465, 4117.30769203, 4209.23076917, 4128.71794844, 4089.23076889, 4090.12820478, 4073.71794837, 4088.71794837, 4135.76923056, 4142.43589723, 4108.46153819, 4147.82051262, 4147.94871774,12.0
4131.02564075, 4043.46153805, 4128.58974332, 4209.35897429, 4126.02564075, 4100.76923043, 4121.02564075, 4094.74358940, 4102.43589709, 4132.69230742, 4150.25641005, 4126.53846126, 4159.35897415, 4147.17948697,12.0
4123.07692280, 4030.12820465, 4118.20512793, 4185.64102551, 4127.82051255, 4117.82051255, 4120.38461511, 4098.07692273, 4100.64102530, 4134.10256383, 4147.05128185, 4112.82051255, 4140.12820492, 4146.92307672,12.0
4124.74358947, 4026.79487131, 4107.05128178, 4181.28205115, 4130.12820485, 4104.87179460, 4093.71794837, 4080.89743555, 4084.99999966, 4134.10256383, 4134.87179460, 4091.28205094, 4128.97435870, 4149.61538441,12.0
4128.84615357, 4047.94871754, 4120.51282024, 4198.33333320, 4129.23076896, 4092.43589709, 4100.12820478, 4080.25640991, 4094.35897402, 4132.43589716, 4139.99999980, 4113.20512793, 4156.53846133, 4148.07692287,12.0
4124.23076896, 4049.48717907, 4130.25640998, 4204.35897429, 4129.48717921, 4101.02564068, 4116.92307665, 4090.76923043, 4107.05128178, 4132.43589716, 4152.94871774, 4131.15384588, 4163.07692287, 4145.12820492,12.0
4128.58974332, 4030.89743541, 4126.41025614, 4202.69230763, 4129.48717921, 4108.84615357, 4106.53846126, 4088.71794837, 4105.25640998, 4135.89743569, 4146.53846133, 4118.07692280, 4138.33333313, 4146.66666646,12.0
4125.12820485, 4034.99999952, 4126.53846126, 4199.61538448, 4128.46153819, 4101.66666632, 4103.46153819, 4092.56410222, 4107.94871767, 4135.25640998, 4139.61538441, 4118.58974332, 4132.82051255, 4147.30769210,12.0
4129.87179460, 4033.46153798, 4122.05128178, 4184.87179474, 4128.84615357, 4095.12820478, 4110.25640998, 4098.97435863, 4089.10256376, 4134.10256383, 4137.17948697, 4119.48717921, 4144.61538441, 4145.51282031,12.0
4131.15384588, 4016.28205080, 4111.53846126, 4175.51282038, 4129.87179460, 4101.15384581, 4108.07692280, 4095.76923043, 4069.99999966, 4138.07692287, 4127.69230742, 4104.10256383, 4143.58974339, 4144.87179467,12.0
4127.17948691, 4030.38461490, 4113.46153819, 4181.92307679, 4130.12820485, 4108.20512793, 4102.05128171, 4087.82051248, 4089.99999966, 4138.46153826, 4129.35897408, 4105.51282024, 4136.28205108, 4146.15384595,12.0
4133.20512793, 4051.02564061, 4126.02564075, 4194.10256397, 4129.99999973, 4101.66666632, 4099.48717914, 4081.02564068, 4108.84615357, 4137.05128185, 4142.43589723, 4121.79487152, 4138.20512800, 4146.66666646,12.0
4124.48717921, 4042.56410215, 4133.97435870, 4203.71794865, 4128.97435870, 4101.79487145, 4120.89743562, 4096.15384581, 4107.05128178, 4137.82051262, 4143.46153826, 4135.12820485, 4146.41025621, 4146.41025621,12.0
4127.30769203, 4039.23076882, 4130.38461511, 4199.48717935, 4128.20512793, 4118.33333306, 4137.30769210, 4113.20512793, 4112.94871767, 4137.69230749, 4137.43589723, 4136.92307672, 4155.89743569, 4146.41025621,12.0
4132.82051255, 4035.76923029, 4121.53846126, 4185.51282038, 4131.41025614, 4117.05128178, 4112.69230742, 4099.35897402, 4118.71794844, 4137.56410236, 4143.33333313, 4125.51282024, 4158.20512800, 4147.17948697,12.0
4121.66666639, 4022.94871747, 4122.69230742, 4180.25641012, 4130.76923050, 4099.48717914, 4091.92307658, 4085.12820478, 4109.48717921, 4137.56410236, 4149.23076903, 4121.41025614, 4150.12820492, 4148.07692287,12.0
4126.92307665, 4030.64102516, 4124.87179460, 4182.94871781, 4127.30769203, 4097.69230735, 4098.84615350, 4090.12820478, 4102.05128171, 4137.56410236, 4147.56410236, 4123.07692280, 4140.25641005, 4146.66666646,12.0
4125.12820485, 4038.07692266, 4119.35897408, 4182.05128192, 4127.82051255, 4104.10256383, 4109.87179460, 4097.05128171, 4105.51282024, 4137.56410236, 4143.46153826, 4118.84615357, 4143.20512800, 4145.51282031,12.0
4123.46153819, 4029.87179439, 4124.99999973, 4190.38461525, 4128.46153819, 4106.79487152, 4126.79487152, 4108.46153819, 4117.05128178, 4137.56410236, 4144.99999980, 4123.46153819, 4155.38461518, 4146.92307672,12.0
4128.46153819, 4030.12820465, 4128.97435870, 4194.10256397, 4129.23076896, 4111.15384588, 4127.56410229, 4115.12820485, 4121.02564075, 4137.56410236, 4147.94871774, 4130.25640998, 4150.76923056, 4146.15384595,12.0
4122.05128178, 4038.33333292, 4119.48717921, 4183.58974345, 4130.12820485, 4114.99999973, 4104.74358947, 4107.82051255, 4114.35897408, 4137.56410236, 4147.43589723, 4120.51282024, 4142.30769210, 4144.10256390,12.0
4126.15384588, 4047.43589702, 4120.25640998, 4187.30769217, 4129.61538434, 4116.41025614, 4106.53846126, 4102.05128171, 4112.30769203, 4137.56410236, 4152.30769210, 4117.43589716, 4143.84615364, 4144.74358954,12.0
4125.25640998, 4043.33333292, 4128.20512793, 4199.61538448, 4128.58974332, 4114.99999973, 4126.53846126, 4105.12820485, 4115.12820485, 4137.56410236, 4156.15384595, 4132.05128178, 4144.99999980, 4146.02564082,12.0
4129.10256383, 4030.64102516, 4131.15384588, 4198.07692294, 4128.97435870, 4115.38461511, 4130.25640998, 4108.58974332, 4114.99999973, 4137.56410236, 4155.38461518, 4140.51282031, 4150.12820492, 4146.15384595,12.0
4136.15384595, 4029.87179439, 4130.25640998, 4189.74358961, 4130.12820485, 4119.10256383, 4132.05128178, 4113.58974332, 4124.87179460, 4137.56410236, 4156.28205108, 4136.15384595, 4155.64102544, 4145.89743569,12.0
4123.07692280, 4026.66666618, 4117.94871767, 4180.89743576, 4130.38461511, 4117.56410229, 4130.12820485, 4117.17948691, 4125.38461511, 4138.07692287, 4151.66666646, 4121.02564075, 4145.38461518, 4146.66666646,12.0
4127.82051255, 4018.46153798, 4112.82051255, 4175.51282038, 4129.23076896, 4110.25640998, 4118.84615357, 4109.74358947, 4106.15384588, 4137.30769210, 4145.51282031, 4115.12820485, 4139.99999980, 4147.94871774,12.0
4130.25640998, 4032.56410208, 4127.17948691, 4185.64102551, 4128.07692280, 4112.94871767, 4119.87179460, 4108.20512793, 4105.89743562, 4137.30769210, 4147.56410236, 4132.30769203, 4154.48717928, 4148.71794851,12.0
4125.51282024, 4040.25640984, 4131.02564075, 4191.66666653, 4129.10256383, 4119.61538434, 4123.71794844, 4114.61538434, 4115.12820485, 4139.48717928, 4154.48717928, 4138.58974339, 4154.10256390, 4148.33333313,12.0
4131.53846126, 4019.99999952, 4122.30769203, 4183.20512807, 4130.25640998, 4110.51282024, 4120.12820485, 4117.30769203, 4113.58974332, 4135.51282031, 4156.79487159, 4126.66666639, 4140.76923056, 4146.92307672,12.0
4121.53846126, 4010.25640977, 4118.20512793, 4183.20512807, 4128.33333306, 4110.12820485, 4124.48717921, 4121.79487152, 4117.94871767, 4131.92307665, 4154.48717928, 4121.79487152, 4140.76923056, 4146.66666646,12.0
4124.48717921, 4018.20512772, 4119.48717921, 4190.51282038, 4127.05128178, 4130.38461511, 4133.58974332, 4122.05128178, 4121.66666639, 4134.61538434, 4151.66666646, 4126.02564075, 4143.07692287, 4147.05128185,12.0
4128.71794844, 4017.94871747, 4117.69230742, 4190.12820499, 4129.23076896, 4133.33333306, 4128.84615357, 4112.30769203, 4109.74358947, 4134.23076896, 4148.71794851, 4123.20512793, 4139.35897415, 4146.02564082,12.0
4121.66666639, 4017.82051234, 4117.94871767, 4187.17948704, 4129.61538434, 4120.25640998, 4123.58974332, 4108.58974332, 4107.69230742, 4128.97435870, 4150.76923056, 4119.74358947, 4138.46153826, 4145.64102544,12.0
4129.61538434, 4031.28205080, 4123.58974332, 4193.58974345, 4129.10256383, 4127.17948691, 4138.71794851, 4114.87179460, 4118.07692280, 4129.23076896, 4155.12820492, 4131.92307665, 4141.41025621, 4145.38461518,12.0
4125.12820485, 4031.02564054, 4127.30769203, 4192.17948704, 4129.74358947, 4135.51282031, 4149.48717928, 4118.46153819, 4114.99999973, 4132.43589716, 4155.38461518, 4142.94871774, 4140.38461518, 4144.48717928,12.0
4124.61538434, 4009.61538413, 4119.61538434, 4178.20512807, 4128.97435870, 4120.38461511, 4123.71794844, 4107.56410229, 4104.23076896, 4129.74358947, 4153.71794851, 4128.58974332, 4135.25640998, 4145.76923056,12.0
4128.97435870, 3997.43589688, 4105.25640998, 4169.74358961, 4129.23076896, 4110.64102537, 4102.30769196, 4095.89743555, 4095.51282017, 4129.10256383, 4151.41025621, 4106.79487152, 4139.10256390, 4145.76923056,12.0
4124.74358947, 4006.53846106, 4105.25640998, 4172.82051269, 4128.97435870, 4116.28205101, 4113.58974332, 4097.05128171, 4097.56410222, 4133.84615357, 4146.53846133, 4108.20512793, 4141.92307672, 4145.12820492,12.0
4131.15384588, 4011.28205080, 4113.07692280, 4174.35897422, 4128.33333306, 4115.64102537, 4119.99999973, 4103.97435870, 4105.25640998, 4134.23076896, 4147.30769210, 4121.28205101, 4129.74358947, 4146.79487159,12.0
4126.02564075, 3999.99999945, 4108.97435870, 4165.89743569, 4128.71794844, 4112.17948691, 4127.05128178, 4113.07692280, 4103.20512793, 4133.58974332, 4151.02564082, 4117.69230742, 4124.48717921, 4146.02564082,12.0
4127.05128178, 4004.48717900, 4107.05128178, 4164.35897415, 4127.82051255, 4124.10256383, 4141.79487159, 4120.25640998, 4102.56410229, 4133.71794844, 4145.51282031, 4110.51282024, 4135.89743569, 4145.64102544,12.0
4131.79487152, 4011.41025593, 4112.82051255, 4172.30769217, 4128.46153819, 4125.38461511, 4129.74358947, 4113.84615357, 4107.94871767, 4132.69230742, 4141.28205108, 4114.35897408, 4141.53846133, 4145.64102544,12.0
4124.61538434, 3999.48717894, 4116.66666639, 4173.46153833, 4129.61538434, 4110.25640998, 4110.76923050, 4105.12820485, 4103.46153819, 4132.94871767, 4149.99999980, 4126.28205101, 4140.76923056, 4144.87179467,12.0
4129.61538434, 3991.02564047, 4114.23076896, 4164.99999980, 4127.82051255, 4112.30769203, 4120.51282024, 4104.35897408, 4101.41025607, 4135.64102544, 4156.02564082, 4127.30769203, 4136.41025621, 4144.23076903,12.0
4123.33333306, 3990.89743535, 4104.74358947, 4159.61538441, 4126.53846126, 4124.74358947, 4128.20512793, 4105.12820485, 4108.20512793, 4134.87179460, 4149.10256390, 4110.51282024, 4126.41025614, 4145.64102544,12.0
4123.20512793, 3995.89743535, 4106.02564075, 4166.92307672, 4128.07692280, 4119.87179460, 4123.97435870, 4109.61538434, 4106.28205101, 4132.56410229, 4149.10256390, 4112.82051255, 4130.38461511, 4147.17948697,12.0
4132.43589716, 4002.82051227, 4120.38461511, 4176.53846140, 4129.48717921, 4110.76923050, 4132.69230742, 4123.33333306, 4107.05128178, 4134.61538434, 4159.35897415, 4137.30769210, 4146.53846133, 4145.12820492,12.0
4123.71794844, 4003.46153791, 4121.15384588, 4177.05128192, 4128.46153819, 4119.10256383, 4135.38461518, 4132.43589716, 4118.46153819, 4135.38461518, 4160.64102544, 4139.23076903, 4142.69230749, 4145.64102544,12.0
4126.66666639, 4010.12820465, 4112.30769203, 4173.71794858, 4128.71794844, 4122.82051255, 4122.94871767, 4120.25640998, 4118.20512793, 4135.12820485, 4153.97435877, 4124.10256383, 4131.53846126, 4148.07692287,12.0
4127.17948691, 4023.84615336, 4116.28205101, 4179.35897422, 4129.35897408, 4114.61538434, 4124.10256383, 4111.92307665, 4111.79487152, 4135.38461518, 4154.10256390, 4131.92307665, 4137.82051262, 4146.92307672,12.0
4125.76923050, 4013.46153798, 4122.94871767, 4182.05128192, 4128.84615357, 4116.15384588, 4132.82051255, 4118.07692280, 4106.66666639, 4134.35897408, 4158.84615364, 4142.82051262, 4139.99999980, 4144.35897415,12.0
4129.48717921, 3992.43589688, 4114.35897408, 4170.51282038, 4131.53846126, 4118.71794844, 4131.79487152, 4114.48717921, 4095.51282017, 4134.35897408, 4154.99999980, 4130.38461511, 4132.30769203, 4144.35897415,12.0
4120.76923050, 3994.35897381, 4106.28205101, 4169.61538448, 4133.33333306, 4111.15384588, 4126.79487152, 4107.94871767, 4095.25640991, 4134.99999973, 4150.12820492, 4119.74358947, 4135.51282031, 4146.66666646,12.0
4129.99999973, 4001.79487124, 4108.46153819, 4177.56410243, 4129.87179460, 4113.71794844, 4123.84615357, 4102.56410229, 4101.66666632, 4134.61538434, 4152.94871774, 4121.41025614, 4138.58974339, 4147.17948697,12.0
4133.97435870, 4005.51282003, 4110.51282024, 4168.71794858, 4127.94871767, 4126.02564075, 4133.71794844, 4100.12820478, 4096.79487145, 4131.92307665, 4156.02564082, 4126.92307665, 4131.53846126, 4145.64102544,12.0
4126.41025614, 4015.51282003, 4116.28205101, 4169.35897422, 4129.61538434, 4123.33333306, 4155.12820492, 4116.02564075, 4100.64102530, 4130.12820485, 4155.51282031, 4136.28205108, 4133.71794844, 4145.64102544,12.0
4130.25640998, 4017.05128157, 4120.38461511, 4187.30769217, 4129.61538434, 4118.58974332, 4155.89743569, 4134.61538434, 4119.10256383, 4129.61538434, 4155.76923056, 4142.17948697, 4139.10256390, 4145.25641005,12.0
4122.17948691, 3995.64102509, 4107.69230742, 4177.05128192, 4127.17948691, 4118.07692280, 4133.20512793, 4128.46153819, 4119.74358947, 4130.64102537, 4153.46153826, 4128.84615357, 4127.56410229, 4143.33333313,12.0
4124.10256383, 3983.97435842, 4099.74358940, 4159.74358954, 4127.56410229, 4117.05128178, 4130.38461511, 4115.64102537, 4107.56410229, 4134.23076896, 4146.28205108, 4112.69230742, 4121.15384588, 4143.84615364,12.0
4127.30769203, 3989.99999945, 4103.58974332, 4166.66666646, 4129.61538434, 4116.28205101, 4141.28205108, 4119.48717921, 4106.53846126, 4136.15384595, 4145.64102544, 4113.71794844, 4127.43589716, 4145.25641005,12.0
4123.07692280, 3986.53846099, 4100.76923043, 4172.82051269, 4129.48717921, 4105.38461511, 4125.38461511, 4118.20512793, 4102.43589709, 4134.48717921, 4149.48717928, 4115.51282024, 4122.05128178, 4144.48717928,12.0
4129.74358947, 3990.38461483, 4103.20512793, 4177.43589730, 4128.58974332, 4098.84615350, 4117.56410229, 4113.97435870, 4105.89743562, 4133.71794844, 4151.41025621, 4122.43589716, 4124.23076896, 4143.97435877,12.0
4122.94871767, 3989.87179432, 4109.48717921, 4176.66666653, 4129.48717921, 4108.84615357, 4131.92307665, 4125.12820485, 4121.92307665, 4137.05128185, 4152.94871774, 4131.66666639, 4136.15384595, 4144.74358954,12.0
4122.82051255, 3979.35897381, 4103.33333306, 4160.89743569, 4130.25640998, 4114.61538434, 4136.66666646, 4125.89743562, 4116.53846126, 4136.79487159, 4151.53846133, 4119.99999973, 4129.61538434, 4145.38461518,12.0
4126.41025614, 3993.97435842, 4099.87179453, 4162.30769210, 4129.10256383, 4109.48717921, 4135.25640998, 4113.33333306, 4094.23076889, 4130.12820485, 4146.66666646, 4109.99999973, 4120.89743562, 4145.64102544,12.0
4123.84615357, 4009.74358926, 4107.43589716, 4180.38461525, 4128.84615357, 4109.23076896, 4133.97435870, 4108.84615357, 4093.84615350, 4130.25640998, 4148.20512800, 4124.74358947, 4126.53846126, 4147.43589723,12.0
4133.33333306, 3996.92307637, 4109.48717921, 4178.58974345, 4128.84615357, 4117.30769203, 4133.07692280, 4105.12820485, 4109.35897408, 4133.97435870, 4156.66666646, 4131.79487152, 4130.38461511, 4147.17948697,12.0
4129.74358947, 3990.12820458, 4104.74358947, 4171.66666653, 4127.69230742, 4119.23076896, 4142.82051262, 4107.17948691, 4111.53846126, 4133.71794844, 4153.33333313, 4120.89743562, 4125.12820485, 4144.35897415,12.0
4130.89743562, 3997.05128150, 4102.43589709, 4173.58974345, 4127.30769203, 4106.02564075, 4129.23076896, 4112.30769203, 4103.58974332, 4133.20512793, 4143.07692287, 4117.17948691, 4122.17948691, 4146.02564082,12.0
4133.33333306, 3989.74358919, 4098.97435863, 4166.79487159, 4129.61538434, 4083.58974325, 4098.20512786, 4108.84615357, 4101.66666632, 4133.71794844, 4143.71794851, 4118.46153819, 4126.53846126, 4148.58974339,12.0
4121.28205101, 3990.76923022, 4098.58974325, 4161.79487159, 4130.25640998, 4081.15384581, 4113.97435870, 4119.61538434, 4113.20512793, 4132.56410229, 4146.28205108, 4121.28205101, 4131.79487152, 4146.41025621,12.0
4128.20512793, 3997.82051227, 4105.12820485, 4165.89743569, 4128.33333306, 4103.97435870, 4144.48717928, 4138.20512800, 4120.89743562, 4133.46153819, 4148.58974339, 4125.12820485, 4128.20512793, 4145.64102544,12.0
4126.92307665, 3984.48717894, 4104.99999973, 4160.51282031, 4128.20512793, 4114.99999973, 4137.94871774, 4130.25640998, 4114.35897408, 4136.53846133, 4152.82051262, 4121.92307665, 4120.38461511, 4147.17948697,12.0
4121.66666639, 3977.56410201, 4102.30769196, 4155.38461518, 4128.71794844, 4103.46153819, 4128.84615357, 4113.71794844, 4105.51282024, 4135.12820485, 4146.02564082, 4121.15384588, 4121.79487152, 4146.41025621,12.0
4126.02564075, 3988.07692252, 4104.74358947, 4159.87179467, 4128.71794844, 4095.76923043, 4141.53846133, 4117.56410229, 4107.43589716, 4133.46153819, 4139.61538441, 4126.15384588, 4124.61538434, 4144.48717928,12.0
4120.12820485, 3991.53846099, 4102.82051255, 4159.99999980, 4128.71794844, 4107.30769203, 4149.10256390, 4127.69230742, 4113.46153819, 4134.48717921, 4146.28205108, 4123.58974332, 4123.46153819, 4145.25641005,12.0
4126.28205101, 3973.46153791, 4093.97435863, 4154.99999980, 4130.12820485, 4108.20512793, 4127.94871767, 4115.51282024, 4107.05128178, 4133.97435870, 4148.20512800, 4111.28205101, 4119.74358947, 4144.61538441,12.0
4125.12820485, 3961.41025579, 4095.25640991, 4158.97435877, 4130.25640998, 4089.74358940, 4116.53846126, 4102.94871767, 4102.56410229, 4134.99999973, 4144.87179467, 4114.23076896, 4118.46153819, 4143.07692287,12.0
4121.15384588, 3990.76923022, 4113.58974332, 4173.07692294, 4126.28205101, 4101.28205094, 4148.07692287, 4125.76923050, 4119.99999973, 4136.02564082, 4154.23076903, 4139.87179467, 4133.20512793, 4146.92307672,12.0
4129.10256383, 4003.58974304, 4113.33333306, 4169.61538448, 4127.30769203, 4118.33333306, 4152.56410236, 4135.38461518, 4130.38461511, 4130.12820485, 4159.23076903, 4142.56410236, 4136.53846133, 4148.58974339,12.0
4123.07692280, 3962.43589681, 4091.92307658, 4147.82051262, 4130.38461511, 4094.74358940, 4105.38461511, 4109.23076896, 4117.05128178, 4124.23076896, 4151.41025621, 4116.28205101, 4124.87179460, 4147.82051262,12.0
4127.17948691, 3955.89743528, 4093.33333299, 4149.48717928, 4128.84615357, 4084.61538427, 4108.07692280, 4106.41025614, 4121.41025614, 4130.25640998, 4151.41025621, 4119.99999973, 4133.84615357, 4147.05128185,12.0
4128.97435870, 3993.71794817, 4108.97435870, 4170.89743576, 4129.10256383, 4104.74358947, 4162.30769210, 4136.02564082, 4139.10256390, 4137.56410236, 4160.64102544, 4145.12820492, 4139.74358954, 4143.07692287,12.0
4124.99999973, 4000.25640970, 4109.61538434, 4175.38461525, 4130.25640998, 4106.02564075, 4162.30769210, 4145.38461518, 4134.10256383, 4136.66666646, 4164.48717928, 4139.23076903, 4126.66666639, 4144.61538441,12.0
4132.82051255, 3987.30769176, 4102.30769196, 4165.25641005, 4126.41025614, 4098.20512786, 4129.35897408, 4132.17948691, 4130.76923050, 4133.20512793, 4159.35897415, 4129.10256383, 4128.84615357, 4146.15384595,12.0
4124.10256383, 3985.12820458, 4096.66666632, 4164.61538441, 4126.02564075, 4100.38461504, 4133.20512793, 4129.87179460, 4141.92307672, 4132.69230742, 4153.07692287, 4134.87179460, 4141.41025621, 4142.94871774,12.0
4124.10256383, 3982.43589688, 4095.25640991, 4167.82051262, 4131.66666639, 4095.76923043, 4144.23076903, 4124.87179460, 4137.56410236, 4134.35897408, 4154.61538441, 4131.28205101, 4130.12820485, 4144.23076903,12.0
4129.23076896, 3974.23076868, 4094.48717914, 4163.33333313, 4131.92307665, 4091.02564068, 4133.58974332, 4114.61538434, 4127.43589716, 4133.58974332, 4158.20512800, 4123.58974332, 4119.87179460, 4146.28205108,12.0
4121.66666639, 3970.51281989, 4089.61538427, 4154.99999980, 4126.92307665, 4087.43589709, 4116.79487152, 4116.53846126, 4128.58974332, 4129.61538434, 4151.28205108, 4122.82051255, 4131.02564075, 4146.02564082,12.0
4126.79487152, 3967.43589681, 4084.10256376, 4145.12820492, 4128.33333306, 4072.43589709, 4105.64102537, 4112.17948691, 4115.25640998, 4129.87179460, 4143.97435877, 4113.84615357, 4126.53846126, 4146.92307672,12.0
4123.33333306, 3959.48717887, 4076.53846119, 4134.87179460, 4132.05128178, 4066.28205087, 4099.99999966, 4099.99999966, 4100.89743555, 4131.53846126, 4145.38461518, 4098.20512786, 4104.99999973, 4146.15384595,12.0
4123.07692280, 3968.58974297, 4080.38461504, 4140.25641005, 4129.48717921, 4083.58974325, 4111.15384588, 4106.41025614, 4110.89743562, 4129.23076896, 4149.61538441, 4105.12820485, 4109.99999973, 4143.46153826,12.0
4127.43589716, 3983.46153791, 4096.41025607, 4159.87179467, 4127.17948691, 4098.46153812, 4138.46153826, 4125.89743562, 4128.97435870, 4129.10256383, 4155.38461518, 4132.17948691, 4137.43589723, 4144.10256390,12.0
4119.99999973, 3980.64102509, 4100.89743555, 4164.99999980, 4128.84615357, 4093.84615350, 4141.41025621, 4129.10256383, 4134.74358947, 4131.53846126, 4161.79487159, 4138.46153826, 4137.56410236, 4146.02564082,12.0
4126.15384588, 3978.46153791, 4095.76923043, 4157.56410236, 4128.33333306, 4092.69230735, 4127.05128178, 4126.02564075, 4134.74358947, 4129.99999973, 4160.64102544, 4127.94871767, 4122.05128178, 4145.25641005,12.0
4124.61538434, 3990.38461483, 4097.05128171, 4158.46153826, 4127.05128178, 4101.15384581, 4132.17948691, 4132.43589716, 4140.76923056, 4129.48717921, 4153.33333313, 4132.56410229, 4127.05128178, 4145.38461518,12.0
4124.61538434, 3991.02564047, 4100.25640991, 4158.07692287, 4127.56410229, 4093.71794837, 4139.23076903, 4129.10256383, 4142.82051262, 4134.23076896, 4154.23076903, 4138.97435877, 4128.84615357, 4146.79487159,12.0
4132.05128178, 3975.76923022, 4094.48717914, 4148.46153826, 4127.69230742, 4076.53846119, 4119.87179460, 4114.99999973, 4133.58974332, 4134.61538434, 4155.76923056, 4130.38461511, 4122.82051255, 4145.76923056,12.0
4124.87179460, 3973.97435842, 4092.82051248, 4146.66666646, 4128.20512793, 4073.20512786, 4105.12820485, 4113.97435870, 4119.87179460, 4131.79487152, 4150.76923056, 4132.05128178, 4131.28205101, 4146.02564082,12.0
4130.25640998, 3990.38461483, 4100.76923043, 4152.82051262, 4130.51282024, 4082.05128171, 4121.28205101, 4122.05128178, 4121.53846126, 4129.74358947, 4150.76923056, 4144.61538441, 4139.48717928, 4148.58974339,12.0
4125.25640998, 4001.02564047, 4098.33333299, 4154.35897415, 4130.38461511, 4089.61538427, 4132.82051255, 4119.48717921, 4130.76923050, 4129.48717921, 4153.97435877, 4140.38461518, 4126.53846126, 4148.07692287,12.0
4118.33333306, 3988.20512765, 4092.69230735, 4152.69230749, 4128.46153819, 4090.12820478, 4131.53846126, 4118.33333306, 4123.58974332, 4132.82051255, 4154.23076903, 4134.35897408, 4120.76923050, 4147.05128185,12.0
4127.69230742, 3971.66666611, 4093.46153812, 4148.58974339, 4130.12820485, 4083.20512786, 4132.17948691, 4132.17948691, 4118.71794844, 4128.84615357, 4151.66666646, 4138.07692287, 4131.41025614, 4147.43589723,12.0
4122.82051255, 3979.74358919, 4087.69230735, 4142.43589723, 4131.53846126, 4082.43589709, 4127.69230742, 4136.53846133, 4127.05128178, 4122.82051255, 4149.23076903, 4132.30769203, 4129.74358947, 4145.89743569,12.0
4124.23076896, 3988.84615329, 4081.66666632, 4144.87179467, 4130.12820485, 4089.99999966, 4123.07692280, 4120.12820485, 4127.43589716, 4130.12820485, 4150.38461518, 4124.74358947, 4118.58974332, 4143.71794851,12.0
4124.35897408, 3978.97435842, 4083.58974325, 4149.87179467, 4130.38461511, 4082.56410222, 4120.12820485, 4110.12820485, 4113.20512793, 4140.12820492, 4151.53846133, 4126.41025614, 4118.20512793, 4144.10256390,12.0
4122.56410229, 3972.30769176, 4082.17948684, 4142.43589723, 4130.12820485, 4069.10256369, 4112.94871767, 4112.05128178, 4104.35897408, 4136.15384595, 4145.76923056, 4122.82051255, 4121.79487152, 4144.35897415,12.0
4129.74358947, 3972.17948663, 4081.28205094, 4133.07692280, 4128.84615357, 4072.30769196, 4111.66666639, 4102.94871767, 4104.61538434, 4133.58974332, 4137.94871774, 4116.53846126, 4118.84615357, 4144.23076903,12.0
4122.05128178, 3966.02564040, 4085.64102530, 4137.17948697, 4128.33333306, 4079.74358940, 4119.61538434, 4099.23076889, 4103.84615357, 4138.71794851, 4139.10256390, 4123.46153819, 4118.71794844, 4145.89743569,12.0
4125.38461511, 3965.51281989, 4087.69230735, 4142.17948697, 4128.20512793, 4080.51282017, 4122.69230742, 4113.20512793, 4111.15384588, 4136.79487159, 4150.12820492, 4131.28205101, 4124.74358947, 4147.30769210,12.0
4129.10256383, 3971.41025586, 4083.07692273, 4137.43589723, 4128.71794844, 4083.20512786, 4122.94871767, 4122.43589716, 4125.38461511, 4134.74358947, 4151.79487159, 4128.58974332, 4122.43589716, 4145.38461518,12.0
4122.69230742, 3958.71794810, 4078.97435863, 4130.25640998, 4129.61538434, 4086.79487145, 4127.56410229, 4121.79487152, 4125.51282024, 4137.56410236, 4141.66666646, 4124.10256383, 4111.66666639, 4145.64102544,12.0
4131.41025614, 3944.48717887, 4077.05128171, 4134.10256383, 4128.71794844, 4087.82051248, 4122.56410229, 4116.53846126, 4109.23076896, 4133.07692280, 4136.02564082, 4119.61538434, 4105.51282024, 4148.46153826,12.0
4129.23076896, 3971.66666611, 4074.99999966, 4143.97435877, 4126.15384588, 4086.53846119, 4119.48717921, 4119.99999973, 4105.64102537, 4127.05128178, 4139.35897415, 4123.84615357, 4108.84615357, 4148.84615364,12.0
4127.43589716, 3990.25640970, 4072.17948684, 4142.69230749, 4125.51282024, 4075.89743555, 4124.48717921, 4121.41025614, 4110.76923050, 4130.76923050, 4140.38461518, 4126.41025614, 4109.99999973, 4147.69230749,12.0
4128.71794844, 3956.79487117, 4063.20512779, 4130.12820485, 4128.07692280, 4070.76923043, 4120.12820485, 4109.99999973, 4101.53846119, 4132.94871767, 4135.64102544, 4113.71794844, 4106.53846126, 4146.79487159,12.0
4121.28205101, 3942.94871733, 4057.82051241, 4125.64102537, 4128.84615357, 4081.02564068, 4121.15384588, 4113.71794844, 4103.07692280, 4129.23076896, 4134.61538434, 4106.66666639, 4104.99999973, 4147.56410236,12.0
4127.30769203, 3963.33333271, 4058.46153805, 4130.51282024, 4127.05128178, 4083.71794837, 4125.38461511, 4120.25640998, 4113.97435870, 4131.28205101, 4135.76923056, 4110.51282024, 4106.41025614, 4148.07692287,12.0
4123.46153819, 3956.53846092, 4054.48717907, 4128.46153819, 4128.20512793, 4069.35897395, 4109.23076896, 4104.35897408, 4099.87179453, 4136.92307672, 4134.74358947, 4107.94871767, 4104.23076896, 4146.53846133,12.0
4121.53846126, 3962.69230707, 4063.97435856, 4132.94871767, 4129.48717921, 4064.99999959, 4107.82051255, 4094.74358940, 4090.76923043, 4136.92307672, 4135.76923056, 4118.71794844, 4107.82051255, 4145.76923056,12.0
4127.43589716, 3985.89743535, 4076.28205094, 4141.28205108, 4127.94871767, 4070.51282017, 4119.87179460, 4102.05128171, 4105.38461511, 4132.56410229, 4139.35897415, 4135.64102544, 4120.38461511, 4146.15384595,12.0
4119.10256383, 3965.76923015, 4067.43589702, 4136.79487159, 4129.10256383, 4066.66666625, 4111.02564075, 4104.35897408, 4107.82051255, 4131.53846126, 4143.46153826, 4128.46153819, 4121.15384588, 4147.17948697,12.0
4124.99999973, 3960.38461476, 4059.99999959, 4136.28205108, 4131.53846126, 4070.64102530, 4108.97435870, 4105.25640998, 4106.79487152, 4133.84615357, 4142.94871774, 4122.43589716, 4107.82051255, 4147.05128185,12.0
4128.71794844, 3984.35897381, 4061.79487138, 4141.15384595, 4129.74358947, 4076.41025607, 4116.79487152, 4109.99999973, 4114.74358947, 4133.46153819, 4140.38461518, 4125.64102537, 4103.58974332, 4144.74358954,12.0
4126.15384588, 3964.48717887, 4056.53846113, 4135.25640998, 4127.82051255, 4068.84615343, 4107.94871767, 4109.99999973, 4102.69230742, 4128.46153819, 4137.56410236, 4117.94871767, 4107.82051255, 4144.23076903,12.0
4129.35897408, 3948.71794810, 4049.61538420, 4128.84615357, 4128.84615357, 4063.46153805, 4104.87179460, 4109.48717921, 4092.82051248, 4127.82051255, 4137.69230749, 4115.51282024, 4106.53846126, 4145.38461518,12.0
4123.33333306, 3978.20512765, 4046.79487138, 4132.05128178, 4129.61538434, 4069.99999966, 4126.53846126, 4110.51282024, 4108.84615357, 4131.02564075, 4136.66666646, 4122.05128178, 4106.92307665, 4145.76923056,12.0
4130.51282024, 3983.97435842, 4041.79487138, 4133.33333306, 4129.99999973, 4082.05128171, 4136.28205108, 4106.92307665, 4113.58974332, 4134.35897408, 4136.66666646, 4120.51282024, 4109.23076896, 4146.66666646,12.0
4129.23076896, 3958.71794810, 4031.66666618, 4126.28205101, 4129.61538434, 4077.82051248, 4126.02564075, 4109.99999973, 4106.28205101, 4136.02564082, 4142.94871774, 4117.17948691, 4107.56410229, 4146.79487159,12.0
4122.82051255, 3960.76923015, 4028.07692259, 4124.87179460, 4127.56410229, 4062.82051241, 4121.53846126, 4116.79487152, 4109.99999973, 4133.97435870, 4145.51282031, 4126.79487152, 4109.10256383, 4148.33333313,12.0
4129.99999973, 3974.87179432, 4029.10256362, 4132.17948691, 4129.23076896, 4066.79487138, 4121.66666639, 4109.74358947, 4112.56410229, 4133.58974332, 4141.66666646, 4129.10256383, 4110.76923050, 4147.94871774,12.0
4121.66666639, 3971.02564040, 4022.05128157, 4133.97435870, 4130.25640998, 4076.79487145, 4112.43589716, 4103.58974332, 4107.30769203, 4137.56410236, 4138.46153826, 4114.35897408, 4104.23076896, 4146.66666646,12.0
4123.33333306, 3961.41025579, 4014.10256362, 4128.20512793, 4126.92307665, 4072.30769196, 4100.38461504, 4107.17948691, 4107.05128178, 4134.87179460, 4139.48717928, 4106.79487152, 4101.02564068, 4148.20512800,12.0
4126.79487152, 3969.10256348, 4019.35897388, 4128.97435870, 4127.82051255, 4070.38461504, 4110.25640998, 4114.48717921, 4108.97435870, 4130.76923050, 4143.33333313, 4119.87179460, 4108.46153819, 4147.30769210,12.0
4121.53846126, 3977.05128150, 4026.92307644, 4134.10256383, 4129.35897408, 4071.66666632, 4121.02564075, 4110.64102537, 4101.79487145, 4133.97435870, 4145.89743569, 4132.05128178, 4112.82051255, 4145.89743569,12.0
4127.69230742, 3963.20512758, 4020.51282003, 4131.02564075, 4127.82051255, 4062.17948677, 4110.12820485, 4091.92307658, 4091.28205094, 4134.61538434, 4148.71794851, 4127.17948691, 4108.20512793, 4145.51282031,12.0
4122.82051255, 3962.56410194, 4014.10256362, 4130.51282024, 4128.97435870, 4060.76923036, 4105.76923050, 4091.02564068, 4095.38461504, 4131.53846126, 4147.56410236, 4123.07692280, 4110.38461511, 4145.25641005,12.0
4123.71794844, 3981.28205073, 4016.79487131, 4142.30769210, 4130.51282024, 4070.38461504, 4108.07692280, 4101.66666632, 4104.35897408, 4133.33333306, 4147.05128185, 4125.76923050, 4116.15384588, 4145.51282031,12.0
4126.28205101, 3984.23076868, 4014.10256362, 4144.99999980, 4128.46153819, 4069.23076882, 4108.07692280, 4100.89743555, 4103.84615357, 4134.87179460, 4151.79487159, 4128.71794844, 4110.76923050, 4147.43589723,12.0
4122.56410229, 3979.99999945, 4008.84615336, 4137.05128185, 4127.43589716, 4067.56410215, 4115.64102537, 4104.87179460, 4111.66666639, 4134.35897408, 4154.74358954, 4134.87179460, 4107.82051255, 4148.33333313,12.0
4132.30769203, 3980.76923022, 4009.10256362, 4138.20512800, 4129.10256383, 4070.51282017, 4123.07692280, 4114.23076896, 4117.05128178, 4131.66666639, 4150.76923056, 4137.69230749, 4117.69230742, 4146.28205108,12.0
4128.71794844, 3977.94871740, 4009.61538413, 4144.99999980, 4126.92307665, 4071.28205094, 4129.99999973, 4120.25640998, 4111.79487152, 4131.66666639, 4151.15384595, 4137.94871774, 4124.10256383, 4146.28205108,12.0
4127.05128178, 3978.20512765, 4006.92307644, 4144.35897415, 4124.35897408, 4075.51282017, 4128.33333306, 4120.12820485, 4116.15384588, 4134.61538434, 4158.46153826, 4136.79487159, 4115.12820485, 4146.53846133,12.0
4132.43589716, 3976.53846099, 4002.69230714, 4135.51282031, 4125.64102537, 4073.97435863, 4107.05128178, 4106.53846126, 4118.97435870, 4129.99999973, 4154.35897415, 4126.79487152, 4107.69230742, 4146.02564082,12.0
4124.87179460, 3970.12820451, 3997.56410201, 4126.92307665, 4126.66666639, 4067.30769189, 4096.28205094, 4099.61538427, 4105.25640998, 4125.25640998, 4141.92307672, 4118.58974332, 4106.66666639, 4148.07692287,12.0
4129.23076896, 3977.30769176, 4001.15384560, 4131.41025614, 4126.53846126, 4068.58974318, 4106.66666639, 4109.87179460, 4100.38461504, 4132.30769203, 4144.35897415, 4128.71794844, 4105.12820485, 4149.10256390,12.0
4125.64102537, 3980.12820458, 4009.48717900, 4143.20512800, 4127.69230742, 4068.97435856, 4111.02564075, 4111.15384588, 4113.97435870, 4136.53846133, 4154.23076903, 4142.69230749, 4115.51282024, 4147.69230749,12.0
4121.53846126, 3976.92307637, 4007.43589695, 4140.89743569, 4127.43589716, 4065.64102523, 4111.79487152, 4104.48717921, 4115.12820485, 4132.56410229, 4152.30769210, 4137.56410236, 4123.97435870, 4145.76923056,12.0
4126.66666639, 3990.64102509, 4003.58974304, 4133.20512793, 4127.43589716, 4063.84615343, 4121.41025614, 4110.38461511, 4107.69230742, 4133.58974332, 4148.84615364, 4129.99999973, 4114.10256383, 4146.02564082,12.0
4119.10256383, 3981.41025586, 3998.20512765, 4126.53846126, 4128.84615357, 4061.02564061, 4115.12820485, 4111.28205101, 4102.43589709, 4132.94871767, 4148.84615364, 4123.20512793, 4098.58974325, 4151.02564082,12.0
4123.71794844, 3948.46153784, 3986.28205073, 4116.53846126, 4129.74358947, 4061.02564061, 4095.51282017, 4093.71794837, 4088.84615350, 4128.33333306, 4138.46153826, 4104.35897408, 4092.82051248, 4151.53846133,12.0
4124.74358947, 3972.30769176, 3994.99999945, 4126.02564075, 4129.61538434, 4075.51282017, 4103.71794844, 4096.02564068, 4098.71794837, 4130.64102537, 4136.28205108, 4113.97435870, 4105.25640998, 4146.92307672,12.0
4122.56410229, 4012.43589695, 4016.53846106, 4145.64102544, 4126.79487152, 4082.05128171, 4126.28205101, 4114.87179460, 4125.89743562, 4131.79487152, 4155.12820492, 4147.82051262, 4118.07692280, 4146.02564082,12.0
4129.74358947, 3985.25640970, 4009.10256362, 4137.94871774, 4126.53846126, 4072.56410222, 4122.56410229, 4116.79487152, 4116.66666639, 4128.97435870, 4160.12820492, 4143.58974339, 4110.89743562, 4147.05128185,12.0
4122.05128178, 3961.02564040, 3992.43589688, 4120.38461511, 4127.94871767, 4067.30769189, 4108.33333306, 4117.94871767, 4096.28205094, 4130.76923050, 4143.71794851, 4117.82051255, 4099.48717914, 4147.43589723,12.0
4127.56410229, 3984.35897381, 3998.33333278, 4120.89743562, 4125.89743562, 4066.02564061, 4108.84615357, 4118.71794844, 4109.61538434, 4134.74358947, 4139.61538441, 4115.38461511, 4106.92307665, 4148.20512800,12.0
4132.30769203, 3978.84615329, 3996.79487124, 4118.58974332, 4126.92307665, 4057.05128164, 4100.12820478, 4107.69230742, 4117.82051255, 4134.61538434, 4144.48717928, 4115.12820485, 4111.79487152, 4147.82051262,12.0
4124.87179460, 3956.02564040, 3991.53846099, 4112.05128178, 4130.25640998, 4053.07692266, 4093.46153812, 4105.12820485, 4102.17948684, 4132.94871767, 4142.56410236, 4109.48717921, 4104.61538434, 4148.46153826,12.0
4129.23076896, 3980.76923022, 4007.30769183, 4124.74358947, 4129.61538434, 4065.38461497, 4114.61538434, 4114.48717921, 4103.97435870, 4133.84615357, 4146.53846133, 4126.28205101, 4102.56410229, 4148.84615364,12.0
4123.97435870, 4007.17948670, 4017.94871747, 4133.58974332, 4127.17948691, 4071.53846119, 4126.92307665, 4115.51282024, 4120.89743562, 4133.97435870, 4149.87179467, 4137.56410236, 4108.46153819, 4146.41025621,12.0
4125.51282024, 4000.64102509, 4017.30769183, 4128.58974332, 4127.17948691, 4067.30769189, 4118.71794844, 4109.87179460, 4123.97435870, 4133.07692280, 4144.87179467, 4131.28205101, 4117.30769203, 4146.79487159,12.0
4127.05128178, 3990.51281996, 4015.64102516, 4130.64102537, 4128.33333306, 4071.79487145, 4121.28205101, 4111.41025614, 4113.97435870, 4135.76923056, 4144.23076903, 4131.53846126, 4112.69230742, 4148.71794851,12.0
4118.46153819, 4001.41025586, 4018.46153798, 4139.35897415, 4128.46153819, 4085.89743555, 4136.15384595, 4117.43589716, 4112.69230742, 4138.20512800, 4154.35897415, 4139.99999980, 4105.12820485, 4148.58974339,12.0
4125.12820485, 4014.99999952, 4024.48717900, 4136.79487159, 4127.05128178, 4087.43589709, 4141.28205108, 4118.97435870, 4124.35897408, 4131.53846126, 4155.76923056, 4142.17948697, 4115.64102537, 4147.69230749,12.0
4121.41025614, 4000.64102509, 4015.12820465, 4120.25640998, 4126.53846126, 4069.87179453, 4125.12820485, 4116.53846126, 4116.15384588, 4128.97435870, 4141.41025621, 4124.35897408, 4114.87179460, 4145.89743569,12.0
4120.12820485, 3986.92307637, 4003.97435842, 4113.33333306, 4127.82051255, 4064.23076882, 4106.41025614, 4114.23076896, 4093.97435863, 4134.74358947, 4135.12820485, 4110.12820485, 4099.48717914, 4145.89743569,12.0
4126.41025614, 3993.84615329, 4008.33333285, 4111.28205101, 4129.48717921, 4068.84615343, 4101.92307658, 4115.38461511, 4094.61538427, 4129.35897408, 4137.69230749, 4115.64102537, 4100.51282017, 4146.53846133,12.0
4122.30769203, 3992.82051227, 4013.71794824, 4104.23076896, 4127.82051255, 4066.92307651, 4110.38461511, 4119.87179460, 4112.82051255, 4120.51282024, 4135.38461518, 4121.79487152, 4108.07692280, 4146.79487159,12.0
4127.43589716, 3982.94871740, 4016.41025593, 4102.05128171, 4127.56410229, 4067.30769189, 4117.43589716, 4120.38461511, 4123.07692280, 4130.38461511, 4138.07692287, 4122.69230742, 4106.02564075, 4145.64102544,12.0
4125.38461511, 3982.69230714, 4017.82051234, 4102.05128171, 4129.74358947, 4069.74358940, 4110.12820485, 4115.51282024, 4121.66666639, 4140.25641005, 4147.30769210, 4121.92307665, 4109.10256383, 4145.12820492,12.0
4126.28205101, 3986.15384560, 4011.53846106, 4096.53846119, 4128.84615357, 4067.17948677, 4097.69230735, 4106.79487152, 4113.33333306, 4135.51282031, 4145.25641005, 4115.25640998, 4103.71794844, 4147.82051262,12.0
4130.64102537, 3987.17948663, 4005.64102516, 4093.58974325, 4127.17948691, 4067.94871754, 4094.99999966, 4100.51282017, 4099.35897402, 4134.99999973, 4136.66666646, 4101.66666632, 4090.76923043, 4146.28205108,12.0
4121.28205101, 3998.84615329, 4010.64102516, 4105.64102537, 4126.02564075, 4077.69230735, 4108.71794844, 4104.74358947, 4098.71794837, 4136.92307672, 4135.38461518, 4100.51282017, 4099.99999966, 4144.87179467,12.0
4128.84615357, 4013.58974311, 4018.33333285, 4117.05128178, 4126.15384588, 4080.64102530, 4119.61538434, 4103.20512793, 4101.66666632, 4132.69230742, 4132.30769203, 4112.17948691, 4106.92307665, 4147.30769210,12.0
4129.61538434, 4016.28205080, 4023.20512772, 4118.20512793, 4126.53846126, 4070.76923043, 4116.66666639, 4102.56410229, 4089.23076889, 4132.43589716, 4130.38461511, 4122.17948691, 4093.84615350, 4146.92307672,12.0
4123.07692280, 4014.23076875, 4029.87179439, 4121.28205101, 4125.64102537, 4071.41025607, 4113.20512793, 4115.38461511, 4089.99999966, 4133.58974332, 4135.51282031, 4126.66666639, 4094.61538427, 4146.41025621,12.0
4129.10256383, 4026.15384567, 4034.74358926, 4130.38461511, 4125.51282024, 4083.71794837, 4115.12820485, 4120.38461511, 4113.58974332, 4132.82051255, 4140.25641005, 4128.46153819, 4106.66666639, 4147.56410236,12.0
4122.56410229, 4041.41025600, 4039.99999959, 4134.87179460, 4126.53846126, 4081.28205094, 4130.38461511, 4125.25640998, 4132.56410229, 4133.58974332, 4146.28205108, 4141.41025621, 4113.07692280, 4146.02564082,12.0
4123.84615357, 4039.99999959, 4048.20512779, 4131.66666639, 4127.05128178, 4074.74358940, 4140.64102544, 4140.25641005, 4139.61538441, 4132.82051255, 4154.74358954, 4156.66666646, 4118.84615357, 4144.23076903,12.0
4123.97435870, 4030.64102516, 4045.38461497, 4130.38461511, 4128.71794844, 4079.74358940, 4122.30769203, 4136.41025621, 4137.30769210, 4131.66666639, 4154.74358954, 4149.23076903, 4113.84615357, 4146.53846133,12.0
4121.41025614, 4028.58974311, 4037.30769189, 4128.33333306, 4129.48717921, 4080.25640991, 4098.71794837, 4119.48717921, 4122.05128178, 4135.64102544, 4149.87179467, 4135.64102544, 4104.35897408, 4147.94871774,12.0
4131.79487152, 4030.38461490, 4041.02564061, 4122.94871767, 4126.79487152, 4079.48717914, 4113.97435870, 4121.28205101, 4123.58974332, 4131.15384588, 4152.17948697, 4146.02564082, 4119.23076896, 4145.89743569,12.0
4123.20512793, 4023.46153798, 4044.74358933, 4118.07692280, 4125.89743562, 4087.17948684, 4140.76923056, 4131.66666639, 4130.76923050, 4122.69230742, 4154.35897415, 4151.41025621, 4130.76923050, 4147.17948697,12.0
4125.25640998, 4023.71794824, 4038.46153805, 4113.84615357, 4127.17948691, 4092.56410222, 4133.07692280, 4131.41025614, 4110.38461511, 4129.61538434, 4145.38461518, 4130.51282024, 4113.97435870, 4149.10256390,12.0
4132.69230742, 4036.66666618, 4030.51282003, 4112.94871767, 4127.17948691, 4094.35897402, 4121.15384588, 4126.53846126, 4102.69230742, 4139.10256390, 4135.25640998, 4116.79487152, 4101.41025607, 4144.61538441,12.0
4123.46153819, 4038.84615343, 4026.53846106, 4117.82051255, 4128.97435870, 4100.89743555, 4125.64102537, 4116.79487152, 4108.84615357, 4135.25640998, 4131.41025614, 4114.48717921, 4100.76923043, 4141.66666646,12.0
4127.17948691, 4045.38461497, 4033.20512772, 4128.07692280, 4131.92307665, 4102.17948684, 4133.07692280, 4112.94871767, 4104.61538434, 4132.17948691, 4131.79487152, 4115.12820485, 4097.43589709, 4146.28205108,12.0
4125.51282024, 4051.02564061, 4039.48717907, 4130.76923050, 4130.64102537, 4085.51282017, 4127.69230742, 4121.79487152, 4107.56410229, 4135.64102544, 4130.12820485, 4120.64102537, 4095.12820478, 4148.97435877,12.0
4125.89743562, 4037.17948677, 4036.28205080, 4122.82051255, 4128.71794844, 4077.56410222, 4107.94871767, 4115.38461511, 4105.64102537, 4135.51282031, 4125.25640998, 4120.12820485, 4091.66666632, 4144.87179467,12.0
4127.82051255, 4030.76923029, 4034.99999952, 4118.71794844, 4129.87179460, 4091.15384581, 4105.38461511, 4103.46153819, 4092.94871761, 4134.99999973, 4127.69230742, 4117.05128178, 4091.41025607, 4146.79487159,12.0
4120.76923050, 4042.56410215, 4040.12820472, 4120.25640998, 4127.17948691, 4096.41025607, 4119.87179460, 4113.20512793, 4098.84615350, 4135.76923056, 4134.61538434, 4123.33333306, 4102.82051255, 4154.35897415,12.0
4126.41025614, 4037.69230728, 4041.79487138, 4113.97435870, 4124.23076896, 4093.46153812, 4127.05128178, 4122.69230742, 4112.43589716, 4133.46153819, 4135.51282031, 4128.97435870, 4111.02564075, 4149.74358954,12.0
4121.28205101, 4015.64102516, 4035.12820465, 4104.23076896, 4126.15384588, 4096.92307658, 4123.33333306, 4117.30769203, 4106.02564075, 4134.61538434, 4135.12820485, 4121.92307665, 4102.56410229, 4146.79487159,12.0
4121.41025614, 4014.23076875, 4030.12820465, 4108.07692280, 4127.43589716, 4092.05128171, 4111.92307665, 4108.71794844, 4099.10256376, 4136.53846133, 4136.79487159, 4113.33333306, 4096.02564068, 4153.58974339,12.0
4128.58974332, 4017.69230721, 4022.94871747, 4110.25640998, 4126.92307665, 4081.28205094, 4102.05128171, 4103.33333306, 4095.51282017, 4133.20512793, 4131.79487152, 4101.15384581, 4092.17948684, 4149.99999980,12.0
4119.99999973, 4009.48717900, 4011.02564054, 4102.94871767, 4125.89743562, 4080.64102530, 4105.51282024, 4103.07692280, 4090.64102530, 4132.56410229, 4124.48717921, 4088.46153812, 4082.30769196, 4142.05128185,12.0
4124.87179460, 4010.38461490, 4014.10256362, 4107.17948691, 4124.74358947, 4084.87179453, 4106.92307665, 4103.71794844, 4087.30769196, 4133.20512793, 4125.38461511, 4093.71794837, 4083.71794837, 4145.51282031,12.0
4126.28205101, 4022.43589695, 4023.07692259, 4116.53846126, 4126.41025614, 4089.48717914, 4099.99999966, 4103.97435870, 4078.07692273, 4133.33333306, 4125.25640998, 4106.66666639, 4091.41025607, 4149.74358954,12.0
4123.20512793, 4032.94871747, 4023.58974311, 4118.71794844, 4127.17948691, 4094.99999966, 4109.61538434, 4106.66666639, 4079.48717914, 4135.12820485, 4122.82051255, 4114.74358947, 4089.61538427, 4145.64102544,12.0
4128.58974332, 4030.64102516, 4022.43589695, 4117.69230742, 4126.41025614, 4094.74358940, 4121.41025614, 4106.41025614, 4092.43589709, 4129.61538434, 4125.89743562, 4120.64102537, 4096.79487145, 4144.61538441,12.0
4124.10256383, 4034.48717900, 4025.38461490, 4122.56410229, 4128.07692280, 4093.33333299, 4117.94871767, 4107.56410229, 4093.58974325, 4124.74358947, 4128.71794844, 4122.56410229, 4105.12820485, 4151.79487159,12.0
4130.89743562, 4057.94871754, 4031.41025593, 4135.51282031, 4129.10256383, 4097.56410222, 4124.48717921, 4111.28205101, 4089.10256376, 4130.89743562, 4132.94871767, 4127.56410229, 4099.61538427, 4153.71794851,12.0
4129.61538434, 4068.46153805, 4029.10256362, 4144.35897415, 4127.05128178, 4106.53846126, 4135.89743569, 4111.41025614, 4092.69230735, 4135.89743569, 4139.23076903, 4133.07692280, 4095.38461504, 4144.74358954,12.0
4122.43589716, 4053.71794830, 4020.76923029, 4140.38461518, 4125.76923050, 4107.30769203, 4121.28205101, 4108.07692280, 4094.48717914, 4132.17948691, 4134.99999973, 4122.94871767, 4094.87179453, 4143.07692287,12.0
4129.23076896, 4038.84615343, 4012.82051234, 4130.25640998, 4126.02564075, 4090.12820478, 4092.05128171, 4097.56410222, 4085.89743555, 4132.17948691, 4126.92307665, 4104.35897408, 4087.43589709, 4146.92307672,12.0
4122.30769203, 4038.07692266, 4010.64102516, 4118.46153819, 4126.79487152, 4085.38461504, 4092.69230735, 4095.64102530, 4081.92307658, 4136.66666646, 4128.07692280, 4101.92307658, 4086.28205094, 4144.35897415,12.0
4123.20512793, 4042.69230728, 4015.25640977, 4112.17948691, 4127.43589716, 4099.99999966, 4112.43589716, 4106.66666639, 4081.66666632, 4135.51282031, 4129.61538434, 4106.53846126, 4089.87179453, 4144.23076903,12.0
4125.51282024, 4053.20512779, 4023.97435849, 4121.41025614, 4129.10256383, 4095.25640991, 4120.89743562, 4117.17948691, 4091.28205094, 4132.94871767, 4126.28205101, 4116.02564075, 4087.43589709, 4146.79487159,12.0
4119.61538434, 4065.64102523, 4036.02564054, 4132.43589716, 4129.61538434, 4084.48717914, 4125.25640998, 4124.23076896, 4109.87179460, 4134.74358947, 4132.94871767, 4133.33333306, 4092.94871761, 4146.66666646,12.0
4126.02564075, 4071.15384581, 4041.28205087, 4138.20512800, 4128.84615357, 4097.56410222, 4124.48717921, 4120.12820485, 4109.74358947, 4135.12820485, 4141.41025621, 4136.15384595, 4100.12820478, 4146.15384595,12.0
4119.99999973, 4064.10256369, 4033.58974311, 4140.89743569, 4127.82051255, 4102.30769196, 4113.20512793, 4113.33333306, 4093.07692273, 4130.89743562, 4132.69230742, 4124.61538434, 4092.56410222, 4144.48717928,12.0
4122.05128178, 4053.33333292, 4026.92307644, 4136.53846133, 4128.20512793, 4090.51282017, 4106.66666639, 4109.23076896, 4086.02564068, 4130.38461511, 4122.43589716, 4116.53846126, 4083.07692273, 4141.79487159,12.0
4127.82051255, 4068.33333292, 4031.92307644, 4137.94871774, 4128.33333306, 4098.20512786, 4113.97435870, 4103.20512793, 4091.02564068, 4133.46153819, 4126.02564075, 4116.15384588, 4084.74358940, 4145.89743569,12.0
4120.25640998, 4090.64102530, 4042.69230728, 4151.15384595, 4125.64102537, 4116.28205101, 4128.71794844, 4107.30769203, 4096.66666632, 4133.46153819, 4133.07692280, 4129.61538434, 4094.99999966, 4153.71794851,12.0
4126.66666639, 4075.76923043, 4044.99999959, 4148.84615364, 4124.99999973, 4111.15384588, 4131.41025614, 4115.76923050, 4097.43589709, 4132.56410229, 4132.56410229, 4137.56410236, 4094.74358940, 4149.61538441,12.0
4124.99999973, 4059.23076882, 4038.58974318, 4132.82051255, 4125.51282024, 4096.66666632, 4113.33333306, 4113.97435870, 4096.53846119, 4131.66666639, 4130.89743562, 4127.69230742, 4090.64102530, 4142.30769210,12.0
4127.05128178, 4078.84615350, 4043.20512779, 4138.33333313, 4124.61538434, 4106.79487152, 4107.17948691, 4116.28205101, 4107.43589716, 4131.79487152, 4139.74358954, 4131.79487152, 4098.46153812, 4144.10256390,12.0
4133.71794844, 4090.89743555, 4055.64102523, 4151.41025621, 4126.15384588, 4120.12820485, 4125.12820485, 4129.74358947, 4127.30769203, 4133.97435870, 4150.25641005, 4151.66666646, 4107.43589716, 4149.10256390,12.0
4122.30769203, 4086.15384581, 4059.87179446, 4153.58974339, 4127.30769203, 4113.20512793, 4135.64102544, 4136.53846133, 4130.38461511, 4133.84615357, 4155.38461518, 4159.48717928, 4115.76923050, 4151.28205108,12.0
4125.76923050, 4086.66666632, 4062.30769189, 4153.46153826, 4126.28205101, 4111.53846126, 4133.20512793, 4130.64102537, 4119.87179460, 4132.69230742, 4157.17948697, 4158.84615364, 4122.17948691, 4150.25641005,12.0
4126.79487152, 4076.79487145, 4064.48717907, 4143.20512800, 4126.41025614, 4120.51282024, 4131.02564075, 4126.53846126, 4118.20512793, 4136.66666646, 4154.35897415, 4158.71794851, 4116.15384588, 4146.79487159,12.0
4121.92307665, 4079.87179453, 4067.43589702, 4136.41025621, 4125.89743562, 4119.74358947, 4128.84615357, 4126.92307665, 4128.58974332, 4137.17948697, 4153.20512800, 4157.82051262, 4108.71794844, 4145.64102544,12.0
4122.69230742, 4106.02564075, 4069.48717907, 4148.58974339, 4125.51282024, 4113.58974332, 4128.33333306, 4125.51282024, 4124.48717921, 4132.05128178, 4155.25641005, 4157.94871774, 4109.10256383, 4146.66666646,12.0
4118.07692280, 4097.82051248, 4059.99999959, 4154.23076903, 4127.43589716, 4110.89743562, 4118.20512793, 4115.89743562, 4100.25640991, 4131.66666639, 4148.84615364, 4146.28205108, 4106.41025614, 4143.97435877,12.0
4126.41025614, 4080.64102530, 4055.89743548, 4145.12820492, 4128.20512793, 4116.02564075, 4116.02564075, 4110.89743562, 4099.23076889, 4134.48717921, 4141.53846133, 4134.87179460, 4107.69230742, 4142.43589723,12.0
4123.71794844, 4100.64102530, 4069.23076882, 4137.94871774, 4127.43589716, 4127.17948691, 4147.82051262, 4129.10256383, 4128.07692280, 4134.74358947, 4144.74358954, 4147.82051262, 4114.48717921, 4143.71794851,12.0
4115.64102537, 4094.10256376, 4072.17948684, 4130.76923050, 4128.46153819, 4123.58974332, 4151.66666646, 4134.48717921, 4131.66666639, 4133.33333306, 4145.25641005, 4153.46153826, 4110.51282024, 4144.10256390,12.0
4126.79487152, 4062.69230728, 4059.87179446, 4126.15384588, 4130.64102537, 4116.41025614, 4114.23076896, 4116.41025614, 4112.05128178, 4133.97435870, 4137.56410236, 4138.58974339, 4104.61538434, 4144.10256390,12.0
4126.92307665, 4070.25640991, 4055.76923036, 4126.02564075, 4128.20512793, 4121.79487152, 4109.74358947, 4119.61538434, 4116.02564075, 4134.10256383, 4133.97435870, 4130.25640998, 4101.28205094, 4146.02564082,12.0
4128.46153819, 4084.10256376, 4060.76923036, 4125.51282024, 4123.84615357, 4120.64102537, 4131.79487152, 4130.38461511, 4127.17948691, 4133.46153819, 4137.30769210, 4131.92307665, 4099.35897402, 4148.20512800,12.0
4126.92307665, 4079.23076889, 4067.17948677, 4126.79487152, 4126.66666639, 4115.76923050, 4135.38461518, 4129.99999973, 4124.10256383, 4135.76923056, 4141.92307672, 4139.87179467, 4115.12820485, 4145.76923056,12.0
4122.56410229, 4084.48717914, 4071.02564068, 4126.92307665, 4128.97435870, 4118.20512793, 4134.87179460, 4128.97435870, 4122.56410229, 4136.28205108, 4143.20512800, 4146.41025621, 4120.38461511, 4145.25641005,12.0
4130.12820485, 4098.84615350, 4075.51282017, 4130.64102537, 4126.66666639, 4121.02564075, 4133.58974332, 4122.30769203, 4123.07692280, 4134.10256383, 4144.10256390, 4149.48717928, 4105.51282024, 4147.56410236,12.0
4124.48717921, 4112.56410229, 4084.10256376, 4148.71794851, 4126.79487152, 4123.71794844, 4126.79487152, 4121.15384588, 4122.94871767, 4134.74358947, 4151.02564082, 4162.82051262, 4114.61538434, 4147.43589723,12.0
4126.28205101, 4117.82051255, 4091.15384581, 4156.79487159, 4129.10256383, 4127.56410229, 4130.51282024, 4131.53846126, 4127.69230742, 4135.12820485, 4155.51282031, 4176.66666653, 4131.92307665, 4146.92307672,12.0
4125.76923050, 4117.94871767, 4090.12820478, 4149.10256390, 4128.33333306, 4128.20512793, 4143.58974339, 4140.38461518, 4135.64102544, 4133.33333306, 4152.56410236, 4172.56410243, 4124.48717921, 4146.79487159,12.0
4115.89743562, 4125.76923050, 4091.02564068, 4152.69230749, 4125.51282024, 4127.56410229, 4149.10256390, 4144.87179467, 4139.10256390, 4132.82051255, 4153.46153826, 4168.97435884, 4117.43589716, 4146.15384595,12.0
4125.64102537, 4115.64102537, 4093.33333299, 4152.05128185, 4126.53846126, 4128.20512793, 4137.30769210, 4139.23076903, 4135.25640998, 4135.12820485, 4154.48717928, 4172.94871781, 4122.56410229, 4144.35897415,12.0
4122.30769203, 4097.56410222, 4086.79487145, 4136.15384595, 4129.48717921, 4124.35897408, 4121.53846126, 4130.76923050, 4133.33333306, 4134.61538434, 4151.41025621, 4166.79487159, 4121.79487152, 4145.25641005,12.0
4119.87179460, 4105.38461511, 4085.38461504, 4130.25640998, 4129.61538434, 4121.53846126, 4122.69230742, 4129.74358947, 4130.76923050, 4133.71794844, 4150.12820492, 4157.82051262, 4118.07692280, 4147.94871774,12.0
4126.92307665, 4117.05128178, 4091.92307658, 4137.05128185, 4128.07692280, 4128.20512793, 4141.79487159, 4129.99999973, 4125.25640998, 4136.02564082, 4145.89743569, 4157.94871774, 4122.30769203, 4145.64102544,12.0
4122.69230742, 4116.66666639, 4091.79487145, 4138.20512800, 4125.51282024, 4134.23076896, 4145.51282031, 4126.92307665, 4119.61538434, 4136.28205108, 4137.94871774, 4156.15384595, 4119.74358947, 4141.28205108,12.0
4128.97435870, 4105.38461511, 4082.43589709, 4129.99999973, 4124.48717921, 4124.48717921, 4117.94871767, 4118.58974332, 4107.94871767, 4135.12820485, 4137.56410236, 4143.58974339, 4110.64102537, 4144.10256390,12.0
4125.76923050, 4095.38461504, 4074.35897402, 4123.84615357, 4126.41025614, 4110.64102537, 4104.87179460, 4109.74358947, 4105.76923050, 4135.12820485, 4142.94871774, 4134.35897408, 4108.33333306, 4149.61538441,12.0
4123.58974332, 4107.82051255, 4080.12820478, 4125.89743562, 4127.05128178, 4122.30769203, 4125.64102537, 4114.48717921, 4120.89743562, 4133.33333306, 4141.79487159, 4137.82051262, 4110.89743562, 4144.99999980,12.0
4129.10256383, 4113.33333306, 4086.41025607, 4129.87179460, 4127.30769203, 4134.48717921, 4130.76923050, 4124.61538434, 4127.05128178, 4133.20512793, 4140.64102544, 4145.76923056, 4106.53846126, 4144.48717928,12.0
4121.02564075, 4102.05128171, 4084.23076889, 4134.74358947, 4128.58974332, 4122.05128178, 4108.97435870, 4124.10256383, 4122.56410229, 4134.87179460, 4141.92307672, 4146.66666646, 4104.74358947, 4155.64102544,12.0
4126.02564075, 4115.89743562, 4087.17948684, 4146.02564082, 4127.94871767, 4111.66666639, 4101.53846119, 4116.92307665, 4126.66666639, 4134.48717921, 4141.79487159, 4146.66666646, 4117.05128178, 4152.43589723,12.0
4126.02564075, 4123.07692280, 4088.97435863, 4142.05128185, 4127.30769203, 4117.30769203, 4110.38461511, 4118.97435870, 4129.10256383, 4133.71794844, 4146.02564082, 4145.51282031, 4127.17948691, 4146.53846133,12.0
4122.56410229, 4108.84615357, 4086.41025607, 4127.56410229, 4127.17948691, 4126.79487152, 4121.15384588, 4135.25640998, 4128.71794844, 4134.35897408, 4151.15384595, 4143.84615364, 4120.12820485, 4153.71794851,12.0
4129.48717921, 4115.76923050, 4090.25640991, 4133.58974332, 4126.66666639, 4121.53846126, 4126.28205101, 4136.53846133, 4135.64102544, 4134.87179460, 4147.05128185, 4149.48717928, 4107.43589716, 4152.82051262,12.0
4121.92307665, 4118.97435870, 4091.41025607, 4134.23076896, 4126.53846126, 4114.35897408, 4118.20512793, 4120.12820485, 4129.23076896, 4134.74358947, 4138.46153826, 4147.69230749, 4107.05128178, 4143.46153826,12.0
4125.12820485, 4117.43589716, 4089.23076889, 4121.41025614, 4126.92307665, 4128.84615357, 4124.48717921, 4123.07692280, 4122.05128178, 4134.35897408, 4143.58974339, 4142.30769210, 4114.61538434, 4144.87179467,12.0
4124.87179460, 4131.28205101, 4090.12820478, 4127.56410229, 4128.58974332, 4136.15384595, 4137.94871774, 4135.51282031, 4127.17948691, 4134.48717921, 4151.02564082, 4144.87179467, 4115.64102537, 4146.92307672,12.0
4117.17948691, 4127.94871767, 4096.15384581, 4144.74358954, 4128.84615357, 4121.53846126, 4126.92307665, 4126.79487152, 4126.02564075, 4134.61538434, 4145.64102544, 4154.87179467, 4111.66666639, 4142.94871774,12.0
4125.76923050, 4113.46153819, 4098.71794837, 4142.17948697, 4127.94871767, 4122.56410229, 4120.25640998, 4118.46153819, 4122.82051255, 4134.48717921, 4139.10256390, 4159.10256390, 4110.89743562, 4146.41025621,12.0
4124.35897408, 4109.74358947, 4089.74358940, 4125.25640998, 4126.02564075, 4134.74358947, 4128.71794844, 4127.69230742, 4122.69230742, 4134.87179460, 4137.05128185, 4143.97435877, 4113.97435870, 4148.33333313,12.0
4126.53846126, 4120.12820485, 4092.17948684, 4124.61538434, 4125.64102537, 4124.10256383, 4127.30769203, 4134.87179460, 4127.56410229, 4134.23076896, 4144.87179467, 4144.48717928, 4123.84615357, 4145.89743569,12.0
4130.76923050, 4132.94871767, 4104.99999973, 4136.41025621, 4128.97435870, 4115.89743562, 4123.58974332, 4136.92307672, 4133.58974332, 4134.23076896, 4156.92307672, 4164.23076903, 4125.76923050, 4145.38461518,12.0
4127.17948691, 4129.10256383, 4101.15384581, 4132.69230742, 4129.74358947, 4129.35897408, 4123.07692280, 4136.79487159, 4132.17948691, 4135.89743569, 4151.02564082, 4163.58974339, 4111.28205101, 4146.79487159,12.0
4133.20512793, 4122.94871767, 4091.92307658, 4124.23076896, 4127.82051255, 4140.12820492, 4125.25640998, 4134.35897408, 4132.05128178, 4132.56410229, 4141.66666646, 4148.71794851, 4108.33333306, 4148.84615364,12.0
4126.66666639, 4126.92307665, 4094.74358940, 4129.61538434, 4127.69230742, 4137.82051262, 4141.92307672, 4138.20512800, 4135.25640998, 4131.02564075, 4149.74358954, 4151.79487159, 4120.51282024, 4148.20512800,12.0
4127.56410229, 4120.51282024, 4098.97435863, 4133.46153819, 4128.71794844, 4129.87179460, 4140.76923056, 4134.74358947, 4133.07692280, 4134.10256383, 4153.71794851, 4157.17948697, 4125.25640998, 4144.99999980,12.0
4130.38461511, 4114.48717921, 4099.10256376, 4132.05128178, 4128.46153819, 4120.38461511, 4118.84615357, 4126.41025614, 4126.79487152, 4133.97435870, 4147.94871774, 4153.97435877, 4121.15384588, 4143.97435877,12.0
4119.61538434, 4132.69230742, 4103.33333306, 4136.92307672, 4127.05128178, 4118.46153819, 4129.48717921, 4139.48717928, 4134.35897408, 4133.07692280, 4151.66666646, 4160.51282031, 4124.10256383, 4147.56410236,12.0
4125.12820485, 4136.41025621, 4098.46153812, 4132.43589716, 4125.76923050, 4123.58974332, 4141.15384595, 4145.38461518, 4139.99999980, 4134.48717921, 4148.97435877, 4155.76923056, 4123.58974332, 4148.46153826,12.0
4121.28205101, 4119.10256383, 4084.74358940, 4119.35897408, 4126.66666639, 4123.07692280, 4116.15384588, 4123.33333306, 4127.82051255, 4135.64102544, 4136.15384595, 4133.58974332, 4112.17948691, 4146.41025621,12.0
4119.61538434, 4129.61538434, 4091.53846119, 4124.48717921, 4128.71794844, 4127.05128178, 4119.10256383, 4120.89743562, 4123.97435870, 4135.64102544, 4140.12820492, 4140.89743569, 4114.99999973, 4147.43589723,12.0
4128.07692280, 4129.48717921, 4101.66666632, 4125.89743562, 4129.74358947, 4129.61538434, 4142.43589723, 4140.51282031, 4130.76923050, 4129.87179460, 4147.05128185, 4157.94871774, 4124.99999973, 4147.30769210,12.0
4119.23076896, 4099.23076889, 4089.10256376, 4110.89743562, 4127.69230742, 4116.41025614, 4127.94871767, 4140.25641005, 4128.84615357, 4121.92307665, 4139.35897415, 4140.12820492, 4114.74358947, 4147.56410236,12.0
4122.94871767, 4109.99999973, 4083.07692273, 4112.43589716, 4126.15384588, 4119.48717921, 4118.71794844, 4125.89743562, 4118.07692280, 4127.94871767, 4135.25640998, 4123.07692280, 4104.74358947, 4148.07692287,12.0
4126.41025614, 4145.51282031, 4093.07692273, 4123.71794844, 4127.43589716, 4136.66666646, 4141.79487159, 4128.33333306, 4117.05128178, 4137.94871774, 4137.43589723, 4137.17948697, 4117.05128178, 4146.02564082,12.0
4125.64102537, 4134.61538434, 4096.53846119, 4125.64102537, 4127.94871767, 4133.84615357, 4145.12820492, 4134.99999973, 4120.38461511, 4135.25640998, 4140.64102544, 4146.15384595, 4117.94871767, 4146.28205108,12.0
4131.66666639, 4106.53846126, 4088.84615350, 4122.43589716, 4126.92307665, 4128.84615357, 4128.33333306, 4127.82051255, 4117.43589716, 4132.94871767, 4147.30769210, 4136.15384595, 4101.53846119, 4147.05128185,12.0
4126.28205101, 4111.02564075, 4081.92307658, 4119.99999973, 4127.30769203, 4134.10256383, 4124.48717921, 4121.79487152, 4118.20512793, 4135.89743569, 4148.97435877, 4131.02564075, 4102.17948684, 4146.79487159,12.0
4130.38461511, 4118.84615357, 4081.92307658, 4123.84615357, 4128.71794844, 4127.69230742, 4122.30769203, 4120.51282024, 4115.25640998, 4136.41025621, 4143.84615364, 4127.82051255, 4109.23076896, 4146.66666646,12.0
4127.17948691, 4107.17948691, 4080.51282017, 4121.92307665, 4128.07692280, 4118.97435870, 4113.33333306, 4119.87179460, 4103.20512793, 4135.64102544, 4141.15384595, 4122.05128178, 4108.71794844, 4149.10256390,12.0
4119.61538434, 4095.38461504, 4072.69230735, 4110.89743562, 4126.53846126, 4121.15384588, 4106.15384588, 4112.94871767, 4095.64102530, 4135.64102544, 4140.76923056, 4122.30769203, 4107.94871767, 4151.66666646,12.0
4128.07692280, 4094.87179453, 4066.92307651, 4109.48717921, 4126.41025614, 4124.10256383, 4108.33333306, 4099.61538427, 4095.64102530, 4135.12820485, 4137.30769210, 4120.25640998, 4103.20512793, 4148.84615364,12.0
4122.69230742, 4095.51282017, 4067.05128164, 4113.84615357, 4124.74358947, 4127.82051255, 4118.33333306, 4104.87179460, 4097.82051248, 4135.25640998, 4137.43589723, 4118.97435870, 4095.64102530, 4147.30769210,12.0
4123.46153819, 4095.51282017, 4067.43589702, 4107.56410229, 4123.58974332, 4131.41025614, 4125.25640998, 4125.12820485, 4098.33333299, 4135.38461518, 4139.61538441, 4122.05128178, 4099.10256376, 4149.61538441,12.0
4124.48717921, 4102.17948684, 4061.66666625, 4108.84615357, 4126.28205101, 4130.25640998, 4122.94871767, 4133.20512793, 4100.25640991, 4135.25640998, 4136.53846133, 4122.30769203, 4105.89743562, 4148.20512800,12.0
4117.94871767, 4103.58974332, 4058.33333292, 4121.28205101, 4128.07692280, 4134.48717921, 4119.48717921, 4123.58974332, 4101.66666632, 4135.25640998, 4136.92307672, 4120.38461511, 4104.35897408, 4144.74358954,12.0
4125.51282024, 4095.51282017, 4061.66666625, 4120.89743562, 4127.94871767, 4137.17948697, 4127.82051255, 4119.23076896, 4106.41025614, 4135.25640998, 4139.87179467, 4123.58974332, 4105.76923050, 4146.02564082,12.0
4121.79487152, 4098.71794837, 4061.92307651, 4113.20512793, 4127.69230742, 4131.41025614, 4133.71794844, 4128.84615357, 4112.30769203, 4135.25640998, 4137.56410236, 4127.05128178, 4107.30769203, 4144.99999980,12.0
4123.97435870, 4108.58974332, 4056.92307651, 4112.94871767, 4126.53846126, 4134.23076896, 4127.17948691, 4124.99999973, 4105.76923050, 4135.25640998, 4137.94871774, 4121.92307665, 4100.38461504, 4140.89743569,12.0
4129.35897408, 4100.38461504, 4049.61538420, 4115.76923050, 4127.05128178, 4140.12820492, 4120.51282024, 4107.69230742, 4097.17948684, 4135.25640998, 4143.07692287, 4116.15384588, 4096.79487145, 4145.38461518,12.0
4122.82051255, 4094.23076889, 4048.46153805, 4122.30769203, 4128.33333306, 4132.43589716, 4122.56410229, 4111.02564075, 4101.02564068, 4135.25640998, 4143.07692287, 4118.97435870, 4106.66666639, 4151.02564082,12.0
4129.10256383, 4112.43589716, 4056.41025600, 4124.99999973, 4127.30769203, 4120.51282024, 4119.48717921, 4119.74358947, 4101.02564068, 4135.25640998, 4138.33333313, 4125.51282024, 4108.58974332, 4149.23076903,12.0
4124.61538434, 4115.89743562, 4058.20512779, 4120.38461511, 4123.84615357, 4122.94871767, 4106.53846126, 4114.99999973, 4090.12820478, 4135.38461518, 4138.71794851, 4123.71794844, 4094.61538427, 4149.87179467,12.0
4124.61538434, 4096.92307658, 4051.79487138, 4118.20512793, 4122.30769203, 4131.79487152, 4102.05128171, 4109.10256383, 4086.53846119, 4135.76923056, 4140.76923056, 4116.92307665, 4091.92307658, 4153.33333313,12.0
4131.92307665, 4088.20512786, 4046.53846113, 4116.53846126, 4125.51282024, 4119.87179460, 4104.23076896, 4108.46153819, 4092.94871761, 4134.48717921, 4136.15384595, 4115.25640998, 4102.69230742, 4148.58974339,12.0
4119.87179460, 4094.74358940, 4046.79487138, 4107.30769203, 4126.41025614, 4113.07692280, 4106.92307665, 4113.07692280, 4092.82051248, 4135.64102544, 4133.07692280, 4114.23076896, 4107.30769203, 4141.79487159,12.0
4121.66666639, 4108.71794844, 4055.64102523, 4109.87179460, 4125.89743562, 4133.84615357, 4122.43589716, 4123.07692280, 4093.58974325, 4136.41025621, 4143.46153826, 4123.84615357, 4105.89743562, 4144.35897415,12.0
4123.71794844, 4113.07692280, 4064.35897395, 4128.58974332, 4128.84615357, 4144.48717928, 4146.53846133, 4135.25640998, 4108.07692280, 4131.15384588, 4152.69230749, 4143.58974339, 4108.33333306, 4147.43589723,12.0
4123.07692280, 4107.56410229, 4061.92307651, 4130.38461511, 4129.61538434, 4139.87179467, 4144.99999980, 4137.17948697, 4117.43589716, 4129.87179460, 4148.46153826, 4140.51282031, 4107.69230742, 4146.15384595,12.0
4126.53846126, 4107.30769203, 4057.43589702, 4116.41025614, 4125.89743562, 4140.25641005, 4122.94871767, 4126.15384588, 4108.46153819, 4133.07692280, 4142.30769210, 4119.61538434, 4104.87179460, 4146.28205108,12.0
4120.64102537, 4112.17948691, 4061.53846113, 4114.23076896, 4125.51282024, 4137.17948697, 4121.15384588, 4127.17948691, 4104.10256383, 4134.61538434, 4138.97435877, 4119.23076896, 4109.74358947, 4147.17948697,12.0
4128.58974332, 4106.79487152, 4063.46153805, 4122.82051255, 4126.53846126, 4133.20512793, 4125.76923050, 4136.28205108, 4111.53846126, 4133.20512793, 4140.25641005, 4128.84615357, 4107.05128178, 4146.92307672,12.0
4127.05128178, 4112.82051255, 4063.97435856, 4125.76923050, 4125.76923050, 4137.17948697, 4121.66666639, 4134.48717921, 4117.17948691, 4131.92307665, 4148.97435877, 4129.48717921, 4101.66666632, 4146.66666646,12.0
4120.76923050, 4126.02564075, 4072.56410222, 4124.48717921, 4126.53846126, 4139.61538441, 4133.97435870, 4133.71794844, 4121.02564075, 4133.20512793, 4152.94871774, 4138.46153826, 4110.12820485, 4148.07692287,12.0
4129.48717921, 4108.46153819, 4072.82051248, 4122.17948691, 4127.82051255, 4135.64102544, 4140.89743569, 4139.74358954, 4120.12820485, 4134.87179460, 4149.23076903, 4146.15384595, 4115.64102537, 4145.76923056,12.0
4129.48717921, 4108.46153819, 4072.82051248, 4122.17948691, 4127.82051255, 4135.64102544, 4140.89743569, 4139.74358954, 4120.12820485, 4134.87179460, 4149.23076903, 4146.15384595, 4115.64102537, 4145.76923056,12.0
4124.23076896, 4093.58974325, 4062.17948677, 4117.05128178, 4127.30769203, 4128.20512793, 4127.05128178, 4142.94871774, 4109.61538434, 4134.87179460, 4146.02564082, 4135.89743569, 4106.28205101, 4143.20512800,12.0
4126.92307665, 4104.74358947, 4064.74358933, 4116.66666639, 4127.17948691, 4126.53846126, 4126.92307665, 4135.89743569, 4104.61538434, 4133.97435870, 4145.76923056, 4124.87179460, 4101.15384581, 4147.17948697,12.0
4129.48717921, 4107.17948691, 4071.28205094, 4119.61538434, 4126.66666639, 4137.17948697, 4134.10256383, 4127.69230742, 4110.89743562, 4134.48717921, 4149.48717928, 4123.97435870, 4106.02564075, 4148.84615364,12.0
4124.87179460, 4102.82051255, 4068.20512779, 4121.28205101, 4124.23076896, 4144.35897415, 4130.76923050, 4128.84615357, 4109.61538434, 4134.87179460, 4152.94871774, 4127.05128178, 4106.92307665, 4145.38461518,12.0
4128.84615357, 4108.33333306, 4067.82051241, 4119.35897408, 4125.12820485, 4138.46153826, 4124.87179460, 4129.23076896, 4096.41025607, 4133.84615357, 4143.71794851, 4124.61538434, 4102.43589709, 4145.64102544,12.0
4119.87179460, 4106.41025614, 4067.17948677, 4111.66666639, 4127.56410229, 4130.12820485, 4120.12820485, 4124.23076896, 4093.84615350, 4132.69230742, 4132.82051255, 4117.43589716, 4097.82051248, 4148.33333313,12.0
4121.66666639, 4096.79487145, 4068.71794830, 4112.17948691, 4127.30769203, 4130.76923050, 4117.30769203, 4118.58974332, 4101.92307658, 4133.20512793, 4136.28205108, 4120.64102537, 4098.58974325, 4147.17948697,12.0
4124.87179460, 4099.10256376, 4075.12820478, 4119.10256383, 4129.23076896, 4130.12820485, 4119.99999973, 4122.17948691, 4104.74358947, 4135.76923056, 4140.64102544, 4131.66666639, 4102.94871767, 4145.25641005,12.0
4116.66666639, 4099.10256376, 4068.46153805, 4114.99999973, 4128.84615357, 4118.33333306, 4109.74358947, 4126.15384588, 4098.07692273, 4135.64102544, 4138.84615364, 4123.33333306, 4099.35897402, 4145.76923056,12.0
4123.71794844, 4093.33333299, 4061.92307651, 4111.66666639, 4126.92307665, 4121.41025614, 4108.71794844, 4132.82051255, 4101.66666632, 4134.10256383, 4137.43589723, 4112.94871767, 4094.74358940, 4146.02564082,12.0
4118.84615357, 4096.02564068, 4073.97435863, 4117.05128178, 4127.30769203, 4136.02564082, 4137.17948697, 4151.66666646, 4123.20512793, 4135.25640998, 4137.82051262, 4128.20512793, 4102.30769196, 4145.38461518,12.0
4118.71794844, 4096.79487145, 4080.64102530, 4114.48717921, 4126.53846126, 4128.33333306, 4136.02564082, 4148.97435877, 4121.41025614, 4135.38461518, 4139.10256390, 4135.12820485, 4107.43589716, 4146.41025621,12.0
4128.71794844, 4083.71794837, 4068.71794830, 4104.35897408, 4126.41025614, 4119.61538434, 4109.35897408, 4124.61538434, 4098.58974325, 4131.66666639, 4138.58974339, 4118.46153819, 4096.66666632, 4147.69230749,12.0
4123.20512793, 4088.07692273, 4068.58974318, 4102.30769196, 4128.20512793, 4129.48717921, 4117.94871767, 4126.28205101, 4101.41025607, 4129.61538434, 4137.82051262, 4116.53846126, 4094.35897402, 4146.15384595,12.0
4125.76923050, 4098.58974325, 4079.74358940, 4104.23076896, 4127.30769203, 4128.46153819, 4137.82051262, 4136.28205108, 4110.38461511, 4128.07692280, 4138.20512800, 4128.46153819, 4101.41025607, 4145.76923056,12.0
4123.46153819, 4089.48717914, 4076.53846119, 4105.51282024, 4125.25640998, 4124.74358947, 4128.07692280, 4121.92307665, 4094.87179453, 4130.76923050, 4136.28205108, 4126.41025614, 4096.53846119, 4148.46153826,12.0
4125.51282024, 4082.05128171, 4077.30769196, 4112.69230742, 4126.79487152, 4134.35897408, 4117.30769203, 4117.17948691, 4092.43589709, 4133.97435870, 4136.02564082, 4127.30769203, 4098.33333299, 4149.48717928,12.0
4132.43589716, 4086.15384581, 4080.25640991, 4107.17948691, 4127.43589716, 4128.20512793, 4121.15384588, 4128.07692280, 4106.02564075, 4127.94871767, 4139.87179467, 4129.87179460, 4107.43589716, 4145.76923056,12.0
4121.15384588, 4082.82051248, 4071.66666632, 4094.74358940, 4126.15384588, 4117.43589716, 4117.05128178, 4128.97435870, 4100.12820478, 4123.71794844, 4133.58974332, 4118.07692280, 4099.87179453, 4146.02564082,12.0
4125.89743562, 4078.07692273, 4071.66666632, 4099.35897402, 4126.15384588, 4125.89743562, 4109.48717921, 4124.23076896, 4096.66666632, 4131.66666639, 4125.12820485, 4114.99999973, 4086.41025607, 4148.07692287,12.0
4126.92307665, 4083.07692273, 4075.38461504, 4107.82051255, 4126.41025614, 4127.94871767, 4104.35897408, 4127.17948691, 4108.58974332, 4137.30769210, 4133.20512793, 4118.71794844, 4088.97435863, 4146.15384595,12.0
4120.25640998, 4090.25640991, 4078.20512786, 4112.94871767, 4126.41025614, 4121.28205101, 4116.02564075, 4142.17948697, 4114.87179460, 4134.10256383, 4140.38461518, 4122.56410229, 4101.41025607, 4146.53846133,12.0
4123.58974332, 4102.56410229, 4090.25640991, 4122.82051255, 4127.43589716, 4129.87179460, 4142.43589723, 4156.66666646, 4121.02564075, 4133.84615357, 4138.07692287, 4137.82051262, 4108.58974332, 4146.53846133,12.0
4118.46153819, 4104.61538434, 4092.56410222, 4124.35897408, 4126.92307665, 4142.94871774, 4150.12820492, 4151.79487159, 4127.30769203, 4135.25640998, 4141.79487159, 4139.35897415, 4100.64102530, 4144.48717928,12.0
4124.87179460, 4089.87179453, 4076.66666632, 4107.43589716, 4124.74358947, 4141.66666646, 4137.05128185, 4133.97435870, 4118.71794844, 4134.23076896, 4143.20512800, 4116.41025614, 4087.30769196, 4143.58974339,12.0
4123.71794844, 4085.64102530, 4074.10256376, 4101.28205094, 4125.38461511, 4133.46153819, 4131.02564075, 4134.10256383, 4109.87179460, 4135.89743569, 4134.99999973, 4115.38461511, 4094.10256376, 4143.58974339,12.0
4116.92307665, 4095.12820478, 4092.30769196, 4119.74358947, 4127.94871767, 4132.43589716, 4135.12820485, 4144.35897415, 4116.02564075, 4135.25640998, 4136.53846133, 4142.05128185, 4111.15384588, 4144.10256390,12.0
4116.92307665, 4095.12820478, 4092.30769196, 4119.74358947, 4127.94871767, 4132.43589716, 4135.12820485, 4144.35897415, 4116.02564075, 4135.25640998, 4136.53846133, 4142.05128185, 4111.15384588, 4144.10256390,12.0
4126.41025614, 4104.10256383, 4100.51282017, 4130.64102537, 4127.43589716, 4133.84615357, 4132.30769203, 4136.92307672, 4121.02564075, 4133.97435870, 4144.23076903, 4147.56410236, 4109.74358947, 4144.87179467,12.0
4123.58974332, 4101.66666632, 4090.89743555, 4119.48717921, 4124.99999973, 4133.71794844, 4128.46153819, 4132.94871767, 4118.84615357, 4134.61538434, 4142.30769210, 4131.15384588, 4095.64102530, 4148.33333313,12.0
4126.02564075, 4091.92307658, 4084.10256376, 4113.58974332, 4126.41025614, 4138.84615364, 4126.02564075, 4135.64102544, 4119.87179460, 4134.61538434, 4137.94871774, 4122.05128178, 4091.15384581, 4149.10256390,12.0
4130.12820485, 4088.20512786, 4086.41025607, 4115.38461511, 4128.46153819, 4135.25640998, 4124.23076896, 4131.79487152, 4121.79487152, 4134.35897408, 4136.66666646, 4123.71794844, 4100.76923043, 4147.82051262,12.0
4124.87179460, 4094.23076889, 4086.66666632, 4109.10256383, 4125.51282024, 4119.35897408, 4119.74358947, 4133.84615357, 4112.82051255, 4134.48717921, 4138.58974339, 4123.58974332, 4099.74358940, 4149.74358954,12.0
4127.94871767, 4087.43589709, 4078.97435863, 4105.51282024, 4124.23076896, 4115.64102537, 4106.02564075, 4131.66666639, 4099.74358940, 4134.48717921, 4136.28205108, 4112.43589716, 4085.89743555, 4149.10256390,12.0
4119.48717921, 4065.64102523, 4072.56410222, 4102.94871767, 4125.51282024, 4118.46153819, 4102.56410229, 4121.66666639, 4101.41025607, 4134.48717921, 4125.89743562, 4099.35897402, 4082.17948684, 4145.64102544,12.0
4121.79487152, 4063.07692266, 4074.35897402, 4092.30769196, 4125.38461511, 4115.89743562, 4116.28205101, 4123.97435870, 4103.84615357, 4134.48717921, 4120.76923050, 4095.76923043, 4088.46153812, 4145.76923056,12.0
4127.56410229, 4075.12820478, 4074.10256376, 4088.97435863, 4126.02564075, 4114.23076896, 4122.05128178, 4127.69230742, 4090.64102530, 4134.48717921, 4121.53846126, 4097.69230735, 4090.89743555, 4146.15384595,12.0
4117.30769203, 4082.30769196, 4073.84615350, 4100.64102530, 4127.30769203, 4116.41025614, 4119.99999973, 4120.76923050, 4091.15384581, 4134.48717921, 4121.79487152, 4101.41025607, 4088.46153812, 4146.02564082,12.0
4125.38461511, 4087.94871761, 4083.07692273, 4112.05128178, 4126.53846126, 4126.92307665, 4131.66666639, 4124.48717921, 4114.35897408, 4134.48717921, 4129.74358947, 4111.92307665, 4087.17948684, 4146.41025621,12.0
4124.74358947, 4085.64102530, 4087.94871761, 4112.43589716, 4124.35897408, 4133.58974332, 4132.17948691, 4136.02564082, 4119.23076896, 4134.48717921, 4140.25641005, 4120.89743562, 4092.56410222, 4146.92307672,12.0
4119.48717921, 4077.56410222, 4087.94871761, 4111.02564075, 4125.89743562, 4127.30769203, 4118.46153819, 4135.12820485, 4107.17948691, 4134.48717921, 4140.12820492, 4119.61538434, 4098.46153812, 4148.33333313,12.0
4126.15384588, 4077.30769196, 4089.48717914, 4109.23076896, 4128.33333306, 4128.46153819, 4126.02564075, 4132.56410229, 4114.74358947, 4134.48717921, 4136.79487159, 4116.92307665, 4095.64102530, 4149.10256390,12.0
4124.10256383, 4084.10256376, 4091.28205094, 4111.41025614, 4124.35897408, 4128.97435870, 4140.38461518, 4138.58974339, 4129.99999973, 4134.48717921, 4139.23076903, 4120.12820485, 4093.46153812, 4145.89743569,12.0
4128.20512793, 4091.28205094, 4096.79487145, 4119.10256383, 4121.92307665, 4119.48717921, 4137.05128185, 4143.58974339, 4128.20512793, 4134.48717921, 4141.92307672, 4127.82051255, 4101.79487145, 4144.35897415,12.0
4124.74358947, 4095.51282017, 4100.25640991, 4122.05128178, 4125.51282024, 4118.46153819, 4134.10256383, 4144.74358954, 4123.33333306, 4134.48717921, 4141.53846133, 4130.89743562, 4109.10256383, 4146.66666646,12.0
4124.87179460, 4094.23076889, 4097.05128171, 4117.56410229, 4127.05128178, 4127.17948691, 4133.20512793, 4139.74358954, 4122.05128178, 4134.48717921, 4136.28205108, 4126.15384588, 4105.12820485, 4146.28205108,12.0
4134.10256383, 4093.07692273, 4093.97435863, 4115.76923050, 4125.25640998, 4129.10256383, 4122.43589716, 4135.38461518, 4114.48717921, 4134.48717921, 4131.92307665, 4122.17948691, 4097.30769196, 4145.76923056,12.0
4122.56410229, 4087.56410222, 4094.48717914, 4120.38461511, 4123.46153819, 4129.74358947, 4125.25640998, 4143.71794851, 4114.48717921, 4134.99999973, 4135.89743569, 4122.05128178, 4094.87179453, 4149.74358954,12.0
4122.94871767, 4085.25640991, 4098.20512786, 4124.48717921, 4123.84615357, 4132.30769203, 4139.74358954, 4147.94871774, 4125.76923050, 4134.35897408, 4141.15384595, 4124.35897408, 4097.94871761, 4150.25641005,12.0
4126.53846126, 4098.58974325, 4103.46153819, 4124.48717921, 4126.15384588, 4123.07692280, 4138.46153826, 4138.97435877, 4122.69230742, 4133.46153819, 4138.97435877, 4132.56410229, 4100.25640991, 4145.64102544,12.0
4120.76923050, 4105.38461511, 4103.58974332, 4124.99999973, 4124.23076896, 4115.76923050, 4124.10256383, 4126.41025614, 4104.61538434, 4136.79487159, 4135.25640998, 4133.58974332, 4093.07692273, 4143.71794851,12.0
4123.20512793, 4101.79487145, 4099.23076889, 4127.17948691, 4122.43589716, 4118.58974332, 4114.61538434, 4117.17948691, 4101.79487145, 4132.69230742, 4138.58974339, 4124.35897408, 4091.28205094, 4145.76923056,12.0
4118.46153819, 4100.51282017, 4102.30769196, 4122.56410229, 4126.15384588, 4118.07692280, 4126.28205101, 4128.33333306, 4112.05128178, 4126.41025614, 4137.69230749, 4126.41025614, 4098.20512786, 4146.02564082,12.0
4123.97435870, 4089.87179453, 4106.28205101, 4113.58974332, 4128.58974332, 4115.51282024, 4138.33333313, 4140.89743569, 4110.64102537, 4131.53846126, 4133.20512793, 4128.33333306, 4097.56410222, 4146.15384595,12.0
4124.74358947, 4063.71794830, 4095.51282017, 4108.58974332, 4126.66666639, 4117.56410229, 4124.61538434, 4131.79487152, 4106.15384588, 4135.38461518, 4133.20512793, 4109.87179460, 4083.84615350, 4146.79487159,12.0
4117.94871767, 4061.66666625, 4087.69230735, 4108.97435870, 4123.07692280, 4121.79487152, 4113.07692280, 4128.07692280, 4107.05128178, 4131.92307665, 4129.35897408, 4101.41025607, 4080.64102530, 4143.71794851,12.0
4125.38461511, 4084.23076889, 4094.10256376, 4117.82051255, 4122.43589716, 4121.41025614, 4121.28205101, 4134.48717921, 4106.92307665, 4133.33333306, 4130.76923050, 4113.84615357, 4089.99999966, 4142.69230749,12.0
4119.23076896, 4079.35897402, 4092.17948684, 4118.46153819, 4126.28205101, 4115.25640998, 4119.87179460, 4127.94871767, 4102.43589709, 4136.66666646, 4133.97435870, 4115.76923050, 4088.71794837, 4147.05128185,12.0
4121.53846126, 4053.58974318, 4081.02564068, 4103.46153819, 4127.56410229, 4099.87179453, 4102.56410229, 4110.38461511, 4093.58974325, 4134.48717921, 4123.46153819, 4107.56410229, 4084.74358940, 4148.58974339,12.0
4128.20512793, 4053.46153805, 4076.66666632, 4101.41025607, 4125.51282024, 4093.71794837, 4099.99999966, 4108.07692280, 4093.07692273, 4133.20512793, 4121.79487152, 4105.76923050, 4084.23076889, 4144.74358954,12.0
4123.07692280, 4073.20512786, 4077.94871761, 4114.35897408, 4125.64102537, 4107.05128178, 4111.53846126, 4120.89743562, 4103.20512793, 4134.99999973, 4136.28205108, 4106.92307665, 4084.10256376, 4145.12820492,12.0
4130.25640998, 4067.69230728, 4080.64102530, 4112.17948691, 4126.41025614, 4110.25640998, 4112.17948691, 4121.92307665, 4108.20512793, 4134.35897408, 4136.79487159, 4110.38461511, 4088.46153812, 4147.56410236,12.0
4125.76923050, 4058.33333292, 4086.15384581, 4109.99999973, 4125.25640998, 4103.84615357, 4107.43589716, 4117.56410229, 4107.43589716, 4132.05128178, 4131.66666639, 4119.10256383, 4093.46153812, 4146.02564082,12.0
4124.99999973, 4076.53846119, 4087.30769196, 4122.43589716, 4124.61538434, 4112.69230742, 4109.10256383, 4117.43589716, 4106.28205101, 4129.23076896, 4134.61538434, 4122.69230742, 4090.25640991, 4146.53846133,12.0
4129.10256383, 4086.66666632, 4079.35897402, 4122.82051255, 4126.28205101, 4117.69230742, 4115.76923050, 4116.79487152, 4101.79487145, 4129.23076896, 4133.33333306, 4113.71794844, 4089.99999966, 4147.69230749,12.0
4117.94871767, 4082.30769196, 4075.64102530, 4110.89743562, 4126.28205101, 4109.23076896, 4118.33333306, 4114.99999973, 4098.71794837, 4130.89743562, 4127.69230742, 4107.82051255, 4094.48717914, 4145.64102544,12.0
4122.17948691, 4080.51282017, 4078.07692273, 4112.82051255, 4123.84615357, 4108.58974332, 4107.05128178, 4107.94871767, 4092.43589709, 4134.10256383, 4126.28205101, 4107.56410229, 4082.05128171, 4144.10256390,12.0
4122.82051255, 4075.89743555, 4076.28205094, 4119.87179460, 4124.74358947, 4113.84615357, 4102.94871767, 4111.53846126, 4093.97435863, 4136.02564082, 4128.84615357, 4107.05128178, 4073.33333299, 4147.94871774,12.0
4121.28205101, 4077.05128171, 4079.35897402, 4115.25640998, 4126.15384588, 4116.15384588, 4119.61538434, 4124.99999973, 4113.07692280, 4134.10256383, 4130.64102537, 4109.35897408, 4082.43589709, 4151.79487159,12.0
4125.89743562, 4085.89743555, 4087.56410222, 4113.71794844, 4125.51282024, 4121.28205101, 4127.05128178, 4122.05128178, 4117.56410229, 4133.46153819, 4130.64102537, 4117.94871767, 4093.20512786, 4146.41025621,12.0
4119.48717921, 4084.48717914, 4086.15384581, 4116.28205101, 4126.28205101, 4118.97435870, 4109.35897408, 4108.20512793, 4099.35897402, 4138.20512800, 4130.25640998, 4118.84615357, 4090.64102530, 4141.79487159,12.0
4127.69230742, 4095.12820478, 4085.76923043, 4116.53846126, 4128.58974332, 4107.94871767, 4101.02564068, 4109.23076896, 4098.20512786, 4134.61538434, 4134.74358947, 4111.53846126, 4084.48717914, 4144.61538441,12.0
4129.23076896, 4104.99999973, 4085.89743555, 4118.33333306, 4125.89743562, 4104.61538434, 4108.07692280, 4116.53846126, 4105.25640998, 4127.94871767, 4134.99999973, 4108.20512793, 4086.79487145, 4147.30769210,12.0
4123.46153819, 4085.25640991, 4081.41025607, 4116.53846126, 4122.05128178, 4111.28205101, 4109.87179460, 4114.74358947, 4095.64102530, 4131.79487152, 4129.23076896, 4107.94871767, 4089.10256376, 4146.79487159,12.0
4129.35897408, 4077.94871761, 4083.97435863, 4110.64102537, 4125.25640998, 4117.82051255, 4118.46153819, 4119.48717921, 4099.23076889, 4131.15384588, 4130.64102537, 4110.12820485, 4090.51282017, 4146.02564082,12.0
4123.97435870, 4084.35897402, 4084.23076889, 4105.38461511, 4127.17948691, 4116.92307665, 4124.23076896, 4126.15384588, 4115.64102537, 4124.23076896, 4131.15384588, 4110.12820485, 4092.30769196, 4149.23076903,12.0
4128.46153819, 4074.35897402, 4079.61538427, 4108.20512793, 4123.20512793, 4118.84615357, 4116.53846126, 4119.99999973, 4111.41025614, 4129.23076896, 4130.51282024, 4106.41025614, 4090.76923043, 4149.99999980,12.0
4128.71794844, 4078.97435863, 4084.23076889, 4115.25640998, 4124.23076896, 4126.28205101, 4123.33333306, 4121.66666639, 4104.99999973, 4138.20512800, 4134.74358947, 4107.94871767, 4088.97435863, 4145.25641005,12.0
4120.25640998, 4096.79487145, 4089.74358940, 4112.69230742, 4128.46153819, 4119.10256383, 4133.84615357, 4130.51282024, 4115.12820485, 4134.87179460, 4137.82051262, 4112.56410229, 4092.30769196, 4145.12820492,12.0
4126.02564075, 4088.07692273, 4086.53846119, 4104.74358947, 4126.79487152, 4109.23076896, 4115.64102537, 4120.38461511, 4120.76923050, 4132.56410229, 4135.64102544, 4108.71794844, 4091.79487145, 4145.64102544,12.0
4121.66666639, 4077.56410222, 4086.41025607, 4108.58974332, 4120.76923050, 4115.12820485, 4099.74358940, 4108.97435870, 4112.94871767, 4136.92307672, 4134.99999973, 4104.10256383, 4083.20512786, 4144.61538441,12.0
4123.33333306, 4083.20512786, 4091.92307658, 4117.05128178, 4120.89743562, 4118.46153819, 4115.12820485, 4114.74358947, 4105.51282024, 4136.02564082, 4136.53846133, 4108.07692280, 4080.89743555, 4146.79487159,12.0
4123.97435870, 4081.41025607, 4089.23076889, 4112.82051255, 4126.02564075, 4116.79487152, 4124.61538434, 4117.17948691, 4104.35897408, 4134.74358947, 4132.94871767, 4106.28205101, 4081.53846119, 4147.30769210,12.0
4117.56410229, 4084.23076889, 4089.87179453, 4110.51282024, 4125.89743562, 4128.33333306, 4121.66666639, 4121.79487152, 4113.84615357, 4134.87179460, 4135.76923056, 4106.02564075, 4085.64102530, 4144.99999980,12.0
4125.38461511, 4089.61538427, 4096.15384581, 4109.74358947, 4123.46153819, 4134.35897408, 4125.51282024, 4135.76923056, 4124.35897408, 4134.23076896, 4139.87179467, 4112.43589716, 4093.58974325, 4145.64102544,12.0
4120.12820485, 4080.51282017, 4091.41025607, 4101.92307658, 4125.64102537, 4121.28205101, 4131.28205101, 4139.48717928, 4124.87179460, 4134.74358947, 4134.61538434, 4109.10256383, 4088.07692273, 4151.53846133,12.0
4121.28205101, 4084.23076889, 4094.35897402, 4106.66666639, 4126.66666639, 4124.87179460, 4142.17948697, 4139.35897415, 4123.84615357, 4134.99999973, 4136.15384595, 4106.41025614, 4081.28205094, 4150.76923056,12.0
4127.69230742, 4090.64102530, 4102.17948684, 4111.66666639, 4124.10256383, 4134.10256383, 4136.15384595, 4136.92307672, 4119.61538434, 4132.82051255, 4140.89743569, 4111.15384588, 4087.43589709, 4146.53846133,12.0
4121.02564075, 4079.61538427, 4098.07692273, 4107.30769203, 4123.20512793, 4114.61538434, 4117.94871767, 4127.56410229, 4116.53846126, 4130.12820485, 4132.94871767, 4110.76923050, 4089.74358940, 4150.38461518,12.0
4126.92307665, 4077.94871761, 4094.35897402, 4108.71794844, 4123.20512793, 4103.33333306, 4129.23076896, 4122.30769203, 4120.25640998, 4129.74358947, 4125.64102537, 4106.15384588, 4083.46153812, 4150.25641005,12.0
4124.23076896, 4085.76923043, 4094.10256376, 4110.51282024, 4124.99999973, 4118.07692280, 4133.33333306, 4121.02564075, 4113.97435870, 4130.76923050, 4131.41025614, 4103.33333306, 4080.64102530, 4149.35897415,12.0
4126.92307665, 4066.66666625, 4091.28205094, 4113.84615357, 4126.79487152, 4117.56410229, 4116.28205101, 4122.69230742, 4115.76923050, 4132.05128178, 4122.56410229, 4097.82051248, 4074.99999966, 4144.61538441,12.0
