AF3,F7,F3,FC5,T7,P7,O1,O2,P8,T8,FC6,F4,F8,AF4,Label
4033.20512772, 4246.79487180, 4087.17948684, 4326.53846168, 4122.69230742, 4152.56410236, 4141.92307672, 4166.02564082, 4199.23076910, 4129.48717921, 3338.71794678, 3812.05128115, 4074.74358940, 4138.33333313,12.0
4035.38461490, 4236.15384616, 4078.46153812, 4291.28205136, 4121.28205101, 4131.02564075, 4147.43589723, 4150.89743569, 4193.58974345, 4125.76923050, 4851.92307818, 3791.02564006, 4074.10256376, 4137.05128185,12.0
4041.79487138, 4222.69230763, 4069.99999966, 4265.38461539, 4123.58974332, 4085.12820478, 4112.82051255, 4129.87179460, 4177.05128192, 4126.66666639, 6114.74359371, 3768.20512717, 4070.64102530, 4138.20512800,12.0
4040.89743548, 4243.71794872, 4081.28205094, 4295.89743597, 4123.58974332, 4131.92307665, 4119.23076896, 4161.28205108, 4204.48717942, 4129.99999973, 6233.07692725, 3810.64102474, 4070.38461504, 4136.92307672,12.0
4043.20512779, 4255.76923077, 4086.79487145, 4285.89743597, 4120.64102537, 4151.66666646, 4139.74358954, 4162.56410236, 4194.99999986, 4127.69230742, 5978.33333702, 3817.30769141, 4069.48717907, 4137.43589723,12.0
4044.48717907, 4237.56410257, 4074.99999966, 4252.17948718, 4121.28205101, 4104.99999973, 4125.64102537, 4128.97435870, 4171.79487166, 4124.10256383, 5890.76923425, 3785.76922980, 4071.66666632, 4137.69230749,12.0
4048.20512779, 4238.33333334, 4081.53846119, 4287.69230777, 4123.33333306, 4128.58974332, 4145.89743569, 4158.07692287, 4204.61538455, 4127.17948691, 5767.94872115, 3816.92307602, 4078.97435863, 4140.64102544,12.0
4053.33333292, 4244.10256411, 4093.07692273, 4299.74358989, 4122.30769203, 4142.05128185, 4176.28205115, 4182.05128192, 4190.64102551, 4130.51282024, 5586.15384901, 3836.53846064, 4074.87179453, 4141.79487159,12.0
4044.48717907, 4218.71794865, 4074.61538427, 4227.82051275, 4119.35897408, 4074.61538427, 4124.48717921, 4123.20512793, 4123.20512793, 4128.97435870, 5447.69231020, 3783.46153749, 4067.94871754, 4140.76923056,12.0
4046.66666625, 4207.94871788, 4071.02564068, 4208.84615378, 4121.79487152, 4087.05128171, 4083.58974325, 4092.94871761, 4148.46153826, 4126.53846126, 5389.87179731, 3776.92307595, 4078.33333299, 4143.07692287,12.0
4050.51282010, 4207.43589737, 4090.76923043, 4250.25641026, 4125.25640998, 4164.48717928, 4133.97435870, 4127.69230742, 4200.51282038, 4126.41025614, 5265.12820729, 3830.89743500, 4088.84615350, 4140.12820492,12.0
4042.69230728, 4177.43589730, 4088.07692273, 4233.58974352, 4120.38461511, 4137.82051262, 4134.87179460, 4116.79487152, 4149.99999980, 4126.28205101, 4937.05128351, 3828.71794782, 4087.56410222, 4139.35897415,12.0
4046.02564061, 4150.76923056, 4073.33333299, 4183.58974345, 4121.92307665, 4077.69230735, 4073.84615350, 4086.28205094, 4123.58974332, 4128.46153819, 4625.25641102, 3790.51281954, 4089.23076889, 4141.66666646,12.0
4045.38461497, 4154.48717928, 4076.79487145, 4178.97435884, 4127.17948691, 4090.64102530, 4098.84615350, 4106.79487152, 4182.69230756, 4131.28205101, 4509.61538518, 3800.38461442, 4091.92307658, 4140.12820492,12.0
4047.69230728, 4146.53846133, 4086.92307658, 4215.64102558, 4124.61538434, 4120.12820485, 4137.17948697, 4111.92307665, 4189.61538448, 4129.61538434, 4447.94871837, 3816.79487090, 4092.94871761, 4142.43589723,12.0
4051.15384574, 4110.76923050, 4083.46153812, 4263.20512821, 4121.53846126, 4128.97435870, 4112.56410229, 4095.51282017, 4154.61538441, 4126.02564075, 4345.38461560, 3805.89743493, 4098.84615350, 4143.33333313,12.0
4043.58974318, 4076.28205094, 4074.10256376, 4294.87179495, 4119.74358947, 4111.41025614, 4116.15384588, 4105.64102537, 4171.41025628, 4126.53846126, 4491.41025690, 3794.35897339, 4102.94871767, 4140.12820492,12.0
4048.58974318, 4047.56410215, 4069.48717907, 4283.07692315, 4121.53846126, 4093.84615350, 4115.89743562, 4095.38461504, 4167.43589723, 4128.84615357, 4957.43589897, 3770.25640922, 4098.07692273, 4139.87179467,12.0
4050.51282010, 4029.87179439, 4068.07692266, 4254.23076923, 4124.23076896, 4099.74358940, 4089.74358940, 4077.30769196, 4139.48717928, 4126.92307665, 5628.58974651, 3764.61538358, 4096.02564068, 4141.92307672,12.0
4050.64102523, 4022.30769183, 4078.07692273, 4269.74358982, 4124.23076896, 4095.76923043, 4117.69230742, 4107.43589716, 4175.51282038, 4125.12820485, 6574.87179981, 3808.58974269, 4103.97435870, 4143.46153826,12.0
4059.35897395, 4006.79487131, 4081.79487145, 4332.05128219, 4124.61538434, 4081.28205094, 4132.94871767, 4123.07692280, 4200.25641012, 4127.30769203, 7477.56410938, 3813.71794782, 4102.94871767, 4140.25641005,12.0
4061.15384574, 4010.76923029, 4076.53846119, 4407.30769266, 4124.35897408, 4113.58974332, 4098.33333299, 4116.41025614, 4197.43589730, 4128.58974332, 7797.82052033, 3797.05128108, 4099.87179453, 4137.69230749,12.0
4070.64102530, 4055.12820472, 4091.66666632, 4452.69230811, 4125.76923050, 4162.17948697, 4116.02564075, 4144.48717928, 4243.84615385, 4126.92307665, 7661.02564826, 3845.12820430, 4112.69230742, 4139.61538441,12.0
4073.33333299, 4086.41025607, 4106.15384588, 4456.92307734, 4124.10256383, 4159.48717928, 4170.25641012, 4166.28205108, 4282.82051289, 4126.15384588, 7633.20513537, 3886.92307616, 4117.69230742, 4137.43589723,12.0
4071.02564068, 4071.66666632, 4100.38461504, 4451.02564145, 4122.17948691, 4146.79487159, 4169.99999986, 4143.84615364, 4259.35897436, 4127.69230742, 7688.33334063, 3865.64102481, 4111.28205101, 4136.66666646,12.0
4078.33333299, 4047.94871754, 4094.99999966, 4451.02564145, 4124.61538434, 4160.38461518, 4145.89743569, 4124.23076896, 4232.82051275, 4128.71794844, 7616.02564819, 3848.20512738, 4113.71794844, 4137.17948697,12.0
4078.84615350, 4031.15384567, 4090.25640991, 4436.92307734, 4126.41025614, 4161.92307672, 4141.66666646, 4123.46153819, 4226.92307686, 4127.69230742, 7593.20513530, 3849.99999917, 4118.20512793, 4137.43589723,12.0
4082.94871761, 4020.64102516, 4086.92307658, 4418.84615420, 4125.89743562, 4140.89743569, 4135.51282031, 4122.82051255, 4220.25641019, 4127.82051255, 7604.74359684, 3837.69230679, 4114.35897408, 4139.99999980,12.0
4085.25640991, 4021.02564054, 4087.94871761, 4422.17948753, 4123.58974332, 4129.74358947, 4139.35897415, 4131.92307665, 4223.71794865, 4129.74358947, 7596.41026350, 3839.61538372, 4113.97435870, 4138.46153826,12.0
4085.89743555, 4028.71794824, 4091.15384581, 4428.97435933, 4124.61538434, 4153.58974339, 4155.25641005, 4142.30769210, 4231.66666660, 4128.84615357, 7601.28205837, 3858.58974276, 4120.12820485, 4137.30769210,12.0
4090.89743555, 4023.71794824, 4090.12820478, 4418.33333368, 4128.84615357, 4165.51282031, 4146.92307672, 4136.53846133, 4228.58974352, 4125.25640998, 7601.02564812, 3850.12820430, 4117.30769203, 4137.94871774,12.0
4090.64102530, 4012.69230721, 4086.28205094, 4412.69230804, 4127.05128178, 4137.69230749, 4124.87179460, 4126.02564075, 4225.51282045, 4125.12820485, 7609.10257119, 3830.25640936, 4112.05128178, 4138.20512800,12.0
4094.87179453, 4020.38461490, 4091.92307658, 4427.94871830, 4123.71794844, 4131.41025614, 4134.87179460, 4128.84615357, 4232.69230763, 4125.64102537, 7675.89744313, 3844.23076840, 4117.43589716, 4138.20512800,12.0
4096.66666632, 4028.07692259, 4097.43589709, 4438.20512863, 4127.82051255, 4164.35897415, 4172.43589730, 4148.33333313, 4244.87179488, 4124.87179460, 7775.76923821, 3875.38461462, 4122.43589716, 4136.66666646,12.0
4095.76923043, 4024.61538413, 4099.10256376, 4428.33333368, 4130.76923050, 4187.30769217, 4189.23076910, 4163.84615364, 4257.05128206, 4126.02564075, 7638.58975075, 3886.28205052, 4122.69230742, 4136.92307672,12.0
4102.30769196, 4017.30769183, 4096.02564068, 4418.33333368, 4126.53846126, 4174.35897422, 4158.07692287, 4146.92307672, 4248.71794872, 4124.61538434, 7676.41026364, 3870.51281968, 4122.30769203, 4136.28205108,12.0
4103.71794844, 3995.64102509, 4082.94871761, 4402.17948753, 4124.48717921, 4140.12820492, 4100.64102530, 4107.69230742, 4207.94871788, 4122.17948691, 7847.56411021, 3840.25640943, 4115.12820485, 4137.43589723,12.0
4100.38461504, 3989.10256355, 4085.25640991, 4378.71794900, 4127.05128178, 4132.94871767, 4097.17948684, 4105.38461511, 4193.97435884, 4126.66666639, 6657.43590251, 3840.76922994, 4110.76923050, 4142.56410236,12.0
4093.20512786, 4007.69230721, 4098.20512786, 4384.48717977, 4127.05128178, 4151.66666646, 4151.28205108, 4136.53846133, 4220.51282045, 4129.99999973, 4479.74359023, 3873.71794796, 4117.69230742, 4141.02564082,12.0
4088.58974325, 3993.58974304, 4087.05128171, 4380.25641054, 4124.10256383, 4143.58974339, 4135.51282031, 4126.41025614, 4208.33333327, 4126.66666639, 3525.12820360, 3855.64102481, 4117.17948691, 4142.94871774,12.0
4094.61538427, 3963.07692246, 4069.35897395, 4334.61538483, 4125.25640998, 4123.58974332, 4078.20512786, 4099.74358940, 4171.41025628, 4126.92307665, 3759.35897332, 3807.30769141, 4111.15384588, 4146.41025621,12.0
4093.58974325, 3984.10256355, 4080.25640991, 4325.89743604, 4127.69230742, 4146.92307672, 4117.69230742, 4123.71794844, 4192.94871781, 4129.99999973, 3646.92307568, 3835.12820423, 4115.51282024, 4139.10256390,12.0
4094.48717914, 4003.97435842, 4093.07692273, 4346.53846175, 4126.53846126, 4145.51282031, 4158.07692287, 4143.97435877, 4216.53846147, 4127.69230742, 3385.76922897, 3872.17948635, 4120.12820485, 4138.20512800,12.0
4095.64102530, 3977.05128150, 4085.12820478, 4337.56410278, 4125.76923050, 4113.20512793, 4121.02564075, 4131.15384588, 4199.99999986, 4125.76923050, 3474.48717782, 3854.61538379, 4117.30769203, 4140.76923056,12.0
4088.58974325, 3959.48717887, 4081.41025607, 4318.33333348, 4126.28205101, 4127.43589716, 4099.61538427, 4122.17948691, 4193.33333320, 4128.20512793, 3459.48717782, 3849.87179404, 4115.76923050, 4139.87179467,12.0
4091.15384581, 3976.28205073, 4094.99999966, 4313.33333348, 4127.69230742, 4164.61538441, 4136.41025621, 4129.48717921, 4209.99999993, 4128.33333306, 3395.12820333, 3882.17948642, 4121.66666639, 4142.56410236,12.0
4089.23076889, 3980.25640970, 4100.64102530, 4316.41025655, 4127.82051255, 4172.94871781, 4169.48717935, 4138.33333313, 4215.89743583, 4124.61538434, 3332.43589549, 3900.25640950, 4124.10256383, 4139.61538441,12.0
4088.71794837, 3971.79487124, 4095.51282017, 4322.30769245, 4126.79487152, 4169.35897422, 4167.30769210, 4134.23076896, 4202.17948711, 4126.28205101, 3254.74358766, 3891.79487103, 4122.30769203, 4139.48717928,12.0
4090.12820478, 3969.48717887, 4089.87179453, 4284.61538469, 4127.05128178, 4150.38461518, 4134.74358947, 4120.89743562, 4184.10256397, 4128.58974332, 3222.17948503, 3878.71794796, 4120.64102537, 4141.92307672,12.0
4086.66666632, 3962.05128143, 4079.87179453, 4212.05128199, 4127.56410229, 4115.51282024, 4107.43589716, 4116.02564075, 4176.28205115, 4128.46153819, 3131.92307456, 3859.99999917, 4116.53846126, 4137.30769210,12.0
4089.74358940, 3961.15384553, 4077.69230735, 4183.97435884, 4127.05128178, 4121.15384588, 4115.25640998, 4124.35897408, 4187.17948704, 4129.23076896, 3396.79486999, 3852.17948635, 4115.76923050, 4139.23076903,12.0
4089.87179453, 3967.94871733, 4081.41025607, 4177.43589730, 4124.74358947, 4147.69230749, 4118.84615357, 4128.97435870, 4193.71794858, 4127.94871767, 4478.46153895, 3853.33333250, 4115.89743562, 4139.48717928,12.0
4093.46153812, 3985.12820458, 4088.20512786, 4165.12820492, 4123.46153819, 4156.79487159, 4135.89743569, 4144.87179467, 4211.28205122, 4125.76923050, 6027.17949094, 3870.76922994, 4119.87179460, 4137.94871774,12.0
4099.23076889, 3997.17948663, 4095.25640991, 4164.61538441, 4125.12820485, 4163.97435877, 4165.64102544, 4166.92307672, 4244.23076923, 4126.15384588, 7227.43590376, 3897.30769155, 4127.43589716, 4139.74358954,12.0
4101.92307658, 3978.33333278, 4095.89743555, 4155.25641005, 4127.30769203, 4164.48717928, 4157.05128185, 4164.48717928, 4237.94871795, 4125.25640998, 7748.33334077, 3892.69230693, 4124.87179460, 4138.84615364,12.0
4108.07692280, 3956.53846092, 4093.33333299, 4143.20512800, 4127.30769203, 4159.87179467, 4141.15384595, 4152.56410236, 4203.71794865, 4123.71794844, 7767.94872539, 3879.61538385, 4119.23076896, 4139.74358954,12.0
4108.84615357, 3956.92307630, 4086.92307658, 4136.28205108, 4124.61538434, 4158.71794851, 4148.97435877, 4147.43589723, 4190.51282038, 4127.30769203, 7669.74359697, 3872.56410173, 4118.20512793, 4138.46153826,12.0
4111.02564075, 3964.48717887, 4081.79487145, 4078.33333299, 4123.07692280, 4158.84615364, 4150.89743569, 4143.97435877, 4193.97435884, 4129.48717921, 7688.84616115, 3854.99999917, 4115.89743562, 4138.33333313,12.0
4116.28205101, 3968.46153784, 4081.28205094, 3989.87179432, 4124.48717921, 4146.41025621, 4133.46153819, 4141.41025621, 4190.51282038, 4126.79487152, 7653.07693031, 3847.82051199, 4111.28205101, 4139.23076903,12.0
4115.51282024, 3993.33333278, 4087.82051248, 3971.02564040, 4124.87179460, 4146.28205108, 4134.61538434, 4146.15384595, 4192.17948704, 4126.53846126, 7589.35898145, 3881.28205052, 4114.87179460, 4136.15384595,12.0
4122.05128178, 4020.64102516, 4099.74358940, 3986.02564047, 4124.10256383, 4167.17948697, 4158.71794851, 4159.35897415, 4220.12820506, 4127.56410229, 7602.94872504, 3917.30769162, 4125.51282024, 4136.66666646,12.0
4127.56410229, 4021.02564054, 4101.15384581, 3959.61538399, 4125.12820485, 4176.53846140, 4172.30769217, 4171.02564089, 4244.61538462, 4127.17948691, 7598.46154555, 3912.69230700, 4129.87179460, 4139.99999980,12.0
4127.69230742, 4021.66666618, 4087.30769196, 3911.15384546, 4124.61538434, 4159.10256390, 4152.17948697, 4157.17948697, 4214.87179481, 4125.89743562, 7598.20513530, 3887.82051206, 4126.41025614, 4141.02564082,12.0
4135.76923056, 4040.51282010, 4081.79487145, 3831.66666577, 4124.74358947, 4144.74358954, 4129.74358947, 4136.28205108, 4177.30769217, 4125.89743562, 7600.00000709, 3876.15384539, 4122.30769203, 4136.02564082,12.0
4136.92307672, 4069.61538420, 4088.71794837, 3727.30769120, 4123.71794844, 4151.53846133, 4135.51282031, 4146.79487159, 4189.35897422, 4127.17948691, 7598.46154555, 3884.99999924, 4123.33333306, 4136.28205108,12.0
4137.05128185, 4110.12820485, 4093.46153812, 3691.53846036, 4122.43589716, 4159.74358954, 4143.46153826, 4158.20512800, 4202.94871788, 4127.94871767, 7600.12821222, 3894.99999924, 4125.89743562, 4142.05128185,12.0
4139.74358954, 4122.30769203, 4091.15384581, 3709.61538351, 4124.48717921, 4163.58974339, 4149.99999980, 4154.61538441, 4192.43589730, 4126.66666639, 7599.23077632, 3898.97435821, 4120.25640998, 4141.02564082,12.0
4138.46153826, 4061.41025600, 4088.20512786, 3688.84615267, 4123.46153819, 4167.05128185, 4163.33333313, 4164.35897415, 4198.58974345, 4125.89743562, 7599.23077632, 3907.43589674, 4115.51282024, 4139.74358954,12.0
4147.69230749, 3983.33333278, 4093.33333299, 3654.74358850, 4122.17948691, 4174.10256397, 4171.79487166, 4178.33333320, 4214.35897429, 4127.30769203, 7598.20513530, 3914.23076854, 4113.97435870, 4138.97435877,12.0
4152.69230749, 3959.87179425, 4087.43589709, 3605.38461400, 4122.05128178, 4174.74358961, 4165.64102544, 4168.33333320, 4203.97435891, 4128.20512793, 7598.33334042, 3902.69230693, 4108.71794844, 4138.58974339,12.0
4156.53846133, 3967.30769169, 4075.38461504, 3496.02563943, 4120.89743562, 4162.05128185, 4152.82051262, 4151.92307672, 4180.25641012, 4127.17948691, 7598.58975068, 3879.10256334, 4104.61538434, 4140.12820492,12.0
4165.25641005, 3958.20512758, 4072.30769196, 3399.61538281, 4120.76923050, 4154.23076903, 4156.02564082, 4155.64102544, 4172.30769217, 4126.92307665, 7598.33334042, 3867.17948635, 4103.71794844, 4138.71794851,12.0
4161.66666646, 3947.05128143, 4063.84615343, 3367.94871608, 4121.02564075, 4141.28205108, 4154.35897415, 4151.28205108, 4161.41025621, 4127.82051255, 7598.46154555, 3854.48717866, 4100.25640991, 4141.02564082,12.0
4165.76923056, 3968.07692246, 4063.07692266, 3381.28204948, 4121.53846126, 4136.66666646, 4149.87179467, 4142.56410236, 4156.66666646, 4128.46153819, 7598.46154555, 3855.76922994, 4099.23076889, 4141.02564082,12.0
4171.92307679, 4015.76923029, 4079.87179453, 3432.17948545, 4121.79487152, 4168.71794858, 4179.87179474, 4165.76923056, 4194.61538448, 4128.20512793, 7598.46154555, 3905.12820437, 4107.43589716, 4137.43589723,12.0
4174.48717935, 4055.51282010, 4094.87179453, 3470.12820346, 4122.17948691, 4197.56410243, 4211.28205122, 4194.48717935, 4237.56410257, 4126.53846126, 7598.46154555, 3949.10256348, 4115.51282024, 4138.58974339,12.0
4181.15384602, 4046.41025600, 4087.69230735, 3444.74358801, 4122.43589716, 4177.17948704, 4190.64102551, 4180.89743576, 4222.56410250, 4125.89743562, 7598.46154555, 3924.35897367, 4108.84615357, 4138.20512800,12.0
4176.41025628, 4019.99999952, 4064.61538420, 3404.74358794, 4121.41025614, 4135.51282031, 4145.25641005, 4150.76923056, 4171.66666653, 4127.94871767, 7598.46154555, 3871.79487096, 4097.17948684, 4140.76923056,12.0
4181.02564089, 4023.58974311, 4059.74358933, 3393.97435717, 4122.69230742, 4121.41025614, 4131.41025614, 4141.92307672, 4145.76923056, 4128.33333306, 7598.46154555, 3854.87179404, 4093.46153812, 4142.30769210,12.0
4186.41025628, 4038.20512779, 4066.02564061, 3392.30769050, 4123.07692280, 4120.89743562, 4135.89743569, 4138.20512800, 4142.82051262, 4125.76923050, 7598.46154555, 3858.97435814, 4092.94871761, 4139.10256390,12.0
4182.82051269, 4046.02564061, 4063.46153805, 3392.43589563, 4120.89743562, 4116.02564075, 4129.61538434, 4129.10256383, 4135.12820485, 4126.53846126, 7598.46154555, 3859.10256327, 4092.82051248, 4143.58974339,12.0
4191.15384602, 4050.89743548, 4061.41025600, 3401.02563922, 4121.53846126, 4118.97435870, 4128.33333306, 4128.58974332, 4131.53846126, 4128.71794844, 7598.46154555, 3859.48717866, 4090.76923043, 4143.07692287,12.0
4189.99999986, 4048.20512779, 4062.05128164, 3409.61538281, 4119.99999973, 4127.82051255, 4138.58974339, 4136.28205108, 4143.84615364, 4129.48717921, 7598.46154555, 3861.79487096, 4089.99999966, 4138.46153826,12.0
4191.41025628, 4043.71794830, 4062.43589702, 3403.20512640, 4117.94871767, 4124.48717921, 4139.48717928, 4133.84615357, 4143.71794851, 4131.66666639, 7598.46154555, 3862.82051199, 4090.89743555, 4140.76923056,12.0
4199.10256397, 4047.05128164, 4058.07692266, 3382.94871615, 4118.97435870, 4112.94871767, 4128.84615357, 4121.66666639, 4118.33333306, 4129.61538434, 7598.46154555, 3855.89743507, 4086.15384581, 4141.53846133,12.0
4196.66666653, 4061.02564061, 4056.02564061, 3384.87179307, 4117.69230742, 4119.87179460, 4134.48717921, 4128.20512793, 4112.43589716, 4125.38461511, 7598.46154555, 3854.48717866, 4084.99999966, 4139.48717928,12.0
4203.20512814, 4078.33333299, 4063.07692266, 3384.10256230, 4118.58974332, 4130.25640998, 4143.97435877, 4140.76923056, 4128.07692280, 4126.15384588, 7598.46154555, 3857.82051199, 4085.25640991, 4135.25640998,12.0
4205.38461532, 4088.20512786, 4064.10256369, 3344.23076729, 4118.58974332, 4121.92307665, 4135.38461518, 4136.66666646, 4134.35897408, 4127.30769203, 7598.46154555, 3859.35897353, 4083.71794837, 4136.66666646,12.0
4204.99999993, 4088.84615350, 4060.64102523, 3310.89743389, 4117.05128178, 4113.84615357, 4124.23076896, 4125.12820485, 4126.41025614, 4126.15384588, 7598.46154555, 3862.94871712, 4085.51282017, 4138.84615364,12.0
4210.89743583, 4082.56410222, 4059.23076882, 3312.17948517, 4119.61538434, 4112.05128178, 4118.33333306, 4120.89743562, 4113.97435870, 4127.82051255, 7598.46154555, 3858.33333250, 4081.28205094, 4133.97435870,12.0
4209.35897429, 4083.07692273, 4060.89743548, 3322.94871601, 4119.35897408, 4110.64102537, 4119.23076896, 4128.33333306, 4119.61538434, 4128.84615357, 7598.46154555, 3854.99999917, 4076.41025607, 4135.89743569,12.0
4215.64102558, 4100.89743555, 4065.38461497, 3325.89743396, 4116.28205101, 4112.56410229, 4122.30769203, 4131.79487152, 4128.33333306, 4126.02564075, 7598.46154555, 3864.23076840, 4078.07692273, 4138.33333313,12.0
4217.82051275, 4114.48717921, 4062.30769189, 3329.10256216, 4114.74358947, 4107.69230742, 4113.07692280, 4119.87179460, 4111.28205101, 4126.66666639, 7598.46154555, 3868.46153763, 4081.53846119, 4136.41025621,12.0
4220.38461532, 4115.25640998, 4059.87179446, 3339.35897242, 4116.66666639, 4108.07692280, 4116.15384588, 4118.58974332, 4099.35897402, 4131.02564075, 7598.46154555, 3861.02564020, 4081.15384581, 4136.92307672,12.0
4230.76923070, 4111.79487152, 4062.69230728, 3342.30769037, 4117.30769203, 4119.35897408, 4129.10256383, 4127.82051255, 4106.15384588, 4127.05128178, 7598.46154555, 3853.46153763, 4073.97435863, 4136.53846133,12.0
4226.28205122, 4109.35897408, 4058.07692266, 3338.20512626, 4114.10256383, 4103.46153819, 4101.92307658, 4118.71794844, 4100.51282017, 4121.79487152, 7598.46154555, 3851.02564020, 4074.48717914, 4138.97435877,12.0
4229.87179481, 4104.35897408, 4054.35897395, 3329.23076729, 4116.79487152, 4077.05128171, 4062.69230728, 4101.28205094, 4082.56410222, 4126.02564075, 7598.46154555, 3842.69230686, 4078.20512786, 4138.20512800,12.0
4235.51282052, 4088.71794837, 4047.94871754, 3307.17948517, 4118.71794844, 4079.74358940, 4070.12820478, 4102.30769196, 4078.84615350, 4129.61538434, 7598.46154555, 3828.84615295, 4073.58974325, 4136.41025621,12.0
4233.58974352, 4090.64102530, 4047.30769189, 3319.10256216, 4113.46153819, 4099.48717914, 4105.76923050, 4122.05128178, 4105.76923050, 4127.69230742, 7598.46154555, 3837.56410166, 4075.12820478, 4140.64102544,12.0
4240.76923077, 4112.05128178, 4060.38461497, 3366.28204941, 4113.58974332, 4105.76923050, 4112.94871767, 4134.10256383, 4124.35897408, 4128.20512793, 7598.46154555, 3858.33333250, 4077.17948684, 4137.30769210,12.0
4238.46153847, 4102.17948684, 4055.12820472, 3360.12820326, 4112.17948691, 4087.43589709, 4081.15384581, 4115.51282024, 4092.69230735, 4130.12820485, 7598.46154555, 3843.84615302, 4070.25640991, 4137.94871774,12.0
4243.84615385, 4114.74358947, 4059.48717907, 3362.05128018, 4108.46153819, 4104.35897408, 4103.07692280, 4123.20512793, 4102.56410229, 4129.10256383, 7598.46154555, 3861.15384532, 4071.79487145, 4143.46153826,12.0
4249.48717949, 4177.94871781, 4089.61538427, 3443.97435724, 4111.79487152, 4165.64102544, 4186.02564089, 4176.41025628, 4188.07692294, 4127.56410229, 7598.46154555, 3943.33333271, 4086.66666632, 4142.43589723,12.0
4242.82051282, 4182.05128192, 4090.76923043, 3463.84615218, 4113.71794844, 4162.69230749, 4181.15384602, 4178.58974345, 4200.38461525, 4127.05128178, 7598.46154555, 3958.07692246, 4090.76923043, 4142.56410236,12.0
4252.69230770, 4131.92307665, 4070.76923043, 3401.02563922, 4113.33333306, 4106.79487152, 4106.79487152, 4130.76923050, 4132.17948691, 4127.17948691, 7598.46154555, 3899.87179411, 4075.76923043, 4138.84615364,12.0
4252.05128206, 4132.94871767, 4071.41025607, 3411.15384435, 4112.05128178, 4111.15384588, 4111.79487152, 4131.02564075, 4130.25640998, 4130.38461511, 7598.46154555, 3906.79487110, 4073.71794837, 4140.12820492,12.0
4250.38461539, 4154.99999980, 4082.69230735, 3444.23076750, 4112.69230742, 4132.05128178, 4142.05128185, 4148.71794851, 4158.46153826, 4129.99999973, 7598.46154555, 3936.79487110, 4081.66666632, 4141.41025621,12.0
4260.00000000, 4126.79487152, 4070.12820478, 3403.33333153, 4114.10256383, 4094.87179453, 4105.89743562, 4121.28205101, 4112.82051255, 4127.56410229, 7598.46154555, 3886.66666591, 4071.41025607, 4137.94871774,12.0
4254.61538462, 4104.99999973, 4050.76923036, 3386.53845974, 4110.12820485, 4072.94871761, 4080.89743555, 4107.30769203, 4079.61538427, 4129.23076896, 7598.46154555, 3848.84615302, 4064.99999959, 4144.74358954,12.0
4258.20512821, 4124.61538434, 4056.79487138, 3416.92307519, 4110.38461511, 4097.69230735, 4101.66666632, 4123.07692280, 4103.97435870, 4130.25640998, 7598.46154555, 3873.71794796, 4071.41025607, 4144.99999980,12.0
4256.41025641, 4137.30769210, 4065.89743548, 3435.12820339, 4111.92307665, 4110.76923050, 4114.35897408, 4125.38461511, 4108.97435870, 4129.74358947, 7598.46154555, 3896.79487103, 4073.33333299, 4141.79487159,12.0
4252.56410257, 4140.64102544, 4067.94871754, 3452.56410090, 4111.66666639, 4107.69230742, 4111.41025614, 4121.41025614, 4096.79487145, 4130.76923050, 7598.46154555, 3900.76923001, 4071.53846119, 4143.84615364,12.0
4260.89743590, 4128.20512793, 4058.71794830, 3435.38461365, 4111.28205101, 4090.25640991, 4086.92307658, 4109.48717921, 4079.99999966, 4129.61538434, 7598.46154555, 3871.15384532, 4065.64102523, 4141.41025621,12.0
4256.79487180, 4112.69230742, 4044.99999959, 3399.23076743, 4108.84615357, 4070.12820478, 4067.05128164, 4105.25640998, 4069.74358940, 4126.53846126, 7598.46154555, 3849.23076840, 4063.58974318, 4140.64102544,12.0
4262.17948718, 4147.56410236, 4066.02564061, 3449.23076757, 4110.25640998, 4096.92307658, 4105.76923050, 4135.64102544, 4108.07692280, 4127.69230742, 7598.46154555, 3901.79487103, 4072.94871761, 4138.71794851,12.0
4265.89743590, 4188.07692294, 4092.30769196, 3527.43589591, 4111.28205101, 4147.05128185, 4161.66666646, 4168.84615371, 4160.38461518, 4128.46153819, 7598.46154555, 3964.99999938, 4079.99999966, 4137.56410236,12.0
4261.92307693, 4158.58974339, 4074.87179453, 3491.02563943, 4109.10256383, 4121.92307665, 4125.12820485, 4141.66666646, 4123.71794844, 4127.56410229, 7598.46154555, 3919.99999931, 4069.87179453, 4139.87179467,12.0
4268.33333341, 4127.17948691, 4054.61538420, 3439.61538288, 4109.99999973, 4067.30769189, 4067.17948677, 4105.12820485, 4060.89743548, 4128.07692280, 7598.46154555, 3855.89743507, 4060.89743548, 4138.07692287,12.0
4266.53846154, 4159.48717928, 4073.71794837, 3494.10256251, 4112.56410229, 4093.33333299, 4108.97435870, 4141.53846133, 4110.89743562, 4133.33333306, 7598.46154555, 3909.99999931, 4072.82051248, 4139.87179467,12.0
4269.61538469, 4177.69230756, 4089.61538427, 3531.02563950, 4112.82051255, 4123.58974332, 4137.30769210, 4169.48717935, 4164.74358954, 4137.17948697, 7598.46154555, 3955.38461476, 4076.92307658, 4139.74358954,12.0
4271.66666674, 4144.35897415, 4069.87179453, 3490.25640866, 4108.71794844, 4082.56410222, 4085.12820478, 4133.58974332, 4112.43589716, 4130.38461511, 7598.46154555, 3899.99999924, 4064.23076882, 4136.28205108,12.0
4272.30769238, 4137.94871774, 4059.61538420, 3488.33333174, 4105.25640998, 4064.74358933, 4076.53846119, 4114.61538434, 4072.56410222, 4123.58974332, 7598.46154555, 3873.84615309, 4065.76923036, 4136.92307672,12.0
4281.53846161, 4159.48717928, 4071.79487145, 3521.53846001, 4110.76923050, 4099.74358940, 4116.28205101, 4129.99999973, 4095.25640991, 4126.53846126, 7598.46154555, 3901.92307616, 4070.89743555, 4135.12820485,12.0
4277.05128212, 4142.94871774, 4064.87179446, 3506.53845994, 4114.23076896, 4101.15384581, 4103.07692280, 4122.69230742, 4086.41025607, 4128.84615357, 7598.46154555, 3887.05128129, 4065.76923036, 4137.69230749,12.0
4278.71794879, 4129.74358947, 4058.20512779, 3503.84615225, 4111.41025614, 4083.84615350, 4079.61538427, 4108.84615357, 4056.02564061, 4125.25640998, 7598.46154555, 3866.41025558, 4064.74358933, 4137.17948697,12.0
4283.58974366, 4154.74358954, 4070.64102530, 3553.84615239, 4110.51282024, 4103.33333306, 4107.43589716, 4126.15384588, 4073.71794837, 4126.92307665, 7598.46154555, 3898.07692232, 4070.76923043, 4133.46153819,12.0
4282.43589751, 4161.15384595, 4073.33333299, 3571.53846008, 4109.61538434, 4111.28205101, 4117.43589716, 4132.69230742, 4087.56410222, 4136.15384595, 7598.46154555, 3908.71794803, 4072.05128171, 4139.23076903,12.0
4291.66666674, 4144.10256390, 4066.66666625, 3551.79487034, 4110.25640998, 4095.38461504, 4096.79487145, 4117.05128178, 4064.61538420, 4136.15384595, 7598.46154555, 3883.84615309, 4065.89743548, 4137.94871774,12.0
4290.51282059, 4142.82051262, 4061.41025600, 3555.25640880, 4110.12820485, 4091.02564068, 4096.15384581, 4120.12820485, 4071.28205094, 4126.79487152, 7598.46154555, 3882.30769155, 4064.87179446, 4136.15384595,12.0
4288.84615392, 4159.87179467, 4064.23076882, 3577.17948572, 4108.84615357, 4104.74358947, 4118.71794844, 4141.66666646, 4106.79487152, 4125.25640998, 7598.46154555, 3901.02564027, 4070.12820478, 4139.87179467,12.0
4293.58974366, 4165.25641005, 4069.74358940, 3574.35897290, 4108.46153819, 4108.07692280, 4123.46153819, 4144.48717928, 4101.41025607, 4132.17948691, 7598.46154555, 3896.92307616, 4069.61538420, 4140.64102544,12.0
4293.33333341, 4150.64102544, 4061.28205087, 3548.20512675, 4106.15384588, 4087.56410222, 4095.38461504, 4124.10256383, 4068.33333292, 4131.15384588, 7598.46154555, 3869.99999917, 4064.10256369, 4142.05128185,12.0
4301.02564117, 4141.92307672, 4051.53846113, 3539.74358822, 4107.05128178, 4070.51282017, 4068.84615343, 4104.48717921, 4053.58974318, 4124.35897408, 7598.46154555, 3854.99999917, 4062.82051241, 4138.97435877,12.0
4297.17948725, 4148.97435877, 4049.23076882, 3565.51281906, 4108.71794844, 4072.43589709, 4069.87179453, 4101.15384581, 4052.30769189, 4129.99999973, 7598.46154555, 3863.33333250, 4067.94871754, 4136.79487159,12.0
4293.58974366, 4158.33333313, 4056.15384574, 3587.30769092, 4109.23076896, 4088.58974325, 4092.82051248, 4115.89743562, 4062.82051241, 4139.48717928, 7598.46154555, 3874.87179411, 4070.64102530, 4140.51282031,12.0
4302.30769245, 4159.74358954, 4059.10256369, 3589.61538323, 4110.89743562, 4101.66666632, 4109.74358947, 4126.92307665, 4078.71794837, 4129.99999973, 7598.46154555, 3870.38461455, 4067.69230728, 4139.87179467,12.0
4298.84615392, 4162.82051262, 4053.33333292, 3613.46153715, 4109.61538434, 4103.84615357, 4112.30769203, 4128.20512793, 4082.56410222, 4121.41025614, 7598.46154555, 3873.84615309, 4069.61538420, 4139.99999980,12.0
4302.82051296, 4167.30769210, 4058.20512779, 3641.66666535, 4108.33333306, 4102.30769196, 4109.23076896, 4129.74358947, 4077.43589709, 4127.94871767, 7598.46154555, 3886.28205052, 4071.02564068, 4141.53846133,12.0
4303.20512835, 4158.84615364, 4057.56410215, 3632.82051150, 4107.05128178, 4099.23076889, 4103.20512793, 4130.64102537, 4077.82051248, 4129.74358947, 7598.46154555, 3879.99999924, 4066.15384574, 4141.02564082,12.0
4298.84615392, 4158.46153826, 4052.82051241, 3627.05128073, 4106.92307665, 4104.61538434, 4110.38461511, 4136.41025621, 4089.35897402, 4128.20512793, 7598.46154555, 3878.71794796, 4068.58974318, 4141.66666646,12.0
4307.05128219, 4169.10256397, 4058.07692266, 3646.53846029, 4109.10256383, 4111.41025614, 4120.38461511, 4138.33333313, 4090.76923043, 4129.99999973, 7598.46154555, 3889.74358898, 4072.56410222, 4141.28205108,12.0
4304.35897450, 4164.99999980, 4056.15384574, 3659.61538337, 4106.66666639, 4103.84615357, 4109.10256383, 4130.89743562, 4079.23076889, 4133.33333306, 7598.46154555, 3892.17948642, 4070.25640991, 4137.69230749,12.0
4305.25641040, 4153.97435877, 4049.48717907, 3653.71794747, 4105.64102537, 4084.10256376, 4087.94871761, 4121.66666639, 4071.28205094, 4136.53846133, 7598.46154555, 3881.02564027, 4067.69230728, 4137.05128185,12.0
4305.25641040, 4145.12820492, 4042.82051241, 3644.74358850, 4105.25640998, 4071.02564068, 4077.30769196, 4116.28205101, 4060.64102523, 4133.07692280, 7598.46154555, 3860.38461455, 4066.41025600, 4140.89743569,12.0
4304.48717963, 4152.17948697, 4047.30769189, 3665.51281927, 4105.25640998, 4088.58974325, 4091.79487145, 4121.41025614, 4062.69230728, 4123.07692280, 7598.46154555, 3864.87179404, 4072.69230735, 4143.33333313,12.0
4313.46153860, 4185.89743576, 4068.71794830, 3723.58974248, 4107.56410229, 4128.20512793, 4130.76923050, 4143.20512800, 4103.84615357, 4124.23076896, 7598.46154555, 3915.76923008, 4082.05128171, 4138.20512800,12.0
4306.66666681, 4201.53846147, 4075.25640991, 3749.87179383, 4105.89743562, 4141.15384595, 4150.25641005, 4153.71794851, 4124.23076896, 4132.43589716, 7598.46154555, 3944.61538399, 4081.79487145, 4138.20512800,12.0
4305.89743604, 4182.05128192, 4065.38461497, 3720.64102453, 4106.53846126, 4117.69230742, 4130.51282024, 4133.71794844, 4089.61538427, 4125.25640998, 7598.46154555, 3915.76923008, 4077.94871761, 4144.10256390,12.0
4311.53846168, 4170.51282038, 4062.17948677, 3709.61538351, 4110.76923050, 4107.82051255, 4123.33333306, 4129.10256383, 4079.99999966, 4122.43589716, 7598.46154555, 3903.07692232, 4078.97435863, 4139.35897415,12.0
4308.20512835, 4171.15384602, 4061.41025600, 3722.94871684, 4109.87179460, 4113.97435870, 4130.51282024, 4140.12820492, 4094.61538427, 4136.92307672, 7598.46154555, 3904.61538385, 4078.33333299, 4135.89743569,12.0
4310.51282066, 4162.43589723, 4058.20512779, 3718.71794761, 4107.43589716, 4111.41025614, 4121.92307665, 4138.58974339, 4091.15384581, 4140.12820492, 7598.46154555, 3889.61538385, 4075.76923043, 4139.74358954,12.0
4308.97435912, 4154.23076903, 4057.17948677, 3710.25640915, 4107.17948691, 4108.20512793, 4117.82051255, 4141.79487159, 4100.38461504, 4126.53846126, 7598.46154555, 3895.12820437, 4078.20512786, 4137.94871774,12.0
4311.28205142, 4153.33333313, 4057.69230728, 3713.84615274, 4108.07692280, 4097.30769196, 4107.82051255, 4135.64102544, 4096.79487145, 4124.48717921, 7598.46154555, 3894.23076847, 4079.10256376, 4139.10256390,12.0
4313.07692322, 4142.69230749, 4049.35897395, 3715.12820402, 4107.82051255, 4074.87179453, 4078.07692273, 4108.46153819, 4052.17948677, 4134.10256383, 7598.46154555, 3857.43589661, 4069.99999966, 4141.79487159,12.0
4307.82051296, 4133.84615357, 4042.94871754, 3718.58974248, 4106.66666639, 4073.58974325, 4073.46153812, 4103.46153819, 4038.46153805, 4129.48717921, 7598.46154555, 3851.66666584, 4063.71794830, 4139.87179467,12.0
4311.41025655, 4136.66666646, 4049.10256369, 3730.76922966, 4106.15384588, 4092.56410222, 4094.61538427, 4116.66666639, 4066.28205087, 4123.71794844, 7598.46154555, 3874.61538385, 4070.12820478, 4139.10256390,12.0
4312.56410271, 4134.35897408, 4052.69230728, 3739.87179376, 4106.15384588, 4095.76923043, 4098.07692273, 4114.10256383, 4068.58974318, 4127.94871767, 7598.46154555, 3875.25640950, 4074.87179453, 4140.76923056,12.0
4316.02564117, 4138.33333313, 4058.58974318, 3759.48717845, 4106.79487152, 4094.10256376, 4098.07692273, 4114.99999973, 4066.66666625, 4127.43589716, 7598.46154555, 3891.79487103, 4078.20512786, 4142.30769210,12.0
4318.07692322, 4149.48717928, 4063.46153805, 3777.17948621, 4108.46153819, 4099.48717914, 4106.41025614, 4123.84615357, 4079.48717914, 4122.17948691, 7598.46154555, 3916.15384546, 4082.94871761, 4139.61538441,12.0
4312.69230784, 4153.46153826, 4060.38461497, 3774.10256306, 4109.61538434, 4101.02564068, 4107.05128178, 4123.33333306, 4072.56410222, 4123.71794844, 7598.46154555, 3900.64102488, 4079.35897402, 4137.43589723,12.0
4317.94871809, 4152.94871774, 4055.89743548, 3762.05128101, 4110.12820485, 4101.66666632, 4105.89743562, 4114.23076896, 4053.20512779, 4126.66666639, 7598.46154555, 3874.74358898, 4074.74358940, 4138.84615364,12.0
4322.82051296, 4148.07692287, 4048.84615343, 3757.05128101, 4107.56410229, 4099.10256376, 4104.87179460, 4106.15384588, 4045.76923036, 4124.23076896, 7598.46154555, 3873.71794796, 4074.99999966, 4139.87179467,12.0
4326.28205142, 4142.05128185, 4050.51282010, 3760.89743486, 4103.33333306, 4094.87179453, 4102.56410229, 4108.84615357, 4051.53846113, 4124.74358947, 7598.46154555, 3882.17948642, 4076.53846119, 4141.15384595,12.0
4326.92307707, 4140.12820492, 4056.28205087, 3770.89743486, 4105.38461511, 4095.38461504, 4102.69230742, 4119.23076896, 4063.46153805, 4128.46153819, 7598.46154555, 3884.74358898, 4078.33333299, 4140.76923056,12.0
4324.35897450, 4136.28205108, 4048.71794830, 3777.94871698, 4109.10256383, 4091.41025607, 4094.61538427, 4118.07692280, 4067.43589702, 4133.71794844, 7598.46154555, 3880.76923001, 4079.61538427, 4141.79487159,12.0
4329.61538476, 4129.35897408, 4041.41025600, 3765.12820409, 4106.92307665, 4074.48717914, 4069.99999966, 4106.15384588, 4053.20512779, 4135.25640998, 7598.46154555, 3864.87179404, 4078.58974325, 4141.66666646,12.0
4327.05128219, 4131.02564075, 4042.56410215, 3761.92307588, 4102.94871767, 4067.94871754, 4064.99999959, 4108.84615357, 4051.53846113, 4132.30769203, 7598.46154555, 3863.84615302, 4081.02564068, 4137.43589723,12.0
4328.07692322, 4143.07692287, 4050.89743548, 3789.10256313, 4106.15384588, 4087.56410222, 4089.23076889, 4120.64102537, 4073.33333299, 4132.56410229, 7598.46154555, 3888.33333257, 4086.41025607, 4138.71794851,12.0
4334.87179508, 4149.35897415, 4059.61538420, 3813.84615295, 4110.38461511, 4106.79487152, 4107.43589716, 4127.82051255, 4088.97435863, 4131.28205101, 7598.46154555, 3910.25640957, 4086.15384581, 4141.15384595,12.0
4328.07692322, 4139.23076903, 4053.58974318, 3809.35897346, 4106.15384588, 4099.10256376, 4102.30769196, 4125.89743562, 4075.12820478, 4124.23076896, 7598.46154555, 3903.58974283, 4085.12820478, 4139.61538441,12.0
4330.25641040, 4125.89743562, 4045.25640984, 3794.87179390, 4101.41025607, 4086.66666632, 4095.12820478, 4116.28205101, 4058.20512779, 4122.94871767, 7598.46154555, 3884.61538385, 4084.35897402, 4141.02564082,12.0
4330.25641040, 4125.89743562, 4045.25640984, 3794.87179390, 4101.41025607, 4086.66666632, 4095.12820478, 4116.28205101, 4058.20512779, 4122.94871767, 7598.46154555, 3884.61538385, 4084.35897402, 4141.02564082,12.0
4332.05128219, 4118.58974332, 4043.58974318, 3794.99999903, 4101.66666632, 4091.28205094, 4099.99999966, 4114.48717921, 4065.76923036, 4127.69230742, 7598.46154555, 3883.58974283, 4080.76923043, 4140.76923056,12.0
4328.33333348, 4110.12820485, 4039.10256369, 3788.58974262, 4105.51282024, 4092.56410222, 4097.82051248, 4115.51282024, 4060.25640984, 4128.07692280, 7598.46154555, 3877.69230693, 4078.71794837, 4140.38461518,12.0
4331.15384630, 4105.25640998, 4036.79487131, 3785.12820416, 4107.56410229, 4089.10256376, 4095.38461504, 4114.87179460, 4046.79487138, 4129.10256383, 7598.46154555, 3870.76922994, 4081.41025607, 4143.07692287,12.0
4327.69230784, 4108.46153819, 4041.15384574, 3799.99999903, 4106.28205101, 4091.15384581, 4106.02564075, 4123.20512793, 4064.61538420, 4131.15384588, 7598.46154555, 3883.84615309, 4084.61538427, 4142.69230749,12.0
4330.76923091, 4107.82051255, 4046.92307651, 3801.53846057, 4106.02564075, 4086.66666632, 4104.10256383, 4129.74358947, 4079.10256376, 4124.61538434, 7598.46154555, 3888.71794796, 4084.87179453, 4137.94871774,12.0
4328.71794886, 4102.30769196, 4044.61538420, 3798.07692211, 4105.89743562, 4084.74358940, 4090.51282017, 4122.30769203, 4068.58974318, 4123.84615357, 7598.46154555, 3887.17948642, 4083.33333299, 4135.51282031,12.0
4322.43589758, 4112.82051255, 4049.99999959, 3826.41025551, 4106.28205101, 4104.61538434, 4099.48717914, 4126.28205101, 4081.15384581, 4134.23076896, 7598.46154555, 3910.89743521, 4085.76923043, 4139.61538441,12.0
4329.10256425, 4130.12820485, 4062.56410215, 3855.89743507, 4106.53846126, 4120.64102537, 4116.15384588, 4138.97435877, 4109.10256383, 4134.99999973, 7598.46154555, 3938.71794810, 4091.92307658, 4141.15384595,12.0
4327.56410271, 4126.66666639, 4059.10256369, 3851.41025558, 4105.38461511, 4112.69230742, 4109.23076896, 4129.23076896, 4099.23076889, 4124.87179460, 7598.46154555, 3938.46153784, 4092.82051248, 4138.20512800,12.0
4327.05128219, 4121.28205101, 4057.05128164, 3850.76922994, 4105.89743562, 4112.82051255, 4104.87179460, 4114.48717921, 4077.43589709, 4121.92307665, 7598.46154555, 3934.74358905, 4090.12820478, 4141.92307672,12.0
4327.94871809, 4121.92307665, 4062.43589702, 3863.58974276, 4106.28205101, 4121.41025614, 4119.87179460, 4118.20512793, 4079.74358940, 4124.99999973, 7598.46154555, 3941.79487117, 4091.15384581, 4143.46153826,12.0
4325.00000014, 4111.41025614, 4059.74358933, 3857.05128122, 4106.41025614, 4108.97435870, 4120.38461511, 4121.66666639, 4079.99999966, 4132.69230742, 7598.46154555, 3934.74358905, 4091.02564068, 4138.20512800,12.0
4329.48717963, 4098.71794837, 4052.69230728, 3842.17948635, 4109.10256383, 4097.94871761, 4111.79487152, 4120.38461511, 4069.74358940, 4135.12820485, 7598.46154555, 3917.43589674, 4088.84615350, 4136.53846133,12.0
4327.56410271, 4088.84615350, 4046.28205087, 3835.89743500, 4107.82051255, 4109.74358947, 4118.20512793, 4127.56410229, 4075.38461504, 4129.48717921, 7598.46154555, 3906.66666598, 4088.07692273, 4137.94871774,12.0
4328.84615399, 4076.28205094, 4041.92307651, 3823.20512731, 4104.23076896, 4103.58974332, 4106.66666639, 4126.28205101, 4077.30769196, 4129.48717921, 7598.46154555, 3890.89743514, 4085.64102530, 4139.61538441,12.0
4333.07692329, 4066.15384574, 4038.71794830, 3806.41025544, 4104.74358947, 4079.23076889, 4080.51282017, 4113.84615357, 4060.51282010, 4132.82051255, 7598.46154555, 3875.38461462, 4081.02564068, 4137.17948697,12.0
4327.56410271, 4074.35897402, 4040.76923036, 3819.99999910, 4105.89743562, 4092.69230735, 4090.12820478, 4116.79487152, 4062.56410215, 4135.25640998, 7598.46154555, 3894.10256334, 4082.43589709, 4136.15384595,12.0
4330.12820527, 4089.48717914, 4050.25640984, 3847.05128122, 4106.66666639, 4117.82051255, 4107.69230742, 4121.02564075, 4073.71794837, 4135.12820485, 7598.46154555, 3923.07692239, 4090.38461504, 4140.76923056,12.0
4332.43589765, 4083.07692273, 4052.05128164, 3843.84615302, 4107.69230742, 4102.17948684, 4090.51282017, 4109.10256383, 4061.41025600, 4132.82051255, 7598.46154555, 3918.97435828, 4091.15384581, 4138.20512800,12.0
4332.94871816, 4074.74358940, 4048.33333292, 3833.84615295, 4106.92307665, 4086.02564068, 4078.20512786, 4101.28205094, 4047.43589702, 4134.23076896, 7598.58975068, 3908.97435828, 4087.94871761, 4134.48717921,12.0
4334.35897457, 4089.23076889, 4055.64102523, 3855.89743507, 4107.05128178, 4104.99999973, 4098.97435863, 4106.92307665, 4054.35897395, 4136.15384595, 7598.46154555, 3924.35897367, 4089.74358940, 4136.66666646,12.0
4327.17948732, 4096.41025607, 4058.46153805, 3873.46153770, 4107.17948691, 4109.10256383, 4109.35897408, 4107.30769203, 4062.30769189, 4128.84615357, 7598.71795581, 3936.15384546, 4089.23076889, 4137.43589723,12.0
4332.30769252, 4075.64102530, 4047.82051241, 3844.35897353, 4106.28205101, 4084.74358940, 4085.89743555, 4093.71794837, 4050.25640984, 4122.17948691, 7601.28205837, 3911.66666598, 4086.15384581, 4139.35897415,12.0
4336.15384637, 4061.15384574, 4038.07692266, 3814.74358884, 4106.41025614, 4083.20512786, 4077.30769196, 4092.43589709, 4037.43589702, 4126.15384588, 7599.23077632, 3882.30769155, 4083.84615350, 4139.61538441,12.0
4332.05128219, 4075.76923043, 4040.64102523, 3832.82051192, 4106.66666639, 4108.97435870, 4113.46153819, 4121.15384588, 4057.30769189, 4127.30769203, 7595.38462248, 3890.25640950, 4083.84615350, 4137.94871774,12.0
4337.43589765, 4089.48717914, 4047.69230728, 3852.82051199, 4105.76923050, 4123.46153819, 4141.66666646, 4144.48717928, 4087.94871761, 4127.94871767, 7604.23077632, 3905.51281975, 4085.64102530, 4136.53846133,12.0
4337.30769252, 4079.74358940, 4037.17948677, 3834.23076833, 4105.89743562, 4111.02564075, 4117.43589716, 4133.07692280, 4082.94871761, 4126.66666639, 7590.00000709, 3884.74358898, 4085.12820478, 4134.87179460,12.0
4337.82051303, 4067.30769189, 4029.61538413, 3812.05128115, 4109.99999973, 4093.97435863, 4084.87179453, 4109.48717921, 4049.23076882, 4124.35897408, 7559.87180189, 3864.74358891, 4083.46153812, 4138.46153826,12.0
4337.94871816, 4064.10256369, 4033.33333285, 3813.71794782, 4108.71794844, 4090.25640991, 4087.05128171, 4104.23076896, 4026.66666618, 4128.58974332, 7556.92308395, 3873.20512744, 4083.84615350, 4141.92307672,12.0
4333.20512842, 4065.89743548, 4032.43589695, 3831.28205038, 4101.41025607, 4096.53846119, 4094.99999966, 4108.46153819, 4029.74358926, 4126.92307665, 7544.61539157, 3883.97435821, 4084.61538427, 4140.76923056,12.0
4337.94871816, 4069.23076882, 4033.71794824, 3846.02564020, 4102.82051255, 4097.82051248, 4079.61538427, 4099.23076889, 4035.38461490, 4123.97435870, 7525.76923772, 3884.99999924, 4083.20512786, 4141.02564082,12.0
4334.74358996, 4058.33333292, 4029.74358926, 3843.46153763, 4106.41025614, 4089.48717914, 4068.07692266, 4093.71794837, 4033.33333285, 4128.46153819, 7507.05128893, 3878.58974283, 4082.43589709, 4140.76923056,12.0
4334.10256431, 4051.28205087, 4028.84615336, 3850.64102481, 4104.74358947, 4098.20512786, 4088.20512786, 4108.33333306, 4050.89743548, 4128.20512793, 7482.82051963, 3878.33333257, 4084.48717914, 4140.76923056,12.0
4337.43589765, 4057.69230728, 4033.20512772, 3869.10256327, 4106.41025614, 4118.07692280, 4105.64102537, 4114.99999973, 4071.02564068, 4124.87179460, 7476.15385297, 3881.92307616, 4083.20512786, 4141.02564082,12.0
4329.87179501, 4057.56410215, 4031.66666618, 3870.25640943, 4108.97435870, 4122.43589716, 4104.10256383, 4108.07692280, 4061.15384574, 4135.89743569, 7450.64103245, 3879.74358898, 4083.07692273, 4141.02564082,12.0
4334.61538483, 4049.10256369, 4033.58974311, 3862.56410173, 4108.07692280, 4120.76923050, 4110.25640998, 4115.38461511, 4054.61538420, 4140.89743569, 7420.51282726, 3882.69230693, 4088.71794837, 4142.05128185,12.0
4333.58974380, 4038.58974318, 4028.46153798, 3865.25640943, 4107.17948691, 4117.69230742, 4113.58974332, 4126.41025614, 4064.74358933, 4133.71794844, 7400.64103232, 3883.84615309, 4086.41025607, 4141.15384595,12.0
4330.00000014, 4037.05128164, 4019.61538413, 3868.46153763, 4106.66666639, 4110.51282024, 4101.41025607, 4115.25640998, 4057.05128164, 4134.87179460, 7364.35898096, 3872.17948635, 4080.51282017, 4142.82051262,12.0
4338.58974380, 4041.53846113, 4024.61538413, 3875.38461462, 4106.02564075, 4114.61538434, 4104.10256383, 4111.53846126, 4050.51282010, 4137.05128185, 7336.28205782, 3871.92307609, 4084.99999966, 4143.33333313,12.0
4332.69230790, 4039.61538420, 4029.61538413, 3886.79487103, 4107.30769203, 4125.64102537, 4120.12820485, 4126.92307665, 4067.69230728, 4129.35897408, 7316.41026288, 3890.51281975, 4089.99999966, 4139.61538441,12.0
4329.23076937, 4036.79487131, 4025.89743541, 3881.92307616, 4109.10256383, 4116.53846126, 4108.07692280, 4122.56410229, 4071.28205094, 4125.89743562, 7286.66667313, 3891.15384539, 4089.35897402, 4140.64102544,12.0
4330.51282066, 4038.58974318, 4023.84615336, 3875.76923001, 4105.76923050, 4109.48717921, 4097.30769196, 4116.53846126, 4064.23076882, 4128.07692280, 7256.15385255, 3887.05128129, 4088.71794837, 4140.12820492,12.0
4331.92307707, 4043.20512779, 4031.41025593, 3898.71794796, 4104.23076896, 4131.02564075, 4126.41025614, 4133.20512793, 4080.89743555, 4126.02564075, 7234.87180120, 3909.87179418, 4092.30769196, 4137.94871774,12.0
4336.28205149, 4045.76923036, 4039.10256369, 3921.15384546, 4108.84615357, 4150.64102544, 4151.02564082, 4138.33333313, 4097.69230735, 4124.99999973, 7214.10257036, 3928.46153777, 4097.05128171, 4137.30769210,12.0
4325.25641040, 4035.64102516, 4034.23076875, 3909.48717880, 4107.05128178, 4141.28205108, 4135.89743569, 4124.10256383, 4089.74358940, 4125.51282024, 7181.28205747, 3921.92307623, 4093.58974325, 4136.79487159,12.0
4323.84615399, 4014.23076875, 4028.07692259, 3887.17948642, 4105.12820485, 4126.15384588, 4113.97435870, 4119.48717921, 4084.23076889, 4126.41025614, 7148.97436509, 3911.66666598, 4089.35897402, 4140.51282031,12.0
4330.76923091, 4008.07692259, 4027.43589695, 3893.71794796, 4107.30769203, 4124.87179460, 4108.97435870, 4124.10256383, 4093.97435863, 4128.97435870, 7123.46154458, 3912.43589674, 4095.89743555, 4139.35897415,12.0
4328.46153860, 4022.69230721, 4032.94871747, 3926.41025572, 4106.41025614, 4130.51282024, 4117.30769203, 4129.10256383, 4101.15384581, 4127.05128178, 7100.89744195, 3927.56410187, 4100.76923043, 4137.30769210,12.0
4328.97435912, 4025.12820465, 4042.94871754, 3939.74358912, 4106.41025614, 4143.58974339, 4134.74358947, 4139.48717928, 4112.43589716, 4126.79487152, 7085.38462136, 3950.38461476, 4097.94871761, 4140.51282031,12.0
4325.38461553, 4015.25640977, 4043.58974318, 3933.46153777, 4106.79487152, 4151.28205108, 4142.56410236, 4137.82051262, 4116.28205101, 4133.46153819, 7062.30769829, 3956.79487117, 4098.71794837, 4139.35897415,12.0
4327.94871809, 4018.46153798, 4046.79487138, 3938.20512751, 4106.28205101, 4146.92307672, 4136.79487159, 4127.43589716, 4099.10256376, 4136.66666646, 7027.05128796, 3947.43589681, 4101.15384581, 4139.23076903,12.0
4330.12820527, 4014.61538413, 4054.74358933, 3932.56410187, 4105.76923050, 4138.97435877, 4134.74358947, 4133.20512793, 4096.15384581, 4129.48717921, 7004.10256994, 3947.05128143, 4099.48717914, 4139.99999980,12.0
4325.76923091, 4005.89743541, 4052.56410215, 3928.20512751, 4106.02564075, 4133.71794844, 4136.79487159, 4137.30769210, 4103.20512793, 4123.84615357, 6985.64103141, 3948.46153784, 4098.84615350, 4138.58974339,12.0
4331.53846168, 4020.38461490, 4050.51282010, 3962.56410194, 4107.05128178, 4143.71794851, 4141.15384595, 4132.30769203, 4094.61538427, 4125.76923050, 6950.76923647, 3942.82051220, 4100.89743555, 4138.58974339,12.0
4331.41025655, 4023.33333285, 4052.30769189, 3974.74358919, 4106.41025614, 4160.12820492, 4147.94871774, 4141.15384595, 4102.17948684, 4126.41025614, 6924.10256973, 3947.05128143, 4101.15384581, 4136.92307672,12.0
4333.84615406, 4007.17948670, 4057.94871754, 3939.35897374, 4106.15384588, 4163.46153826, 4147.94871774, 4153.07692287, 4130.12820485, 4126.28205101, 6915.76923640, 3967.94871733, 4104.74358947, 4137.30769210,12.0
4339.35897457, 4002.82051227, 4057.17948677, 3933.07692239, 4106.53846126, 4148.33333313, 4131.15384588, 4140.89743569, 4119.35897408, 4131.41025614, 6891.15385172, 3969.35897374, 4106.79487152, 4140.12820492,12.0
4332.05128219, 4000.76923022, 4048.58974318, 3966.66666605, 4106.41025614, 4136.53846133, 4115.38461511, 4125.76923050, 4089.23076889, 4131.15384588, 6853.58974908, 3946.79487117, 4103.07692280, 4139.87179467,12.0
4332.69230790, 4005.51282003, 4057.17948677, 4010.64102516, 4106.79487152, 4152.05128185, 4131.66666639, 4137.05128185, 4109.99999973, 4126.28205101, 6836.79487729, 3962.30769169, 4104.23076896, 4137.30769210,12.0
4333.07692329, 4019.74358926, 4069.74358940, 4047.05128164, 4106.53846126, 4173.97435884, 4158.97435877, 4154.99999980, 4143.97435877, 4126.66666639, 6827.94872344, 4002.17948663, 4108.33333306, 4137.43589723,12.0
4333.97435919, 4027.30769183, 4069.23076882, 4055.25640984, 4106.41025614, 4184.10256397, 4165.38461518, 4157.30769210, 4143.07692287, 4126.66666639, 6804.23077465, 4008.33333285, 4111.66666639, 4142.69230749,12.0
4337.05128226, 4024.87179439, 4065.89743548, 4047.17948677, 4108.84615357, 4181.66666653, 4161.28205108, 4150.25641005, 4132.05128178, 4126.66666639, 6773.58974894, 3995.51281996, 4110.89743562, 4141.92307672,12.0
4332.17948732, 4017.43589695, 4060.76923036, 4043.46153805, 4109.48717921, 4169.61538448, 4150.64102544, 4143.20512800, 4125.38461511, 4127.43589716, 6746.41026170, 3989.48717894, 4105.89743562, 4138.84615364,12.0
4335.00000021, 4014.61538413, 4058.58974318, 4044.99999959, 4107.82051255, 4160.38461518, 4140.64102544, 4141.15384595, 4117.94871767, 4128.46153819, 6722.69231291, 3986.66666611, 4106.15384588, 4141.92307672,12.0
4331.92307707, 4016.66666618, 4057.56410215, 4048.58974318, 4107.30769203, 4163.07692287, 4148.20512800, 4147.94871774, 4120.12820485, 4129.48717921, 6699.61538983, 3989.61538406, 4108.71794844, 4140.76923056,12.0
4330.51282066, 4018.84615336, 4061.53846113, 4059.61538420, 4106.79487152, 4172.94871781, 4165.25641005, 4158.46153826, 4136.66666646, 4130.51282024, 6680.51282566, 4006.02564054, 4108.33333306, 4138.20512800,12.0
4333.97435919, 4015.64102516, 4064.35897395, 4064.10256369, 4105.25640998, 4175.12820499, 4162.56410236, 4159.87179467, 4148.33333313, 4129.10256383, 6663.46154361, 4014.74358926, 4109.48717921, 4141.02564082,12.0
4323.20512835, 4008.71794824, 4056.28205087, 4050.12820472, 4106.53846126, 4161.66666646, 4140.51282031, 4147.56410236, 4135.89743569, 4126.53846126, 6632.94872303, 3994.87179432, 4111.79487152, 4142.30769210,12.0
4324.61538476, 4008.71794824, 4058.71794830, 4044.23076882, 4109.61538434, 4157.94871774, 4144.61538441, 4146.66666646, 4131.41025614, 4125.76923050, 6603.20513321, 3983.84615329, 4110.76923050, 4142.05128185,12.0
4326.28205142, 4018.58974311, 4069.74358940, 4067.30769189, 4109.87179460, 4180.25641012, 4175.76923063, 4169.10256397, 4163.71794851, 4126.15384588, 6589.48718442, 4008.46153798, 4111.28205101, 4141.53846133,12.0
4320.64102578, 4028.20512772, 4071.79487145, 4082.82051248, 4110.25640998, 4192.05128192, 4181.92307679, 4174.74358961, 4176.66666653, 4126.28205101, 6574.35897930, 4025.38461490, 4112.94871767, 4141.66666646,12.0
4323.46153860, 4027.82051234, 4067.43589702, 4072.94871761, 4111.15384588, 4174.23076910, 4158.58974339, 4155.38461518, 4143.97435877, 4125.76923050, 6545.51282538, 4010.12820465, 4109.35897408, 4141.79487159,12.0
4320.12820527, 4027.30769183, 4066.53846113, 4076.28205094, 4110.89743562, 4167.43589723, 4160.12820492, 4152.30769210, 4131.66666639, 4127.30769203, 6517.43590223, 4006.41025593, 4106.41025614, 4142.30769210,12.0
4321.66666681, 4030.38461490, 4070.51282017, 4086.28205094, 4110.38461511, 4179.74358961, 4181.02564089, 4155.89743569, 4146.79487159, 4126.02564075, 6499.74359454, 4014.99999952, 4108.97435870, 4142.82051262,12.0
4323.84615399, 4026.92307644, 4066.53846113, 4076.79487145, 4107.30769203, 4175.12820499, 4171.41025628, 4144.48717928, 4140.38461518, 4124.99999973, 6477.05128678, 4006.53846106, 4111.02564075, 4138.33333313,12.0
4321.41025655, 4032.82051234, 4067.17948677, 4085.64102530, 4106.15384588, 4163.07692287, 4150.38461518, 4146.66666646, 4134.48717921, 4134.87179460, 6455.64103030, 4010.89743541, 4111.41025614, 4138.58974339,12.0
4323.46153860, 4048.84615343, 4079.48717914, 4115.12820485, 4109.35897408, 4172.05128192, 4154.74358954, 4164.48717928, 4157.69230749, 4136.53846133, 6445.64103030, 4036.41025593, 4115.64102537, 4140.64102544,12.0
4320.25641040, 4048.58974318, 4082.82051248, 4117.69230742, 4109.48717921, 4183.58974345, 4170.12820499, 4176.28205115, 4180.76923063, 4131.02564075, 6429.23077382, 4047.69230728, 4120.64102537, 4136.28205108,12.0
4323.71794886, 4041.02564061, 4077.30769196, 4101.66666632, 4108.20512793, 4179.48717935, 4168.97435884, 4179.35897422, 4182.69230756, 4136.41025621, 6400.51282510, 4035.89743541, 4119.48717921, 4138.20512800,12.0
4324.61538476, 4041.79487138, 4072.17948684, 4102.05128171, 4109.87179460, 4177.05128192, 4162.82051262, 4173.97435884, 4177.56410243, 4135.89743569, 6372.94872247, 4021.53846106, 4113.84615357, 4139.35897415,12.0
4316.28205142, 4040.25640984, 4065.38461497, 4102.56410229, 4110.38461511, 4186.66666653, 4169.48717935, 4166.79487159, 4167.94871774, 4129.48717921, 6350.51282496, 4011.41025593, 4108.84615357, 4137.56410236,12.0
4319.87179501, 4030.51282003, 4062.43589702, 4083.20512786, 4109.99999973, 4191.15384602, 4170.51282038, 4158.46153826, 4146.41025621, 4131.79487152, 6320.64103002, 3992.82051227, 4107.56410229, 4138.46153826,12.0
4321.28205142, 4024.87179439, 4061.79487138, 4073.07692273, 4108.20512793, 4185.12820499, 4161.66666646, 4149.48717928, 4131.02564075, 4130.76923050, 6291.79487611, 3984.10256355, 4108.58974332, 4137.05128185,12.0
4322.17948732, 4037.94871754, 4068.20512779, 4090.51282017, 4106.92307665, 4184.74358961, 4165.76923056, 4149.48717928, 4135.76923056, 4121.53846126, 6279.10256841, 4002.56410201, 4112.30769203, 4138.58974339,12.0
4323.07692322, 4050.51282010, 4076.53846119, 4106.41025614, 4108.84615357, 4192.56410243, 4180.51282038, 4150.89743569, 4140.25641005, 4122.30769203, 6267.94872219, 4022.17948670, 4113.84615357, 4139.87179467,12.0
4315.51282066, 4048.46153805, 4076.28205094, 4108.71794844, 4111.15384588, 4193.71794858, 4182.30769217, 4147.82051262, 4136.15384595, 4133.07692280, 6247.17949142, 4023.07692259, 4112.17948691, 4135.51282031,12.0
4319.23076937, 4051.28205087, 4078.07692273, 4112.56410229, 4111.53846126, 4185.89743576, 4173.84615371, 4150.12820492, 4137.17948697, 4134.99999973, 6228.84615802, 4024.10256362, 4115.25640998, 4135.38461518,12.0
4322.56410271, 4058.84615343, 4081.15384581, 4116.92307665, 4110.38461511, 4176.41025628, 4172.17948704, 4151.79487159, 4141.53846133, 4126.92307665, 6213.07692725, 4033.33333285, 4117.82051255, 4139.87179467,12.0
4321.41025655, 4060.76923036, 4081.66666632, 4115.38461511, 4110.12820485, 4173.46153833, 4170.12820499, 4145.64102544, 4142.69230749, 4122.82051255, 6190.51282462, 4036.92307651, 4116.66666639, 4140.51282031,12.0
4324.61538476, 4061.66666625, 4082.05128171, 4118.46153819, 4109.10256383, 4181.41025628, 4168.46153833, 4150.89743569, 4148.46153826, 4129.10256383, 6167.82051685, 4037.69230728, 4119.61538434, 4137.94871774,12.0
4320.38461553, 4063.33333292, 4081.92307658, 4123.07692280, 4106.92307665, 4195.51282038, 4178.58974345, 4166.53846133, 4156.41025621, 4131.53846126, 6151.53846557, 4041.66666625, 4122.43589716, 4138.97435877,12.0
4323.20512835, 4057.69230728, 4081.28205094, 4107.17948691, 4108.33333306, 4194.99999986, 4182.94871781, 4164.61538441, 4151.02564082, 4125.38461511, 6128.71795268, 4032.30769183, 4119.61538434, 4141.02564082,12.0
4323.33333348, 4046.79487138, 4072.94871761, 4085.25640991, 4108.07692280, 4182.43589730, 4170.64102551, 4152.30769210, 4138.58974339, 4121.02564075, 6101.92308082, 4015.38461490, 4114.99999973, 4138.71794851,12.0
4320.89743604, 4053.84615343, 4071.92307658, 4092.30769196, 4107.43589716, 4192.43589730, 4179.10256397, 4161.41025621, 4141.41025621, 4123.71794844, 6085.64102954, 4025.38461490, 4116.15384588, 4142.17948697,12.0
4327.94871809, 4070.76923043, 4082.30769196, 4113.71794844, 4110.64102537, 4210.25641019, 4207.43589737, 4176.79487166, 4148.33333313, 4130.12820485, 6074.23077313, 4046.41025600, 4121.79487152, 4146.15384595,12.0
4322.30769245, 4068.58974318, 4079.48717914, 4118.07692280, 4110.38461511, 4193.84615371, 4197.17948704, 4163.07692287, 4128.97435870, 4129.10256383, 6053.71795254, 4039.23076882, 4120.76923050, 4139.74358954,12.0
4319.48717963, 4068.97435856, 4078.58974325, 4128.84615357, 4109.23076896, 4176.92307679, 4171.28205115, 4143.46153826, 4105.89743562, 4124.23076896, 6032.94872170, 4036.92307651, 4120.25640998, 4137.82051262,12.0
4321.41025655, 4089.74358940, 4091.28205094, 4161.28205108, 4111.41025614, 4188.71794858, 4182.56410243, 4151.28205108, 4117.94871767, 4123.58974332, 6021.15384991, 4066.92307651, 4126.28205101, 4142.30769210,12.0
4316.41025655, 4101.15384581, 4093.20512786, 4176.92307679, 4109.23076896, 4188.71794858, 4190.76923063, 4153.46153826, 4120.25640998, 4123.97435870, 6006.66667042, 4081.41025607, 4125.64102537, 4143.71794851,12.0
4319.23076937, 4095.12820478, 4089.23076889, 4166.53846133, 4104.35897408, 4176.53846140, 4171.66666653, 4140.38461518, 4093.84615350, 4126.28205101, 5984.10256779, 4067.43589702, 4120.89743562, 4141.41025621,12.0
4314.74358989, 4088.84615350, 4086.41025607, 4156.66666646, 4106.79487152, 4182.94871781, 4168.71794858, 4141.79487159, 4089.35897402, 4129.10256383, 5959.23077285, 4056.02564061, 4119.99999973, 4140.12820492,12.0
4313.84615399, 4088.20512786, 4085.38461504, 4155.38461518, 4112.30769203, 4192.56410243, 4186.41025628, 4151.28205108, 4105.25640998, 4127.17948691, 5936.28205483, 4050.76923036, 4120.12820485, 4144.87179467,12.0
4315.12820527, 4092.82051248, 4084.74358940, 4157.43589723, 4111.53846126, 4195.51282038, 4197.82051269, 4159.99999980, 4108.84615357, 4126.66666639, 5917.56410611, 4052.94871754, 4118.84615357, 4145.38461518,12.0
4307.69230784, 4096.02564068, 4079.99999966, 4153.33333313, 4108.84615357, 4198.84615371, 4199.35897422, 4165.76923056, 4104.35897408, 4129.10256383, 5899.61538809, 4054.74358933, 4118.07692280, 4139.61538441,12.0
4310.12820527, 4090.64102530, 4075.76923043, 4144.74358954, 4109.74358947, 4199.61538448, 4198.20512807, 4160.89743569, 4106.28205101, 4129.10256383, 5880.76923425, 4041.79487138, 4119.61538434, 4140.12820492,12.0
4307.82051296, 4084.48717914, 4073.33333299, 4144.74358954, 4109.61538434, 4196.41025628, 4200.51282038, 4158.71794851, 4111.92307665, 4126.66666639, 5861.41025982, 4029.87179439, 4119.23076896, 4141.79487159,12.0
4307.56410271, 4091.41025607, 4076.66666632, 4151.41025621, 4108.58974332, 4194.61538448, 4201.79487173, 4163.33333313, 4114.23076896, 4123.97435870, 5844.87179828, 4035.51282003, 4117.82051255, 4141.28205108,12.0
4313.71794886, 4093.46153812, 4076.66666632, 4146.79487159, 4108.20512793, 4185.12820499, 4187.56410243, 4154.23076903, 4100.76923043, 4125.76923050, 5824.10256744, 4033.84615336, 4117.30769203, 4139.74358954,12.0
4305.64102578, 4075.76923043, 4065.12820472, 4128.58974332, 4107.69230742, 4161.92307672, 4156.15384595, 4131.92307665, 4070.12820478, 4128.97435870, 5793.84615712, 4004.99999952, 4115.25640998, 4137.69230749,12.0
4302.69230784, 4073.58974325, 4063.46153805, 4128.20512793, 4110.89743562, 4154.87179467, 4144.35897415, 4127.17948691, 4063.07692266, 4124.61538434, 5773.07692628, 3993.07692252, 4114.35897408, 4139.23076903,12.0
4304.61538476, 4100.76923043, 4075.64102530, 4161.53846133, 4113.71794844, 4178.58974345, 4174.61538448, 4145.25641005, 4092.30769196, 4122.56410229, 5770.76923397, 4027.56410208, 4116.92307665, 4138.71794851,12.0
4305.38461553, 4123.58974332, 4088.97435863, 4194.87179474, 4113.07692280, 4201.28205122, 4205.12820506, 4165.12820492, 4117.30769203, 4132.82051255, 5767.30769551, 4063.97435856, 4123.20512793, 4138.97435877,12.0
4304.61538476, 4121.53846126, 4088.84615350, 4191.53846140, 4114.35897408, 4199.10256397, 4199.61538448, 4164.99999980, 4108.20512793, 4133.97435870, 5745.89743910, 4056.92307651, 4125.12820485, 4139.35897415,12.0
4296.41025648, 4105.25640998, 4071.92307658, 4161.79487159, 4115.76923050, 4177.82051269, 4171.53846140, 4149.87179467, 4081.79487145, 4122.05128178, 5713.20513134, 4023.71794824, 4117.30769203, 4137.30769210,12.0
4301.15384630, 4095.38461504, 4066.53846113, 4140.38461518, 4113.58974332, 4164.99999980, 4158.84615364, 4143.46153826, 4070.89743555, 4121.41025614, 5689.35897742, 4003.46153791, 4113.84615357, 4139.61538441,12.0
4306.02564117, 4098.46153812, 4078.46153812, 4150.12820492, 4112.94871767, 4181.79487166, 4182.17948704, 4155.38461518, 4090.76923043, 4130.25640998, 5681.28205434, 4016.02564054, 4118.71794844, 4138.58974339,12.0
4304.87179501, 4114.87179460, 4087.43589709, 4183.20512807, 4113.97435870, 4208.58974352, 4216.92307686, 4169.99999986, 4117.17948691, 4128.97435870, 5674.48718248, 4046.41025600, 4120.12820485, 4136.79487159,12.0
4307.69230784, 4124.48717921, 4085.89743555, 4193.33333320, 4112.69230742, 4201.41025634, 4209.87179481, 4166.28205108, 4108.84615357, 4122.05128178, 5654.35897735, 4050.76923036, 4116.92307665, 4139.35897415,12.0
4303.20512835, 4122.56410229, 4083.33333299, 4185.12820499, 4109.48717921, 4179.99999986, 4189.10256397, 4164.10256390, 4093.20512786, 4122.82051255, 5632.17949010, 4039.10256369, 4116.41025614, 4138.84615364,12.0
4306.28205142, 4130.12820485, 4092.82051248, 4198.97435884, 4110.64102537, 4186.79487166, 4203.84615378, 4174.23076910, 4106.92307665, 4127.17948691, 5622.30769523, 4051.41025600, 4119.48717921, 4138.46153826,12.0
4308.46153860, 4138.33333313, 4097.69230735, 4211.66666660, 4114.61538434, 4193.97435884, 4209.23076917, 4172.30769217, 4113.33333306, 4129.10256383, 5613.33333626, 4067.82051241, 4119.61538434, 4140.76923056,12.0
4301.92307707, 4143.07692287, 4094.10256376, 4210.64102558, 4115.12820485, 4185.64102551, 4192.30769217, 4167.94871774, 4111.53846126, 4128.07692280, 5595.38461824, 4070.25640991, 4117.82051255, 4142.30769210,12.0
4303.97435912, 4153.20512800, 4097.69230735, 4218.20512814, 4114.99999973, 4191.92307679, 4202.05128199, 4178.33333320, 4129.74358947, 4124.61538434, 5576.41025919, 4072.56410222, 4117.82051255, 4139.99999980,12.0
4301.79487194, 4154.48717928, 4097.05128171, 4222.30769224, 4113.84615357, 4203.58974352, 4217.05128199, 4181.41025628, 4136.79487159, 4122.82051255, 5561.79487458, 4074.99999966, 4118.07692280, 4138.20512800,12.0
4306.02564117, 4145.76923056, 4093.97435863, 4209.74358968, 4114.23076896, 4188.58974345, 4191.28205115, 4164.35897415, 4112.69230742, 4124.61538434, 5545.51282323, 4064.99999959, 4116.66666639, 4140.25641005,12.0
4310.51282066, 4143.58974339, 4093.58974325, 4203.97435891, 4114.10256383, 4168.97435884, 4164.48717928, 4150.76923056, 4095.38461504, 4124.74358947, 5525.00000271, 4052.43589702, 4112.56410229, 4139.74358954,12.0
4300.89743604, 4143.20512800, 4088.84615350, 4204.87179481, 4111.79487152, 4173.71794858, 4170.51282038, 4147.17948697, 4092.69230735, 4127.43589716, 5502.05128470, 4044.99999959, 4110.12820485, 4140.51282031,12.0
4302.94871809, 4148.07692287, 4092.56410222, 4207.05128199, 4114.74358947, 4197.17948704, 4196.02564089, 4155.12820492, 4099.74358940, 4133.71794844, 5487.17948982, 4051.02564061, 4112.30769203, 4141.79487159,12.0
4303.33333348, 4161.15384595, 4102.69230742, 4225.64102558, 4116.92307665, 4219.48717942, 4226.15384609, 4178.20512807, 4127.82051255, 4130.25640998, 5481.53846418, 4074.99999966, 4116.15384588, 4138.33333313,12.0
4301.02564117, 4160.89743569, 4103.33333306, 4227.82051275, 4113.33333306, 4217.17948711, 4230.89743583, 4182.43589730, 4137.56410236, 4123.58974332, 5467.69231027, 4076.15384581, 4117.17948691, 4139.35897415,12.0
4303.07692322, 4154.74358954, 4096.79487145, 4216.66666660, 4112.82051255, 4211.15384609, 4227.30769224, 4173.58974345, 4124.87179460, 4123.58974332, 5450.25641283, 4063.20512779, 4116.15384588, 4141.66666646,12.0
4296.15384623, 4160.38461518, 4097.05128171, 4224.61538455, 4115.64102537, 4213.46153840, 4229.74358968, 4180.64102551, 4133.33333306, 4123.84615357, 5437.05128456, 4070.25640991, 4117.94871767, 4140.89743569,12.0
4297.43589751, 4163.84615364, 4104.35897408, 4226.41025634, 4115.38461511, 4199.74358961, 4212.17948711, 4181.53846140, 4140.38461518, 4124.99999973, 5418.58974610, 4072.82051248, 4116.66666639, 4139.99999980,12.0
4294.48717956, 4152.69230749, 4099.23076889, 4214.23076917, 4113.07692280, 4175.89743576, 4188.20512807, 4170.51282038, 4129.48717921, 4126.92307665, 5396.53846397, 4060.51282010, 4110.51282024, 4141.02564082,12.0
4291.02564110, 4151.15384595, 4094.35897402, 4217.05128199, 4114.10256383, 4177.05128192, 4189.48717935, 4170.25641012, 4132.56410229, 4126.28205101, 5382.56410500, 4065.25640984, 4113.20512793, 4146.79487159,12.0
4299.35897443, 4166.92307672, 4105.76923050, 4233.97435898, 4115.64102537, 4200.64102551, 4203.20512814, 4178.84615371, 4148.07692287, 4128.33333306, 5376.15384852, 4087.43589709, 4120.25640998, 4145.38461518,12.0
4293.97435905, 4175.64102551, 4111.53846126, 4244.48717949, 4113.07692280, 4211.53846147, 4209.87179481, 4184.10256397, 4157.17948697, 4131.92307665, 5367.82051519, 4098.20512786, 4119.48717921, 4139.87179467,12.0
4292.56410264, 4174.10256397, 4111.41025614, 4244.74358975, 4113.97435870, 4207.56410250, 4214.74358968, 4182.82051269, 4157.05128185, 4130.64102537, 5352.17948955, 4097.17948684, 4117.43589716, 4144.10256390,12.0
4293.58974366, 4164.99999980, 4108.58974332, 4231.41025634, 4115.76923050, 4200.76923063, 4211.28205122, 4170.76923063, 4135.89743569, 4128.84615357, 5327.30769460, 4083.58974325, 4116.92307665, 4142.94871774,12.0
4289.61538469, 4159.87179467, 4100.76923043, 4220.64102558, 4112.17948691, 4194.35897422, 4203.84615378, 4159.23076903, 4113.33333306, 4126.41025614, 5308.07692530, 4070.12820478, 4116.15384588, 4137.94871774,12.0
4292.43589751, 4163.20512800, 4103.20512793, 4225.12820506, 4112.94871767, 4191.28205115, 4200.25641012, 4159.48717928, 4117.69230742, 4125.64102537, 5295.51282274, 4071.92307658, 4114.23076896, 4139.23076903,12.0
4286.79487187, 4165.76923056, 4109.35897408, 4232.43589737, 4114.99999973, 4191.41025628, 4199.10256397, 4159.61538441, 4126.28205101, 4130.76923050, 5280.12820729, 4082.05128171, 4112.94871767, 4140.64102544,12.0
4289.23076930, 4174.87179474, 4116.79487152, 4244.74358975, 4113.33333306, 4196.53846140, 4206.66666660, 4165.12820492, 4133.97435870, 4129.35897408, 5270.76923293, 4102.43589709, 4117.17948691, 4140.89743569,12.0
4293.71794879, 4180.12820499, 4122.69230742, 4248.97435898, 4114.74358947, 4193.97435884, 4204.48717942, 4172.69230756, 4147.17948697, 4120.51282024, 5260.89743806, 4110.76923050, 4121.02564075, 4137.17948697,12.0
4285.89743597, 4172.05128192, 4118.71794844, 4230.89743583, 4117.69230742, 4185.76923063, 4192.43589730, 4167.94871774, 4148.84615364, 4121.53846126, 5244.74359183, 4097.30769196, 4118.07692280, 4134.99999973,12.0
4285.76923084, 4168.58974345, 4114.74358947, 4217.82051275, 4115.76923050, 4184.48717935, 4186.66666653, 4167.30769210, 4141.41025621, 4125.38461511, 5230.76923286, 4092.94871761, 4116.41025614, 4136.15384595,12.0
4284.48717956, 4171.02564089, 4112.94871767, 4221.02564096, 4112.43589716, 4177.82051269, 4178.46153833, 4172.30769217, 4131.66666639, 4126.02564075, 5215.25641228, 4096.66666632, 4118.58974332, 4136.79487159,12.0
4287.05128212, 4174.23076910, 4114.48717921, 4225.51282045, 4113.71794844, 4180.64102551, 4181.15384602, 4166.41025621, 4122.43589716, 4134.23076896, 5198.46154048, 4091.02564068, 4119.10256383, 4138.20512800,12.0
4288.46153853, 4179.87179474, 4116.41025614, 4229.10256404, 4115.51282024, 4198.20512807, 4199.87179474, 4160.89743569, 4122.69230742, 4136.92307672, 5186.02564304, 4089.23076889, 4116.41025614, 4137.30769210,12.0
4283.33333341, 4182.30769217, 4116.66666639, 4229.99999993, 4115.12820485, 4193.33333320, 4195.51282038, 4161.28205108, 4123.20512793, 4126.28205101, 5173.84615580, 4096.02564068, 4114.87179460, 4136.02564082,12.0
4289.10256418, 4183.97435884, 4122.30769203, 4234.23076923, 4116.79487152, 4186.66666653, 4185.38461525, 4155.76923056, 4119.61538434, 4121.41025614, 5158.58974554, 4098.46153812, 4120.25640998, 4137.17948697,12.0
4287.94871802, 4183.33333320, 4122.94871767, 4231.53846147, 4117.05128178, 4203.84615378, 4203.20512814, 4158.71794851, 4127.82051255, 4128.84615357, 5142.43589932, 4098.20512786, 4121.15384588, 4137.43589723,12.0
4285.89743597, 4182.17948704, 4120.25640998, 4213.33333327, 4114.23076896, 4201.15384609, 4201.41025634, 4168.71794858, 4140.12820492, 4128.20512793, 5129.35897624, 4094.87179453, 4115.64102537, 4138.84615364,12.0
4290.25641033, 4172.43589730, 4111.79487152, 4188.46153833, 4113.46153819, 4161.02564082, 4154.61538441, 4149.35897415, 4121.28205101, 4121.41025614, 5107.94871976, 4066.28205087, 4112.17948691, 4138.58974339,12.0
4288.58974366, 4169.35897422, 4107.43589716, 4189.23076910, 4115.64102537, 4160.12820492, 4155.51282031, 4146.66666646, 4112.30769203, 4129.35897408, 5088.84615566, 4055.51282010, 4112.05128178, 4138.84615364,12.0
4290.38461546, 4192.05128192, 4127.30769203, 4226.41025634, 4119.10256383, 4210.38461532, 4221.41025634, 4188.84615371, 4156.79487159, 4139.48717928, 5093.58974540, 4103.97435870, 4118.07692280, 4143.20512800,12.0
4287.43589751, 4204.10256404, 4137.30769210, 4244.74358975, 4117.43589716, 4220.89743583, 4240.76923077, 4205.12820506, 4188.07692294, 4131.66666639, 5093.97436078, 4134.61538434, 4122.69230742, 4142.82051262,12.0
4285.38461546, 4191.15384602, 4126.79487152, 4219.10256404, 4114.74358947, 4188.07692294, 4196.79487166, 4173.20512807, 4154.10256390, 4122.05128178, 5065.00000174, 4099.61538427, 4119.61538434, 4138.46153826,12.0
4288.71794879, 4179.87179474, 4122.17948691, 4190.64102551, 4116.41025614, 4176.28205115, 4166.53846133, 4145.76923056, 4108.58974332, 4125.76923050, 5037.94871962, 4070.64102530, 4114.23076896, 4137.69230749,12.0
4285.89743597, 4179.74358961, 4123.33333306, 4181.79487166, 4116.41025614, 4178.97435884, 4169.35897422, 4146.28205108, 4103.58974332, 4133.84615357, 5030.51282218, 4082.17948684, 4113.97435870, 4141.79487159,12.0
4290.51282059, 4183.58974345, 4125.89743562, 4177.56410243, 4115.25640998, 4166.28205108, 4170.51282038, 4152.94871774, 4119.10256383, 4135.12820485, 5023.97436065, 4089.74358940, 4116.79487152, 4145.51282031,12.0
4286.15384623, 4192.17948704, 4127.94871767, 4191.41025628, 4115.12820485, 4165.89743569, 4173.84615371, 4156.15384595, 4129.87179460, 4128.46153819, 5013.84615545, 4096.15384581, 4118.71794844, 4141.79487159,12.0
4278.84615392, 4205.38461532, 4131.41025614, 4228.46153840, 4114.87179460, 4190.76923063, 4198.20512807, 4157.69230749, 4135.12820485, 4121.79487152, 5006.02564263, 4112.94871767, 4119.74358947, 4139.23076903,12.0
4284.35897443, 4202.05128199, 4132.17948691, 4232.30769224, 4114.99999973, 4195.38461525, 4212.30769224, 4157.30769210, 4139.61538441, 4124.23076896, 4993.97436058, 4108.84615357, 4118.84615357, 4139.74358954,12.0
4277.30769238, 4187.56410243, 4124.48717921, 4211.02564096, 4115.76923050, 4172.94871781, 4194.10256397, 4157.94871774, 4142.17948697, 4126.28205101, 4977.56410410, 4088.07692273, 4116.28205101, 4140.89743569,12.0
4271.92307700, 4184.23076910, 4122.30769203, 4204.48717942, 4118.84615357, 4165.12820492, 4174.23076910, 4156.02564082, 4138.20512800, 4123.97435870, 4961.02564256, 4076.28205094, 4115.51282024, 4144.10256390,12.0
4271.92307700, 4184.48717935, 4120.64102537, 4202.56410250, 4120.51282024, 4173.33333320, 4180.25641012, 4160.89743569, 4139.87179467, 4126.79487152, 4944.87179633, 4072.69230735, 4115.76923050, 4143.84615364,12.0
4271.28205136, 4177.17948704, 4115.76923050, 4194.23076910, 4117.56410229, 4164.99999980, 4180.12820499, 4167.05128185, 4138.33333313, 4127.56410229, 4929.74359121, 4068.20512779, 4114.35897408, 4141.53846133,12.0
4276.79487187, 4175.89743576, 4120.38461511, 4195.76923063, 4114.23076896, 4150.51282031, 4164.35897415, 4159.87179467, 4130.12820485, 4125.64102537, 4920.25641165, 4068.46153805, 4114.61538434, 4142.43589723,12.0
4269.10256418, 4183.33333320, 4126.41025614, 4209.99999993, 4114.35897408, 4152.43589723, 4159.48717928, 4152.43589723, 4131.02564075, 4126.28205101, 4913.97436037, 4080.64102530, 4116.02564075, 4140.89743569,12.0
4268.46153853, 4193.84615371, 4131.02564075, 4225.51282045, 4117.05128178, 4156.41025621, 4159.74358954, 4151.66666646, 4132.82051255, 4126.15384588, 4906.02564242, 4095.89743555, 4117.69230742, 4140.12820492,12.0
4274.48717956, 4207.05128199, 4136.92307672, 4240.76923077, 4116.41025614, 4155.51282031, 4159.23076903, 4149.23076903, 4133.07692280, 4126.66666639, 4896.79487319, 4106.66666639, 4119.74358947, 4140.64102544,12.0
4268.07692315, 4208.97435891, 4134.74358947, 4241.28205129, 4114.99999973, 4159.35897415, 4159.61538441, 4143.84615364, 4132.56410229, 4126.66666639, 4884.74359107, 4106.92307665, 4120.12820485, 4141.41025621,12.0
4266.02564103, 4200.51282038, 4128.58974332, 4223.46153840, 4119.23076896, 4161.28205108, 4157.43589723, 4134.87179460, 4118.20512793, 4125.38461511, 4868.20512953, 4095.64102530, 4117.17948691, 4139.61538441,12.0
4263.20512821, 4194.87179474, 4123.46153819, 4206.92307686, 4119.74358947, 4156.41025621, 4158.07692287, 4129.61538434, 4105.12820485, 4126.41025614, 4854.10256536, 4081.92307658, 4113.46153819, 4136.53846133,12.0
4267.43589751, 4199.23076910, 4122.30769203, 4206.15384609, 4117.30769203, 4159.23076903, 4169.48717935, 4144.48717928, 4120.38461511, 4128.20512793, 4841.92307818, 4074.35897402, 4114.99999973, 4140.76923056,12.0
4271.92307700, 4196.66666653, 4120.38461511, 4203.07692301, 4117.69230742, 4164.23076903, 4173.71794858, 4158.58974339, 4132.05128178, 4123.97435870, 4821.79487298, 4062.82051241, 4114.35897408, 4139.87179467,12.0
4260.76923077, 4180.12820499, 4112.94871767, 4179.35897422, 4114.74358947, 4152.56410236, 4159.74358954, 4151.28205108, 4119.10256383, 4121.66666639, 4805.00000119, 4045.25640984, 4109.99999973, 4135.89743569,12.0
4262.56410257, 4185.38461525, 4115.12820485, 4175.89743576, 4114.61538434, 4144.61538441, 4156.79487159, 4155.89743569, 4128.97435870, 4125.38461511, 4806.66666785, 4054.61538420, 4115.25640998, 4138.97435877,12.0
4269.10256418, 4200.89743576, 4120.12820485, 4196.66666653, 4118.71794844, 4147.94871774, 4161.53846133, 4167.69230749, 4147.69230749, 4127.43589716, 4801.79487298, 4075.25640991, 4121.92307665, 4139.35897415,12.0
4269.23076930, 4195.51282038, 4118.58974332, 4194.87179474, 4119.10256383, 4136.66666646, 4146.02564082, 4150.51282031, 4126.53846126, 4126.28205101, 4776.66666778, 4063.71794830, 4118.20512793, 4139.35897415,12.0
4269.74358982, 4179.99999986, 4112.05128178, 4169.35897422, 4116.92307665, 4107.94871767, 4114.35897408, 4118.07692280, 4081.41025607, 4125.12820485, 4752.56410361, 4032.56410208, 4110.38461511, 4139.87179467,12.0
4266.28205129, 4176.79487166, 4104.48717921, 4160.76923056, 4115.12820485, 4097.69230735, 4108.20512793, 4111.02564075, 4067.43589702, 4124.99999973, 4743.71794976, 4028.97435849, 4107.82051255, 4138.33333313,12.0
4270.38461546, 4186.92307679, 4112.17948691, 4177.43589730, 4115.12820485, 4120.25640998, 4135.25640998, 4125.64102537, 4088.33333299, 4125.89743562, 4741.66666771, 4057.94871754, 4111.53846126, 4137.69230749,12.0
4267.56410264, 4194.10256397, 4122.30769203, 4193.58974345, 4118.58974332, 4137.69230749, 4150.64102544, 4132.82051255, 4105.38461511, 4127.05128178, 4732.94871899, 4077.56410222, 4114.23076896, 4136.79487159,12.0
4259.87179488, 4198.33333320, 4119.10256383, 4201.92307686, 4120.38461511, 4138.33333313, 4151.15384595, 4133.46153819, 4114.87179460, 4126.02564075, 4722.82051380, 4078.84615350, 4114.23076896, 4137.30769210,12.0
4265.89743590, 4202.69230763, 4121.41025614, 4206.02564096, 4117.05128178, 4147.69230749, 4164.48717928, 4139.99999980, 4122.56410229, 4125.25640998, 4715.89743687, 4082.82051248, 4117.69230742, 4137.56410236,12.0
4265.12820513, 4202.94871788, 4124.35897408, 4202.43589737, 4115.12820485, 4153.33333313, 4169.74358961, 4146.92307672, 4121.15384588, 4127.05128178, 4705.51282149, 4086.53846119, 4120.25640998, 4137.17948697,12.0
4264.35897436, 4195.89743576, 4118.33333306, 4192.05128192, 4117.17948691, 4137.17948697, 4147.43589723, 4139.48717928, 4108.07692280, 4128.20512793, 4688.71794963, 4071.15384581, 4115.64102537, 4138.97435877,12.0
4266.15384616, 4183.46153833, 4111.28205101, 4183.84615371, 4116.02564075, 4126.28205101, 4134.74358947, 4133.20512793, 4098.46153812, 4126.92307665, 4675.76923168, 4053.20512779, 4112.17948691, 4138.07692287,12.0
4261.02564103, 4179.61538448, 4111.28205101, 4183.20512807, 4114.48717921, 4132.69230742, 4147.43589723, 4149.87179467, 4109.87179460, 4130.38461511, 4668.46153937, 4052.82051241, 4115.12820485, 4137.17948697,12.0
4263.46153847, 4188.20512807, 4116.15384588, 4187.30769217, 4119.35897408, 4131.02564075, 4146.53846133, 4166.66666646, 4130.12820485, 4135.38461518, 4660.12820597, 4061.66666625, 4115.25640998, 4139.10256390,12.0
4260.64102564, 4184.87179474, 4111.79487152, 4182.82051269, 4121.66666639, 4110.51282024, 4118.71794844, 4152.30769210, 4120.25640998, 4132.30769203, 4647.05128289, 4058.33333292, 4112.69230742, 4138.84615364,12.0
4261.92307693, 4174.99999986, 4106.79487152, 4172.94871781, 4118.20512793, 4098.07692273, 4099.35897402, 4126.53846126, 4088.84615350, 4127.30769203, 4633.84615468, 4042.56410215, 4114.74358947, 4141.79487159,12.0
4266.15384616, 4188.07692294, 4111.79487152, 4188.97435884, 4117.05128178, 4125.51282024, 4130.38461511, 4137.17948697, 4103.07692280, 4127.05128178, 4629.23077007, 4053.20512779, 4118.58974332, 4142.56410236,12.0
4256.53846154, 4198.71794858, 4113.71794844, 4206.28205122, 4118.07692280, 4153.46153826, 4159.87179467, 4152.56410236, 4129.35897408, 4127.82051255, 4624.35897513, 4070.38461504, 4118.33333306, 4138.84615364,12.0
4261.41025641, 4175.76923063, 4102.56410229, 4167.56410236, 4118.97435870, 4126.66666639, 4120.76923050, 4120.89743562, 4089.99999966, 4129.48717921, 4601.41025718, 4035.25640977, 4113.97435870, 4139.48717928,12.0
4260.00000000, 4163.07692287, 4093.46153812, 4140.76923056, 4117.82051255, 4097.30769196, 4095.76923043, 4099.87179453, 4055.12820472, 4128.46153819, 4580.64102634, 4008.33333285, 4111.15384588, 4140.12820492,12.0
4252.43589744, 4198.46153833, 4115.12820485, 4200.89743576, 4117.56410229, 4132.82051255, 4151.53846133, 4137.82051262, 4105.76923050, 4123.97435870, 4590.51282121, 4061.28205087, 4118.20512793, 4139.87179467,12.0
4259.10256411, 4225.38461532, 4135.51282031, 4251.53846154, 4119.23076896, 4171.92307679, 4191.66666653, 4172.82051269, 4163.97435877, 4126.66666639, 4602.43589820, 4112.94871767, 4128.33333306, 4140.64102544,12.0
4255.38461539, 4206.92307686, 4125.25640998, 4226.79487173, 4118.84615357, 4155.25641005, 4167.30769210, 4166.79487159, 4157.30769210, 4132.94871767, 4588.97435967, 4101.28205094, 4128.58974332, 4142.17948697,12.0
4251.66666667, 4186.15384602, 4117.69230742, 4197.69230756, 4119.10256383, 4130.89743562, 4143.84615364, 4152.69230749, 4129.74358947, 4130.51282024, 4571.15384685, 4078.07692273, 4123.97435870, 4144.23076903,12.0
4249.74358975, 4177.94871781, 4115.76923050, 4187.43589730, 4120.25640998, 4123.33333306, 4131.92307665, 4147.56410236, 4121.66666639, 4125.64102537, 4556.41025704, 4062.30769189, 4118.97435870, 4142.17948697,12.0
4248.71794872, 4175.76923063, 4110.64102537, 4176.02564089, 4119.87179460, 4112.56410229, 4114.48717921, 4142.94871774, 4121.15384588, 4125.25640998, 4542.94871858, 4052.56410215, 4117.05128178, 4142.05128185,12.0
4250.25641026, 4182.82051269, 4113.71794844, 4184.10256397, 4118.46153819, 4109.74358947, 4116.28205101, 4142.17948697, 4124.35897408, 4125.38461511, 4538.07692371, 4062.30769189, 4122.43589716, 4141.28205108,12.0
4246.02564103, 4188.33333320, 4117.82051255, 4204.23076917, 4118.20512793, 4124.10256383, 4134.74358947, 4142.82051262, 4128.33333306, 4127.56410229, 4534.61538524, 4074.74358940, 4124.99999973, 4135.25640998,12.0
4250.25641026, 4188.97435884, 4117.82051255, 4202.43589737, 4120.89743562, 4133.20512793, 4140.38461518, 4140.38461518, 4120.64102537, 4128.20512793, 4525.76923133, 4070.25640991, 4121.79487152, 4135.64102544,12.0
4248.71794872, 4193.20512807, 4115.38461511, 4188.07692294, 4120.25640998, 4125.51282024, 4133.97435870, 4139.48717928, 4109.61538434, 4123.46153819, 4513.84615441, 4063.71794830, 4119.10256383, 4139.10256390,12.0
4242.56410257, 4198.71794858, 4117.30769203, 4184.99999986, 4116.79487152, 4118.33333306, 4132.69230742, 4139.74358954, 4111.53846126, 4121.41025614, 4501.92307748, 4069.48717907, 4119.99999973, 4139.10256390,12.0
4245.89743590, 4181.53846140, 4113.46153819, 4172.82051269, 4118.46153819, 4109.87179460, 4122.94871767, 4126.41025614, 4096.79487145, 4126.66666639, 4483.33333382, 4048.33333292, 4117.05128178, 4138.97435877,12.0
4242.56410257, 4153.46153826, 4100.38461504, 4148.58974339, 4122.05128178, 4091.79487145, 4096.15384581, 4108.33333306, 4064.74358933, 4129.87179460, 4463.07692350, 4006.92307644, 4110.12820485, 4137.05128185,12.0
4244.35897436, 4173.33333320, 4114.35897408, 4173.20512807, 4121.28205101, 4101.28205094, 4102.82051255, 4130.12820485, 4090.12820478, 4125.89743562, 4465.51282100, 4032.82051234, 4117.30769203, 4136.53846133,12.0
4244.48717949, 4214.35897429, 4140.38461518, 4228.33333327, 4119.23076896, 4138.97435877, 4146.15384595, 4168.20512807, 4158.58974339, 4126.15384588, 4479.61538511, 4099.99999966, 4128.84615357, 4137.17948697,12.0
4241.15384616, 4207.56410250, 4135.76923056, 4226.79487173, 4120.89743562, 4144.48717928, 4154.35897415, 4166.92307672, 4162.94871774, 4130.38461511, 4469.10256459, 4098.07692273, 4126.02564075, 4139.10256390,12.0
4248.07692308, 4183.97435884, 4124.99999973, 4195.76923063, 4121.41025614, 4123.07692280, 4131.66666639, 4150.12820492, 4125.76923050, 4128.33333306, 4447.43589786, 4063.58974318, 4121.66666639, 4139.48717928,12.0
4244.23076923, 4182.05128192, 4126.66666639, 4196.53846140, 4118.20512793, 4114.61538434, 4122.69230742, 4142.69230749, 4119.10256383, 4122.17948691, 4441.28205170, 4068.33333292, 4122.94871767, 4137.05128185,12.0
4244.48717949, 4179.61538448, 4127.17948691, 4198.97435884, 4120.64102537, 4112.17948691, 4121.15384588, 4134.35897408, 4116.53846126, 4124.35897408, 4434.87179529, 4071.02564068, 4122.30769203, 4139.10256390,12.0
4248.33333334, 4171.53846140, 4123.84615357, 4186.79487166, 4125.51282024, 4109.74358947, 4127.05128178, 4134.99999973, 4112.30769203, 4130.76923050, 4421.79487215, 4060.51282010, 4118.84615357, 4141.02564082,12.0
4242.17948718, 4171.15384602, 4124.10256383, 4186.15384602, 4122.43589716, 4110.51282024, 4131.41025614, 4143.46153826, 4124.48717921, 4129.74358947, 4414.10256445, 4065.25640984, 4120.25640998, 4140.12820492,12.0
4245.00000000, 4168.58974345, 4127.17948691, 4185.51282038, 4118.33333306, 4108.33333306, 4117.56410229, 4137.30769210, 4122.30769203, 4126.79487152, 4404.61538497, 4066.41025600, 4122.30769203, 4138.46153826,12.0
4244.48717949, 4160.51282031, 4122.30769203, 4174.35897422, 4117.94871767, 4103.33333306, 4109.48717921, 4131.66666639, 4107.43589716, 4127.69230742, 4390.76923105, 4058.07692266, 4121.41025614, 4136.53846133,12.0
4243.71794872, 4165.76923056, 4123.71794844, 4181.53846140, 4118.58974332, 4115.38461511, 4130.12820485, 4142.05128185, 4119.10256383, 4133.07692280, 4385.25641054, 4066.92307651, 4123.71794844, 4141.02564082,12.0
4249.48717949, 4184.35897422, 4137.17948697, 4215.51282045, 4118.97435870, 4143.84615364, 4160.64102544, 4157.69230749, 4147.82051262, 4133.84615357, 4387.43589772, 4098.33333299, 4129.10256383, 4142.94871774,12.0
4245.25641026, 4188.97435884, 4137.05128185, 4221.28205122, 4117.43589716, 4145.25641005, 4158.07692287, 4160.51282031, 4145.51282031, 4126.53846126, 4379.48717977, 4106.28205101, 4129.99999973, 4138.97435877,12.0
4245.38461539, 4171.79487166, 4126.15384588, 4184.99999986, 4119.74358947, 4114.23076896, 4124.99999973, 4142.30769210, 4116.28205101, 4125.25640998, 4362.05128226, 4073.84615350, 4126.15384588, 4138.84615364,12.0
4244.23076923, 4155.51282031, 4119.35897408, 4171.66666653, 4124.61538434, 4107.94871767, 4120.51282024, 4136.79487159, 4113.33333306, 4128.58974332, 4349.23076944, 4056.15384574, 4124.61538434, 4138.07692287,12.0
4241.53846154, 4161.66666646, 4121.92307665, 4190.25641012, 4123.58974332, 4135.12820485, 4147.17948697, 4153.58974339, 4137.94871774, 4127.56410229, 4346.41025662, 4076.15384581, 4126.79487152, 4138.46153826,12.0
4245.89743590, 4170.12820499, 4127.69230742, 4191.41025628, 4119.61538434, 4138.07692287, 4145.51282031, 4155.89743569, 4144.23076903, 4127.30769203, 4344.61538483, 4087.94871761, 4127.56410229, 4142.30769210,12.0
4239.23076923, 4157.69230749, 4124.87179460, 4176.02564089, 4118.33333306, 4120.38461511, 4128.33333306, 4149.87179467, 4139.35897415, 4128.20512793, 4334.61538483, 4078.84615350, 4126.92307665, 4141.66666646,12.0
4237.82051282, 4151.02564082, 4123.97435870, 4174.61538448, 4121.53846126, 4126.53846126, 4135.25640998, 4151.66666646, 4140.38461518, 4126.02564075, 4323.07692322, 4076.92307658, 4127.30769203, 4140.89743569,12.0
4235.25641026, 4161.79487159, 4126.28205101, 4185.51282038, 4124.10256383, 4134.61538434, 4142.05128185, 4149.74358954, 4140.38461518, 4127.17948691, 4316.53846168, 4086.66666632, 4127.69230742, 4141.92307672,12.0
4227.69230763, 4164.23076903, 4124.35897408, 4191.92307679, 4122.05128178, 4119.23076896, 4129.48717921, 4142.82051262, 4135.51282031, 4130.64102537, 4311.41025655, 4090.12820478, 4127.69230742, 4141.66666646,12.0
4234.48717949, 4155.89743569, 4124.61538434, 4194.87179474, 4120.38461511, 4108.97435870, 4117.17948691, 4132.69230742, 4121.79487152, 4124.10256383, 4301.92307707, 4083.71794837, 4126.53846126, 4139.74358954,12.0
4230.38461532, 4154.99999980, 4126.79487152, 4206.15384609, 4119.87179460, 4124.35897408, 4130.76923050, 4133.71794844, 4118.97435870, 4125.64102537, 4291.41025648, 4084.23076889, 4123.97435870, 4139.74358954,12.0
4227.94871788, 4152.94871774, 4124.23076896, 4202.94871788, 4119.48717921, 4128.97435870, 4141.28205108, 4138.20512800, 4117.69230742, 4138.84615364, 4277.05128212, 4074.99999966, 4121.53846126, 4143.07692287,12.0
4230.64102558, 4139.35897415, 4114.61538434, 4183.33333320, 4119.74358947, 4109.61538434, 4118.97435870, 4125.76923050, 4094.35897402, 4136.79487159, 4260.89743590, 4050.89743548, 4120.64102537, 4141.28205108,12.0
4225.25641019, 4144.35897415, 4118.33333306, 4203.58974352, 4118.97435870, 4114.61538434, 4120.12820485, 4126.66666639, 4094.61538427, 4130.51282024, 4262.43589744, 4069.74358940, 4123.71794844, 4137.82051262,12.0
4228.33333327, 4162.56410236, 4133.33333306, 4243.71794872, 4119.23076896, 4137.43589723, 4151.92307672, 4152.17948697, 4130.12820485, 4134.23076896, 4270.12820520, 4107.56410229, 4127.82051255, 4138.46153826,12.0
4227.56410250, 4153.97435877, 4124.87179460, 4230.38461532, 4121.66666639, 4130.89743562, 4146.28205108, 4154.87179467, 4134.23076896, 4131.79487152, 4259.74358975, 4088.46153812, 4126.02564075, 4137.82051262,12.0
4229.61538455, 4134.10256383, 4113.71794844, 4190.38461525, 4124.35897408, 4113.07692280, 4116.28205101, 4133.71794844, 4113.07692280, 4123.58974332, 4242.30769231, 4052.56410215, 4124.61538434, 4139.35897415,12.0
4230.76923070, 4136.15384595, 4124.61538434, 4196.15384602, 4123.07692280, 4126.15384588, 4125.76923050, 4144.35897415, 4130.64102537, 4127.30769203, 4236.53846154, 4070.76923043, 4127.82051255, 4138.20512800,12.0
4219.99999993, 4139.87179467, 4127.69230742, 4216.53846147, 4119.99999973, 4141.92307672, 4142.56410236, 4160.12820492, 4154.74358954, 4131.79487152, 4231.02564096, 4090.38461504, 4128.46153819, 4134.74358947,12.0
4221.79487173, 4126.66666639, 4114.48717921, 4199.48717935, 4122.17948691, 4124.74358947, 4120.25640998, 4140.12820492, 4137.43589723, 4126.53846126, 4214.61538455, 4061.02564061, 4125.64102537, 4138.58974339,12.0
4224.99999993, 4121.92307665, 4110.64102537, 4188.46153833, 4122.94871767, 4116.15384588, 4117.82051255, 4132.94871767, 4121.15384588, 4128.97435870, 4204.35897429, 4044.74358933, 4124.35897408, 4139.61538441,12.0
4226.53846147, 4135.76923056, 4122.56410229, 4205.25641019, 4121.79487152, 4130.76923050, 4148.20512800, 4147.43589723, 4127.82051255, 4135.89743569, 4205.38461532, 4068.84615343, 4126.02564075, 4136.15384595,12.0
4227.82051275, 4139.87179467, 4126.02564075, 4209.61538455, 4122.30769203, 4132.94871767, 4149.23076903, 4147.94871774, 4130.89743562, 4133.46153819, 4202.56410250, 4080.38461504, 4126.92307665, 4135.51282031,12.0
4223.20512814, 4133.07692280, 4120.76923050, 4211.28205122, 4120.89743562, 4130.64102537, 4132.69230742, 4148.33333313, 4133.33333306, 4130.12820485, 4194.23076910, 4071.66666632, 4126.79487152, 4134.99999973,12.0
4226.66666660, 4138.58974339, 4123.07692280, 4225.51282045, 4119.61538434, 4139.99999980, 4137.17948697, 4154.10256390, 4138.20512800, 4132.43589716, 4188.58974345, 4070.51282017, 4128.20512793, 4135.51282031,12.0
4222.56410250, 4140.38461518, 4120.76923050, 4215.38461532, 4122.30769203, 4130.51282024, 4133.46153819, 4139.35897415, 4123.84615357, 4129.61538434, 4178.20512807, 4065.64102523, 4125.12820485, 4137.30769210,12.0
4219.48717942, 4143.71794851, 4125.51282024, 4214.61538455, 4123.20512793, 4131.92307665, 4129.74358947, 4135.89743569, 4123.20512793, 4122.82051255, 4173.33333320, 4075.12820478, 4124.35897408, 4138.07692287,12.0
4227.17948711, 4156.66666646, 4137.43589723, 4243.33333334, 4119.10256383, 4160.38461518, 4154.48717928, 4158.46153826, 4146.66666646, 4124.61538434, 4176.15384602, 4102.05128171, 4130.64102537, 4135.25640998,12.0
4222.94871788, 4147.69230749, 4127.43589716, 4232.17948711, 4117.56410229, 4151.15384595, 4156.02564082, 4156.92307672, 4140.25641005, 4127.05128178, 4161.66666646, 4089.23076889, 4129.10256383, 4136.53846133,12.0
4223.46153840, 4134.10256383, 4116.79487152, 4200.12820499, 4122.17948691, 4124.35897408, 4129.48717921, 4137.43589723, 4116.92307665, 4125.89743562, 4145.38461518, 4060.38461497, 4122.69230742, 4139.99999980,12.0
4224.99999993, 4133.20512793, 4114.61538434, 4191.02564089, 4122.82051255, 4121.53846126, 4119.23076896, 4136.66666646, 4116.41025614, 4128.84615357, 4138.97435877, 4054.23076882, 4121.92307665, 4136.53846133,12.0
4223.20512814, 4127.43589716, 4107.17948691, 4180.38461525, 4119.48717921, 4111.66666639, 4116.66666639, 4142.69230749, 4120.51282024, 4130.38461511, 4130.12820485, 4047.56410215, 4122.94871767, 4139.10256390,12.0
4227.05128199, 4122.56410229, 4106.28205101, 4170.12820499, 4120.25640998, 4094.61538427, 4104.99999973, 4134.23076896, 4114.87179460, 4126.53846126, 4124.35897408, 4041.02564061, 4122.30769203, 4142.56410236,12.0
4222.17948711, 4127.17948691, 4110.25640998, 4181.79487166, 4121.79487152, 4099.61538427, 4107.43589716, 4132.30769203, 4121.02564075, 4128.58974332, 4123.33333306, 4053.33333292, 4121.66666639, 4139.10256390,12.0
4225.38461532, 4134.87179460, 4114.35897408, 4193.58974345, 4121.66666639, 4118.71794844, 4129.35897408, 4146.28205108, 4139.10256390, 4136.79487159, 4118.33333306, 4067.30769189, 4124.35897408, 4141.53846133,12.0
4224.87179481, 4129.87179460, 4111.92307665, 4180.12820499, 4119.23076896, 4114.99999973, 4124.35897408, 4139.35897415, 4130.38461511, 4135.12820485, 4108.07692280, 4061.41025600, 4126.15384588, 4142.94871774,12.0
4215.25641019, 4116.66666639, 4103.20512793, 4167.94871774, 4119.35897408, 4091.66666632, 4095.38461504, 4120.12820485, 4103.97435870, 4124.87179460, 4098.58974325, 4050.12820472, 4122.69230742, 4142.69230749,12.0
4219.99999993, 4122.43589716, 4108.71794844, 4188.33333320, 4122.43589716, 4102.69230742, 4106.41025614, 4129.87179460, 4115.12820485, 4125.51282024, 4098.07692273, 4064.10256369, 4121.92307665, 4144.35897415,12.0
4218.33333327, 4139.10256390, 4118.33333306, 4215.38461532, 4120.89743562, 4132.56410229, 4132.56410229, 4144.23076903, 4139.61538441, 4131.28205101, 4101.41025607, 4091.41025607, 4127.82051255, 4142.56410236,12.0
4218.20512814, 4129.48717921, 4112.69230742, 4198.07692294, 4119.87179460, 4109.99999973, 4106.92307665, 4117.94871767, 4109.23076896, 4127.05128178, 4089.61538427, 4079.35897402, 4128.07692280, 4143.20512800,12.0
4221.66666660, 4106.66666639, 4101.92307658, 4164.61538441, 4120.76923050, 4073.58974325, 4080.64102530, 4102.56410229, 4084.99999966, 4122.82051255, 4073.07692273, 4050.89743548, 4122.05128178, 4145.25641005,12.0
4214.35897429, 4106.92307665, 4102.69230742, 4167.43589723, 4120.64102537, 4088.71794837, 4102.17948684, 4133.84615357, 4122.17948691, 4132.30769203, 4070.51282017, 4058.20512779, 4121.02564075, 4140.51282031,12.0
4214.99999993, 4118.71794844, 4111.41025614, 4185.89743576, 4123.71794844, 4119.35897408, 4127.56410229, 4150.89743569, 4145.12820492, 4137.43589723, 4071.41025607, 4072.56410222, 4124.23076896, 4138.33333313,12.0
4211.28205122, 4113.07692280, 4104.99999973, 4182.43589730, 4124.99999973, 4122.05128178, 4129.87179460, 4132.94871767, 4118.33333306, 4131.92307665, 4058.84615343, 4057.05128164, 4121.28205101, 4139.35897415,12.0
4208.84615378, 4103.58974332, 4094.74358940, 4168.97435884, 4120.25640998, 4114.35897408, 4123.46153819, 4127.56410229, 4103.33333306, 4132.30769203, 4043.84615343, 4038.97435856, 4116.79487152, 4139.23076903,12.0
4213.97435891, 4108.46153819, 4099.99999966, 4175.12820499, 4118.46153819, 4120.64102537, 4120.89743562, 4142.30769210, 4131.41025614, 4133.58974332, 4043.71794830, 4051.53846113, 4120.89743562, 4139.74358954,12.0
4204.61538455, 4115.64102537, 4102.94871767, 4182.05128192, 4122.05128178, 4124.23076896, 4117.56410229, 4137.69230749, 4141.28205108, 4124.87179460, 4046.41025600, 4069.23076882, 4124.74358947, 4141.02564082,12.0
4205.76923070, 4127.43589716, 4101.66666632, 4176.02564089, 4123.58974332, 4116.15384588, 4112.82051255, 4123.33333306, 4122.05128178, 4122.05128178, 4041.15384574, 4073.58974325, 4123.46153819, 4140.89743569,12.0
4212.56410250, 4139.99999980, 4107.30769203, 4185.89743576, 4121.92307665, 4112.69230742, 4109.61538434, 4129.99999973, 4129.48717921, 4129.23076896, 4038.46153805, 4083.07692273, 4123.20512793, 4137.05128185,12.0
4206.02564096, 4140.76923056, 4113.97435870, 4199.74358961, 4122.30769203, 4115.12820485, 4105.76923050, 4139.23076903, 4142.05128185, 4128.71794844, 4036.92307651, 4092.94871761, 4124.23076896, 4137.56410236,12.0
4204.48717942, 4132.56410229, 4111.92307665, 4185.38461525, 4123.46153819, 4108.97435870, 4100.89743555, 4135.12820485, 4126.92307665, 4126.15384588, 4025.89743541, 4083.97435863, 4122.56410229, 4138.58974339,12.0
4207.82051275, 4129.23076896, 4104.10256383, 4174.48717935, 4121.79487152, 4102.82051255, 4104.99999973, 4134.48717921, 4124.87179460, 4128.07692280, 4015.12820465, 4073.46153812, 4119.87179460, 4136.41025621,12.0
4212.17948711, 4143.46153826, 4109.23076896, 4197.69230756, 4122.43589716, 4121.92307665, 4122.94871767, 4140.64102544, 4142.17948697, 4125.64102537, 4014.23076875, 4084.74358940, 4121.66666639, 4139.23076903,12.0
4204.74358968, 4147.94871774, 4109.99999973, 4206.53846147, 4122.30769203, 4139.23076903, 4129.48717921, 4136.02564082, 4131.92307665, 4125.64102537, 4008.58974311, 4084.35897402, 4120.51282024, 4139.61538441,12.0
4198.58974345, 4137.69230749, 4100.89743555, 4194.35897422, 4119.87179460, 4136.53846133, 4132.05128178, 4141.15384595, 4127.05128178, 4137.56410236, 4000.25640970, 4071.15384581, 4116.79487152, 4137.05128185,12.0
4207.56410250, 4138.33333313, 4104.10256383, 4198.97435884, 4122.17948691, 4139.23076903, 4146.28205108, 4154.48717928, 4145.25641005, 4140.38461518, 4000.25640970, 4074.48717914, 4120.89743562, 4137.69230749,12.0
4204.35897429, 4136.41025621, 4104.74358947, 4196.41025628, 4123.97435870, 4132.43589716, 4137.30769210, 4141.53846133, 4133.97435870, 4131.92307665, 3993.84615329, 4070.89743555, 4122.56410229, 4137.43589723,12.0
4204.48717942, 4126.15384588, 4102.30769196, 4178.07692294, 4123.58974332, 4112.82051255, 4111.15384588, 4125.25640998, 4116.28205101, 4135.25640998, 3981.79487124, 4056.92307651, 4116.79487152, 4138.84615364,12.0
4209.87179481, 4130.38461511, 4108.33333306, 4179.99999986, 4125.12820485, 4118.97435870, 4121.79487152, 4137.82051262, 4134.74358947, 4137.30769210, 3981.66666611, 4067.56410215, 4116.66666639, 4140.76923056,12.0
4204.23076917, 4144.61538441, 4111.79487152, 4198.84615371, 4123.97435870, 4140.38461518, 4143.84615364, 4150.64102544, 4152.30769210, 4127.94871767, 3984.48717894, 4087.82051248, 4121.02564075, 4139.61538441,12.0
4204.23076917, 4144.61538441, 4111.79487152, 4198.84615371, 4123.97435870, 4140.38461518, 4143.84615364, 4150.64102544, 4152.30769210, 4127.94871767, 3984.48717894, 4087.82051248, 4121.02564075, 4139.61538441,12.0
4206.92307686, 4141.53846133, 4109.87179460, 4196.53846140, 4121.79487152, 4119.35897408, 4109.48717921, 4133.20512793, 4133.20512793, 4122.05128178, 3973.07692252, 4075.12820478, 4120.51282024, 4137.94871774,12.0
4208.58974352, 4131.15384588, 4108.84615357, 4184.23076910, 4122.82051255, 4088.20512786, 4077.82051248, 4125.89743562, 4124.10256383, 4128.33333306, 3962.94871733, 4067.17948677, 4118.07692280, 4137.43589723,12.0
4205.64102558, 4132.43589716, 4108.07692280, 4176.41025628, 4124.35897408, 4098.58974325, 4097.43589709, 4139.48717928, 4140.64102544, 4139.10256390, 3961.66666605, 4081.41025607, 4117.82051255, 4139.87179467,12.0
4205.25641019, 4124.87179460, 4098.97435863, 4153.33333313, 4122.30769203, 4107.56410229, 4101.53846119, 4136.79487159, 4136.79487159, 4139.61538441, 3950.25640963, 4065.25640984, 4115.76923050, 4139.48717928,12.0
4203.46153840, 4122.94871767, 4095.89743555, 4162.30769210, 4120.25640998, 4108.58974332, 4096.53846119, 4135.12820485, 4137.17948697, 4128.71794844, 3942.69230707, 4058.20512779, 4119.23076896, 4137.17948697,12.0
4209.35897429, 4149.35897415, 4111.92307665, 4215.12820506, 4120.64102537, 4131.15384588, 4127.56410229, 4147.82051262, 4155.51282031, 4127.05128178, 3949.61538399, 4097.43589709, 4126.41025614, 4139.61538441,12.0
4205.51282045, 4157.82051262, 4114.74358947, 4223.07692301, 4119.87179460, 4138.20512800, 4143.97435877, 4144.10256390, 4149.10256390, 4131.41025614, 3944.99999938, 4110.51282024, 4122.69230742, 4140.12820492,12.0
4200.12820499, 4135.64102544, 4101.41025607, 4180.51282038, 4119.87179460, 4116.66666639, 4121.66666639, 4123.58974332, 4125.76923050, 4123.71794844, 3930.51281982, 4078.71794837, 4117.30769203, 4142.56410236,12.0
4206.53846147, 4130.89743562, 4103.97435870, 4177.94871781, 4122.30769203, 4119.99999973, 4122.94871767, 4122.94871767, 4129.99999973, 4124.10256383, 3927.94871726, 4077.17948684, 4119.61538434, 4144.10256390,12.0
4201.53846147, 4133.58974332, 4104.35897408, 4197.17948704, 4122.05128178, 4136.02564082, 4135.64102544, 4129.48717921, 4130.89743562, 4134.48717921, 3926.02564033, 4092.43589709, 4119.74358947, 4141.92307672,12.0
4201.53846147, 4115.38461511, 4092.56410222, 4166.66666646, 4121.15384588, 4119.74358947, 4120.25640998, 4122.17948691, 4107.94871767, 4128.84615357, 3912.56410187, 4072.82051248, 4116.15384588, 4142.56410236,12.0
4201.15384609, 4106.53846126, 4089.61538427, 4143.71794851, 4122.17948691, 4103.07692280, 4111.02564075, 4123.46153819, 4110.51282024, 4122.43589716, 3904.23076847, 4061.92307651, 4116.02564075, 4143.20512800,12.0
4194.10256397, 4118.46153819, 4094.74358940, 4163.58974339, 4123.33333306, 4102.82051255, 4108.46153819, 4123.84615357, 4118.46153819, 4137.05128185, 3902.30769155, 4070.38461504, 4116.28205101, 4143.71794851,12.0
4199.99999986, 4121.41025614, 4096.41025607, 4168.84615371, 4123.71794844, 4104.10256383, 4103.97435870, 4119.48717921, 4108.97435870, 4141.53846133, 3896.66666591, 4067.17948677, 4115.51282024, 4144.10256390,12.0
4197.56410243, 4108.97435870, 4090.89743555, 4149.61538441, 4119.61538434, 4100.64102530, 4102.56410229, 4128.97435870, 4114.35897408, 4126.15384588, 3890.38461462, 4062.69230728, 4117.69230742, 4143.33333313,12.0
4196.79487166, 4103.07692280, 4089.99999966, 4141.41025621, 4119.10256383, 4092.30769196, 4091.53846119, 4132.82051255, 4126.53846126, 4121.66666639, 3886.15384539, 4063.07692266, 4117.43589716, 4145.25641005,12.0
4196.79487166, 4109.99999973, 4093.58974325, 4155.51282031, 4123.46153819, 4103.07692280, 4096.02564068, 4126.28205101, 4128.46153819, 4129.10256383, 3883.84615309, 4069.35897395, 4112.17948691, 4142.17948697,12.0
4188.07692294, 4124.23076896, 4097.17948684, 4183.07692294, 4122.82051255, 4131.28205101, 4135.64102544, 4131.53846126, 4139.10256390, 4126.66666639, 3888.20512744, 4090.51282017, 4114.61538434, 4136.41025621,12.0
4191.15384602, 4130.51282024, 4100.12820478, 4195.64102551, 4120.51282024, 4138.20512800, 4147.56410236, 4134.35897408, 4147.82051262, 4123.33333306, 3889.99999924, 4103.84615357, 4122.94871767, 4138.58974339,12.0
4190.76923063, 4114.87179460, 4092.69230735, 4175.38461525, 4121.53846126, 4115.89743562, 4106.41025614, 4119.10256383, 4126.92307665, 4129.35897408, 3874.74358898, 4081.66666632, 4117.94871767, 4140.12820492,12.0
4191.28205115, 4108.97435870, 4089.48717914, 4169.35897422, 4122.94871767, 4106.41025614, 4092.69230735, 4118.84615357, 4118.58974332, 4128.33333306, 3865.76922994, 4069.23076882, 4111.41025614, 4140.38461518,12.0
4192.05128192, 4123.84615357, 4097.17948684, 4194.48717935, 4121.92307665, 4126.28205101, 4131.15384588, 4139.10256390, 4142.69230749, 4125.64102537, 3873.58974283, 4090.25640991, 4117.17948691, 4140.89743569,12.0
4185.38461525, 4118.71794844, 4098.20512786, 4190.51282038, 4120.76923050, 4132.94871767, 4138.84615364, 4139.99999980, 4146.28205108, 4128.33333306, 3867.43589661, 4093.84615350, 4118.71794844, 4138.46153826,12.0
4191.41025628, 4093.97435863, 4087.17948684, 4157.56410236, 4122.05128178, 4095.89743555, 4084.35897402, 4108.97435870, 4105.51282024, 4128.84615357, 3844.87179404, 4058.97435856, 4111.28205101, 4137.30769210,12.0
4191.53846140, 4087.56410222, 4075.25640991, 4152.94871774, 4122.56410229, 4069.87179453, 4059.35897395, 4097.05128171, 4081.53846119, 4126.79487152, 3837.82051192, 4036.15384567, 4109.74358947, 4137.82051262,12.0
4188.33333320, 4105.38461511, 4086.53846119, 4182.05128192, 4123.58974332, 4112.17948691, 4116.41025614, 4138.20512800, 4126.15384588, 4126.79487152, 3852.05128122, 4068.84615343, 4117.43589716, 4140.12820492,12.0
4190.25641012, 4115.64102537, 4105.25640998, 4197.05128192, 4124.87179460, 4147.17948697, 4155.25641005, 4161.79487159, 4162.17948697, 4130.51282024, 3854.74358891, 4104.87179460, 4120.89743562, 4138.46153826,12.0
4185.51282038, 4108.97435870, 4101.15384581, 4189.61538448, 4122.43589716, 4120.12820485, 4128.20512793, 4129.10256383, 4133.71794844, 4129.48717921, 3842.17948635, 4096.66666632, 4120.38461511, 4135.51282031,12.0
4187.30769217, 4110.12820485, 4097.82051248, 4193.84615371, 4121.41025614, 4108.84615357, 4110.64102537, 4110.76923050, 4114.87179460, 4126.02564075, 3839.48717859, 4086.53846119, 4123.97435870, 4138.84615364,12.0
4186.28205115, 4113.33333306, 4099.48717914, 4197.69230756, 4123.71794844, 4124.10256383, 4113.84615357, 4124.87179460, 4129.87179460, 4128.71794844, 3838.58974269, 4088.07692273, 4121.28205101, 4137.82051262,12.0
4186.41025628, 4102.94871767, 4089.99999966, 4170.25641012, 4123.97435870, 4111.02564075, 4097.17948684, 4110.89743562, 4108.46153819, 4129.99999973, 3822.82051192, 4064.61538420, 4112.17948691, 4136.41025621,12.0
4190.51282038, 4089.74358940, 4080.64102530, 4146.53846133, 4120.38461511, 4089.74358940, 4079.35897402, 4085.38461504, 4071.79487145, 4124.61538434, 3808.71794782, 4036.15384567, 4110.64102537, 4139.99999980,12.0
4187.43589730, 4084.48717914, 4079.10256376, 4154.48717928, 4118.07692280, 4093.33333299, 4085.25640991, 4094.74358940, 4077.05128171, 4126.41025614, 3806.79487083, 4036.53846106, 4112.69230742, 4141.53846133,12.0
4193.97435884, 4088.33333299, 4083.20512786, 4163.58974339, 4121.02564075, 4101.15384581, 4092.43589709, 4102.94871767, 4089.87179453, 4134.61538434, 3808.71794782, 4044.23076882, 4111.53846126, 4140.64102544,12.0
4194.61538448, 4103.46153819, 4090.25640991, 4175.51282038, 4121.79487152, 4101.28205094, 4092.69230735, 4102.56410229, 4098.71794837, 4130.12820485, 3814.99999910, 4061.79487138, 4116.15384588, 4139.10256390,12.0
4194.61538448, 4103.46153819, 4090.25640991, 4175.51282038, 4121.79487152, 4101.28205094, 4092.69230735, 4102.56410229, 4098.71794837, 4130.12820485, 3814.99999910, 4061.79487138, 4116.15384588, 4139.10256390,12.0
4189.74358961, 4124.10256383, 4101.53846119, 4209.10256404, 4119.23076896, 4114.35897408, 4110.51282024, 4126.41025614, 4132.43589716, 4130.25640998, 3822.82051192, 4099.35897402, 4124.10256383, 4139.23076903,12.0
4194.48717935, 4119.23076896, 4104.74358947, 4215.38461532, 4122.05128178, 4124.23076896, 4125.76923050, 4139.23076903, 4151.15384595, 4135.89743569, 3815.12820423, 4104.74358947, 4123.46153819, 4138.84615364,12.0
4188.07692294, 4093.84615350, 4089.61538427, 4178.46153833, 4124.35897408, 4104.10256383, 4102.56410229, 4115.38461511, 4120.89743562, 4133.20512793, 3795.64102467, 4067.69230728, 4114.35897408, 4137.94871774,12.0
4182.94871781, 4102.30769196, 4090.89743555, 4176.02564089, 4121.28205101, 4103.07692280, 4100.64102530, 4119.99999973, 4121.53846126, 4132.69230742, 3795.25640929, 4075.12820478, 4116.41025614, 4141.79487159,12.0
4185.64102551, 4120.38461511, 4101.79487145, 4200.64102551, 4121.15384588, 4124.99999973, 4131.28205101, 4145.25641005, 4151.41025621, 4131.66666639, 3804.10256313, 4111.53846126, 4127.30769203, 4140.38461518,12.0
4186.28205115, 4100.76923043, 4090.64102530, 4179.99999986, 4123.46153819, 4104.23076896, 4107.30769203, 4119.23076896, 4121.28205101, 4124.23076896, 3789.74358877, 4084.10256376, 4121.92307665, 4137.56410236,12.0
4189.48717935, 4091.66666632, 4084.23076889, 4166.53846133, 4123.07692280, 4081.28205094, 4078.58974325, 4098.71794837, 4092.82051248, 4125.38461511, 3777.43589647, 4057.05128164, 4114.23076896, 4141.79487159,12.0
4179.35897422, 4113.71794844, 4090.89743555, 4198.20512807, 4121.28205101, 4109.10256383, 4116.66666639, 4132.30769203, 4135.38461518, 4129.99999973, 3787.05128108, 4093.07692273, 4120.38461511, 4141.02564082,12.0
4177.43589730, 4120.64102537, 4093.07692273, 4206.92307686, 4122.56410229, 4124.10256383, 4131.15384588, 4141.66666646, 4154.35897415, 4126.92307665, 3787.30769134, 4102.69230742, 4123.20512793, 4138.97435877,12.0
4183.33333320, 4102.69230742, 4084.87179453, 4176.15384602, 4124.10256383, 4097.30769196, 4089.35897402, 4107.82051255, 4109.48717921, 4127.82051255, 3769.23076819, 4061.28205087, 4114.99999973, 4140.89743569,12.0
4174.23076910, 4093.33333299, 4078.71794837, 4165.12820492, 4121.41025614, 4088.46153812, 4082.43589709, 4099.61538427, 4092.56410222, 4132.94871767, 3761.41025537, 4050.64102523, 4112.56410229, 4142.30769210,12.0
4175.12820499, 4108.58974332, 4087.82051248, 4192.30769217, 4120.12820485, 4116.28205101, 4121.53846126, 4122.69230742, 4123.71794844, 4130.38461511, 3769.23076819, 4080.76923043, 4120.51282024, 4141.41025621,12.0
4176.66666653, 4123.07692280, 4092.56410222, 4213.84615378, 4120.64102537, 4140.38461518, 4142.56410236, 4134.23076896, 4142.30769210, 4127.05128178, 3769.74358871, 4100.25640991, 4123.97435870, 4138.71794851,12.0
4177.94871781, 4114.61538434, 4088.33333299, 4199.48717935, 4122.56410229, 4133.33333306, 4133.33333306, 4129.61538434, 4132.05128178, 4132.05128178, 3758.20512717, 4090.64102530, 4121.28205101, 4142.43589723,12.0
4179.74358961, 4091.53846119, 4079.48717914, 4166.41025621, 4123.58974332, 4106.28205101, 4111.28205101, 4121.15384588, 4118.58974332, 4135.51282031, 3748.33333229, 4064.99999959, 4117.82051255, 4145.38461518,12.0
4171.02564089, 4073.33333299, 4068.46153805, 4142.94871774, 4122.82051255, 4084.99999966, 4089.61538427, 4112.56410229, 4107.43589716, 4127.30769203, 3739.74358864, 4046.66666625, 4115.51282024, 4143.33333313,12.0
4175.89743576, 4073.58974325, 4071.53846119, 4145.38461518, 4124.35897408, 4084.10256376, 4087.94871761, 4106.53846126, 4099.99999966, 4120.76923050, 3735.89743479, 4051.66666625, 4117.30769203, 4141.41025621,12.0
4177.94871781, 4086.53846119, 4080.51282017, 4168.07692287, 4123.71794844, 4094.61538427, 4101.28205094, 4105.76923050, 4106.15384588, 4127.56410229, 3739.87179376, 4072.94871761, 4120.51282024, 4138.33333313,12.0
4172.17948704, 4102.05128171, 4086.79487145, 4189.99999986, 4122.69230742, 4104.87179460, 4110.76923050, 4114.99999973, 4116.92307665, 4132.43589716, 3744.35897332, 4094.48717914, 4121.66666639, 4138.71794851,12.0
4173.46153833, 4108.58974332, 4093.71794837, 4197.43589730, 4125.89743562, 4116.53846126, 4122.69230742, 4132.69230742, 4132.30769203, 4129.35897408, 3745.89743486, 4109.23076896, 4122.82051255, 4138.97435877,12.0
4171.66666653, 4101.15384581, 4094.87179453, 4195.25641012, 4127.43589716, 4117.94871767, 4129.35897408, 4137.05128185, 4141.66666646, 4127.30769203, 3742.17948614, 4112.94871767, 4125.51282024, 4134.10256383,12.0
4174.35897422, 4098.20512786, 4093.33333299, 4192.82051269, 4126.02564075, 4106.79487152, 4119.87179460, 4120.38461511, 4125.89743562, 4127.69230742, 3735.89743479, 4109.87179460, 4124.99999973, 4136.15384595,12.0
4171.79487166, 4097.94871761, 4093.71794837, 4188.07692294, 4124.35897408, 4110.12820485, 4123.71794844, 4116.53846126, 4114.23076896, 4129.48717921, 3731.53846043, 4105.12820485, 4118.07692280, 4141.41025621,12.0
4167.94871774, 4082.82051248, 4087.43589709, 4169.23076910, 4124.35897408, 4117.30769203, 4128.07692280, 4124.10256383, 4120.25640998, 4127.69230742, 3724.48717838, 4083.71794837, 4114.74358947, 4139.99999980,12.0
4174.74358961, 4068.46153805, 4080.25640991, 4154.99999980, 4124.99999973, 4099.61538427, 4100.25640991, 4110.89743562, 4108.46153819, 4124.99999973, 3712.05128094, 4062.94871754, 4118.46153819, 4136.41025621,12.0
4170.76923063, 4072.82051248, 4080.25640991, 4166.66666646, 4123.71794844, 4082.05128171, 4081.28205094, 4099.87179453, 4093.33333299, 4125.89743562, 3708.20512703, 4073.71794837, 4118.97435870, 4136.15384595,12.0
4169.87179474, 4086.41025607, 4091.41025607, 4185.38461525, 4122.82051255, 4099.23076889, 4107.56410229, 4119.99999973, 4117.17948691, 4126.79487152, 3719.74358864, 4103.97435870, 4120.89743562, 4138.58974339,12.0
4170.89743576, 4082.05128171, 4094.35897402, 4179.35897422, 4121.66666639, 4106.41025614, 4117.17948691, 4129.10256383, 4132.82051255, 4125.89743562, 3717.94871684, 4104.74358947, 4124.99999973, 4137.17948697,12.0
4166.53846133, 4069.23076882, 4080.12820478, 4163.07692287, 4120.51282024, 4088.46153812, 4093.07692273, 4108.71794844, 4111.15384588, 4128.33333306, 3702.43589626, 4079.35897402, 4124.35897408, 4137.17948697,12.0
4173.58974345, 4081.79487145, 4082.94871761, 4172.30769217, 4121.41025614, 4098.71794837, 4103.46153819, 4115.25640998, 4121.79487152, 4133.58974332, 3706.02563985, 4088.07692273, 4126.28205101, 4139.74358954,12.0
4172.30769217, 4104.48717921, 4098.97435863, 4199.99999986, 4122.05128178, 4120.51282024, 4128.97435870, 4140.25641005, 4152.69230749, 4130.89743562, 3717.05128094, 4121.53846126, 4129.61538434, 4138.58974339,12.0
4172.94871781, 4111.66666639, 4104.10256383, 4216.15384609, 4123.20512793, 4118.71794844, 4118.58974332, 4129.99999973, 4143.07692287, 4127.69230742, 3712.69230658, 4128.84615357, 4130.89743562, 4140.25641005,12.0
4178.46153833, 4116.02564075, 4103.20512793, 4221.79487173, 4125.12820485, 4123.71794844, 4117.17948691, 4122.17948691, 4137.43589723, 4130.25640998, 3710.64102453, 4128.07692280, 4132.69230742, 4142.56410236,12.0
4171.02564089, 4122.17948691, 4103.33333306, 4225.51282045, 4124.99999973, 4139.99999980, 4143.33333313, 4140.51282031, 4156.66666646, 4131.15384588, 3713.33333223, 4141.79487159, 4131.66666639, 4142.43589723,12.0
4173.58974345, 4119.35897408, 4103.58974332, 4220.51282045, 4123.46153819, 4139.35897415, 4150.25641005, 4140.38461518, 4149.23076903, 4125.89743562, 3704.87179369, 4141.79487159, 4130.76923050, 4140.51282031,12.0
4172.94871781, 4103.71794844, 4089.23076889, 4203.20512814, 4122.17948691, 4123.58974332, 4130.89743562, 4123.46153819, 4121.15384588, 4124.10256383, 3694.10256293, 4111.02564075, 4129.23076896, 4136.15384595,12.0
4168.07692287, 4093.97435863, 4076.02564068, 4188.46153833, 4123.71794844, 4109.61538434, 4113.33333306, 4116.66666639, 4111.92307665, 4127.43589716, 3691.02563985, 4081.28205094, 4126.79487152, 4139.48717928,12.0
4173.97435884, 4096.02564068, 4079.48717914, 4185.89743576, 4124.87179460, 4103.07692280, 4099.99999966, 4109.87179460, 4111.15384588, 4126.41025614, 3688.20512703, 4080.76923043, 4126.41025614, 4142.30769210,12.0
4169.99999986, 4106.66666639, 4087.82051248, 4202.69230763, 4121.79487152, 4115.76923050, 4113.33333306, 4115.12820485, 4115.64102537, 4124.48717921, 3688.71794754, 4106.02564075, 4128.46153819, 4137.56410236,12.0
4167.17948697, 4115.89743562, 4093.07692273, 4210.64102558, 4124.23076896, 4127.30769203, 4132.17948691, 4128.07692280, 4125.38461511, 4126.02564075, 3692.43589626, 4115.76923050, 4129.87179460, 4137.94871774,12.0
4165.38461518, 4109.87179460, 4085.51282017, 4189.61538448, 4127.82051255, 4107.69230742, 4104.35897408, 4119.10256383, 4120.89743562, 4127.05128178, 3689.87179369, 4098.33333299, 4127.43589716, 4140.38461518,12.0
4165.25641005, 4109.99999973, 4081.66666632, 4181.92307679, 4124.48717921, 4096.28205094, 4087.69230735, 4115.12820485, 4119.61538434, 4124.35897408, 3690.64102446, 4104.35897408, 4128.46153819, 4142.05128185,12.0
4168.58974345, 4122.30769203, 4088.71794837, 4197.82051269, 4122.56410229, 4114.87179460, 4119.35897408, 4127.69230742, 4129.99999973, 4123.71794844, 3691.66666549, 4126.66666639, 4132.94871767, 4143.58974339,12.0
4156.92307672, 4131.41025614, 4090.51282017, 4207.43589737, 4123.84615357, 4123.97435870, 4133.07692280, 4127.69230742, 4131.41025614, 4128.84615357, 3686.53846036, 4126.41025614, 4132.17948691, 4138.97435877,12.0
4157.17948697, 4143.84615364, 4094.99999966, 4213.07692301, 4125.76923050, 4122.17948691, 4122.05128178, 4122.05128178, 4133.07692280, 4132.94871767, 3685.89743472, 4123.20512793, 4129.61538434, 4138.97435877,12.0
4162.05128185, 4153.84615364, 4096.92307658, 4220.12820506, 4125.76923050, 4125.25640998, 4120.38461511, 4131.92307665, 4152.43589723, 4128.97435870, 3689.35897318, 4130.51282024, 4131.28205101, 4141.92307672,12.0
4157.82051262, 4151.79487159, 4086.28205094, 4211.02564096, 4124.61538434, 4115.76923050, 4110.89743562, 4136.02564082, 4153.33333313, 4122.56410229, 3681.02563985, 4119.10256383, 4130.12820485, 4140.12820492,12.0
4158.84615364, 4148.07692287, 4083.20512786, 4205.51282045, 4125.76923050, 4109.74358947, 4103.46153819, 4122.69230742, 4124.10256383, 4125.51282024, 3668.07692183, 4098.46153812, 4127.43589716, 4141.15384595,12.0
4155.89743569, 4165.51282031, 4094.87179453, 4237.82051282, 4127.56410229, 4134.10256383, 4130.89743562, 4129.87179460, 4134.48717921, 4131.15384588, 3674.61538337, 4120.64102537, 4131.02564075, 4142.30769210,12.0
4159.61538441, 4181.15384602, 4101.66666632, 4252.56410257, 4126.66666639, 4139.99999980, 4139.35897415, 4142.69230749, 4163.58974339, 4129.99999973, 3683.46153728, 4146.28205108, 4132.82051255, 4141.28205108,12.0
4160.89743569, 4166.66666646, 4090.64102530, 4216.53846147, 4124.48717921, 4106.15384588, 4105.38461511, 4121.02564075, 4128.20512793, 4128.97435870, 3669.10256286, 4117.94871767, 4128.33333306, 4139.23076903,12.0
4153.71794851, 4161.41025621, 4086.92307658, 4206.53846147, 4124.99999973, 4103.71794844, 4106.79487152, 4110.12820485, 4096.66666632, 4131.79487152, 3655.76922952, 4099.10256376, 4128.58974332, 4138.46153826,12.0
4156.66666646, 4184.35897422, 4102.43589709, 4235.00000000, 4126.15384588, 4131.15384588, 4140.89743569, 4132.94871767, 4130.51282024, 4128.84615357, 3663.07692183, 4128.33333306, 4134.87179460, 4139.35897415,12.0
4155.51282031, 4184.87179474, 4102.82051255, 4229.23076917, 4123.97435870, 4121.92307665, 4131.92307665, 4134.87179460, 4145.12820492, 4127.30769203, 3666.66666542, 4136.02564082, 4134.87179460, 4137.17948697,12.0
4156.41025621, 4171.53846140, 4095.12820478, 4210.12820506, 4124.87179460, 4103.71794844, 4110.51282024, 4112.30769203, 4118.71794844, 4137.17948697, 3657.56410132, 4113.84615357, 4131.41025614, 4137.69230749,12.0
4159.10256390, 4175.51282038, 4100.38461504, 4221.28205122, 4126.28205101, 4115.38461511, 4123.46153819, 4108.58974332, 4114.48717921, 4139.99999980, 3656.02563978, 4116.41025614, 4131.79487152, 4137.56410236,12.0
4156.53846133, 4179.74358961, 4104.35897408, 4231.02564096, 4122.94871767, 4125.64102537, 4134.61538434, 4125.89743562, 4135.38461518, 4128.97435870, 3660.25640901, 4139.35897415, 4135.89743569, 4137.43589723,12.0
4163.71794851, 4187.69230756, 4108.20512793, 4235.89743590, 4123.07692280, 4128.84615357, 4134.99999973, 4138.46153826, 4146.28205108, 4123.84615357, 3661.41025516, 4151.15384595, 4139.10256390, 4141.79487159,12.0
4160.76923056, 4195.38461525, 4108.97435870, 4241.66666667, 4127.17948691, 4133.33333306, 4142.56410236, 4133.20512793, 4138.46153826, 4126.79487152, 3658.07692183, 4145.64102544, 4136.66666646, 4140.64102544,12.0
4156.02564082, 4182.30769217, 4101.15384581, 4223.07692301, 4127.05128178, 4116.41025614, 4124.87179460, 4115.51282024, 4114.99999973, 4126.79487152, 3648.20512696, 4124.35897408, 4131.79487152, 4136.79487159,12.0
4161.15384595, 4175.76923063, 4099.10256376, 4207.43589737, 4125.51282024, 4098.71794837, 4102.43589709, 4113.84615357, 4108.58974332, 4128.20512793, 3640.38461407, 4112.30769203, 4128.71794844, 4135.51282031,12.0
4157.56410236, 4193.58974345, 4105.64102537, 4231.28205122, 4125.89743562, 4122.69230742, 4135.38461518, 4140.51282031, 4142.69230749, 4130.64102537, 3646.79487055, 4138.97435877, 4131.28205101, 4135.64102544,12.0
4160.51282031, 4189.35897422, 4104.10256383, 4229.61538455, 4127.43589716, 4129.99999973, 4142.94871774, 4134.61538434, 4133.20512793, 4127.69230742, 3641.41025509, 4141.02564082, 4131.41025614, 4137.56410236,12.0
4159.99999980, 4164.74358954, 4092.43589709, 4192.43589730, 4126.92307665, 4095.89743555, 4097.56410222, 4100.89743555, 4084.61538427, 4128.07692280, 3620.89743458, 4105.38461511, 4125.51282024, 4138.97435877,12.0
4156.28205108, 4186.41025628, 4104.87179460, 4219.23076917, 4126.41025614, 4108.84615357, 4118.97435870, 4125.76923050, 4127.69230742, 4130.76923050, 3635.25640894, 4137.82051262, 4131.53846126, 4141.41025621,12.0
4162.05128185, 4219.10256404, 4127.17948691, 4267.69230777, 4124.87179460, 4150.25641005, 4174.23076910, 4170.51282038, 4198.58974345, 4127.43589716, 3665.51281927, 4198.46153833, 4143.71794851, 4139.99999980,12.0
4155.89743569, 4197.56410243, 4111.66666639, 4236.41025641, 4121.92307665, 4132.82051255, 4154.74358954, 4148.20512800, 4159.61538441, 4124.48717921, 3650.38461414, 4169.74358961, 4137.94871774, 4137.56410236,12.0
4157.82051262, 4174.61538448, 4094.10256376, 4198.46153833, 4123.33333306, 4102.82051255, 4115.89743562, 4115.12820485, 4107.69230742, 4128.07692280, 3624.87179356, 4120.25640998, 4127.17948691, 4142.43589723,12.0
