AF3,F7,F3,FC5,T7,P7,O1,O2,P8,T8,FC6,F4,F8,AF4,Label
4120.89743562, 4141.92307672, 4162.69230749, 4122.17948691, 4129.10256383, 4105.12820485, 4096.41025607, 4110.64102537, 4089.23076889, 4134.48717921, 4105.64102537, 4147.43589723, 4126.53846126, 4146.15384595,12.0
4123.33333306, 4138.46153826, 4166.66666646, 4105.89743562, 4127.69230742, 4109.74358947, 4094.61538427, 4112.30769203, 4092.05128171, 4134.48717921, 4112.30769203, 4157.05128185, 4125.51282024, 4147.82051262,12.0
4122.43589716, 4133.33333306, 4167.69230749, 4090.89743555, 4127.05128178, 4109.35897408, 4092.30769196, 4096.41025607, 4076.53846119, 4134.48717921, 4112.17948691, 4155.51282031, 4128.33333306, 4145.25641005,12.0
4118.84615357, 4141.28205108, 4165.51282031, 4106.02564075, 4128.46153819, 4106.28205101, 4092.94871761, 4091.02564068, 4069.87179453, 4134.48717921, 4104.74358947, 4146.79487159, 4126.28205101, 4144.48717928,12.0
4122.94871767, 4145.76923056, 4158.84615364, 4089.23076889, 4125.89743562, 4107.56410229, 4088.07692273, 4088.84615350, 4079.10256376, 4134.48717921, 4106.92307665, 4139.23076903, 4126.15384588, 4145.25641005,12.0
4115.76923050, 4134.99999973, 4159.35897415, 4075.89743555, 4127.82051255, 4107.17948691, 4081.66666632, 4083.20512786, 4077.56410222, 4134.48717921, 4107.82051255, 4139.87179467, 4126.28205101, 4141.41025621,12.0
4113.07692280, 4138.71794851, 4164.74358954, 4108.33333306, 4131.15384588, 4101.66666632, 4078.58974325, 4075.51282017, 4059.61538420, 4134.48717921, 4101.15384581, 4145.51282031, 4126.79487152, 4140.64102544,12.0
4116.66666639, 4155.38461518, 4162.94871774, 4121.53846126, 4129.87179460, 4103.46153819, 4083.33333299, 4074.35897402, 4058.33333292, 4134.48717921, 4095.64102530, 4142.82051262, 4126.28205101, 4144.23076903,12.0
4118.58974332, 4148.58974339, 4154.35897415, 4114.10256383, 4128.07692280, 4098.84615350, 4075.12820478, 4070.38461504, 4061.02564061, 4134.48717921, 4095.12820478, 4125.89743562, 4124.48717921, 4146.15384595,12.0
4124.87179460, 4137.05128185, 4154.23076903, 4132.94871767, 4127.30769203, 4083.33333299, 4057.05128164, 4058.20512779, 4044.35897395, 4134.48717921, 4094.99999966, 4124.61538434, 4127.17948691, 4142.82051262,12.0
4120.89743562, 4145.51282031, 4162.69230749, 4141.92307672, 4128.46153819, 4082.05128171, 4061.28205087, 4065.51282010, 4042.05128164, 4134.48717921, 4088.20512786, 4140.12820492, 4128.20512793, 4141.28205108,12.0
4123.20512793, 4156.28205108, 4166.28205108, 4126.28205101, 4130.12820485, 4092.43589709, 4076.66666632, 4087.30769196, 4065.25640984, 4134.48717921, 4086.41025607, 4139.61538441, 4128.07692280, 4146.02564082,12.0
4125.64102537, 4153.07692287, 4162.56410236, 4120.51282024, 4130.12820485, 4093.46153812, 4074.99999966, 4090.25640991, 4070.12820478, 4134.48717921, 4084.35897402, 4131.15384588, 4127.69230742, 4145.76923056,12.0
4119.74358947, 4150.76923056, 4160.25641005, 4118.58974332, 4128.97435870, 4087.94871761, 4069.10256369, 4080.38461504, 4053.20512779, 4134.48717921, 4078.33333299, 4130.38461511, 4123.71794844, 4143.71794851,12.0
4120.89743562, 4158.20512800, 4166.15384595, 4120.25640998, 4126.66666639, 4093.46153812, 4076.28205094, 4077.94871761, 4050.25640984, 4134.48717921, 4082.05128171, 4132.82051255, 4124.23076896, 4145.25641005,12.0
4117.56410229, 4141.02564082, 4160.64102544, 4119.35897408, 4127.94871767, 4096.92307658, 4075.64102530, 4073.58974325, 4054.23076882, 4134.48717921, 4085.89743555, 4125.38461511, 4125.64102537, 4146.02564082,12.0
4122.82051255, 4123.84615357, 4145.89743569, 4108.58974332, 4129.61538434, 4092.82051248, 4067.05128164, 4066.41025600, 4050.51282010, 4134.48717921, 4085.12820478, 4113.20512793, 4126.15384588, 4146.66666646,12.0
4127.30769203, 4139.99999980, 4145.38461518, 4101.02564068, 4128.20512793, 4088.71794837, 4066.79487138, 4070.38461504, 4048.84615343, 4134.48717921, 4083.58974325, 4112.43589716, 4128.20512793, 4144.35897415,12.0
4115.51282024, 4149.35897415, 4151.15384595, 4102.17948684, 4128.97435870, 4086.79487145, 4069.23076882, 4077.43589709, 4051.53846113, 4134.48717921, 4083.07692273, 4117.69230742, 4126.79487152, 4143.84615364,12.0
4118.20512793, 4144.23076903, 4154.35897415, 4117.30769203, 4129.10256383, 4091.92307658, 4073.46153812, 4074.48717914, 4052.56410215, 4134.48717921, 4086.15384581, 4120.25640998, 4126.92307665, 4146.79487159,12.0
4123.58974332, 4144.74358954, 4153.71794851, 4124.61538434, 4127.82051255, 4092.82051248, 4073.84615350, 4068.97435856, 4044.87179446, 4134.48717921, 4088.97435863, 4115.25640998, 4126.79487152, 4144.74358954,12.0
4121.53846126, 4146.66666646, 4156.15384595, 4099.74358940, 4126.92307665, 4087.43589709, 4074.61538427, 4073.33333299, 4039.35897395, 4134.48717921, 4090.51282017, 4113.33333306, 4126.66666639, 4142.82051262,12.0
4120.25640998, 4132.30769203, 4159.99999980, 4080.12820478, 4125.51282024, 4085.76923043, 4075.51282017, 4078.07692273, 4045.12820472, 4134.48717921, 4086.28205094, 4117.94871767, 4126.53846126, 4142.94871774,12.0
4120.64102537, 4120.89743562, 4151.92307672, 4095.51282017, 4126.66666639, 4080.76923043, 4063.07692266, 4074.61538427, 4048.46153805, 4134.48717921, 4079.99999966, 4114.48717921, 4121.53846126, 4144.48717928,12.0
4127.82051255, 4131.92307665, 4144.10256390, 4102.56410229, 4127.05128178, 4075.51282017, 4051.79487138, 4073.46153812, 4048.33333292, 4134.48717921, 4079.10256376, 4104.35897408, 4123.97435870, 4148.07692287,12.0
4124.87179460, 4142.94871774, 4150.38461518, 4086.15384581, 4128.46153819, 4080.89743555, 4060.64102523, 4079.35897402, 4054.23076882, 4134.48717921, 4081.66666632, 4106.15384588, 4127.17948691, 4146.02564082,12.0
4119.10256383, 4142.17948697, 4159.10256390, 4092.82051248, 4129.61538434, 4084.61538427, 4064.61538420, 4077.82051248, 4051.79487138, 4134.48717921, 4085.51282017, 4117.69230742, 4126.28205101, 4143.58974339,12.0
4124.23076896, 4139.99999980, 4156.79487159, 4101.28205094, 4127.56410229, 4080.25640991, 4058.58974318, 4070.38461504, 4041.92307651, 4134.48717921, 4088.20512786, 4119.99999973, 4128.33333306, 4145.51282031,12.0
4124.48717921, 4146.02564082, 4157.94871774, 4091.53846119, 4128.58974332, 4082.56410222, 4069.61538420, 4077.30769196, 4050.25640984, 4134.48717921, 4088.71794837, 4118.46153819, 4128.58974332, 4145.64102544,12.0
4125.76923050, 4148.58974339, 4162.56410236, 4092.82051248, 4128.71794844, 4087.56410222, 4081.41025607, 4086.41025607, 4061.92307651, 4134.48717921, 4086.02564068, 4123.46153819, 4127.56410229, 4145.51282031,12.0
4120.76923050, 4137.30769210, 4154.87179467, 4099.74358940, 4128.07692280, 4083.46153812, 4078.33333299, 4084.23076889, 4054.99999959, 4134.48717921, 4083.07692273, 4119.87179460, 4126.92307665, 4145.76923056,12.0
4117.94871767, 4131.02564075, 4148.46153826, 4097.43589709, 4128.20512793, 4078.20512786, 4070.89743555, 4076.92307658, 4044.99999959, 4134.48717921, 4085.12820478, 4108.58974332, 4127.94871767, 4144.87179467,12.0
4127.30769203, 4134.74358947, 4148.71794851, 4088.84615350, 4126.53846126, 4072.56410222, 4054.99999959, 4063.97435856, 4037.30769189, 4134.48717921, 4086.92307658, 4099.99999966, 4127.43589716, 4144.10256390,12.0
4120.25640998, 4126.15384588, 4142.17948697, 4077.94871761, 4128.97435870, 4069.61538420, 4047.17948677, 4058.84615343, 4030.25640977, 4134.48717921, 4078.20512786, 4089.61538427, 4123.07692280, 4145.12820492,12.0
4116.79487152, 4120.38461511, 4139.23076903, 4073.97435863, 4130.12820485, 4078.84615350, 4061.28205087, 4067.43589702, 4034.23076875, 4134.48717921, 4069.10256369, 4088.33333299, 4124.35897408, 4145.25641005,12.0
4121.79487152, 4126.79487152, 4144.10256390, 4077.56410222, 4126.41025614, 4080.89743555, 4062.56410215, 4069.10256369, 4042.94871754, 4134.48717921, 4078.33333299, 4097.30769196, 4126.79487152, 4141.02564082,12.0
4117.05128178, 4129.61538434, 4147.17948697, 4079.99999966, 4126.79487152, 4068.46153805, 4046.79487138, 4067.82051241, 4045.76923036, 4134.48717921, 4086.92307658, 4103.58974332, 4123.58974332, 4142.43589723,12.0
4119.87179460, 4137.43589723, 4150.64102544, 4088.97435863, 4127.05128178, 4064.87179446, 4042.94871754, 4070.38461504, 4041.79487138, 4134.48717921, 4083.07692273, 4110.38461511, 4125.76923050, 4146.28205108,12.0
4121.15384588, 4135.64102544, 4147.17948697, 4094.23076889, 4125.76923050, 4071.41025607, 4046.15384574, 4070.25640991, 4036.53846106, 4134.48717921, 4081.41025607, 4108.84615357, 4130.25640998, 4144.61538441,12.0
4121.66666639, 4122.43589716, 4136.53846133, 4076.15384581, 4128.20512793, 4069.87179453, 4046.15384574, 4070.38461504, 4039.23076882, 4134.48717921, 4079.23076889, 4093.58974325, 4128.46153819, 4144.74358954,12.0
4122.56410229, 4128.07692280, 4136.79487159, 4070.38461504, 4129.99999973, 4064.61538420, 4045.64102523, 4064.99999959, 4039.61538420, 4134.48717921, 4078.84615350, 4091.66666632, 4127.17948691, 4144.48717928,12.0
4121.53846126, 4135.89743569, 4144.23076903, 4085.76923043, 4127.94871767, 4066.28205087, 4044.74358933, 4059.61538420, 4035.89743541, 4134.48717921, 4090.25640991, 4107.05128178, 4126.41025614, 4144.87179467,12.0
4127.05128178, 4123.71794844, 4146.28205108, 4090.12820478, 4124.74358947, 4064.61538420, 4043.97435856, 4066.28205087, 4041.79487138, 4134.48717921, 4100.89743555, 4115.12820485, 4127.69230742, 4146.79487159,12.0
4121.66666639, 4123.33333306, 4149.23076903, 4074.74358940, 4124.61538434, 4061.41025600, 4051.02564061, 4077.56410222, 4050.25640984, 4134.48717921, 4099.23076889, 4121.79487152, 4128.97435870, 4145.38461518,12.0
4120.38461511, 4133.97435870, 4152.82051262, 4064.23076882, 4124.74358947, 4065.25640984, 4059.87179446, 4078.07692273, 4048.46153805, 4134.48717921, 4097.30769196, 4131.66666639, 4128.71794844, 4145.89743569,12.0
4125.76923050, 4124.87179460, 4147.94871774, 4073.97435863, 4126.28205101, 4069.99999966, 4060.12820472, 4068.20512779, 4042.94871754, 4134.48717921, 4097.17948684, 4124.99999973, 4127.94871767, 4149.23076903,12.0
4117.94871767, 4122.17948691, 4141.53846133, 4069.23076882, 4129.10256383, 4066.53846113, 4060.89743548, 4066.41025600, 4036.53846106, 4134.48717921, 4094.74358940, 4110.12820485, 4125.64102537, 4149.35897415,12.0
4119.10256383, 4132.30769203, 4137.05128185, 4045.76923036, 4126.02564075, 4062.82051241, 4063.20512779, 4068.71794830, 4026.66666618, 4134.48717921, 4087.94871761, 4099.87179453, 4127.05128178, 4147.30769210,12.0
4119.61538434, 4124.48717921, 4127.05128178, 4044.87179446, 4124.35897408, 4058.97435856, 4059.48717907, 4062.43589702, 4020.89743541, 4134.48717921, 4077.17948684, 4082.43589709, 4126.28205101, 4145.64102544,12.0
4115.89743562, 4113.33333306, 4123.84615357, 4062.69230728, 4125.89743562, 4055.76923036, 4061.28205087, 4064.35897395, 4029.10256362, 4134.48717921, 4083.33333299, 4079.99999966, 4125.12820485, 4147.17948697,12.0
4120.76923050, 4120.76923050, 4136.79487159, 4065.25640984, 4124.74358947, 4067.56410215, 4076.41025607, 4091.02564068, 4056.53846113, 4134.48717921, 4097.69230735, 4108.33333306, 4127.69230742, 4145.76923056,12.0
4120.12820485, 4132.43589716, 4145.12820492, 4067.56410215, 4125.25640998, 4076.92307658, 4084.35897402, 4111.92307665, 4077.30769196, 4134.48717921, 4096.15384581, 4120.89743562, 4124.74358947, 4141.15384595,12.0
4122.82051255, 4138.97435877, 4145.12820492, 4078.07692273, 4124.61538434, 4069.10256369, 4077.82051248, 4104.61538434, 4070.12820478, 4134.48717921, 4097.17948684, 4111.66666639, 4122.69230742, 4141.79487159,12.0
4123.20512793, 4132.69230742, 4146.02564082, 4074.23076889, 4124.35897408, 4064.61538420, 4077.56410222, 4099.74358940, 4063.84615343, 4134.48717921, 4103.07692280, 4115.12820485, 4123.71794844, 4143.46153826,12.0
4119.74358947, 4126.92307665, 4144.74358954, 4072.30769196, 4125.89743562, 4072.69230735, 4084.35897402, 4105.89743562, 4071.02564068, 4134.48717921, 4102.56410229, 4121.79487152, 4125.25640998, 4143.97435877,12.0
4124.23076896, 4136.15384595, 4139.23076903, 4070.89743555, 4125.64102537, 4079.23076889, 4088.58974325, 4104.48717921, 4066.79487138, 4134.48717921, 4097.94871761, 4112.30769203, 4127.82051255, 4145.64102544,12.0
4123.46153819, 4131.79487152, 4129.35897408, 4051.41025600, 4126.92307665, 4079.61538427, 4092.94871761, 4106.79487152, 4054.48717907, 4134.48717921, 4084.23076889, 4096.02564068, 4125.38461511, 4148.20512800,12.0
4124.23076896, 4113.97435870, 4126.79487152, 4042.05128164, 4126.53846126, 4077.17948684, 4088.84615350, 4105.51282024, 4052.17948677, 4134.48717921, 4079.35897402, 4093.84615350, 4123.84615357, 4149.61538441,12.0
4121.66666639, 4113.84615357, 4133.84615357, 4046.28205087, 4123.58974332, 4065.76923036, 4069.99999966, 4088.07692273, 4048.33333292, 4134.48717921, 4099.23076889, 4103.46153819, 4127.56410229, 4147.69230749,12.0
4118.97435870, 4124.61538434, 4130.89743562, 4044.87179446, 4124.48717921, 4055.38461497, 4057.56410215, 4079.87179453, 4039.74358933, 4134.48717921, 4106.41025614, 4099.10256376, 4129.87179460, 4148.71794851,12.0
4126.79487152, 4117.30769203, 4115.25640998, 4042.05128164, 4128.07692280, 4056.53846113, 4059.35897395, 4079.23076889, 4036.92307651, 4134.48717921, 4092.43589709, 4075.38461504, 4128.33333306, 4147.94871774,12.0
4121.28205101, 4100.76923043, 4103.07692280, 4029.99999952, 4128.46153819, 4053.84615343, 4055.51282010, 4071.02564068, 4032.56410208, 4134.48717921, 4085.64102530, 4057.43589702, 4124.23076896, 4143.84615364,12.0
4118.84615357, 4100.64102530, 4100.89743555, 4009.35897388, 4123.20512793, 4044.48717907, 4041.41025600, 4061.02564061, 4021.79487131, 4134.48717921, 4088.46153812, 4051.15384574, 4126.28205101, 4145.89743569,12.0
4123.33333306, 4108.97435870, 4107.17948691, 4012.82051234, 4122.56410229, 4046.79487138, 4042.82051241, 4060.38461497, 4021.41025593, 4134.48717921, 4092.05128171, 4056.28205087, 4128.58974332, 4146.15384595,12.0
4118.33333306, 4110.64102537, 4115.76923050, 4029.48717900, 4127.43589716, 4055.76923036, 4058.58974318, 4074.35897402, 4036.66666618, 4134.48717921, 4094.99999966, 4071.15384581, 4126.15384588, 4142.94871774,12.0
4121.41025614, 4106.28205101, 4112.17948691, 4029.35897388, 4126.41025614, 4053.20512779, 4059.48717907, 4078.97435863, 4038.84615343, 4134.48717921, 4092.30769196, 4069.23076882, 4126.92307665, 4143.07692287,12.0
4120.76923050, 4096.66666632, 4098.71794837, 4024.35897388, 4124.87179460, 4041.79487138, 4046.02564061, 4062.05128164, 4014.87179439, 4134.48717921, 4084.61538427, 4050.38461497, 4125.25640998, 4144.10256390,12.0
4120.25640998, 4090.25640991, 4093.33333299, 4016.02564054, 4123.46153819, 4030.25640977, 4034.48717900, 4047.05128164, 3991.15384560, 4134.48717921, 4083.97435863, 4033.20512772, 4123.46153819, 4143.84615364,12.0
4126.41025614, 4093.46153812, 4093.84615350, 4001.79487124, 4122.30769203, 4024.61538413, 4035.89743541, 4046.66666625, 3987.43589688, 4134.48717921, 4085.12820478, 4025.12820465, 4126.53846126, 4141.92307672,12.0
4122.43589716, 4096.28205094, 4094.99999966, 4001.53846099, 4127.56410229, 4029.74358926, 4050.76923036, 4052.56410215, 3992.82051227, 4134.48717921, 4081.79487145, 4036.53846106, 4128.97435870, 4145.51282031,12.0
4124.23076896, 4099.74358940, 4097.17948684, 4010.51282003, 4128.58974332, 4037.17948677, 4059.61538420, 4056.92307651, 3993.84615329, 4134.48717921, 4088.33333299, 4045.76923036, 4128.46153819, 4148.97435877,12.0
4126.79487152, 4104.48717921, 4094.61538427, 4007.43589695, 4125.12820485, 4036.02564054, 4057.69230728, 4064.61538420, 3998.97435842, 4134.48717921, 4097.05128171, 4036.15384567, 4124.61538434, 4146.92307672,12.0
4122.43589716, 4106.41025614, 4094.48717914, 3999.61538406, 4122.82051255, 4036.41025593, 4059.99999959, 4072.05128171, 4008.33333285, 4134.48717921, 4090.64102530, 4036.02564054, 4126.79487152, 4148.71794851,12.0
4122.05128178, 4110.38461511, 4098.20512786, 3996.15384560, 4124.48717921, 4040.12820472, 4058.58974318, 4063.07692266, 4006.66666618, 4134.48717921, 4081.02564068, 4039.61538420, 4128.97435870, 4149.61538441,12.0
4116.92307665, 4100.12820478, 4087.30769196, 3987.30769176, 4127.17948691, 4028.71794824, 4040.89743548, 4047.94871754, 3999.61538406, 4134.99999973, 4082.43589709, 4019.99999952, 4126.53846126, 4147.69230749,12.0
4119.61538434, 4093.07692273, 4083.20512786, 3989.10256355, 4124.23076896, 4020.38461490, 4042.43589702, 4057.94871754, 4005.25640977, 4134.99999973, 4087.56410222, 4017.56410208, 4128.33333306, 4147.30769210,12.0
4120.89743562, 4116.66666639, 4097.56410222, 4009.35897388, 4123.97435870, 4037.17948677, 4065.89743548, 4078.84615350, 4013.07692259, 4133.46153819, 4091.92307658, 4042.17948677, 4125.38461511, 4145.51282031,12.0
4113.71794844, 4123.97435870, 4093.84615350, 4011.79487131, 4126.41025614, 4038.33333292, 4055.12820472, 4068.84615343, 4005.89743541, 4134.87179460, 4091.28205094, 4039.35897395, 4125.38461511, 4145.64102544,12.0
4121.79487152, 4100.25640991, 4080.89743555, 3998.07692252, 4126.15384588, 4013.33333285, 4024.87179439, 4050.38461497, 3998.33333278, 4135.76923056, 4080.64102530, 4019.23076875, 4125.76923050, 4146.28205108,12.0
4118.97435870, 4106.41025614, 4085.12820478, 4001.92307637, 4122.43589716, 4011.92307644, 4029.35897388, 4059.10256369, 4001.41025586, 4125.51282024, 4080.64102530, 4025.76923029, 4123.46153819, 4145.89743569,12.0
4115.25640998, 4130.64102537, 4095.64102530, 4010.51282003, 4121.15384588, 4030.51282003, 4049.87179446, 4073.20512786, 4016.28205080, 4119.87179460, 4096.79487145, 4041.15384574, 4129.10256383, 4145.64102544,12.0
4123.20512793, 4119.35897408, 4102.82051255, 4008.07692259, 4128.33333306, 4030.38461490, 4052.05128164, 4074.74358940, 4029.87179439, 4131.28205101, 4099.87179453, 4047.82051241, 4126.41025614, 4143.33333313,12.0
4119.74358947, 4114.48717921, 4106.53846126, 4021.41025593, 4126.28205101, 4027.43589695, 4050.89743548, 4077.43589709, 4027.69230721, 4138.97435877, 4098.07692273, 4059.10256369, 4122.56410229, 4143.97435877,12.0
4123.20512793, 4139.87179467, 4109.48717921, 4044.35897395, 4119.74358947, 4037.94871754, 4054.23076882, 4076.92307658, 4023.33333285, 4134.10256383, 4101.15384581, 4069.35897395, 4125.89743562, 4142.82051262,12.0
4123.07692280, 4137.17948697, 4105.64102537, 4041.02564061, 4122.82051255, 4041.53846113, 4054.10256369, 4070.51282017, 4030.12820465, 4133.33333306, 4100.89743555, 4065.12820472, 4124.87179460, 4142.05128185,12.0
4120.25640998, 4121.79487152, 4101.15384581, 4031.79487131, 4124.99999973, 4041.66666625, 4059.87179446, 4075.25640991, 4039.35897395, 4138.07692287, 4102.30769196, 4062.82051241, 4127.69230742, 4143.33333313,12.0
4126.53846126, 4134.74358947, 4104.99999973, 4035.12820465, 4123.71794844, 4045.76923036, 4063.84615343, 4081.02564068, 4037.30769189, 4134.87179460, 4098.58974325, 4065.89743548, 4128.20512793, 4142.94871774,12.0
4121.53846126, 4145.89743569, 4104.61538434, 4035.89743541, 4123.97435870, 4041.28205087, 4057.82051241, 4074.35897402, 4026.79487131, 4129.61538434, 4094.99999966, 4063.71794830, 4126.28205101, 4147.94871774,12.0
4123.97435870, 4136.79487159, 4098.20512786, 4037.69230728, 4124.48717921, 4034.61538413, 4052.43589702, 4064.48717907, 4019.48717900, 4128.33333306, 4103.07692280, 4057.69230728, 4127.94871767, 4146.15384595,12.0
4121.92307665, 4124.99999973, 4090.25640991, 4038.33333292, 4124.35897408, 4030.51282003, 4043.71794830, 4060.38461497, 4014.23076875, 4129.48717921, 4099.61538427, 4044.61538420, 4128.07692280, 4139.48717928,12.0
4113.20512793, 4126.15384588, 4084.99999966, 4030.64102516, 4121.53846126, 4028.58974311, 4035.51282003, 4059.23076882, 4004.87179439, 4132.30769203, 4087.43589709, 4033.84615336, 4130.64102537, 4141.53846133,12.0
4118.33333306, 4132.69230742, 4087.30769196, 4026.28205080, 4123.07692280, 4031.28205080, 4039.10256369, 4055.89743548, 4002.05128150, 4134.74358947, 4088.46153812, 4040.89743548, 4127.69230742, 4145.25641005,12.0
4115.12820485, 4131.92307665, 4088.71794837, 4034.10256362, 4125.12820485, 4029.35897388, 4041.79487138, 4052.30769189, 4012.43589695, 4134.74358947, 4099.61538427, 4056.41025600, 4125.12820485, 4147.69230749,12.0
4119.23076896, 4137.30769210, 4089.61538427, 4041.02564061, 4124.48717921, 4022.69230721, 4035.64102516, 4046.41025600, 4012.94871747, 4133.07692280, 4103.33333306, 4059.87179446, 4131.66666639, 4142.30769210,12.0
4123.84615357, 4141.66666646, 4095.89743555, 4039.61538420, 4129.10256383, 4027.69230721, 4039.74358933, 4051.28205087, 4009.74358926, 4133.58974332, 4098.07692273, 4057.82051241, 4131.15384588, 4140.38461518,12.0
4118.33333306, 4132.30769203, 4099.23076889, 4037.17948677, 4128.71794844, 4040.51282010, 4050.38461497, 4065.64102523, 4018.97435849, 4134.61538434, 4093.20512786, 4062.30769189, 4127.94871767, 4149.35897415,12.0
4123.46153819, 4126.41025614, 4092.43589709, 4033.20512772, 4124.61538434, 4042.82051241, 4047.05128164, 4064.61538420, 4021.41025593, 4134.35897408, 4089.87179453, 4058.46153805, 4127.56410229, 4147.69230749,12.0
4122.17948691, 4126.28205101, 4083.20512786, 4033.46153798, 4125.38461511, 4035.89743541, 4042.82051241, 4058.33333292, 4011.79487131, 4134.48717921, 4090.38461504, 4046.28205087, 4128.33333306, 4141.41025621,12.0
4121.53846126, 4122.94871767, 4080.89743555, 4033.97435849, 4124.74358947, 4031.41025593, 4045.51282010, 4059.10256369, 4012.94871747, 4134.35897408, 4094.74358940, 4043.07692266, 4128.33333306, 4146.15384595,12.0
4122.30769203, 4117.56410229, 4079.87179453, 4021.41025593, 4124.48717921, 4029.23076875, 4041.41025600, 4053.20512779, 4021.41025593, 4134.48717921, 4096.66666632, 4044.74358933, 4124.74358947, 4149.10256390,12.0
4120.76923050, 4117.56410229, 4080.89743555, 4022.05128157, 4124.10256383, 4029.61538413, 4040.89743548, 4049.35897395, 4016.79487131, 4134.35897408, 4098.07692273, 4045.38461497, 4124.99999973, 4148.33333313,12.0
4124.74358947, 4113.33333306, 4082.05128171, 4029.99999952, 4122.82051255, 4027.05128157, 4043.97435856, 4049.61538420, 4003.20512765, 4134.35897408, 4098.58974325, 4040.12820472, 4128.33333306, 4147.69230749,12.0
4121.79487152, 4112.30769203, 4078.20512786, 4021.66666618, 4123.84615357, 4021.66666618, 4037.05128164, 4040.89743548, 3999.87179432, 4134.35897408, 4097.30769196, 4036.28205080, 4129.23076896, 4147.69230749,12.0
4124.10256383, 4127.43589716, 4082.43589709, 4026.02564054, 4124.61538434, 4033.20512772, 4040.38461497, 4039.61538420, 4012.17948670, 4134.35897408, 4101.28205094, 4052.17948677, 4128.46153819, 4148.07692287,12.0
4120.64102537, 4121.53846126, 4087.05128171, 4039.10256369, 4123.84615357, 4045.89743548, 4054.48717907, 4054.87179446, 4020.12820465, 4134.35897408, 4109.48717921, 4064.87179446, 4125.38461511, 4146.66666646,12.0
4113.71794844, 4107.69230742, 4078.84615350, 4031.92307644, 4124.74358947, 4037.94871754, 4047.05128164, 4055.89743548, 4019.23076875, 4134.35897408, 4114.23076896, 4049.87179446, 4125.38461511, 4146.41025621,12.0
4122.17948691, 4110.25640998, 4071.28205094, 4022.94871747, 4124.48717921, 4034.74358926, 4038.97435856, 4042.05128164, 4016.92307644, 4134.35897408, 4112.17948691, 4035.38461490, 4127.17948691, 4146.92307672,12.0
4118.97435870, 4103.97435870, 4074.23076889, 4018.84615336, 4124.87179460, 4042.43589702, 4055.25640984, 4048.58974318, 4021.15384567, 4134.35897408, 4113.20512793, 4041.28205087, 4124.74358947, 4146.41025621,12.0
4117.05128178, 4102.17948684, 4083.20512786, 4014.48717900, 4124.61538434, 4043.07692266, 4059.10256369, 4064.87179446, 4032.69230721, 4134.35897408, 4122.05128178, 4051.15384574, 4123.97435870, 4144.23076903,12.0
4118.84615357, 4120.51282024, 4085.64102530, 4020.51282003, 4123.97435870, 4040.12820472, 4050.12820472, 4064.23076882, 4036.53846106, 4134.35897408, 4125.12820485, 4051.66666625, 4126.02564075, 4142.30769210,12.0
4116.28205101, 4124.61538434, 4079.99999966, 4029.23076875, 4125.51282024, 4040.12820472, 4051.15384574, 4052.69230728, 4025.51282003, 4134.35897408, 4118.58974332, 4043.33333292, 4125.25640998, 4145.64102544,12.0
4122.30769203, 4111.53846126, 4073.71794837, 4029.35897388, 4124.10256383, 4038.46153805, 4045.38461497, 4039.35897395, 4016.66666618, 4134.48717921, 4115.64102537, 4036.15384567, 4125.25640998, 4146.66666646,12.0
4118.46153819, 4115.51282024, 4074.23076889, 4020.51282003, 4122.17948691, 4039.35897395, 4045.12820472, 4042.56410215, 4024.10256362, 4134.99999973, 4121.92307665, 4040.12820472, 4125.38461511, 4143.71794851,12.0
4120.38461511, 4123.33333306, 4081.02564068, 4013.71794824, 4123.58974332, 4046.15384574, 4062.69230728, 4062.43589702, 4038.07692266, 4134.61538434, 4128.33333306, 4046.79487138, 4126.41025614, 4146.53846133,12.0
4125.76923050, 4115.76923050, 4081.28205094, 4018.20512772, 4125.25640998, 4047.69230728, 4063.58974318, 4061.92307651, 4047.94871754, 4133.20512793, 4127.94871767, 4046.41025600, 4128.97435870, 4148.71794851,12.0
4121.02564075, 4106.41025614, 4075.25640991, 4020.12820465, 4126.66666639, 4042.82051241, 4050.76923036, 4048.46153805, 4041.92307651, 4135.64102544, 4124.61538434, 4040.51282010, 4126.41025614, 4144.99999980,12.0
4123.71794844, 4108.97435870, 4081.53846119, 4019.48717900, 4124.99999973, 4046.92307651, 4060.38461497, 4064.74358933, 4038.07692266, 4134.61538434, 4123.33333306, 4043.33333292, 4122.43589716, 4144.61538441,12.0
4119.87179460, 4112.56410229, 4085.64102530, 4021.92307644, 4124.87179460, 4049.23076882, 4066.92307651, 4083.33333299, 4051.79487138, 4123.71794844, 4123.33333306, 4048.46153805, 4122.94871767, 4146.66666646,12.0
4120.25640998, 4107.69230742, 4072.69230735, 4014.48717900, 4127.43589716, 4040.64102523, 4053.84615343, 4070.51282017, 4055.12820472, 4123.46153819, 4124.74358947, 4036.15384567, 4126.92307665, 4145.64102544,12.0
4123.20512793, 4103.71794844, 4066.53846113, 4006.41025593, 4125.12820485, 4044.35897395, 4063.58974318, 4063.84615343, 4051.79487138, 4134.87179460, 4128.46153819, 4029.74358926, 4127.69230742, 4145.64102544,12.0
4116.15384588, 4107.94871767, 4076.53846119, 4018.84615336, 4121.53846126, 4059.10256369, 4081.28205094, 4078.97435863, 4059.48717907, 4135.25640998, 4131.53846126, 4047.30769189, 4124.35897408, 4148.33333313,12.0
4121.79487152, 4116.66666639, 4080.76923043, 4030.25640977, 4121.28205101, 4056.53846113, 4069.35897395, 4075.38461504, 4056.92307651, 4130.25640998, 4134.87179460, 4053.07692266, 4125.38461511, 4147.43589723,12.0
4119.10256383, 4115.89743562, 4078.58974325, 4029.23076875, 4123.33333306, 4049.10256369, 4064.99999959, 4060.51282010, 4045.12820472, 4133.20512793, 4134.10256383, 4045.38461497, 4125.51282024, 4143.20512800,12.0
4113.07692280, 4109.10256383, 4080.76923043, 4032.69230721, 4124.10256383, 4057.05128164, 4080.38461504, 4062.69230728, 4049.35897395, 4135.12820485, 4131.41025614, 4048.33333292, 4124.87179460, 4144.23076903,12.0
4122.56410229, 4109.61538434, 4076.28205094, 4035.51282003, 4122.30769203, 4057.30769189, 4072.94871761, 4062.94871754, 4051.79487138, 4133.97435870, 4133.71794844, 4041.92307651, 4127.43589716, 4144.87179467,12.0
4123.58974332, 4118.97435870, 4072.17948684, 4033.20512772, 4122.30769203, 4049.48717907, 4065.64102523, 4069.99999966, 4049.48717907, 4135.12820485, 4131.02564075, 4038.84615343, 4125.76923050, 4143.33333313,12.0
4126.66666639, 4122.56410229, 4081.92307658, 4037.30769189, 4124.61538434, 4056.02564061, 4081.66666632, 4085.38461504, 4059.10256369, 4133.97435870, 4130.89743562, 4053.84615343, 4125.12820485, 4146.79487159,12.0
4125.89743562, 4112.94871767, 4079.87179453, 4045.25640984, 4124.99999973, 4063.58974318, 4079.23076889, 4085.12820478, 4069.48717907, 4132.69230742, 4142.30769210, 4055.51282010, 4128.20512793, 4148.58974339,12.0
4118.71794844, 4118.58974332, 4076.15384581, 4037.30769189, 4122.05128178, 4064.23076882, 4075.51282017, 4087.30769196, 4081.53846119, 4134.99999973, 4147.94871774, 4054.10256369, 4128.97435870, 4147.17948697,12.0
4123.33333306, 4132.30769203, 4085.64102530, 4032.69230721, 4121.02564075, 4070.12820478, 4091.02564068, 4092.05128171, 4088.46153812, 4135.89743569, 4143.58974339, 4064.10256369, 4127.82051255, 4146.79487159,12.0
4121.92307665, 4121.79487152, 4080.51282017, 4052.05128164, 4122.69230742, 4070.89743555, 4088.33333299, 4088.07692273, 4077.43589709, 4135.12820485, 4143.07692287, 4057.17948677, 4125.64102537, 4145.76923056,12.0
4123.71794844, 4106.15384588, 4067.69230728, 4052.05128164, 4121.15384588, 4064.61538420, 4081.02564068, 4089.23076889, 4072.94871761, 4134.35897408, 4146.53846133, 4046.02564061, 4125.51282024, 4146.41025621,12.0
4123.20512793, 4105.12820485, 4070.38461504, 4018.58974311, 4120.64102537, 4066.28205087, 4092.94871761, 4091.53846119, 4077.82051248, 4134.48717921, 4141.53846133, 4048.97435856, 4127.43589716, 4148.07692287,12.0
4114.10256383, 4102.82051255, 4068.07692266, 4004.23076875, 4123.46153819, 4065.76923036, 4086.02564068, 4076.15384581, 4069.48717907, 4134.61538434, 4137.69230749, 4040.25640984, 4127.69230742, 4148.58974339,12.0
4119.99999973, 4105.76923050, 4065.12820472, 4009.35897388, 4123.46153819, 4063.71794830, 4074.10256376, 4069.35897395, 4067.69230728, 4134.48717921, 4142.94871774, 4039.87179446, 4128.97435870, 4145.38461518,12.0
4118.58974332, 4110.76923050, 4071.92307658, 4007.69230721, 4123.58974332, 4068.58974318, 4090.51282017, 4086.92307658, 4082.05128171, 4134.48717921, 4147.43589723, 4056.79487138, 4129.74358947, 4142.17948697,12.0
4117.43589716, 4109.48717921, 4073.58974325, 4018.84615336, 4124.87179460, 4070.38461504, 4095.25640991, 4091.92307658, 4086.41025607, 4134.48717921, 4148.97435877, 4056.79487138, 4129.48717921, 4143.71794851,12.0
4122.94871767, 4117.82051255, 4078.84615350, 4039.35897395, 4123.97435870, 4074.23076889, 4089.10256376, 4089.10256376, 4087.30769196, 4134.48717921, 4152.94871774, 4057.30769189, 4129.61538434, 4144.10256390,12.0
4119.23076896, 4130.51282024, 4090.25640991, 4037.43589702, 4123.33333306, 4084.61538427, 4104.48717921, 4096.79487145, 4093.33333299, 4134.48717921, 4166.92307672, 4075.51282017, 4126.92307665, 4143.84615364,12.0
4123.07692280, 4123.58974332, 4090.25640991, 4026.02564054, 4121.15384588, 4084.74358940, 4110.25640998, 4095.64102530, 4094.23076889, 4134.48717921, 4179.48717935, 4080.12820478, 4127.43589716, 4145.25641005,12.0
4120.89743562, 4103.20512793, 4081.66666632, 4032.30769183, 4121.15384588, 4071.15384581, 4091.92307658, 4087.94871761, 4091.92307658, 4134.48717921, 4173.97435884, 4065.12820472, 4130.25640998, 4143.84615364,12.0
4121.92307665, 4114.87179460, 4084.99999966, 4040.51282010, 4124.74358947, 4077.30769196, 4098.20512786, 4096.02564068, 4097.17948684, 4134.48717921, 4172.56410243, 4069.74358940, 4128.97435870, 4145.12820492,12.0
4128.33333306, 4131.28205101, 4089.48717914, 4028.71794824, 4123.84615357, 4096.02564068, 4128.07692280, 4106.92307665, 4106.41025614, 4134.48717921, 4187.05128192, 4084.35897402, 4127.69230742, 4149.35897415,12.0
4121.02564075, 4101.15384581, 4076.41025607, 4010.89743541, 4120.64102537, 4085.12820478, 4119.87179460, 4100.89743555, 4105.89743562, 4134.48717921, 4189.10256397, 4067.05128164, 4127.56410229, 4148.58974339,12.0
4122.30769203, 4082.56410222, 4063.97435856, 4012.56410208, 4120.51282024, 4069.48717907, 4086.79487145, 4084.35897402, 4091.41025607, 4134.48717921, 4177.82051269, 4042.17948677, 4128.46153819, 4146.66666646,12.0
4122.30769203, 4109.99999973, 4074.10256376, 4033.20512772, 4122.43589716, 4080.76923043, 4091.92307658, 4083.97435863, 4086.02564068, 4134.48717921, 4176.92307679, 4058.71794830, 4128.84615357, 4148.46153826,12.0
4121.02564075, 4123.58974332, 4089.35897402, 4038.33333292, 4122.43589716, 4086.66666632, 4113.71794844, 4094.99999966, 4097.05128171, 4134.48717921, 4182.30769217, 4083.84615350, 4129.35897408, 4148.58974339,12.0
4123.84615357, 4101.92307658, 4074.99999966, 4023.71794824, 4120.25640998, 4067.94871754, 4094.10256376, 4082.30769196, 4091.41025607, 4134.48717921, 4174.87179474, 4059.35897395, 4128.97435870, 4146.28205108,12.0
4114.48717921, 4099.10256376, 4058.07692266, 4026.41025593, 4121.79487152, 4062.82051241, 4072.94871761, 4074.74358940, 4079.61538427, 4134.48717921, 4166.53846133, 4034.87179439, 4127.56410229, 4147.69230749,12.0
4116.53846126, 4113.71794844, 4070.25640991, 4042.43589702, 4123.71794844, 4079.87179453, 4098.07692273, 4092.30769196, 4093.20512786, 4134.48717921, 4173.07692294, 4056.53846113, 4129.48717921, 4147.56410236,12.0
4120.25640998, 4104.61538434, 4075.64102530, 4035.51282003, 4121.92307665, 4081.02564068, 4110.38461511, 4096.92307658, 4102.43589709, 4134.48717921, 4177.43589730, 4064.87179446, 4128.33333306, 4141.02564082,12.0
4116.41025614, 4095.64102530, 4068.71794830, 4023.46153798, 4120.76923050, 4072.94871761, 4093.58974325, 4090.51282017, 4092.43589709, 4134.48717921, 4172.56410243, 4045.51282010, 4126.15384588, 4142.17948697,12.0
4119.99999973, 4103.84615357, 4073.46153812, 4028.97435849, 4121.66666639, 4077.82051248, 4096.41025607, 4092.69230735, 4086.79487145, 4134.48717921, 4171.28205115, 4045.25640984, 4127.05128178, 4145.76923056,12.0
4117.17948691, 4106.92307665, 4076.53846119, 4034.74358926, 4122.17948691, 4082.17948684, 4101.41025607, 4089.61538427, 4090.51282017, 4134.48717921, 4173.97435884, 4055.51282010, 4125.76923050, 4142.30769210,12.0
4120.76923050, 4116.92307665, 4082.94871761, 4052.69230728, 4120.76923050, 4085.51282017, 4106.92307665, 4095.12820478, 4102.94871767, 4134.48717921, 4177.82051269, 4067.30769189, 4127.30769203, 4142.43589723,12.0
4123.20512793, 4129.87179460, 4091.41025607, 4066.79487138, 4123.20512793, 4087.94871761, 4123.33333306, 4114.35897408, 4116.02564075, 4134.48717921, 4181.53846140, 4077.43589709, 4129.99999973, 4144.35897415,12.0
4120.38461511, 4117.69230742, 4075.89743555, 4053.46153805, 4124.61538434, 4074.74358940, 4105.76923050, 4101.53846119, 4108.33333306, 4134.48717921, 4178.33333320, 4061.53846113, 4128.46153819, 4146.02564082,12.0
4126.53846126, 4106.53846126, 4065.64102523, 4050.64102523, 4122.05128178, 4076.53846119, 4084.48717914, 4080.64102530, 4097.94871761, 4134.48717921, 4174.35897422, 4052.82051241, 4127.17948691, 4147.69230749,12.0
4122.94871767, 4111.15384588, 4077.82051248, 4057.82051241, 4122.82051255, 4098.84615350, 4110.25640998, 4098.58974325, 4108.71794844, 4134.48717921, 4181.15384602, 4071.15384581, 4127.05128178, 4146.28205108,12.0
4123.33333306, 4113.84615357, 4077.43589709, 4053.33333292, 4121.92307665, 4088.71794837, 4116.41025614, 4106.66666639, 4110.64102537, 4134.48717921, 4182.17948704, 4068.46153805, 4129.87179460, 4147.30769210,12.0
4123.07692280, 4118.33333306, 4065.51282010, 4042.56410215, 4120.89743562, 4066.28205087, 4081.66666632, 4077.94871761, 4092.17948684, 4134.48717921, 4174.10256397, 4047.43589702, 4131.92307665, 4148.58974339,12.0
4116.92307665, 4121.79487152, 4068.07692266, 4019.35897388, 4124.48717921, 4076.15384581, 4083.07692273, 4070.38461504, 4087.17948684, 4134.48717921, 4177.05128192, 4047.30769189, 4129.99999973, 4147.17948697,12.0
4123.46153819, 4109.48717921, 4074.87179453, 3991.53846099, 4124.10256383, 4079.87179453, 4099.74358940, 4088.58974325, 4099.61538427, 4134.48717921, 4187.56410243, 4056.66666625, 4127.69230742, 4145.25641005,12.0
4117.05128178, 4096.15384581, 4068.07692266, 3982.69230714, 4121.53846126, 4061.53846113, 4084.99999966, 4089.48717914, 4101.53846119, 4134.48717921, 4191.92307679, 4053.33333292, 4125.25640998, 4147.05128185,12.0
4114.48717921, 4102.94871767, 4063.07692266, 3982.05128150, 4122.43589716, 4066.02564061, 4083.97435863, 4086.92307658, 4097.56410222, 4134.48717921, 4189.87179474, 4047.30769189, 4125.76923050, 4146.15384595,12.0
4122.17948691, 4101.92307658, 4065.76923036, 3979.23076868, 4123.84615357, 4080.51282017, 4101.41025607, 4098.20512786, 4110.64102537, 4134.48717921, 4191.41025628, 4051.79487138, 4127.17948691, 4140.76923056,12.0
4117.69230742, 4096.28205094, 4077.82051248, 3993.33333278, 4122.94871767, 4082.82051248, 4116.66666639, 4118.84615357, 4131.28205101, 4134.48717921, 4227.69230763, 4069.61538420, 4125.51282024, 4142.94871774,12.0
4121.41025614, 4114.61538434, 4090.89743555, 4005.38461490, 4122.17948691, 4086.02564068, 4121.28205101, 4125.38461511, 4133.20512793, 4134.48717921, 4283.07692315, 4079.23076889, 4127.05128178, 4146.53846133,12.0
4122.43589716, 4121.02564075, 4088.46153812, 4004.10256362, 4123.46153819, 4078.97435863, 4094.61538427, 4100.25640991, 4118.58974332, 4134.48717921, 4297.82051289, 4069.23076882, 4128.58974332, 4144.74358954,12.0
4122.05128178, 4115.25640998, 4091.53846119, 4020.12820465, 4123.07692280, 4072.69230735, 4077.05128171, 4079.10256376, 4113.58974332, 4134.48717921, 4286.15384623, 4073.20512786, 4127.43589716, 4144.10256390,12.0
4125.89743562, 4128.33333306, 4111.15384588, 4036.66666618, 4121.53846126, 4092.94871761, 4115.12820485, 4095.12820478, 4128.46153819, 4134.48717921, 4295.51282059, 4103.46153819, 4125.38461511, 4145.64102544,12.0
4122.43589716, 4129.23076896, 4109.23076896, 4019.74358926, 4122.17948691, 4104.99999973, 4132.69230742, 4111.53846126, 4136.28205108, 4134.48717921, 4298.20512828, 4108.46153819, 4125.38461511, 4147.43589723,12.0
4126.41025614, 4108.84615357, 4086.02564068, 3999.99999945, 4121.66666639, 4088.33333299, 4087.94871761, 4089.35897402, 4114.74358947, 4134.48717921, 4275.38461546, 4075.76923043, 4128.97435870, 4144.74358954,12.0
4122.56410229, 4109.48717921, 4082.82051248, 4012.69230721, 4121.28205101, 4083.33333299, 4089.10256376, 4076.53846119, 4105.89743562, 4134.48717921, 4261.28205129, 4070.25640991, 4128.33333306, 4141.79487159,12.0
4118.84615357, 4121.79487152, 4096.02564068, 4022.69230721, 4121.41025614, 4093.97435863, 4132.82051255, 4100.76923043, 4126.92307665, 4134.48717921, 4260.51282052, 4093.97435863, 4126.41025614, 4145.64102544,12.0
4125.89743562, 4106.79487152, 4091.79487145, 4003.58974304, 4121.66666639, 4086.15384581, 4118.33333306, 4106.79487152, 4128.07692280, 4134.48717921, 4250.51282052, 4082.05128171, 4127.94871767, 4149.35897415,12.0
4117.05128178, 4097.05128171, 4078.20512786, 3990.64102509, 4125.12820485, 4085.12820478, 4094.35897402, 4093.20512786, 4115.12820485, 4134.48717921, 4236.53846154, 4057.43589702, 4125.76923050, 4146.53846133,12.0
4116.92307665, 4111.53846126, 4084.61538427, 3995.38461483, 4124.48717921, 4113.46153819, 4125.76923050, 4102.82051255, 4135.76923056, 4134.48717921, 4236.79487180, 4077.30769196, 4125.12820485, 4145.12820492,12.0
4120.64102537, 4114.48717921, 4101.92307658, 3986.41025586, 4120.76923050, 4114.35897408, 4147.56410236, 4122.56410229, 4161.41025621, 4134.48717921, 4241.53846154, 4105.38461511, 4129.74358947, 4143.58974339,12.0
4115.89743562, 4109.48717921, 4109.87179460, 3972.05128150, 4122.05128178, 4081.15384581, 4125.76923050, 4121.15384588, 4152.30769210, 4134.48717921, 4238.84615385, 4107.56410229, 4131.02564075, 4142.05128185,12.0
4119.61538434, 4121.41025614, 4109.61538434, 3979.10256355, 4122.30769203, 4082.56410222, 4116.28205101, 4111.41025614, 4137.56410236, 4134.48717921, 4232.17948711, 4105.64102537, 4129.61538434, 4144.35897415,12.0
4117.82051255, 4130.12820485, 4111.15384588, 3979.74358919, 4122.30769203, 4112.69230742, 4137.69230749, 4121.79487152, 4147.69230749, 4134.48717921, 4228.46153840, 4107.56410229, 4131.41025614, 4147.17948697,12.0
4124.48717921, 4117.94871767, 4112.17948691, 3965.51281989, 4122.30769203, 4113.58974332, 4131.92307665, 4131.41025614, 4149.99999980, 4134.48717921, 4222.94871788, 4099.35897402, 4134.74358947, 4147.30769210,12.0
4127.94871767, 4113.20512793, 4106.92307665, 3973.07692252, 4121.41025614, 4089.23076889, 4102.69230742, 4118.58974332, 4131.53846126, 4134.48717921, 4213.71794865, 4084.74358940, 4133.46153819, 4142.56410236,12.0
4118.97435870, 4126.02564075, 4106.28205101, 3982.69230714, 4123.07692280, 4081.15384581, 4121.79487152, 4113.33333306, 4129.61538434, 4134.48717921, 4209.35897429, 4084.10256376, 4132.30769203, 4142.43589723,12.0
4122.94871767, 4130.51282024, 4108.33333306, 3964.87179425, 4124.23076896, 4095.25640991, 4151.28205108, 4116.79487152, 4134.99999973, 4134.48717921, 4209.61538455, 4087.69230735, 4133.71794844, 4148.58974339,12.0
4124.23076896, 4122.05128178, 4102.05128171, 3964.99999938, 4123.71794844, 4108.58974332, 4129.48717921, 4105.51282024, 4127.43589716, 4134.48717921, 4213.33333327, 4081.79487145, 4131.79487152, 4148.58974339,12.0
4125.89743562, 4129.23076896, 4106.15384588, 3997.69230714, 4122.17948691, 4107.05128178, 4115.38461511, 4099.10256376, 4129.35897408, 4134.48717921, 4220.89743583, 4091.92307658, 4131.02564075, 4143.58974339,12.0
4127.56410229, 4139.61538441, 4113.46153819, 4001.66666611, 4120.76923050, 4097.69230735, 4126.41025614, 4107.30769203, 4141.41025621, 4134.48717921, 4223.84615378, 4110.51282024, 4133.46153819, 4142.30769210,12.0
4122.69230742, 4124.87179460, 4102.05128171, 3973.33333278, 4121.66666639, 4092.43589709, 4118.20512793, 4110.76923050, 4143.58974339, 4134.48717921, 4220.25641019, 4099.23076889, 4132.94871767, 4145.76923056,12.0
4127.94871767, 4121.15384588, 4107.94871767, 3974.10256355, 4121.41025614, 4106.66666639, 4130.51282024, 4127.94871767, 4158.84615364, 4134.48717921, 4223.97435891, 4100.51282017, 4133.84615357, 4144.61538441,12.0
4125.12820485, 4139.35897415, 4130.38461511, 3999.74358919, 4122.56410229, 4119.35897408, 4156.53846133, 4159.87179467, 4183.33333320, 4134.48717921, 4226.79487173, 4129.87179460, 4134.35897408, 4143.07692287,12.0
4121.79487152, 4143.84615364, 4128.71794844, 4004.48717900, 4123.71794844, 4115.64102537, 4151.92307672, 4160.76923056, 4180.64102551, 4134.48717921, 4221.28205122, 4128.33333306, 4134.10256383, 4145.38461518,12.0
4122.56410229, 4127.69230742, 4118.46153819, 3991.41025586, 4121.15384588, 4111.28205101, 4147.94871774, 4139.23076903, 4171.79487166, 4134.48717921, 4221.92307686, 4113.33333306, 4134.48717921, 4144.74358954,12.0
4114.48717921, 4132.94871767, 4123.20512793, 4002.69230714, 4119.99999973, 4111.92307665, 4149.23076903, 4132.30769203, 4169.99999986, 4134.87179460, 4221.02564096, 4118.97435870, 4132.94871767, 4143.97435877,12.0
4121.02564075, 4157.30769210, 4127.17948691, 4021.79487131, 4121.02564075, 4110.25640998, 4140.76923056, 4127.30769203, 4156.53846133, 4134.61538434, 4214.10256404, 4118.33333306, 4133.84615357, 4147.05128185,12.0
4123.46153819, 4145.64102544, 4121.15384588, 4003.71794817, 4122.82051255, 4108.33333306, 4137.82051262, 4119.10256383, 4141.92307672, 4134.35897408, 4209.74358968, 4109.99999973, 4132.94871767, 4146.92307672,12.0
4120.76923050, 4132.82051255, 4117.82051255, 3995.25640970, 4122.56410229, 4104.35897408, 4132.05128178, 4118.97435870, 4140.76923056, 4135.12820485, 4206.92307686, 4113.33333306, 4131.79487152, 4145.76923056,12.0
4127.05128178, 4156.92307672, 4118.71794844, 4028.97435849, 4121.28205101, 4097.82051248, 4123.07692280, 4118.33333306, 4140.12820492, 4133.46153819, 4204.61538455, 4112.82051255, 4133.33333306, 4146.28205108,12.0
4124.23076896, 4160.51282031, 4122.17948691, 4040.12820472, 4121.92307665, 4102.30769196, 4127.82051255, 4121.66666639, 4136.41025621, 4129.87179460, 4207.69230763, 4112.82051255, 4132.56410229, 4145.12820492,12.0
4127.05128178, 4143.71794851, 4131.92307665, 4024.61538413, 4121.15384588, 4103.71794844, 4135.64102544, 4128.97435870, 4150.51282031, 4127.56410229, 4211.28205122, 4129.74358947, 4133.71794844, 4145.89743569,12.0
4124.99999973, 4146.41025621, 4128.84615357, 4026.79487131, 4119.87179460, 4087.56410222, 4121.15384588, 4116.92307665, 4156.28205108, 4128.84615357, 4207.30769224, 4127.17948691, 4134.61538434, 4145.64102544,12.0
4119.61538434, 4148.84615364, 4111.66666639, 4019.23076875, 4121.53846126, 4079.48717914, 4097.82051248, 4095.76923043, 4130.25640998, 4132.56410229, 4198.97435884, 4098.58974325, 4133.71794844, 4145.64102544,12.0
4126.79487152, 4138.33333313, 4110.38461511, 3999.61538406, 4122.05128178, 4096.28205094, 4104.35897408, 4099.10256376, 4119.48717921, 4134.99999973, 4195.76923063, 4093.84615350, 4132.82051255, 4147.69230749,12.0
4124.61538434, 4133.84615357, 4121.92307665, 4007.17948670, 4121.53846126, 4107.94871767, 4130.38461511, 4115.51282024, 4138.33333313, 4134.61538434, 4200.89743576, 4110.76923050, 4131.92307665, 4146.66666646,12.0
4124.61538434, 4133.84615357, 4121.92307665, 4007.17948670, 4121.53846126, 4107.94871767, 4130.38461511, 4115.51282024, 4138.33333313, 4134.61538434, 4200.89743576, 4110.76923050, 4131.92307665, 4146.66666646,12.0
4123.97435870, 4143.46153826, 4119.87179460, 4023.58974311, 4121.28205101, 4102.56410229, 4131.92307665, 4111.02564075, 4142.05128185, 4133.33333306, 4202.82051275, 4109.35897408, 4133.46153819, 4148.46153826,12.0
4122.56410229, 4144.10256390, 4110.64102537, 4020.64102516, 4120.89743562, 4095.12820478, 4116.41025614, 4097.17948684, 4131.02564075, 4133.58974332, 4197.17948704, 4096.28205094, 4133.58974332, 4150.38461518,12.0
4118.84615357, 4139.35897415, 4115.51282024, 4019.23076875, 4122.17948691, 4095.12820478, 4122.05128178, 4105.51282024, 4135.76923056, 4134.61538434, 4196.66666653, 4101.53846119, 4131.15384588, 4148.71794851,12.0
4124.87179460, 4151.66666646, 4128.46153819, 4032.94871747, 4122.30769203, 4107.43589716, 4129.61538434, 4119.61538434, 4142.94871774, 4135.38461518, 4197.56410243, 4116.02564075, 4132.94871767, 4144.87179467,12.0
4121.02564075, 4155.64102544, 4130.25640998, 4039.10256369, 4121.02564075, 4104.23076896, 4122.94871767, 4116.79487152, 4142.05128185, 4134.99999973, 4196.92307679, 4123.97435870, 4133.84615357, 4143.97435877,12.0
4123.97435870, 4146.66666646, 4128.71794844, 4041.66666625, 4119.35897408, 4080.38461504, 4116.66666639, 4106.79487152, 4140.89743569, 4133.97435870, 4202.17948711, 4127.56410229, 4130.76923050, 4146.02564082,12.0
4128.58974332, 4152.94871774, 4134.10256383, 4045.64102523, 4120.38461511, 4086.41025607, 4115.76923050, 4104.35897408, 4138.84615364, 4134.61538434, 4201.53846147, 4132.17948691, 4129.99999973, 4145.38461518,12.0
4121.15384588, 4160.38461518, 4139.74358954, 4044.48717907, 4122.82051255, 4114.48717921, 4131.92307665, 4116.41025614, 4140.76923056, 4134.74358947, 4198.07692294, 4137.56410236, 4130.51282024, 4145.38461518,12.0
4127.94871767, 4153.84615364, 4137.56410236, 4054.61538420, 4120.51282024, 4111.41025614, 4135.51282031, 4118.58974332, 4134.61538434, 4133.84615357, 4200.89743576, 4132.82051255, 4132.56410229, 4148.07692287,12.0
4127.69230742, 4160.89743569, 4136.79487159, 4070.25640991, 4119.74358947, 4105.38461511, 4130.25640998, 4107.82051255, 4126.02564075, 4134.74358947, 4198.84615371, 4131.53846126, 4133.58974332, 4148.71794851,12.0
4123.46153819, 4167.05128185, 4141.79487159, 4059.87179446, 4120.51282024, 4123.07692280, 4136.66666646, 4102.82051255, 4123.58974332, 4134.74358947, 4192.82051269, 4138.07692287, 4131.66666639, 4148.58974339,12.0
4128.20512793, 4134.10256383, 4124.48717921, 4031.41025593, 4120.25640998, 4102.43589709, 4107.69230742, 4084.48717914, 4099.87179453, 4131.15384588, 4185.51282038, 4113.71794844, 4130.12820485, 4148.20512800,12.0
4125.76923050, 4122.17948691, 4106.79487152, 4033.97435849, 4121.92307665, 4073.84615350, 4078.33333299, 4076.28205094, 4088.07692273, 4129.23076896, 4180.25641012, 4093.58974325, 4130.89743562, 4146.53846133,12.0
4127.30769203, 4156.66666646, 4127.05128178, 4058.46153805, 4122.30769203, 4098.46153812, 4107.05128178, 4103.84615357, 4122.43589716, 4130.76923050, 4189.99999986, 4125.38461511, 4133.97435870, 4144.99999980,12.0
4122.43589716, 4161.15384595, 4141.02564082, 4063.46153805, 4120.38461511, 4109.99999973, 4124.87179460, 4119.10256383, 4142.17948697, 4131.15384588, 4199.10256397, 4145.25641005, 4133.97435870, 4147.30769210,12.0
4121.02564075, 4144.10256390, 4130.51282024, 4062.17948677, 4119.87179460, 4089.35897402, 4108.84615357, 4109.23076896, 4126.41025614, 4130.51282024, 4190.64102551, 4131.15384588, 4134.23076896, 4148.33333313,12.0
4126.92307665, 4151.53846133, 4134.10256383, 4075.64102530, 4121.15384588, 4102.94871767, 4123.97435870, 4117.30769203, 4129.99999973, 4130.89743562, 4188.71794858, 4138.46153826, 4134.87179460, 4143.71794851,12.0
4117.17948691, 4154.99999980, 4145.12820492, 4084.48717914, 4121.79487152, 4125.76923050, 4138.46153826, 4126.92307665, 4147.94871774, 4130.89743562, 4199.35897422, 4152.94871774, 4132.05128178, 4143.97435877,12.0
4119.48717921, 4151.41025621, 4138.97435877, 4079.35897402, 4121.28205101, 4113.71794844, 4114.35897408, 4104.48717921, 4135.25640998, 4130.89743562, 4194.10256397, 4141.28205108, 4130.51282024, 4147.17948697,12.0
4122.82051255, 4159.74358954, 4134.23076896, 4074.74358940, 4121.41025614, 4101.79487145, 4113.71794844, 4098.46153812, 4120.89743562, 4130.89743562, 4180.25641012, 4134.10256383, 4130.12820485, 4142.94871774,12.0
4120.25640998, 4159.74358954, 4135.51282031, 4080.64102530, 4122.69230742, 4106.41025614, 4132.17948691, 4112.56410229, 4125.12820485, 4130.89743562, 4183.71794858, 4133.46153819, 4132.56410229, 4142.82051262,12.0
4129.35897408, 4140.12820492, 4123.58974332, 4078.33333299, 4122.17948691, 4108.46153819, 4118.46153819, 4098.84615350, 4121.28205101, 4131.02564075, 4188.20512807, 4116.66666639, 4136.53846133, 4149.10256390,12.0
4126.41025614, 4131.28205101, 4116.92307665, 4068.07692266, 4121.66666639, 4106.41025614, 4100.38461504, 4089.23076889, 4114.48717921, 4130.89743562, 4182.56410243, 4110.64102537, 4133.46153819, 4148.84615364,12.0
4125.51282024, 4145.12820492, 4132.56410229, 4080.12820478, 4121.41025614, 4101.66666632, 4113.84615357, 4108.46153819, 4120.51282024, 4130.89743562, 4183.07692294, 4130.38461511, 4131.02564075, 4147.82051262,12.0
4126.92307665, 4150.89743569, 4141.15384595, 4096.92307658, 4121.66666639, 4098.84615350, 4126.41025614, 4116.28205101, 4129.74358947, 4131.02564075, 4187.56410243, 4140.51282031, 4135.12820485, 4148.84615364,12.0
4123.84615357, 4141.53846133, 4131.92307665, 4091.79487145, 4121.92307665, 4100.64102530, 4105.12820485, 4098.20512786, 4121.92307665, 4130.89743562, 4184.10256397, 4126.92307665, 4136.02564082, 4149.10256390,12.0
4127.17948691, 4142.82051262, 4133.07692280, 4090.38461504, 4120.76923050, 4105.25640998, 4109.48717921, 4098.84615350, 4122.05128178, 4131.02564075, 4181.02564089, 4129.10256383, 4134.10256383, 4148.84615364,12.0
4122.17948691, 4146.79487159, 4140.64102544, 4102.05128171, 4120.76923050, 4109.99999973, 4141.15384595, 4126.66666639, 4139.23076903, 4130.89743562, 4185.51282038, 4146.79487159, 4134.74358947, 4146.53846133,12.0
4124.99999973, 4144.48717928, 4142.30769210, 4111.02564075, 4120.64102537, 4115.51282024, 4128.97435870, 4136.02564082, 4145.38461518, 4130.89743562, 4192.05128192, 4149.48717928, 4136.53846133, 4142.30769210,12.0
4128.46153819, 4147.43589723, 4143.84615364, 4117.56410229, 4120.76923050, 4117.05128178, 4112.05128178, 4124.10256383, 4143.97435877, 4131.02564075, 4189.23076910, 4147.69230749, 4134.35897408, 4141.41025621,12.0
4121.41025614, 4142.69230749, 4133.20512793, 4111.79487152, 4121.15384588, 4111.66666639, 4118.71794844, 4114.35897408, 4135.38461518, 4130.89743562, 4163.58974339, 4134.87179460, 4131.15384588, 4146.53846133,12.0
4124.61538434, 4127.43589716, 4120.12820485, 4094.87179453, 4119.10256383, 4109.48717921, 4112.30769203, 4105.38461511, 4120.25640998, 4130.89743562, 4142.30769210, 4113.71794844, 4134.10256383, 4145.76923056,12.0
4120.64102537, 4127.43589716, 4118.71794844, 4105.38461511, 4120.64102537, 4112.05128178, 4101.15384581, 4099.23076889, 4110.25640998, 4131.02564075, 4143.07692287, 4109.61538434, 4134.48717921, 4143.58974339,12.0
4121.66666639, 4137.05128185, 4122.82051255, 4131.66666639, 4121.41025614, 4113.07692280, 4101.79487145, 4101.66666632, 4109.35897408, 4130.89743562, 4143.07692287, 4119.10256383, 4132.56410229, 4145.51282031,12.0
4126.28205101, 4132.56410229, 4126.79487152, 4130.25640998, 4118.20512793, 4103.84615357, 4098.97435863, 4105.51282024, 4114.23076896, 4131.02564075, 4134.35897408, 4124.23076896, 4133.84615357, 4143.46153826,12.0
4119.99999973, 4130.12820485, 4131.15384588, 4119.10256383, 4119.99999973, 4098.33333299, 4104.23076896, 4110.76923050, 4127.30769203, 4130.89743562, 4133.71794844, 4131.41025614, 4133.58974332, 4143.97435877,12.0
4125.64102537, 4144.61538441, 4138.58974339, 4129.74358947, 4122.56410229, 4108.97435870, 4112.82051255, 4111.53846126, 4136.53846133, 4130.89743562, 4146.92307672, 4145.51282031, 4132.43589716, 4146.15384595,12.0
4126.66666639, 4145.12820492, 4142.05128185, 4138.46153826, 4121.66666639, 4111.92307665, 4104.23076896, 4109.35897408, 4135.76923056, 4131.02564075, 4154.61538441, 4154.23076903, 4132.17948691, 4144.48717928,12.0
4125.12820485, 4132.43589716, 4141.02564082, 4130.25640998, 4120.64102537, 4110.25640998, 4107.82051255, 4118.97435870, 4141.66666646, 4130.76923050, 4146.92307672, 4154.61538441, 4132.82051255, 4143.33333313,12.0
4130.38461511, 4134.35897408, 4138.84615364, 4127.30769203, 4120.38461511, 4115.51282024, 4122.82051255, 4127.17948691, 4144.10256390, 4130.64102537, 4140.25641005, 4146.41025621, 4131.79487152, 4143.46153826,12.0
4124.61538434, 4141.15384595, 4133.33333306, 4127.69230742, 4122.17948691, 4118.33333306, 4127.05128178, 4131.02564075, 4138.84615364, 4131.28205101, 4145.25641005, 4137.56410236, 4131.53846126, 4143.58974339,12.0
4124.61538434, 4131.92307665, 4123.07692280, 4119.23076896, 4123.33333306, 4112.56410229, 4121.79487152, 4132.94871767, 4134.35897408, 4130.64102537, 4143.71794851, 4124.99999973, 4134.35897408, 4145.38461518,12.0
4124.10256383, 4114.87179460, 4113.33333306, 4114.99999973, 4121.53846126, 4112.05128178, 4121.28205101, 4129.99999973, 4133.20512793, 4130.25640998, 4132.43589716, 4110.64102537, 4133.20512793, 4143.97435877,12.0
4125.25640998, 4119.99999973, 4117.94871767, 4114.48717921, 4119.74358947, 4124.48717921, 4123.58974332, 4124.35897408, 4131.15384588, 4132.94871767, 4131.28205101, 4115.38461511, 4130.76923050, 4142.94871774,12.0
4129.61538434, 4134.23076896, 4124.99999973, 4107.56410229, 4120.51282024, 4121.15384588, 4106.92307665, 4109.10256383, 4118.46153819, 4135.38461518, 4136.41025621, 4123.46153819, 4133.20512793, 4147.56410236,12.0
4118.84615357, 4127.05128178, 4122.05128178, 4107.94871767, 4121.53846126, 4104.35897408, 4092.17948684, 4097.56410222, 4109.74358947, 4135.38461518, 4132.69230742, 4119.74358947, 4134.10256383, 4148.33333313,12.0
4119.87179460, 4121.66666639, 4122.69230742, 4121.28205101, 4120.76923050, 4105.38461511, 4101.53846119, 4100.89743555, 4114.99999973, 4134.87179460, 4130.64102537, 4120.76923050, 4134.61538434, 4144.23076903,12.0
4122.30769203, 4135.25640998, 4133.33333306, 4125.76923050, 4122.82051255, 4114.87179460, 4113.46153819, 4104.99999973, 4121.53846126, 4134.23076896, 4139.99999980, 4133.71794844, 4134.87179460, 4142.94871774,12.0
4116.41025614, 4143.58974339, 4142.56410236, 4116.79487152, 4124.74358947, 4112.82051255, 4109.23076896, 4111.15384588, 4129.23076896, 4133.97435870, 4143.46153826, 4143.46153826, 4132.30769203, 4146.28205108,12.0
4123.97435870, 4138.20512800, 4137.82051262, 4117.69230742, 4121.02564075, 4112.05128178, 4103.20512793, 4120.51282024, 4138.33333313, 4133.84615357, 4135.64102544, 4138.97435877, 4132.56410229, 4144.48717928,12.0
4124.23076896, 4137.56410236, 4128.33333306, 4130.25640998, 4120.25640998, 4120.12820485, 4113.71794844, 4123.71794844, 4135.64102544, 4131.53846126, 4128.84615357, 4128.33333306, 4133.58974332, 4140.76923056,12.0
4124.23076896, 4137.56410236, 4128.33333306, 4130.25640998, 4120.25640998, 4120.12820485, 4113.71794844, 4123.71794844, 4135.64102544, 4131.53846126, 4128.84615357, 4128.33333306, 4133.58974332, 4140.76923056,12.0
4126.28205101, 4139.74358954, 4132.05128178, 4128.20512793, 4122.43589716, 4123.97435870, 4134.48717921, 4126.79487152, 4130.76923050, 4128.46153819, 4130.51282024, 4127.82051255, 4135.12820485, 4147.56410236,12.0
4128.33333306, 4136.53846133, 4138.46153826, 4114.99999973, 4121.41025614, 4136.02564082, 4146.15384595, 4141.92307672, 4140.25641005, 4129.35897408, 4132.30769203, 4137.17948697, 4135.89743569, 4150.38461518,12.0
4122.56410229, 4134.99999973, 4134.61538434, 4112.69230742, 4120.89743562, 4149.87179467, 4145.64102544, 4150.76923056, 4146.79487159, 4130.51282024, 4132.17948691, 4137.69230749, 4133.84615357, 4144.61538441,12.0
4126.66666639, 4131.53846126, 4131.41025614, 4114.48717921, 4120.76923050, 4138.97435877, 4135.51282031, 4132.30769203, 4136.28205108, 4129.74358947, 4133.07692280, 4126.53846126, 4132.05128178, 4143.20512800,12.0
4126.15384588, 4129.23076896, 4129.99999973, 4113.46153819, 4122.30769203, 4118.07692280, 4114.74358947, 4113.46153819, 4119.61538434, 4129.87179460, 4130.12820485, 4124.48717921, 4130.89743562, 4144.99999980,12.0
4127.43589716, 4142.17948697, 4132.30769203, 4118.84615357, 4121.92307665, 4116.92307665, 4105.76923050, 4112.56410229, 4113.20512793, 4130.12820485, 4130.12820485, 4137.82051262, 4132.05128178, 4146.92307672,12.0
4126.92307665, 4140.76923056, 4136.92307672, 4118.07692280, 4119.48717921, 4116.92307665, 4109.23076896, 4109.10256383, 4110.12820485, 4130.12820485, 4134.10256383, 4143.20512800, 4133.46153819, 4147.43589723,12.0
4120.89743562, 4124.10256383, 4134.10256383, 4113.97435870, 4121.02564075, 4102.94871767, 4095.25640991, 4098.07692273, 4102.82051255, 4130.12820485, 4133.07692280, 4135.38461518, 4131.41025614, 4145.25641005,12.0
4126.66666639, 4135.12820485, 4133.46153819, 4129.61538434, 4121.92307665, 4100.38461504, 4083.33333299, 4098.33333299, 4110.76923050, 4129.99999973, 4132.82051255, 4137.69230749, 4129.23076896, 4143.20512800,12.0
4122.30769203, 4142.17948697, 4136.92307672, 4135.25640998, 4121.28205101, 4103.33333306, 4095.38461504, 4109.35897408, 4124.99999973, 4130.12820485, 4133.20512793, 4141.53846133, 4129.99999973, 4145.12820492,12.0
4121.53846126, 4126.02564075, 4132.43589716, 4110.89743562, 4119.48717921, 4101.53846119, 4106.92307665, 4116.66666639, 4123.07692280, 4129.99999973, 4127.82051255, 4131.66666639, 4131.02564075, 4145.38461518,12.0
4126.53846126, 4125.51282024, 4123.71794844, 4105.12820485, 4118.46153819, 4106.41025614, 4107.17948691, 4119.23076896, 4121.15384588, 4130.12820485, 4125.51282024, 4120.64102537, 4130.38461511, 4141.79487159,12.0
4119.87179460, 4134.99999973, 4123.33333306, 4118.07692280, 4120.76923050, 4122.30769203, 4109.99999973, 4121.79487152, 4124.10256383, 4129.99999973, 4130.25640998, 4115.76923050, 4131.02564075, 4143.07692287,12.0
4125.25640998, 4125.25640998, 4122.69230742, 4111.41025614, 4122.94871767, 4128.84615357, 4108.46153819, 4115.89743562, 4111.41025614, 4130.12820485, 4128.71794844, 4112.30769203, 4134.99999973, 4147.05128185,12.0
4125.12820485, 4117.05128178, 4116.79487152, 4105.64102537, 4124.74358947, 4111.41025614, 4098.07692273, 4104.99999973, 4098.71794837, 4130.12820485, 4127.17948691, 4116.02564075, 4133.07692280, 4142.56410236,12.0
4122.17948691, 4133.46153819, 4124.48717921, 4124.87179460, 4124.61538434, 4101.53846119, 4100.76923043, 4104.99999973, 4104.48717921, 4129.99999973, 4134.87179460, 4130.64102537, 4127.56410229, 4140.38461518,12.0
4129.10256383, 4143.71794851, 4136.79487159, 4138.71794851, 4122.82051255, 4116.41025614, 4116.66666639, 4110.38461511, 4105.38461511, 4130.12820485, 4136.02564082, 4143.33333313, 4129.99999973, 4146.66666646,12.0
4123.07692280, 4137.82051262, 4133.97435870, 4136.92307672, 4122.69230742, 4123.84615357, 4112.82051255, 4111.41025614, 4098.97435863, 4129.99999973, 4129.99999973, 4144.10256390, 4133.84615357, 4149.23076903,12.0
4125.38461511, 4137.56410236, 4133.71794844, 4136.15384595, 4122.82051255, 4111.53846126, 4092.94871761, 4109.48717921, 4102.56410229, 4130.12820485, 4134.10256383, 4143.07692287, 4134.48717921, 4146.28205108,12.0
4127.17948691, 4135.12820485, 4139.23076903, 4122.30769203, 4123.71794844, 4105.38461511, 4089.48717914, 4109.35897408, 4108.84615357, 4129.99999973, 4136.79487159, 4142.43589723, 4131.92307665, 4146.15384595,12.0
4122.05128178, 4126.92307665, 4129.61538434, 4109.23076896, 4123.46153819, 4102.05128171, 4094.35897402, 4107.30769203, 4104.48717921, 4130.12820485, 4129.48717921, 4130.89743562, 4129.10256383, 4149.10256390,12.0
4127.69230742, 4130.38461511, 4122.82051255, 4119.61538434, 4121.15384588, 4100.12820478, 4101.53846119, 4108.07692280, 4103.58974332, 4130.12820485, 4128.20512793, 4122.94871767, 4130.25640998, 4145.12820492,12.0
4123.84615357, 4137.05128185, 4129.74358947, 4119.99999973, 4121.28205101, 4109.23076896, 4112.43589716, 4115.64102537, 4112.43589716, 4129.99999973, 4129.48717921, 4127.43589716, 4129.99999973, 4142.43589723,12.0
4121.53846126, 4127.30769203, 4125.38461511, 4102.69230742, 4122.17948691, 4108.97435870, 4100.89743555, 4109.87179460, 4105.38461511, 4130.12820485, 4124.48717921, 4118.58974332, 4129.35897408, 4147.82051262,12.0
4121.53846126, 4117.82051255, 4112.69230742, 4103.84615357, 4123.71794844, 4107.69230742, 4097.94871761, 4106.02564075, 4096.92307658, 4129.99999973, 4123.07692280, 4108.33333306, 4128.58974332, 4145.51282031,12.0
4119.48717921, 4124.10256383, 4112.05128178, 4117.56410229, 4125.38461511, 4115.76923050, 4116.53846126, 4120.89743562, 4105.12820485, 4130.12820485, 4127.43589716, 4115.64102537, 4127.43589716, 4140.51282031,12.0
4125.38461511, 4131.28205101, 4123.58974332, 4118.84615357, 4122.69230742, 4119.23076896, 4114.74358947, 4125.76923050, 4108.46153819, 4129.99999973, 4130.38461511, 4127.56410229, 4128.58974332, 4142.30769210,12.0
4119.10256383, 4126.79487152, 4131.79487152, 4113.07692280, 4121.53846126, 4115.76923050, 4113.71794844, 4119.35897408, 4105.12820485, 4130.12820485, 4129.99999973, 4135.25640998, 4129.23076896, 4144.35897415,12.0
4122.56410229, 4128.58974332, 4127.56410229, 4109.87179460, 4122.56410229, 4112.94871767, 4121.28205101, 4115.12820485, 4101.15384581, 4130.12820485, 4129.23076896, 4133.46153819, 4130.12820485, 4143.58974339,12.0
4130.76923050, 4134.99999973, 4119.10256383, 4118.46153819, 4121.79487152, 4112.56410229, 4108.84615357, 4110.38461511, 4097.56410222, 4129.99999973, 4129.61538434, 4127.94871767, 4130.51282024, 4143.07692287,12.0
4124.87179460, 4125.64102537, 4118.33333306, 4122.56410229, 4122.56410229, 4110.25640998, 4100.76923043, 4113.07692280, 4099.23076889, 4130.12820485, 4131.53846126, 4126.79487152, 4128.46153819, 4144.23076903,12.0
4127.05128178, 4119.35897408, 4118.71794844, 4109.61538434, 4123.58974332, 4110.64102537, 4110.25640998, 4121.15384588, 4102.17948684, 4129.99999973, 4129.74358947, 4121.15384588, 4128.71794844, 4144.10256390,12.0
4126.02564075, 4120.51282024, 4111.02564075, 4106.53846126, 4122.43589716, 4112.69230742, 4113.33333306, 4124.87179460, 4100.76923043, 4130.12820485, 4126.28205101, 4109.48717921, 4128.71794844, 4144.48717928,12.0
4125.76923050, 4128.84615357, 4116.79487152, 4111.66666639, 4119.74358947, 4117.43589716, 4128.33333306, 4136.02564082, 4106.79487152, 4129.99999973, 4128.84615357, 4121.92307665, 4128.58974332, 4146.15384595,12.0
4128.33333306, 4135.51282031, 4126.66666639, 4104.10256383, 4119.48717921, 4118.97435870, 4138.20512800, 4140.76923056, 4111.79487152, 4130.12820485, 4125.51282024, 4139.23076903, 4128.84615357, 4146.79487159,12.0
4123.33333306, 4122.82051255, 4118.46153819, 4099.74358940, 4123.97435870, 4115.38461511, 4115.64102537, 4128.07692280, 4103.46153819, 4130.12820485, 4120.25640998, 4128.97435870, 4126.15384588, 4145.25641005,12.0
4127.30769203, 4111.28205101, 4116.79487152, 4102.94871767, 4124.61538434, 4123.84615357, 4114.99999973, 4127.56410229, 4109.23076896, 4129.99999973, 4124.48717921, 4121.02564075, 4127.30769203, 4146.92307672,12.0
4123.97435870, 4116.28205101, 4119.48717921, 4098.97435863, 4122.05128178, 4127.56410229, 4129.23076896, 4138.58974339, 4122.30769203, 4130.12820485, 4125.76923050, 4121.92307665, 4131.28205101, 4149.61538441,12.0
4121.41025614, 4132.56410229, 4117.56410229, 4107.94871767, 4122.69230742, 4115.38461511, 4120.12820485, 4139.35897415, 4121.28205101, 4129.99999973, 4123.33333306, 4122.05128178, 4131.66666639, 4148.33333313,12.0
4125.51282024, 4136.53846133, 4126.28205101, 4122.94871767, 4122.69230742, 4109.61538434, 4116.41025614, 4135.51282031, 4121.79487152, 4130.12820485, 4129.35897408, 4133.58974332, 4130.76923050, 4144.23076903,12.0
4116.79487152, 4126.92307665, 4135.51282031, 4120.76923050, 4121.92307665, 4116.15384588, 4122.17948691, 4141.15384595, 4126.28205101, 4129.99999973, 4135.89743569, 4144.74358954, 4129.87179460, 4141.66666646,12.0
4120.89743562, 4126.15384588, 4128.84615357, 4115.12820485, 4121.53846126, 4120.51282024, 4113.97435870, 4140.51282031, 4117.30769203, 4130.12820485, 4129.99999973, 4134.48717921, 4129.87179460, 4144.74358954,12.0
4122.94871767, 4127.43589716, 4117.05128178, 4109.10256383, 4122.82051255, 4117.43589716, 4115.25640998, 4127.56410229, 4102.56410229, 4130.12820485, 4123.71794844, 4120.89743562, 4129.48717921, 4146.41025621,12.0
4119.87179460, 4119.61538434, 4111.53846126, 4099.74358940, 4124.23076896, 4111.15384588, 4117.94871767, 4113.07692280, 4087.05128171, 4129.99999973, 4119.48717921, 4113.46153819, 4129.61538434, 4143.33333313,12.0
4127.43589716, 4104.87179460, 4104.99999973, 4089.99999966, 4122.69230742, 4102.43589709, 4099.23076889, 4101.66666632, 4068.07692266, 4130.12820485, 4111.28205101, 4099.74358940, 4131.15384588, 4140.89743569,12.0
4123.33333306, 4098.33333299, 4100.38461504, 4078.58974325, 4120.89743562, 4105.51282024, 4096.02564068, 4104.10256383, 4069.48717907, 4129.99999973, 4109.99999973, 4096.66666632, 4131.02564075, 4144.35897415,12.0
4123.84615357, 4107.30769203, 4107.69230742, 4076.28205094, 4120.12820485, 4115.25640998, 4110.64102537, 4110.25640998, 4087.56410222, 4130.12820485, 4117.17948691, 4105.76923050, 4129.74358947, 4148.84615364,12.0
4124.61538434, 4118.07692280, 4115.25640998, 4093.97435863, 4123.33333306, 4113.97435870, 4108.20512793, 4110.25640998, 4095.25640991, 4129.99999973, 4120.38461511, 4112.30769203, 4128.97435870, 4143.71794851,12.0
4121.53846126, 4122.05128178, 4117.94871767, 4112.56410229, 4124.35897408, 4114.99999973, 4106.02564075, 4121.53846126, 4098.71794837, 4130.12820485, 4119.48717921, 4117.17948691, 4130.76923050, 4142.30769210,12.0
4125.89743562, 4126.15384588, 4123.84615357, 4115.51282024, 4121.41025614, 4123.07692280, 4121.79487152, 4136.79487159, 4110.64102537, 4130.12820485, 4124.48717921, 4125.38461511, 4132.30769203, 4146.66666646,12.0
4121.53846126, 4126.28205101, 4127.69230742, 4112.05128178, 4122.69230742, 4118.20512793, 4127.82051255, 4136.53846133, 4114.48717921, 4130.51282024, 4129.61538434, 4129.74358947, 4128.97435870, 4146.02564082,12.0
4121.92307665, 4120.76923050, 4127.43589716, 4114.23076896, 4122.82051255, 4109.99999973, 4115.25640998, 4132.82051255, 4108.20512793, 4130.25640998, 4128.84615357, 4127.30769203, 4130.25640998, 4144.35897415,12.0
4120.76923050, 4122.94871767, 4123.33333306, 4120.38461511, 4120.76923050, 4114.48717921, 4106.53846126, 4138.71794851, 4108.33333306, 4128.97435870, 4122.69230742, 4123.46153819, 4133.46153819, 4142.82051262,12.0
4114.99999973, 4124.10256383, 4115.51282024, 4115.25640998, 4122.69230742, 4113.33333306, 4109.48717921, 4137.43589723, 4103.71794844, 4131.02564075, 4114.99999973, 4116.92307665, 4132.94871767, 4143.71794851,12.0
4123.71794844, 4116.66666639, 4113.97435870, 4106.53846126, 4122.17948691, 4107.56410229, 4112.05128178, 4124.87179460, 4090.25640991, 4130.25640998, 4115.76923050, 4112.05128178, 4131.15384588, 4147.69230749,12.0
4121.15384588, 4113.71794844, 4117.94871767, 4106.66666639, 4121.66666639, 4110.12820485, 4106.53846126, 4121.15384588, 4087.56410222, 4123.20512793, 4116.79487152, 4112.69230742, 4124.87179460, 4148.84615364,12.0
4119.61538434, 4123.33333306, 4120.38461511, 4107.94871767, 4124.23076896, 4114.87179460, 4110.25640998, 4131.53846126, 4098.20512786, 4123.97435870, 4114.74358947, 4120.38461511, 4124.23076896, 4145.89743569,12.0
4125.38461511, 4119.10256383, 4113.97435870, 4100.89743555, 4123.58974332, 4107.05128178, 4105.12820485, 4124.99999973, 4091.66666632, 4133.97435870, 4113.20512793, 4115.51282024, 4132.05128178, 4141.79487159,12.0
4119.48717921, 4102.17948684, 4106.79487152, 4093.84615350, 4121.53846126, 4100.38461504, 4094.87179453, 4112.43589716, 4081.02564068, 4136.66666646, 4111.28205101, 4097.69230735, 4132.30769203, 4143.33333313,12.0
4126.28205101, 4108.84615357, 4112.30769203, 4097.05128171, 4122.05128178, 4112.94871767, 4111.15384588, 4121.53846126, 4097.43589709, 4131.53846126, 4111.41025614, 4104.35897408, 4129.87179460, 4147.43589723,12.0
4130.76923050, 4122.94871767, 4120.64102537, 4098.07692273, 4122.43589716, 4117.56410229, 4122.05128178, 4125.38461511, 4107.05128178, 4129.87179460, 4115.51282024, 4120.25640998, 4131.41025614, 4148.07692287,12.0
4124.74358947, 4119.23076896, 4120.89743562, 4102.05128171, 4120.76923050, 4099.87179453, 4099.23076889, 4102.94871767, 4083.20512786, 4130.25640998, 4122.17948691, 4115.89743562, 4129.99999973, 4145.64102544,12.0
4124.35897408, 4109.99999973, 4117.82051255, 4107.05128178, 4121.02564075, 4094.74358940, 4089.10256376, 4099.10256376, 4069.74358940, 4128.97435870, 4122.43589716, 4113.20512793, 4128.33333306, 4142.94871774,12.0
4123.07692280, 4109.23076896, 4117.69230742, 4098.07692273, 4122.43589716, 4108.33333306, 4106.53846126, 4126.02564075, 4089.48717914, 4129.10256383, 4116.79487152, 4121.28205101, 4127.82051255, 4144.87179467,12.0
4127.05128178, 4111.28205101, 4116.53846126, 4090.38461504, 4120.38461511, 4108.46153819, 4110.51282024, 4132.56410229, 4097.94871761, 4129.35897408, 4117.30769203, 4117.17948691, 4127.56410229, 4146.28205108,12.0
4124.74358947, 4106.79487152, 4107.82051255, 4096.66666632, 4119.61538434, 4099.74358940, 4103.46153819, 4119.48717921, 4084.87179453, 4128.07692280, 4114.99999973, 4102.82051255, 4129.35897408, 4143.46153826,12.0
4123.07692280, 4106.66666639, 4102.05128171, 4099.87179453, 4122.05128178, 4104.35897408, 4102.56410229, 4118.97435870, 4081.66666632, 4129.48717921, 4106.53846126, 4097.56410222, 4130.38461511, 4144.23076903,12.0
4124.35897408, 4112.05128178, 4106.15384588, 4097.17948684, 4123.33333306, 4113.97435870, 4106.41025614, 4123.20512793, 4092.82051248, 4134.87179460, 4104.61538434, 4096.02564068, 4128.07692280, 4146.53846133,12.0
4115.51282024, 4107.43589716, 4104.61538434, 4092.94871761, 4121.92307665, 4110.38461511, 4108.58974332, 4123.71794844, 4092.43589709, 4136.02564082, 4103.07692280, 4086.28205094, 4127.30769203, 4145.76923056,12.0
4122.30769203, 4101.92307658, 4099.23076889, 4093.58974325, 4121.28205101, 4105.38461511, 4103.84615357, 4119.74358947, 4079.48717914, 4133.46153819, 4096.02564068, 4077.94871761, 4132.05128178, 4145.12820492,12.0
4124.23076896, 4106.92307665, 4103.20512793, 4106.28205101, 4123.46153819, 4107.43589716, 4107.05128178, 4118.84615357, 4082.94871761, 4134.61538434, 4098.58974325, 4087.82051248, 4132.69230742, 4142.17948697,12.0
4117.30769203, 4113.07692280, 4110.25640998, 4111.28205101, 4125.51282024, 4107.82051255, 4113.58974332, 4121.53846126, 4093.84615350, 4136.53846133, 4104.10256383, 4100.64102530, 4128.71794844, 4141.02564082,12.0
4126.79487152, 4116.66666639, 4115.64102537, 4102.94871767, 4127.94871767, 4112.30769203, 4106.02564075, 4108.20512793, 4086.15384581, 4134.74358947, 4100.25640991, 4100.89743555, 4129.48717921, 4143.46153826,12.0
4125.12820485, 4116.28205101, 4114.74358947, 4103.20512793, 4129.23076896, 4112.56410229, 4096.15384581, 4090.51282017, 4070.38461504, 4133.97435870, 4099.35897402, 4098.58974325, 4129.35897408, 4143.07692287,12.0
4123.07692280, 4109.87179460, 4107.43589716, 4103.71794844, 4124.35897408, 4106.28205101, 4102.56410229, 4103.07692280, 4078.20512786, 4134.74358947, 4104.23076896, 4097.17948684, 4129.10256383, 4141.41025621,12.0
4125.38461511, 4103.33333306, 4103.46153819, 4086.79487145, 4121.28205101, 4105.12820485, 4107.30769203, 4125.38461511, 4097.56410222, 4134.48717921, 4101.79487145, 4090.12820478, 4129.74358947, 4141.02564082,12.0
4123.07692280, 4108.71794844, 4107.94871767, 4079.35897402, 4125.12820485, 4111.53846126, 4108.71794844, 4132.05128178, 4100.76923043, 4134.61538434, 4101.92307658, 4088.71794837, 4127.43589716, 4144.23076903,12.0
4127.82051255, 4115.76923050, 4108.71794844, 4090.64102530, 4123.71794844, 4121.92307665, 4122.17948691, 4132.30769203, 4095.89743555, 4134.87179460, 4107.30769203, 4097.05128171, 4127.17948691, 4148.07692287,12.0
4123.84615357, 4113.71794844, 4101.53846119, 4096.41025607, 4121.02564075, 4126.53846126, 4124.87179460, 4129.61538434, 4091.92307658, 4134.23076896, 4104.48717921, 4098.71794837, 4129.35897408, 4147.17948697,12.0
4126.28205101, 4113.33333306, 4105.76923050, 4104.23076896, 4122.43589716, 4119.61538434, 4109.35897408, 4114.87179460, 4090.12820478, 4135.38461518, 4102.05128171, 4101.02564068, 4130.76923050, 4147.69230749,12.0
4129.35897408, 4111.15384588, 4116.41025614, 4105.51282024, 4122.17948691, 4110.38461511, 4101.28205094, 4099.35897402, 4085.51282017, 4134.61538434, 4104.87179460, 4113.71794844, 4129.48717921, 4148.58974339,12.0
4120.89743562, 4114.35897408, 4116.28205101, 4098.46153812, 4121.66666639, 4111.41025614, 4108.71794844, 4106.41025614, 4086.28205094, 4129.74358947, 4106.41025614, 4119.23076896, 4127.94871767, 4147.43589723,12.0
4124.35897408, 4125.25640998, 4113.33333306, 4105.89743562, 4120.89743562, 4111.92307665, 4111.02564075, 4117.82051255, 4098.20512786, 4129.23076896, 4110.76923050, 4112.82051255, 4129.87179460, 4145.12820492,12.0
4121.15384588, 4117.69230742, 4110.64102537, 4112.56410229, 4120.89743562, 4107.43589716, 4098.58974325, 4117.82051255, 4104.23076896, 4127.56410229, 4114.48717921, 4108.97435870, 4130.12820485, 4144.48717928,12.0
4119.48717921, 4105.64102537, 4108.71794844, 4104.10256383, 4121.02564075, 4107.05128178, 4094.35897402, 4118.84615357, 4096.02564068, 4122.17948691, 4114.10256383, 4110.38461511, 4129.48717921, 4144.48717928,12.0
4124.61538434, 4111.66666639, 4108.71794844, 4102.05128171, 4121.28205101, 4108.20512793, 4109.23076896, 4118.71794844, 4086.92307658, 4126.92307665, 4110.38461511, 4106.15384588, 4129.48717921, 4142.69230749,12.0
4117.94871767, 4115.64102537, 4107.69230742, 4099.48717914, 4123.71794844, 4116.15384588, 4125.12820485, 4121.28205101, 4091.15384581, 4136.66666646, 4104.61538434, 4095.76923043, 4129.10256383, 4143.71794851,12.0
4122.17948691, 4107.05128178, 4102.17948684, 4084.35897402, 4122.82051255, 4125.38461511, 4124.48717921, 4124.23076896, 4093.33333299, 4135.76923056, 4100.12820478, 4084.74358940, 4130.64102537, 4144.99999980,12.0
4122.05128178, 4094.23076889, 4093.84615350, 4083.97435863, 4120.89743562, 4120.51282024, 4111.53846126, 4115.76923050, 4083.33333299, 4133.84615357, 4099.74358940, 4078.20512786, 4129.74358947, 4140.89743569,12.0
4119.99999973, 4099.99999966, 4096.79487145, 4100.89743555, 4121.15384588, 4109.10256383, 4100.12820478, 4102.43589709, 4077.94871761, 4138.33333313, 4103.97435870, 4084.99999966, 4127.43589716, 4141.53846133,12.0
4129.61538434, 4120.12820485, 4107.17948691, 4104.74358947, 4121.28205101, 4104.87179460, 4100.64102530, 4103.58974332, 4083.33333299, 4138.84615364, 4109.35897408, 4101.15384581, 4127.94871767, 4147.17948697,12.0
4126.66666639, 4119.74358947, 4108.46153819, 4102.17948684, 4121.66666639, 4104.99999973, 4110.51282024, 4117.43589716, 4091.66666632, 4137.17948697, 4110.89743562, 4110.38461511, 4128.20512793, 4147.69230749,12.0
4124.23076896, 4108.33333306, 4106.02564075, 4107.43589716, 4120.76923050, 4106.02564075, 4108.33333306, 4117.17948691, 4092.43589709, 4137.82051262, 4111.15384588, 4104.48717921, 4129.74358947, 4146.66666646,12.0
4123.33333306, 4109.61538434, 4105.64102537, 4104.99999973, 4121.79487152, 4112.82051255, 4103.20512793, 4110.12820485, 4093.07692273, 4137.82051262, 4111.79487152, 4095.76923043, 4130.38461511, 4147.43589723,12.0
4122.30769203, 4114.10256383, 4102.30769196, 4094.87179453, 4124.99999973, 4111.66666639, 4109.10256383, 4113.20512793, 4094.61538427, 4137.56410236, 4108.97435870, 4096.66666632, 4129.74358947, 4146.79487159,12.0
4125.64102537, 4113.97435870, 4099.23076889, 4099.99999966, 4123.71794844, 4103.97435870, 4110.89743562, 4117.05128178, 4091.79487145, 4137.56410236, 4109.23076896, 4100.51282017, 4130.12820485, 4144.99999980,12.0
4120.12820485, 4110.51282024, 4098.33333299, 4108.58974332, 4121.02564075, 4106.15384588, 4104.10256383, 4119.48717921, 4095.51282017, 4137.56410236, 4112.05128178, 4095.25640991, 4128.58974332, 4146.53846133,12.0
4122.56410229, 4109.61538434, 4100.25640991, 4102.56410229, 4121.92307665, 4111.28205101, 4104.35897408, 4125.12820485, 4106.53846126, 4137.56410236, 4109.23076896, 4092.30769196, 4131.02564075, 4146.92307672,12.0
4121.15384588, 4113.33333306, 4105.25640998, 4102.17948684, 4123.20512793, 4111.28205101, 4112.17948691, 4127.17948691, 4111.28205101, 4137.56410236, 4108.71794844, 4102.69230742, 4132.30769203, 4141.66666646,12.0
4115.38461511, 4113.20512793, 4109.74358947, 4108.33333306, 4122.30769203, 4108.46153819, 4110.25640998, 4117.17948691, 4099.35897402, 4137.56410236, 4107.30769203, 4108.46153819, 4127.56410229, 4142.30769210,12.0
4122.17948691, 4115.89743562, 4113.07692280, 4102.43589709, 4121.28205101, 4109.61538434, 4108.71794844, 4110.89743562, 4085.89743555, 4137.56410236, 4104.48717921, 4107.56410229, 4126.28205101, 4144.35897415,12.0
4118.07692280, 4124.87179460, 4114.87179460, 4106.02564075, 4121.66666639, 4114.10256383, 4116.79487152, 4121.41025614, 4096.41025607, 4137.56410236, 4107.82051255, 4111.66666639, 4127.05128178, 4142.82051262,12.0
4121.92307665, 4122.82051255, 4116.15384588, 4117.30769203, 4122.05128178, 4113.71794844, 4114.74358947, 4128.46153819, 4107.82051255, 4137.56410236, 4109.10256383, 4114.35897408, 4127.05128178, 4143.46153826,12.0
4130.12820485, 4107.56410229, 4111.41025614, 4111.66666639, 4122.94871767, 4102.94871767, 4100.64102530, 4119.99999973, 4094.48717914, 4137.56410236, 4108.20512793, 4109.87179460, 4128.07692280, 4144.61538441,12.0
4123.84615357, 4109.48717921, 4108.33333306, 4109.74358947, 4123.71794844, 4100.25640991, 4104.10256383, 4121.02564075, 4090.12820478, 4137.56410236, 4113.97435870, 4110.76923050, 4130.25640998, 4145.76923056,12.0
4126.15384588, 4121.41025614, 4112.05128178, 4116.79487152, 4122.05128178, 4112.05128178, 4124.61538434, 4137.30769210, 4107.43589716, 4137.56410236, 4115.64102537, 4114.23076896, 4131.28205101, 4144.99999980,12.0
4125.64102537, 4108.97435870, 4105.51282024, 4102.17948684, 4121.92307665, 4115.64102537, 4128.33333306, 4140.64102544, 4105.89743562, 4137.56410236, 4104.99999973, 4102.94871767, 4128.58974332, 4143.46153826,12.0
4125.51282024, 4102.30769196, 4098.46153812, 4088.84615350, 4123.07692280, 4117.30769203, 4120.64102537, 4128.58974332, 4095.12820478, 4137.56410236, 4099.74358940, 4093.71794837, 4127.30769203, 4145.38461518,12.0
4128.20512793, 4113.84615357, 4103.97435870, 4099.23076889, 4123.20512793, 4121.02564075, 4123.58974332, 4124.35897408, 4103.84615357, 4137.56410236, 4103.58974332, 4099.99999966, 4126.79487152, 4144.87179467,12.0
4123.07692280, 4113.07692280, 4104.87179460, 4100.25640991, 4124.61538434, 4116.28205101, 4126.02564075, 4128.71794844, 4104.10256383, 4137.82051262, 4102.82051255, 4103.20512793, 4124.74358947, 4143.58974339,12.0
4125.38461511, 4107.17948691, 4099.99999966, 4096.41025607, 4124.48717921, 4115.89743562, 4119.61538434, 4121.66666639, 4090.25640991, 4138.20512800, 4103.84615357, 4099.99999966, 4126.53846126, 4145.12820492,12.0
4121.41025614, 4112.69230742, 4107.82051255, 4108.58974332, 4123.33333306, 4123.84615357, 4124.35897408, 4116.41025614, 4095.64102530, 4136.92307672, 4112.17948691, 4111.53846126, 4129.23076896, 4145.38461518,12.0
4120.12820485, 4120.12820485, 4117.82051255, 4111.41025614, 4123.71794844, 4127.43589716, 4132.82051255, 4121.92307665, 4108.84615357, 4138.71794851, 4115.12820485, 4125.64102537, 4130.12820485, 4146.92307672,12.0
4124.35897408, 4111.53846126, 4112.30769203, 4098.71794837, 4123.33333306, 4121.15384588, 4124.10256383, 4116.66666639, 4105.38461511, 4137.94871774, 4108.46153819, 4116.79487152, 4129.61538434, 4149.10256390,12.0
4115.51282024, 4107.30769203, 4106.15384588, 4099.74358940, 4122.17948691, 4112.30769203, 4119.10256383, 4114.23076896, 4104.10256383, 4132.82051255, 4106.53846126, 4106.66666639, 4127.69230742, 4146.53846133,12.0
4121.02564075, 4122.94871767, 4114.23076896, 4112.17948691, 4122.05128178, 4113.20512793, 4127.17948691, 4129.74358947, 4113.58974332, 4130.12820485, 4115.64102537, 4116.15384588, 4130.51282024, 4146.02564082,12.0
4124.61538434, 4123.07692280, 4118.46153819, 4104.99999973, 4121.41025614, 4117.82051255, 4127.56410229, 4139.61538441, 4114.35897408, 4126.79487152, 4115.12820485, 4120.12820485, 4131.53846126, 4148.07692287,12.0
4120.25640998, 4108.84615357, 4109.87179460, 4091.79487145, 4119.87179460, 4114.61538434, 4121.92307665, 4135.51282031, 4108.33333306, 4127.82051255, 4105.25640998, 4107.43589716, 4127.30769203, 4146.92307672,12.0
4126.92307665, 4108.71794844, 4102.17948684, 4094.10256376, 4119.99999973, 4111.15384588, 4120.38461511, 4129.23076896, 4103.71794844, 4133.46153819, 4104.99999973, 4097.94871761, 4127.30769203, 4144.61538441,12.0
4123.71794844, 4110.64102537, 4099.99999966, 4095.64102530, 4123.07692280, 4111.66666639, 4118.97435870, 4121.92307665, 4098.46153812, 4132.43589716, 4110.76923050, 4100.64102530, 4128.58974332, 4143.84615364,12.0
4125.76923050, 4109.61538434, 4104.35897408, 4088.46153812, 4122.56410229, 4113.46153819, 4127.17948691, 4116.53846126, 4100.25640991, 4127.43589716, 4114.35897408, 4108.84615357, 4129.23076896, 4144.87179467,12.0
4128.33333306, 4110.89743562, 4107.43589716, 4083.33333299, 4120.51282024, 4114.48717921, 4131.02564075, 4122.30769203, 4109.74358947, 4128.84615357, 4111.02564075, 4113.71794844, 4130.25640998, 4146.79487159,12.0
4124.48717921, 4111.15384588, 4107.30769203, 4086.15384581, 4121.66666639, 4111.66666639, 4115.89743562, 4127.05128178, 4112.17948691, 4131.02564075, 4108.84615357, 4114.99999973, 4129.23076896, 4148.20512800,12.0
4128.58974332, 4118.33333306, 4114.87179460, 4090.12820478, 4121.02564075, 4111.79487152, 4121.28205101, 4124.61538434, 4110.12820485, 4128.71794844, 4114.87179460, 4124.23076896, 4128.84615357, 4145.51282031,12.0
4123.07692280, 4125.25640998, 4119.35897408, 4087.30769196, 4121.02564075, 4119.99999973, 4141.92307672, 4128.20512793, 4113.07692280, 4129.87179460, 4117.82051255, 4132.05128178, 4130.38461511, 4142.56410236,12.0
4122.30769203, 4117.30769203, 4112.82051255, 4075.89743555, 4120.64102537, 4114.99999973, 4130.51282024, 4130.76923050, 4114.10256383, 4129.74358947, 4110.38461511, 4122.17948691, 4130.38461511, 4144.99999980,12.0
4122.56410229, 4101.02564068, 4102.69230742, 4067.05128164, 4122.69230742, 4096.41025607, 4111.15384588, 4123.46153819, 4108.58974332, 4129.35897408, 4101.53846119, 4106.02564075, 4125.38461511, 4145.51282031,12.0
4114.23076896, 4095.51282017, 4098.71794837, 4066.28205087, 4126.02564075, 4093.58974325, 4117.82051255, 4122.82051255, 4100.25640991, 4129.48717921, 4098.97435863, 4094.99999966, 4124.74358947, 4143.07692287,12.0
4119.99999973, 4104.35897408, 4100.89743555, 4062.43589702, 4123.33333306, 4105.89743562, 4125.25640998, 4131.79487152, 4099.61538427, 4128.20512793, 4096.41025607, 4088.71794837, 4128.46153819, 4143.84615364,12.0
4118.46153819, 4109.99999973, 4098.46153812, 4060.12820472, 4121.28205101, 4110.76923050, 4122.94871767, 4139.87179467, 4109.87179460, 4128.46153819, 4098.20512786, 4090.64102530, 4124.10256383, 4144.23076903,12.0
4119.61538434, 4110.64102537, 4102.82051255, 4075.64102530, 4121.02564075, 4111.79487152, 4128.20512793, 4142.82051262, 4120.89743562, 4128.71794844, 4108.97435870, 4104.74358947, 4122.69230742, 4142.69230749,12.0
4124.61538434, 4117.82051255, 4118.84615357, 4089.23076889, 4119.99999973, 4116.15384588, 4139.10256390, 4144.87179467, 4131.79487152, 4128.46153819, 4117.69230742, 4124.35897408, 4128.33333306, 4142.17948697,12.0
4118.58974332, 4129.61538434, 4127.30769203, 4089.23076889, 4121.66666639, 4121.28205101, 4143.07692287, 4151.15384595, 4138.20512800, 4128.58974332, 4118.58974332, 4137.05128185, 4127.94871767, 4144.87179467,12.0
4125.76923050, 4135.51282031, 4129.23076896, 4099.48717914, 4123.33333306, 4125.89743562, 4144.10256390, 4154.23076903, 4139.61538441, 4128.58974332, 4123.71794844, 4145.76923056, 4127.82051255, 4146.02564082,12.0
4127.82051255, 4138.71794851, 4132.56410229, 4108.46153819, 4122.94871767, 4123.46153819, 4149.35897415, 4153.33333313, 4142.82051262, 4128.58974332, 4129.61538434, 4149.35897415, 4132.82051255, 4144.48717928,12.0
4123.97435870, 4136.02564082, 4130.12820485, 4094.48717914, 4122.30769203, 4117.69230742, 4144.23076903, 4152.05128185, 4138.58974339, 4128.58974332, 4124.48717921, 4138.97435877, 4133.58974332, 4145.89743569,12.0
4127.56410229, 4121.41025614, 4116.53846126, 4078.97435863, 4122.30769203, 4116.02564075, 4125.38461511, 4139.61538441, 4123.84615357, 4128.58974332, 4116.28205101, 4121.79487152, 4130.12820485, 4145.12820492,12.0
4126.53846126, 4122.56410229, 4106.66666639, 4079.35897402, 4121.79487152, 4107.94871767, 4115.51282024, 4129.87179460, 4117.30769203, 4128.58974332, 4113.46153819, 4113.33333306, 4129.48717921, 4143.84615364,12.0
4128.46153819, 4133.58974332, 4110.12820485, 4083.33333299, 4120.89743562, 4099.23076889, 4116.92307665, 4133.84615357, 4118.20512793, 4128.58974332, 4115.38461511, 4112.82051255, 4131.92307665, 4146.53846133,12.0
4123.07692280, 4117.82051255, 4117.69230742, 4081.92307658, 4122.82051255, 4102.94871767, 4121.79487152, 4140.25641005, 4116.02564075, 4128.58974332, 4115.12820485, 4116.41025614, 4130.51282024, 4146.92307672,12.0
4119.23076896, 4105.25640998, 4117.05128178, 4074.87179453, 4123.84615357, 4106.28205101, 4127.43589716, 4137.43589723, 4113.97435870, 4128.58974332, 4110.51282024, 4118.97435870, 4128.58974332, 4145.64102544,12.0
4124.35897408, 4115.76923050, 4104.99999973, 4064.48717907, 4119.61538434, 4103.97435870, 4121.41025614, 4123.20512793, 4107.30769203, 4128.58974332, 4108.71794844, 4107.82051255, 4132.17948691, 4143.71794851,12.0
4118.33333306, 4112.30769203, 4098.71794837, 4064.10256369, 4119.23076896, 4103.84615357, 4111.41025614, 4120.12820485, 4101.92307658, 4128.58974332, 4110.89743562, 4097.82051248, 4132.30769203, 4143.97435877,12.0
4121.53846126, 4109.87179460, 4110.76923050, 4074.23076889, 4122.69230742, 4109.99999973, 4121.66666639, 4133.46153819, 4112.17948691, 4128.58974332, 4114.48717921, 4108.58974332, 4128.46153819, 4145.38461518,12.0
4122.82051255, 4114.87179460, 4112.69230742, 4068.20512779, 4123.46153819, 4109.23076896, 4126.02564075, 4134.74358947, 4116.15384588, 4128.58974332, 4111.92307665, 4106.02564075, 4127.69230742, 4143.58974339,12.0
4117.82051255, 4107.30769203, 4094.35897402, 4053.58974318, 4122.05128178, 4091.79487145, 4108.84615357, 4122.05128178, 4102.43589709, 4128.58974332, 4104.23076896, 4077.05128171, 4129.23076896, 4144.48717928,12.0
4125.89743562, 4104.99999973, 4089.48717914, 4063.97435856, 4119.87179460, 4088.07692273, 4106.66666639, 4118.97435870, 4094.23076889, 4128.58974332, 4099.87179453, 4069.10256369, 4130.51282024, 4147.43589723,12.0
4122.94871767, 4102.05128171, 4098.84615350, 4068.71794830, 4120.12820485, 4100.25640991, 4117.05128178, 4121.28205101, 4097.94871761, 4128.58974332, 4101.28205094, 4085.76923043, 4127.82051255, 4146.92307672,12.0
4124.10256383, 4093.46153812, 4100.89743555, 4052.43589702, 4120.38461511, 4094.35897402, 4102.17948684, 4109.74358947, 4091.28205094, 4128.58974332, 4103.46153819, 4087.43589709, 4127.82051255, 4145.38461518,12.0
4129.35897408, 4101.53846119, 4097.82051248, 4053.84615343, 4120.89743562, 4080.76923043, 4084.48717914, 4101.28205094, 4078.97435863, 4128.58974332, 4102.69230742, 4079.35897402, 4129.87179460, 4143.46153826,12.0
4125.64102537, 4114.74358947, 4097.69230735, 4069.61538420, 4122.30769203, 4087.56410222, 4097.30769196, 4110.51282024, 4083.71794837, 4128.58974332, 4104.74358947, 4086.92307658, 4128.33333306, 4144.87179467,12.0
4125.51282024, 4109.48717921, 4099.35897402, 4067.05128164, 4118.97435870, 4093.20512786, 4102.43589709, 4114.23076896, 4089.99999966, 4128.58974332, 4107.17948691, 4092.94871761, 4128.46153819, 4149.74358954,12.0
4120.64102537, 4099.23076889, 4095.89743555, 4061.41025600, 4118.58974332, 4081.66666632, 4085.38461504, 4106.15384588, 4081.79487145, 4128.58974332, 4106.15384588, 4083.07692273, 4130.51282024, 4150.38461518,12.0
4125.25640998, 4107.43589716, 4101.28205094, 4071.79487145, 4123.58974332, 4084.61538427, 4094.87179453, 4112.43589716, 4080.12820478, 4128.58974332, 4108.58974332, 4091.79487145, 4131.53846126, 4147.43589723,12.0
4127.30769203, 4116.53846126, 4109.61538434, 4072.43589709, 4123.84615357, 4093.33333299, 4113.46153819, 4124.10256383, 4092.30769196, 4128.58974332, 4114.61538434, 4109.35897408, 4129.35897408, 4145.51282031,12.0
4115.89743562, 4114.10256383, 4103.97435870, 4065.64102523, 4120.25640998, 4088.97435863, 4100.89743555, 4120.51282024, 4095.12820478, 4128.58974332, 4112.82051255, 4100.12820478, 4127.43589716, 4146.02564082,12.0
4121.66666639, 4110.64102537, 4100.38461504, 4070.89743555, 4118.84615357, 4086.92307658, 4091.02564068, 4114.10256383, 4091.02564068, 4128.58974332, 4107.94871767, 4085.12820478, 4130.64102537, 4147.82051262,12.0
4122.56410229, 4105.12820485, 4104.87179460, 4069.87179453, 4121.79487152, 4089.10256376, 4105.64102537, 4116.66666639, 4095.25640991, 4128.58974332, 4109.10256383, 4090.25640991, 4129.61538434, 4147.94871774,12.0
4120.12820485, 4109.87179460, 4102.69230742, 4061.53846113, 4123.84615357, 4089.74358940, 4110.51282024, 4113.33333306, 4093.20512786, 4128.58974332, 4109.10256383, 4093.20512786, 4128.71794844, 4147.56410236,12.0
4124.23076896, 4120.12820485, 4099.74358940, 4072.43589709, 4123.20512793, 4090.25640991, 4103.33333306, 4106.15384588, 4084.48717914, 4128.58974332, 4105.51282024, 4088.20512786, 4130.76923050, 4144.87179467,12.0
4119.48717921, 4111.53846126, 4105.25640998, 4083.07692273, 4122.30769203, 4094.48717914, 4111.66666639, 4115.89743562, 4091.15384581, 4128.58974332, 4108.58974332, 4096.02564068, 4127.56410229, 4141.53846133,12.0
4123.97435870, 4102.30769196, 4104.61538434, 4066.15384574, 4121.79487152, 4100.89743555, 4119.74358947, 4125.12820485, 4103.84615357, 4128.58974332, 4115.12820485, 4098.71794837, 4126.02564075, 4143.97435877,12.0
4124.10256383, 4114.23076896, 4098.07692273, 4057.30769189, 4120.25640998, 4102.94871767, 4117.30769203, 4126.15384588, 4106.28205101, 4128.58974332, 4111.79487152, 4089.74358940, 4128.84615357, 4146.41025621,12.0
4122.30769203, 4123.20512793, 4102.30769196, 4077.56410222, 4119.23076896, 4102.82051255, 4120.12820485, 4131.92307665, 4110.64102537, 4128.58974332, 4110.25640998, 4094.87179453, 4131.15384588, 4146.15384595,12.0
4128.84615357, 4113.97435870, 4108.71794844, 4092.17948684, 4121.02564075, 4103.20512793, 4120.25640998, 4128.84615357, 4116.66666639, 4128.58974332, 4115.89743562, 4106.79487152, 4131.28205101, 4145.76923056,12.0
4125.25640998, 4109.87179460, 4106.92307665, 4085.64102530, 4124.74358947, 4100.12820478, 4114.48717921, 4121.28205101, 4110.89743562, 4128.58974332, 4113.33333306, 4103.46153819, 4128.20512793, 4146.53846133,12.0
4126.79487152, 4117.82051255, 4106.02564075, 4083.46153812, 4123.46153819, 4100.38461504, 4115.12820485, 4127.05128178, 4107.05128178, 4128.58974332, 4110.51282024, 4098.58974325, 4126.15384588, 4148.84615364,12.0
4123.07692280, 4117.30769203, 4113.07692280, 4089.35897402, 4120.64102537, 4109.10256383, 4122.56410229, 4139.61538441, 4121.53846126, 4128.58974332, 4114.23076896, 4111.53846126, 4128.46153819, 4148.46153826,12.0
4120.89743562, 4109.74358947, 4116.66666639, 4085.38461504, 4121.02564075, 4106.92307665, 4124.48717921, 4139.61538441, 4130.51282024, 4128.58974332, 4116.02564075, 4118.46153819, 4133.33333306, 4148.97435877,12.0
4129.35897408, 4109.48717921, 4108.71794844, 4083.46153812, 4121.15384588, 4098.20512786, 4114.61538434, 4123.58974332, 4113.97435870, 4128.58974332, 4113.46153819, 4107.05128178, 4130.12820485, 4148.33333313,12.0
4118.58974332, 4114.23076896, 4102.17948684, 4092.82051248, 4122.56410229, 4103.97435870, 4106.15384588, 4113.71794844, 4102.94871767, 4128.58974332, 4114.10256383, 4099.48717914, 4121.92307665, 4145.64102544,12.0
4115.12820485, 4111.41025614, 4106.15384588, 4088.20512786, 4122.05128178, 4108.71794844, 4108.20512793, 4115.25640998, 4106.02564075, 4128.58974332, 4112.94871767, 4100.38461504, 4124.61538434, 4147.82051262,12.0
4122.56410229, 4100.25640991, 4103.07692280, 4069.10256369, 4121.15384588, 4100.25640991, 4107.30769203, 4106.41025614, 4094.99999966, 4128.58974332, 4104.48717921, 4090.64102530, 4129.99999973, 4150.12820492,12.0
4120.25640998, 4101.53846119, 4098.20512786, 4074.74358940, 4122.56410229, 4097.17948684, 4107.17948691, 4100.89743555, 4088.33333299, 4128.58974332, 4103.84615357, 4083.58974325, 4126.79487152, 4149.48717928,12.0
4120.64102537, 4113.07692280, 4109.99999973, 4088.71794837, 4121.53846126, 4108.71794844, 4119.99999973, 4117.69230742, 4109.87179460, 4128.58974332, 4112.05128178, 4100.76923043, 4127.30769203, 4144.87179467,12.0
4117.94871767, 4107.56410229, 4120.12820485, 4084.61538427, 4122.56410229, 4115.89743562, 4128.07692280, 4133.84615357, 4128.58974332, 4128.58974332, 4114.48717921, 4119.61538434, 4131.66666639, 4144.10256390,12.0
4126.28205101, 4103.07692280, 4116.28205101, 4089.61538427, 4123.46153819, 4111.41025614, 4120.64102537, 4130.89743562, 4122.43589716, 4128.58974332, 4112.82051255, 4114.74358947, 4130.25640998, 4147.56410236,12.0
4132.43589716, 4115.25640998, 4107.56410229, 4097.69230735, 4121.66666639, 4110.89743562, 4116.92307665, 4127.30769203, 4113.97435870, 4128.58974332, 4113.58974332, 4099.74358940, 4126.79487152, 4144.99999980,12.0
4124.48717921, 4116.79487152, 4101.41025607, 4083.97435863, 4119.61538434, 4113.84615357, 4115.64102537, 4129.61538434, 4116.41025614, 4128.58974332, 4113.84615357, 4097.43589709, 4129.10256383, 4144.35897415,12.0
4127.56410229, 4109.48717921, 4104.87179460, 4078.71794837, 4119.48717921, 4115.89743562, 4113.46153819, 4124.99999973, 4123.20512793, 4128.58974332, 4114.61538434, 4109.87179460, 4132.94871767, 4148.33333313,12.0
4127.82051255, 4114.99999973, 4112.82051255, 4098.58974325, 4121.53846126, 4118.97435870, 4122.05128178, 4123.97435870, 4131.02564075, 4128.58974332, 4117.05128178, 4122.82051255, 4128.33333306, 4147.69230749,12.0
4127.69230742, 4121.92307665, 4116.53846126, 4103.97435870, 4121.53846126, 4119.48717921, 4126.92307665, 4127.30769203, 4130.51282024, 4128.58974332, 4116.92307665, 4123.07692280, 4125.38461511, 4144.48717928,12.0
4124.87179460, 4110.76923050, 4111.53846126, 4086.79487145, 4119.61538434, 4114.87179460, 4120.12820485, 4121.66666639, 4116.92307665, 4128.58974332, 4115.89743562, 4112.30769203, 4129.48717921, 4143.97435877,12.0
4117.69230742, 4102.43589709, 4105.64102537, 4083.46153812, 4120.89743562, 4111.53846126, 4116.15384588, 4113.71794844, 4108.33333306, 4128.58974332, 4114.35897408, 4105.38461511, 4129.99999973, 4145.25641005,12.0
4126.66666639, 4111.28205101, 4108.71794844, 4094.10256376, 4122.56410229, 4116.79487152, 4119.10256383, 4116.66666639, 4115.76923050, 4128.58974332, 4114.87179460, 4108.58974332, 4128.71794844, 4147.17948697,12.0
4120.89743562, 4112.30769203, 4108.46153819, 4096.79487145, 4120.51282024, 4120.12820485, 4124.61538434, 4127.56410229, 4124.10256383, 4128.58974332, 4114.23076896, 4109.10256383, 4128.84615357, 4148.84615364,12.0
4112.43589716, 4110.12820485, 4105.64102537, 4092.05128171, 4118.97435870, 4117.94871767, 4124.74358947, 4135.89743569, 4127.69230742, 4128.58974332, 4109.87179460, 4103.84615357, 4129.10256383, 4146.79487159,12.0
4122.05128178, 4115.38461511, 4108.71794844, 4092.56410222, 4121.28205101, 4115.89743562, 4119.87179460, 4139.87179467, 4135.51282031, 4128.58974332, 4110.12820485, 4104.99999973, 4127.94871767, 4142.82051262,12.0
4120.38461511, 4108.71794844, 4106.28205101, 4089.61538427, 4123.07692280, 4121.53846126, 4124.48717921, 4141.66666646, 4135.64102544, 4128.58974332, 4111.92307665, 4103.20512793, 4125.76923050, 4144.99999980,12.0
4121.28205101, 4098.71794837, 4101.02564068, 4082.94871761, 4119.61538434, 4134.99999973, 4139.74358954, 4141.53846133, 4128.84615357, 4128.58974332, 4108.33333306, 4094.35897402, 4128.07692280, 4148.33333313,12.0
4122.30769203, 4106.02564075, 4102.82051255, 4090.38461504, 4119.10256383, 4130.51282024, 4138.84615364, 4137.94871774, 4133.58974332, 4128.58974332, 4107.56410229, 4092.94871761, 4130.51282024, 4143.97435877,12.0
4122.17948691, 4117.17948691, 4112.17948691, 4101.79487145, 4122.82051255, 4114.35897408, 4125.38461511, 4133.20512793, 4141.02564082, 4128.58974332, 4117.82051255, 4106.28205101, 4129.23076896, 4143.46153826,12.0
4127.82051255, 4114.87179460, 4119.87179460, 4103.71794844, 4120.89743562, 4117.94871767, 4123.58974332, 4133.07692280, 4139.35897415, 4128.58974332, 4125.76923050, 4124.10256383, 4128.20512793, 4148.46153826,12.0
4122.43589716, 4112.69230742, 4119.87179460, 4104.35897408, 4118.84615357, 4129.35897408, 4125.38461511, 4137.05128185, 4137.82051262, 4128.58974332, 4122.82051255, 4130.89743562, 4126.53846126, 4148.84615364,12.0
4127.05128178, 4119.10256383, 4121.41025614, 4112.43589716, 4118.97435870, 4129.23076896, 4124.23076896, 4138.33333313, 4142.05128185, 4128.58974332, 4123.71794844, 4131.66666639, 4126.15384588, 4148.07692287,12.0
4129.74358947, 4113.97435870, 4119.10256383, 4110.38461511, 4119.99999973, 4119.48717921, 4125.12820485, 4138.97435877, 4142.56410236, 4128.58974332, 4127.05128178, 4127.82051255, 4125.76923050, 4146.41025621,12.0
4122.30769203, 4104.87179460, 4109.99999973, 4097.82051248, 4121.79487152, 4120.38461511, 4129.48717921, 4141.79487159, 4141.28205108, 4128.58974332, 4121.41025614, 4117.17948691, 4127.17948691, 4145.64102544,12.0
4124.87179460, 4110.38461511, 4109.87179460, 4099.10256376, 4120.89743562, 4135.25640998, 4137.56410236, 4140.38461518, 4141.66666646, 4128.58974332, 4115.76923050, 4114.99999973, 4131.79487152, 4146.79487159,12.0
4119.87179460, 4114.74358947, 4114.61538434, 4101.28205094, 4121.02564075, 4141.02564082, 4140.38461518, 4137.43589723, 4136.41025621, 4128.58974332, 4117.82051255, 4119.99999973, 4131.92307665, 4144.35897415,12.0
4119.48717921, 4110.25640998, 4113.33333306, 4096.92307658, 4122.05128178, 4131.15384588, 4139.74358954, 4139.23076903, 4131.15384588, 4128.58974332, 4119.74358947, 4117.82051255, 4131.28205101, 4146.41025621,12.0
4120.64102537, 4102.69230742, 4107.05128178, 4095.89743555, 4121.02564075, 4128.97435870, 4144.48717928, 4140.89743569, 4131.02564075, 4128.58974332, 4117.05128178, 4108.46153819, 4131.02564075, 4149.74358954,12.0
4115.51282024, 4101.02564068, 4103.07692280, 4096.66666632, 4120.51282024, 4134.87179460, 4138.33333313, 4137.94871774, 4130.89743562, 4128.58974332, 4113.71794844, 4099.99999966, 4127.82051255, 4147.82051262,12.0
4122.43589716, 4108.84615357, 4108.33333306, 4098.20512786, 4121.28205101, 4129.10256383, 4124.35897408, 4129.99999973, 4127.17948691, 4128.58974332, 4115.25640998, 4099.74358940, 4126.41025614, 4147.82051262,12.0
4120.51282024, 4118.97435870, 4120.64102537, 4105.25640998, 4122.56410229, 4127.43589716, 4136.02564082, 4135.12820485, 4132.05128178, 4128.58974332, 4122.69230742, 4119.23076896, 4127.94871767, 4147.94871774,12.0
4126.41025614, 4122.30769203, 4115.89743562, 4113.58974332, 4122.82051255, 4145.12820492, 4148.84615364, 4147.30769210, 4143.46153826, 4128.58974332, 4130.12820485, 4128.20512793, 4132.30769203, 4145.76923056,12.0
4124.10256383, 4121.53846126, 4108.58974332, 4109.87179460, 4121.02564075, 4132.94871767, 4138.07692287, 4129.10256383, 4135.51282031, 4128.58974332, 4126.28205101, 4118.46153819, 4131.66666639, 4146.15384595,12.0
4128.07692280, 4115.76923050, 4110.12820485, 4110.64102537, 4123.07692280, 4130.64102537, 4135.51282031, 4132.43589716, 4134.23076896, 4128.58974332, 4123.46153819, 4117.05128178, 4128.58974332, 4149.61538441,12.0
4122.82051255, 4108.97435870, 4108.58974332, 4096.79487145, 4123.46153819, 4139.74358954, 4140.25641005, 4136.92307672, 4132.94871767, 4128.58974332, 4119.99999973, 4115.51282024, 4127.43589716, 4148.46153826,12.0
4117.05128178, 4109.74358947, 4109.74358947, 4099.10256376, 4122.17948691, 4144.35897415, 4148.71794851, 4140.25641005, 4138.97435877, 4128.58974332, 4121.28205101, 4116.79487152, 4128.20512793, 4144.99999980,12.0
4123.20512793, 4124.61538434, 4121.15384588, 4124.48717921, 4122.43589716, 4148.07692287, 4151.92307672, 4150.64102544, 4155.51282031, 4128.58974332, 4128.33333306, 4131.28205101, 4130.38461511, 4147.94871774,12.0
4116.53846126, 4128.20512793, 4124.74358947, 4129.87179460, 4123.07692280, 4147.69230749, 4147.56410236, 4156.41025621, 4170.38461525, 4128.58974332, 4132.94871767, 4139.87179467, 4130.51282024, 4149.35897415,12.0
4118.58974332, 4126.53846126, 4125.76923050, 4124.23076896, 4121.92307665, 4144.99999980, 4152.05128185, 4159.10256390, 4174.48717935, 4128.58974332, 4134.74358947, 4144.61538441, 4128.84615357, 4144.35897415,12.0
4123.33333306, 4133.46153819, 4131.15384588, 4132.82051255, 4123.46153819, 4146.79487159, 4154.48717928, 4168.58974345, 4175.12820499, 4128.58974332, 4135.51282031, 4151.15384595, 4124.87179460, 4141.02564082,12.0
4120.89743562, 4136.15384595, 4128.33333306, 4140.12820492, 4124.10256383, 4147.05128185, 4143.07692287, 4169.99999986, 4179.35897422, 4128.58974332, 4137.94871774, 4142.82051262, 4124.10256383, 4144.87179467,12.0
4125.64102537, 4128.84615357, 4123.07692280, 4132.17948691, 4122.30769203, 4145.64102544, 4141.79487159, 4167.17948697, 4185.51282038, 4128.58974332, 4139.48717928, 4136.53846133, 4128.97435870, 4145.12820492,12.0
4122.82051255, 4118.84615357, 4119.10256383, 4119.99999973, 4123.07692280, 4141.53846133, 4143.84615364, 4165.12820492, 4179.10256397, 4128.58974332, 4133.97435870, 4134.35897408, 4129.10256383, 4141.41025621,12.0
4125.64102537, 4127.94871767, 4117.30769203, 4125.12820485, 4123.20512793, 4139.35897415, 4140.12820492, 4157.82051262, 4167.17948697, 4128.58974332, 4129.99999973, 4128.07692280, 4128.46153819, 4146.02564082,12.0
4127.69230742, 4138.97435877, 4122.05128178, 4139.35897415, 4122.30769203, 4147.05128185, 4155.38461518, 4159.35897415, 4171.28205115, 4128.58974332, 4134.74358947, 4131.66666639, 4130.76923050, 4150.38461518,12.0
4124.87179460, 4134.10256383, 4121.66666639, 4139.23076903, 4123.71794844, 4150.12820492, 4161.66666646, 4156.66666646, 4168.20512807, 4128.58974332, 4133.84615357, 4134.74358947, 4130.89743562, 4148.84615364,12.0
4129.61538434, 4125.38461511, 4115.12820485, 4126.66666639, 4122.69230742, 4143.97435877, 4142.30769210, 4137.30769210, 4151.92307672, 4128.58974332, 4127.82051255, 4127.82051255, 4128.71794844, 4148.33333313,12.0
4123.46153819, 4124.35897408, 4114.74358947, 4130.51282024, 4121.53846126, 4140.38461518, 4141.66666646, 4134.10256383, 4147.82051262, 4128.58974332, 4127.30769203, 4127.69230742, 4126.41025614, 4148.33333313,12.0
4123.84615357, 4131.79487152, 4122.56410229, 4139.99999980, 4122.69230742, 4141.02564082, 4153.46153826, 4146.79487159, 4151.02564082, 4128.58974332, 4131.79487152, 4138.07692287, 4128.07692280, 4147.05128185,12.0
4125.76923050, 4131.92307665, 4127.94871767, 4131.79487152, 4122.82051255, 4144.23076903, 4145.12820492, 4146.28205108, 4154.74358954, 4128.58974332, 4135.25640998, 4144.99999980, 4130.64102537, 4146.41025621,12.0
4116.92307665, 4134.87179460, 4130.38461511, 4131.02564075, 4122.82051255, 4143.84615364, 4134.87179460, 4143.33333313, 4161.79487159, 4128.58974332, 4134.10256383, 4147.94871774, 4128.97435870, 4146.28205108,12.0
4121.53846126, 4144.87179467, 4134.10256383, 4146.66666646, 4119.87179460, 4142.05128185, 4137.30769210, 4151.66666646, 4162.94871774, 4128.58974332, 4133.84615357, 4149.23076903, 4125.89743562, 4142.69230749,12.0
4118.97435870, 4144.61538441, 4134.35897408, 4152.17948697, 4120.51282024, 4149.87179467, 4146.92307672, 4159.99999980, 4158.71794851, 4128.58974332, 4134.23076896, 4147.56410236, 4125.12820485, 4143.71794851,12.0
4118.97435870, 4138.71794851, 4128.71794844, 4142.17948697, 4123.46153819, 4157.43589723, 4156.28205108, 4161.15384595, 4160.64102544, 4128.58974332, 4131.92307665, 4145.64102544, 4129.10256383, 4147.05128185,12.0
4126.02564075, 4131.02564075, 4122.05128178, 4131.41025614, 4122.43589716, 4156.28205108, 4156.92307672, 4155.38461518, 4159.10256390, 4128.58974332, 4131.28205101, 4140.76923056, 4128.97435870, 4144.23076903,12.0
4120.25640998, 4129.87179460, 4123.97435870, 4133.46153819, 4121.66666639, 4156.15384595, 4154.87179467, 4153.71794851, 4155.89743569, 4128.58974332, 4131.66666639, 4134.61538434, 4123.84615357, 4143.71794851,12.0
4124.61538434, 4137.56410236, 4129.48717921, 4143.97435877, 4122.56410229, 4155.64102544, 4155.76923056, 4151.53846133, 4156.53846133, 4128.58974332, 4131.15384588, 4132.17948691, 4127.05128178, 4145.12820492,12.0
4126.53846126, 4138.33333313, 4126.15384588, 4142.30769210, 4124.74358947, 4144.87179467, 4142.56410236, 4140.51282031, 4153.46153826, 4128.58974332, 4131.15384588, 4132.56410229, 4131.41025614, 4142.94871774,12.0
4124.87179460, 4135.25640998, 4125.12820485, 4132.30769203, 4124.99999973, 4143.33333313, 4135.89743569, 4141.41025621, 4159.87179467, 4128.58974332, 4133.58974332, 4135.25640998, 4128.46153819, 4145.89743569,12.0
4129.23076896, 4138.71794851, 4126.92307665, 4131.92307665, 4122.30769203, 4151.92307672, 4147.43589723, 4152.94871774, 4168.33333320, 4128.58974332, 4133.97435870, 4130.51282024, 4126.92307665, 4150.12820492,12.0
4125.25640998, 4132.30769203, 4120.12820485, 4131.02564075, 4122.56410229, 4149.48717928, 4144.10256390, 4155.25641005, 4160.76923056, 4128.58974332, 4130.25640998, 4123.33333306, 4127.56410229, 4149.23076903,12.0
4126.15384588, 4123.58974332, 4117.30769203, 4130.25640998, 4123.71794844, 4144.74358954, 4132.17948691, 4143.33333313, 4151.28205108, 4128.58974332, 4128.07692280, 4125.76923050, 4129.23076896, 4146.66666646,12.0
4122.56410229, 4132.56410229, 4121.15384588, 4132.82051255, 4122.30769203, 4143.46153826, 4133.20512793, 4130.38461511, 4143.07692287, 4128.58974332, 4126.53846126, 4124.48717921, 4130.12820485, 4143.58974339,12.0
4119.61538434, 4141.53846133, 4122.94871767, 4132.30769203, 4121.66666639, 4144.23076903, 4140.51282031, 4135.12820485, 4134.35897408, 4128.58974332, 4124.23076896, 4121.92307665, 4129.61538434, 4143.33333313,12.0
4124.61538434, 4134.87179460, 4128.07692280, 4134.23076896, 4123.46153819, 4150.25641005, 4149.61538441, 4151.28205108, 4145.51282031, 4128.58974332, 4124.99999973, 4132.30769203, 4129.23076896, 4143.71794851,12.0
4119.35897408, 4132.43589716, 4131.92307665, 4130.51282024, 4124.61538434, 4156.02564082, 4160.38461518, 4159.99999980, 4163.97435877, 4128.58974332, 4128.71794844, 4141.15384595, 4128.58974332, 4142.30769210,12.0
4122.30769203, 4141.66666646, 4127.05128178, 4118.84615357, 4123.58974332, 4154.87179467, 4159.35897415, 4150.76923056, 4155.25641005, 4128.58974332, 4129.87179460, 4132.94871767, 4129.99999973, 4145.38461518,12.0
4123.20512793, 4139.35897415, 4120.89743562, 4124.61538434, 4121.02564075, 4153.46153826, 4153.97435877, 4141.92307672, 4148.33333313, 4128.58974332, 4127.56410229, 4120.51282024, 4127.17948691, 4146.41025621,12.0
4116.92307665, 4131.92307665, 4124.10256383, 4139.74358954, 4121.28205101, 4157.69230749, 4157.69230749, 4157.17948697, 4173.33333320, 4128.58974332, 4129.87179460, 4123.97435870, 4123.71794844, 4143.71794851,12.0
4123.07692280, 4137.94871774, 4127.30769203, 4136.53846133, 4123.97435870, 4161.02564082, 4159.35897415, 4168.07692287, 4188.33333320, 4128.58974332, 4135.12820485, 4133.20512793, 4128.07692280, 4143.20512800,12.0
4120.89743562, 4137.56410236, 4119.99999973, 4127.05128178, 4125.76923050, 4157.17948697, 4152.43589723, 4153.58974339, 4169.35897422, 4128.58974332, 4130.89743562, 4122.43589716, 4130.51282024, 4142.94871774,12.0
4123.71794844, 4133.58974332, 4115.12820485, 4125.51282024, 4122.05128178, 4153.97435877, 4149.23076903, 4147.94871774, 4158.97435877, 4128.58974332, 4121.53846126, 4105.76923050, 4128.58974332, 4145.25641005,12.0
4130.38461511, 4136.02564082, 4119.23076896, 4123.33333306, 4121.92307665, 4158.58974339, 4155.89743569, 4160.38461518, 4169.35897422, 4128.58974332, 4122.94871767, 4114.23076896, 4125.89743562, 4148.46153826,12.0
4123.71794844, 4135.38461518, 4124.87179460, 4121.92307665, 4127.05128178, 4164.35897415, 4159.10256390, 4160.64102544, 4167.82051262, 4128.58974332, 4131.28205101, 4130.25640998, 4123.58974332, 4148.20512800,12.0
4125.64102537, 4140.64102544, 4129.48717921, 4132.43589716, 4125.51282024, 4160.64102544, 4152.30769210, 4147.94871774, 4154.61538441, 4128.58974332, 4130.12820485, 4132.05128178, 4127.69230742, 4145.38461518,12.0
4125.51282024, 4151.66666646, 4133.58974332, 4142.30769210, 4123.33333306, 4151.92307672, 4151.28205108, 4148.07692287, 4153.97435877, 4128.58974332, 4128.20512793, 4137.05128185, 4133.71794844, 4143.84615364,12.0
4126.28205101, 4152.56410236, 4135.51282031, 4142.69230749, 4124.10256383, 4156.92307672, 4154.61538441, 4152.94871774, 4163.20512800, 4128.58974332, 4138.71794851, 4142.69230749, 4132.69230742, 4146.02564082,12.0
4128.20512793, 4145.89743569, 4130.25640998, 4143.84615364, 4121.15384588, 4165.76923056, 4151.79487159, 4147.05128185, 4162.94871774, 4128.58974332, 4141.66666646, 4135.38461518, 4127.69230742, 4147.05128185,12.0
4121.41025614, 4139.74358954, 4120.64102537, 4141.41025621, 4120.12820485, 4160.38461518, 4153.71794851, 4142.82051262, 4155.89743569, 4128.58974332, 4132.43589716, 4125.76923050, 4127.17948691, 4146.53846133,12.0
4124.87179460, 4137.17948697, 4119.35897408, 4133.20512793, 4121.53846126, 4152.69230749, 4150.12820492, 4141.66666646, 4155.12820492, 4128.58974332, 4132.30769203, 4120.38461511, 4129.61538434, 4145.38461518,12.0
4122.94871767, 4135.89743569, 4119.61538434, 4130.12820485, 4123.33333306, 4146.53846133, 4136.02564082, 4137.94871774, 4156.53846133, 4128.58974332, 4133.97435870, 4115.76923050, 4127.69230742, 4144.99999980,12.0
4120.38461511, 4140.76923056, 4117.05128178, 4130.25640998, 4124.48717921, 4146.15384595, 4141.02564082, 4138.71794851, 4153.07692287, 4128.58974332, 4129.35897408, 4118.84615357, 4127.82051255, 4146.15384595,12.0
4123.97435870, 4144.10256390, 4121.41025614, 4127.94871767, 4122.43589716, 4152.94871774, 4154.99999980, 4144.87179467, 4154.35897415, 4128.58974332, 4129.99999973, 4130.25640998, 4130.64102537, 4144.87179467,12.0
4118.58974332, 4141.41025621, 4128.58974332, 4136.28205108, 4122.30769203, 4148.07692287, 4142.43589723, 4148.33333313, 4159.10256390, 4128.58974332, 4132.94871767, 4138.33333313, 4127.56410229, 4144.74358954,12.0
4124.35897408, 4146.28205108, 4133.84615357, 4147.94871774, 4123.97435870, 4134.99999973, 4127.30769203, 4145.12820492, 4154.99999980, 4128.58974332, 4133.20512793, 4140.89743569, 4125.89743562, 4144.35897415,12.0
4125.25640998, 4153.33333313, 4135.38461518, 4145.51282031, 4123.07692280, 4141.53846133, 4144.74358954, 4146.28205108, 4151.66666646, 4128.58974332, 4133.97435870, 4138.97435877, 4129.35897408, 4142.82051262,12.0
4122.30769203, 4154.35897415, 4136.02564082, 4143.97435877, 4122.17948691, 4152.43589723, 4166.02564082, 4153.33333313, 4154.61538441, 4128.58974332, 4133.07692280, 4140.12820492, 4131.15384588, 4144.61538441,12.0
4127.94871767, 4151.15384595, 4134.87179460, 4149.48717928, 4123.46153819, 4150.76923056, 4164.74358954, 4153.20512800, 4152.05128185, 4128.58974332, 4131.15384588, 4143.07692287, 4131.79487152, 4145.89743569,12.0
4121.92307665, 4145.64102544, 4124.35897408, 4150.38461518, 4124.87179460, 4151.02564082, 4152.43589723, 4147.30769210, 4143.84615364, 4128.58974332, 4129.87179460, 4127.05128178, 4132.69230742, 4146.53846133,12.0
4123.33333306, 4143.58974339, 4117.30769203, 4141.92307672, 4121.66666639, 4157.43589723, 4150.76923056, 4146.02564082, 4139.23076903, 4128.58974332, 4126.92307665, 4103.84615357, 4131.53846126, 4147.05128185,12.0
4124.61538434, 4145.64102544, 4118.07692280, 4130.38461511, 4121.02564075, 4159.23076903, 4157.17948697, 4149.10256390, 4140.25641005, 4128.58974332, 4122.82051255, 4103.84615357, 4125.89743562, 4143.07692287,12.0
4121.66666639, 4151.28205108, 4120.64102537, 4133.58974332, 4122.69230742, 4155.89743569, 4156.79487159, 4152.69230749, 4144.48717928, 4128.58974332, 4123.71794844, 4117.17948691, 4124.87179460, 4142.43589723,12.0
4128.07692280, 4150.12820492, 4128.46153819, 4147.17948697, 4122.56410229, 4151.92307672, 4153.07692287, 4149.35897415, 4147.82051262, 4128.58974332, 4128.46153819, 4124.99999973, 4128.58974332, 4148.46153826,12.0
4119.48717921, 4147.05128185, 4137.94871774, 4149.74358954, 4123.71794844, 4154.10256390, 4157.56410236, 4148.46153826, 4152.43589723, 4128.58974332, 4130.64102537, 4134.99999973, 4126.41025614, 4149.61538441,12.0
4116.02564075, 4153.07692287, 4138.58974339, 4147.30769210, 4123.46153819, 4162.82051262, 4160.12820492, 4153.58974339, 4156.28205108, 4128.58974332, 4131.79487152, 4139.99999980, 4124.74358947, 4145.89743569,12.0
4120.64102537, 4146.15384595, 4131.53846126, 4147.17948697, 4123.46153819, 4156.66666646, 4146.92307672, 4149.74358954, 4148.84615364, 4128.58974332, 4131.66666639, 4128.58974332, 4125.76923050, 4143.71794851,12.0
4119.99999973, 4133.33333306, 4128.58974332, 4144.10256390, 4124.48717921, 4142.43589723, 4136.15384595, 4141.41025621, 4138.46153826, 4128.58974332, 4130.76923050, 4122.05128178, 4126.92307665, 4144.23076903,12.0
4126.53846126, 4139.74358954, 4130.76923050, 4138.58974339, 4123.33333306, 4141.79487159, 4137.43589723, 4137.56410236, 4134.23076896, 4128.58974332, 4131.02564075, 4129.10256383, 4128.20512793, 4143.58974339,12.0
4121.02564075, 4148.33333313, 4132.56410229, 4139.61538441, 4122.43589716, 4142.94871774, 4138.07692287, 4140.25641005, 4136.79487159, 4128.58974332, 4130.38461511, 4134.48717921, 4126.41025614, 4142.17948697,12.0
4119.23076896, 4148.46153826, 4135.76923056, 4148.97435877, 4122.94871767, 4141.92307672, 4138.71794851, 4143.71794851, 4146.15384595, 4128.58974332, 4130.38461511, 4134.87179460, 4124.61538434, 4144.61538441,12.0
4126.66666639, 4147.05128185, 4136.28205108, 4141.53846133, 4123.46153819, 4145.76923056, 4138.71794851, 4139.87179467, 4148.84615364, 4128.58974332, 4129.61538434, 4128.97435870, 4125.76923050, 4144.23076903,12.0
4123.58974332, 4143.33333313, 4132.30769203, 4124.61538434, 4124.23076896, 4144.74358954, 4131.92307665, 4133.20512793, 4138.33333313, 4128.58974332, 4126.79487152, 4121.79487152, 4126.66666639, 4142.05128185,12.0
4125.25640998, 4142.30769210, 4133.46153819, 4133.58974332, 4124.99999973, 4139.23076903, 4132.82051255, 4136.02564082, 4135.51282031, 4128.58974332, 4126.92307665, 4125.12820485, 4128.07692280, 4143.58974339,12.0
4122.17948691, 4144.87179467, 4134.99999973, 4144.87179467, 4124.99999973, 4144.99999980, 4142.17948697, 4141.79487159, 4142.69230749, 4128.58974332, 4127.56410229, 4133.33333306, 4128.58974332, 4146.28205108,12.0
4122.94871767, 4144.23076903, 4133.07692280, 4132.30769203, 4123.07692280, 4148.84615364, 4134.61538434, 4134.61538434, 4136.92307672, 4128.58974332, 4124.74358947, 4131.92307665, 4129.23076896, 4147.82051262,12.0
4128.33333306, 4142.94871774, 4134.35897408, 4132.05128178, 4120.12820485, 4142.82051262, 4127.30769203, 4128.58974332, 4131.15384588, 4128.58974332, 4127.56410229, 4133.71794844, 4131.02564075, 4145.64102544,12.0
4122.17948691, 4147.82051262, 4136.15384595, 4147.30769210, 4121.02564075, 4143.58974339, 4140.12820492, 4135.51282031, 4140.12820492, 4128.58974332, 4134.99999973, 4144.35897415, 4127.17948691, 4143.97435877,12.0
4124.61538434, 4152.82051262, 4134.87179460, 4144.10256390, 4122.56410229, 4150.25641005, 4142.82051262, 4137.43589723, 4140.89743569, 4128.58974332, 4131.92307665, 4140.64102544, 4125.76923050, 4149.74358954,12.0
4123.46153819, 4143.20512800, 4131.28205101, 4133.07692280, 4121.41025614, 4146.79487159, 4132.30769203, 4132.05128178, 4133.33333306, 4128.58974332, 4126.28205101, 4125.25640998, 4128.71794844, 4151.79487159,12.0
4121.53846126, 4145.64102544, 4134.48717921, 4140.51282031, 4121.53846126, 4144.87179467, 4144.74358954, 4137.43589723, 4143.20512800, 4128.58974332, 4133.20512793, 4131.66666639, 4129.23076896, 4147.17948697,12.0
4127.43589716, 4157.94871774, 4142.82051262, 4154.35897415, 4122.82051255, 4153.84615364, 4155.51282031, 4145.51282031, 4161.66666646, 4128.58974332, 4142.17948697, 4151.92307672, 4127.30769203, 4146.79487159,12.0
4119.35897408, 4151.15384595, 4143.97435877, 4153.58974339, 4122.82051255, 4154.61538441, 4141.92307672, 4150.12820492, 4164.48717928, 4128.58974332, 4142.30769210, 4156.92307672, 4123.84615357, 4148.20512800,12.0
4121.66666639, 4148.71794851, 4143.20512800, 4141.41025621, 4122.05128178, 4149.74358954, 4138.07692287, 4150.89743569, 4154.23076903, 4128.58974332, 4138.84615364, 4153.71794851, 4127.17948691, 4146.79487159,12.0
4126.28205101, 4157.43589723, 4144.87179467, 4139.23076903, 4121.79487152, 4146.28205108, 4138.07692287, 4140.89743569, 4142.30769210, 4128.58974332, 4136.02564082, 4151.79487159, 4131.53846126, 4146.02564082,12.0
4119.10256383, 4153.97435877, 4147.82051262, 4148.97435877, 4121.41025614, 4143.07692287, 4124.74358947, 4134.74358947, 4138.20512800, 4128.58974332, 4135.12820485, 4154.99999980, 4128.20512793, 4145.64102544,12.0
4120.51282024, 4147.82051262, 4146.92307672, 4147.30769210, 4121.41025614, 4143.97435877, 4122.30769203, 4132.43589716, 4139.23076903, 4128.58974332, 4135.38461518, 4160.38461518, 4127.69230742, 4142.82051262,12.0
4121.79487152, 4148.46153826, 4136.66666646, 4131.15384588, 4125.12820485, 4142.17948697, 4125.64102537, 4121.53846126, 4130.25640998, 4128.58974332, 4130.51282024, 4143.84615364, 4132.30769203, 4144.87179467,12.0
4126.02564075, 4141.79487159, 4128.20512793, 4121.28205101, 4124.74358947, 4137.82051262, 4116.02564075, 4113.20512793, 4120.38461511, 4128.58974332, 4125.76923050, 4120.89743562, 4132.82051255, 4149.10256390,12.0
4125.76923050, 4137.05128185, 4133.20512793, 4124.23076896, 4121.79487152, 4142.17948697, 4123.97435870, 4126.66666639, 4132.30769203, 4128.58974332, 4130.51282024, 4135.12820485, 4128.84615357, 4145.64102544,12.0
4121.28205101, 4145.89743569, 4139.87179467, 4134.48717921, 4123.71794844, 4146.53846133, 4139.61538441, 4140.25641005, 4148.46153826, 4128.58974332, 4137.05128185, 4154.74358954, 4126.92307665, 4144.23076903,12.0
4127.05128178, 4154.74358954, 4139.99999980, 4142.56410236, 4123.46153819, 4145.76923056, 4136.28205108, 4137.94871774, 4150.76923056, 4128.58974332, 4139.99999980, 4145.51282031, 4127.56410229, 4147.17948697,12.0
4124.48717921, 4156.28205108, 4144.48717928, 4141.28205108, 4122.94871767, 4156.41025621, 4136.66666646, 4144.61538441, 4155.76923056, 4128.58974332, 4141.15384595, 4144.87179467, 4128.07692280, 4146.02564082,12.0
4124.87179460, 4158.97435877, 4149.87179467, 4145.38461518, 4124.48717921, 4162.30769210, 4142.56410236, 4148.07692287, 4156.41025621, 4128.58974332, 4142.43589723, 4157.56410236, 4128.46153819, 4145.64102544,12.0
4124.74358947, 4161.66666646, 4147.30769210, 4159.87179467, 4123.97435870, 4149.10256390, 4138.58974339, 4142.05128185, 4153.20512800, 4128.58974332, 4144.10256390, 4162.17948697, 4127.05128178, 4146.66666646,12.0
4116.28205101, 4157.94871774, 4147.05128185, 4166.79487159, 4122.56410229, 4144.35897415, 4133.58974332, 4151.28205108, 4163.46153826, 4128.58974332, 4146.15384595, 4165.76923056, 4125.51282024, 4145.12820492,12.0
4123.84615357, 4164.48717928, 4153.46153826, 4158.46153826, 4122.69230742, 4149.10256390, 4129.74358947, 4152.30769210, 4162.69230749, 4128.58974332, 4144.23076903, 4169.23076910, 4128.33333306, 4143.07692287,12.0
4121.66666639, 4165.12820492, 4146.28205108, 4147.56410236, 4123.84615357, 4139.61538441, 4112.05128178, 4123.58974332, 4133.58974332, 4128.58974332, 4138.71794851, 4158.20512800, 4127.17948691, 4143.20512800,12.0
4116.41025614, 4146.92307672, 4135.25640998, 4145.51282031, 4123.07692280, 4132.69230742, 4105.38461511, 4113.84615357, 4123.71794844, 4128.58974332, 4138.33333313, 4148.46153826, 4125.89743562, 4144.48717928,12.0
4123.58974332, 4140.89743569, 4139.35897415, 4141.15384595, 4122.82051255, 4144.61538441, 4131.28205101, 4137.94871774, 4150.89743569, 4128.58974332, 4139.61538441, 4151.41025621, 4130.25640998, 4143.33333313,12.0
