AF3,F7,F3,FC5,T7,P7,O1,O2,P8,T8,FC6,F4,F8,AF4,Label
4177.30769217, 4184.35897422, 4185.12820499, 4269.35897443, 4124.61538434, 4137.30769210, 4171.53846140, 4153.46153826, 4191.02564089, 4127.69230742, 5402.69231013, 4167.05128185, 4168.71794858, 4147.94871774,12.0
4182.69230756, 4158.97435877, 4166.66666646, 4251.15384616, 4128.46153819, 4117.94871767, 4142.82051262, 4132.56410229, 4166.15384595, 4127.43589716, 5371.15384852, 4135.38461518, 4162.56410236, 4147.17948697,12.0
4169.48717935, 4123.84615357, 4134.74358947, 4219.35897429, 4127.94871767, 4084.99999966, 4102.30769196, 4097.56410222, 4120.51282024, 4131.41025614, 5333.20513050, 4086.53846119, 4143.20512800, 4143.58974339,12.0
4182.17948704, 4098.84615350, 4115.51282024, 4185.25641012, 4127.56410229, 4049.87179446, 4074.87179453, 4079.87179453, 4091.53846119, 4128.20512793, 5298.58974582, 4052.05128164, 4132.56410229, 4148.20512800,12.0
4175.25641012, 4085.12820478, 4102.94871767, 4164.74358954, 4124.48717921, 4042.05128164, 4066.41025600, 4075.89743555, 4079.61538427, 4126.15384588, 5270.38461754, 4037.30769189, 4132.05128178, 4146.02564082,12.0
4176.79487166, 4081.41025607, 4096.41025607, 4159.23076903, 4126.28205101, 4038.97435856, 4060.12820472, 4068.07692266, 4076.41025607, 4134.35897408, 5252.69230985, 4026.79487131, 4130.12820485, 4147.56410236,12.0
4187.30769217, 4064.61538420, 4082.69230735, 4139.48717928, 4127.43589716, 4007.43589695, 4037.30769189, 4050.51282010, 4061.28205087, 4137.69230749, 5231.02564311, 4002.05128150, 4120.25640998, 4147.94871774,12.0
4174.35897422, 4027.69230721, 4053.07692266, 4098.46153812, 4123.20512793, 3963.71794810, 3996.92307637, 4019.10256362, 4012.43589695, 4128.20512793, 5190.76923279, 3961.41025579, 4106.53846126, 4141.92307672,12.0
4184.87179474, 3998.20512765, 4023.58974311, 4052.30769189, 4125.76923050, 3927.43589674, 3950.64102502, 3976.79487124, 3950.64102502, 4124.61538434, 5150.12820701, 3917.17948649, 4094.74358940, 4142.43589723,12.0
4178.71794858, 3930.12820444, 3955.12820451, 3955.76923015, 4125.64102537, 3834.10256320, 3847.94871712, 3889.74358898, 3849.99999917, 4128.20512793, 5092.69230950, 3820.12820423, 4067.56410215, 4141.41025621,12.0
4172.30769217, 3744.87179383, 3809.35897346, 3734.74358864, 4123.58974332, 3616.02563971, 3627.17948586, 3706.15384498, 3628.58974227, 4127.30769203, 4972.56410410, 3593.33333195, 4004.35897388, 4147.43589723,12.0
4181.15384602, 3473.58974193, 3610.89743458, 3417.43589570, 4123.97435870, 3322.69230575, 3326.15384421, 3443.46153673, 3301.02563901, 4126.41025614, 4800.12820631, 3259.74358766, 3914.87179418, 4149.74358954,12.0
4168.20512807, 3181.41025412, 3393.84615204, 3076.02563853, 4119.99999973, 3021.15384359, 2995.89743326, 3148.71794636, 2946.02563825, 4128.84615357, 4611.02564179, 2897.94871510, 3817.43589654, 4142.43589723,12.0
4176.53846140, 2893.33333049, 3187.30769009, 2744.99999681, 4120.64102537, 2715.51281725, 2656.66666327, 2860.76922785, 2604.35897089, 4130.12820485, 4429.61538497, 2558.71794511, 3719.35897325, 4147.69230749,12.0
4169.10256397, 2643.71794532, 3008.58974095, 2463.71794497, 4120.12820485, 2429.10256028, 2365.12820117, 2616.41025294, 2303.71794462, 4128.20512793, 4279.48717956, 2271.92307276, 3632.82051150, 4146.53846133,12.0
4158.97435877, 2478.58973984, 2885.64102273, 2275.64102148, 4117.30769203, 2244.74358551, 2189.10255973, 2453.84615003, 2097.30768773, 4127.05128178, 4172.17948704, 2074.35896978, 3576.28204983, 4144.23076903,12.0
4177.30769217, 2357.82050879, 2795.76922772, 2130.38461087, 4117.43589716, 2129.23076472, 2065.38461073, 2337.05127802, 1955.64102078, 4129.87179460, 4079.35897402, 1926.28204635, 3537.69230617, 4147.17948697,12.0
4161.53846133, 2217.05127775, 2682.43589410, 1966.02563617, 4112.43589716, 1984.99999521, 1913.84614892, 2201.02563672, 1796.15384095, 4130.38461511, 3981.15384560, 1759.99999472, 3486.66666507, 4144.35897415,12.0
4163.97435877, 2077.56409798, 2568.84615031, 1811.15384102, 4114.61538434, 1838.20512314, 1763.58973831, 2062.94871330, 1622.43589188, 4127.30769203, 3886.02564027, 1590.76922514, 3433.84615211, 4148.97435877,12.0
4170.12820499, 1954.10255924, 2475.12820138, 1677.56409715, 4116.92307665, 1707.82050747, 1619.35896880, 1936.92307206, 1463.84614794, 4127.17948691, 3794.87179390, 1444.10255820, 3387.69230589, 4146.28205108,12.0
4153.58974339, 1854.48717442, 2396.41025252, 1558.20512251, 4108.97435870, 1588.33332771, 1490.64101981, 1832.82050768, 1345.64101953, 4129.23076896, 3720.38461428, 1331.53845536, 3351.28204941, 4142.05128185,12.0
4166.79487159, 1790.64102043, 2344.99999597, 1476.66666076, 4109.35897408, 1508.84614801, 1416.66666069, 1772.30768710, 1285.38460913, 4129.10256383, 3666.02563978, 1253.97435265, 3329.61538267, 4146.79487159,12.0
4161.02564082, 1735.76922542, 2304.10256001, 1421.66666069, 4109.35897408, 1449.87178897, 1358.58973748, 1724.74358440, 1233.07691669, 4127.30769203, 3614.10256279, 1195.51281405, 3308.46153645, 4145.25641005,12.0
4157.30769210, 1673.58973810, 2258.97435474, 1360.12819902, 4108.71794844, 1380.51281447, 1273.46153214, 1655.76922528, 1159.61537809, 4129.87179460, 3562.30769085, 1144.74358315, 3285.51281850, 4145.89743569,12.0
4166.41025621, 1644.87178939, 2236.79486756, 1333.07691690, 4108.84615357, 1354.74358363, 1242.82050643, 1631.28204573, 1138.46153186, 4132.17948691, 3530.89743437, 1127.69230109, 3273.71794664, 4145.25641005,12.0
4154.99999980, 1668.33332785, 2249.23076500, 1359.74358363, 4102.69230742, 1387.43589139, 1285.12819888, 1661.79486631, 1168.46153193, 4129.87179460, 3524.99999848, 1145.25640366, 3273.33333125, 4143.33333313,12.0
4161.66666646, 1697.43589202, 2267.56409840, 1386.02563498, 4102.94871767, 1420.64101967, 1314.61537843, 1672.30768682, 1176.02563450, 4128.84615357, 3531.15384463, 1160.25640373, 3277.30769023, 4143.46153826,12.0
4160.12820492, 1703.58973817, 2268.33332917, 1396.15384011, 4104.74358947, 1447.43589153, 1327.69230151, 1677.43589202, 1179.35896783, 4128.71794844, 3532.94871642, 1173.33332681, 3281.92307484, 4140.51282031,12.0
4158.84615364, 1682.82050740, 2248.46153423, 1367.56409645, 4101.92307658, 1429.48717352, 1304.23076298, 1655.64102016, 1170.38460886, 4127.94871767, 3507.69230610, 1162.43589091, 3274.74358766, 4146.15384595,12.0
4163.07692287, 1591.02563540, 2177.94871357, 1258.71794240, 4098.84615350, 1305.38460913, 1192.05127559, 1518.97435321, 1091.28204462, 4128.46153819, 3431.28204955, 1085.12819846, 3237.17948503, 4148.20512800,12.0
4152.17948697, 1399.23076319, 2020.64102092, 1086.53845487, 4098.07692273, 1143.84614725, 1040.76922396, 1302.05127580, 952.43589049, 4129.74358947, 3295.64102363, 951.02563401, 3162.30769002, 4145.89743569,12.0
4154.74358954, 1142.69230109, 1814.35896922, 904.61537753, 4097.56410222, 979.74358280, 902.17948010, 1099.87178820, 837.30768508, 4127.43589716, 3122.17948482, 826.66665944, 3067.17948468, 4149.10256390,12.0
4142.82051262, 934.35896734, 1606.41025079, 791.53845425, 4091.66666632, 823.46153124, 793.84614655, 915.51281343, 791.79486450, 4128.07692280, 2938.20512543, 779.99999264, 2970.51281781, 4145.76923056,12.0
4143.20512800, 852.69230047, 1430.51281454, 781.92306956, 4092.30769196, 785.38460802, 777.17947982, 804.74358245, 792.94871066, 4138.33333313, 2779.35897124, 794.99999271, 2882.94871503, 4145.76923056,12.0
4151.41025621, 805.12819784, 1322.17948100, 795.12819784, 4093.07692273, 800.64101835, 800.89742861, 791.66665937, 799.35896707, 4136.41025621, 2677.69230436, 800.51281322, 2824.99999702, 4144.74358954,12.0
4133.46153819, 778.33332597, 1292.69230144, 787.94871066, 4085.76923043, 780.12819777, 790.64101835, 778.84614648, 796.02563373, 4129.23076896, 2638.33332993, 792.82050553, 2810.25640720, 4144.99999980,12.0
4146.92307672, 823.84614662, 1341.66666049, 792.69230040, 4087.43589709, 787.94871066, 791.53845425, 775.89742854, 798.58973630, 4134.99999973, 2660.12820180, 799.99999271, 2830.76922779, 4151.28205108,12.0
4142.82051262, 873.71794156, 1436.28204531, 797.17947989, 4087.43589709, 807.56409527, 798.58973630, 830.25640303, 798.71794143, 4136.41025621, 2721.66666340, 800.12819784, 2869.48717657, 4141.02564082,12.0
4132.69230742, 903.07691599, 1517.30768654, 793.97435168, 4085.25640991, 809.23076194, 795.51281322, 887.82050574, 795.12819784, 4132.56410229, 2772.56409944, 798.07691578, 2907.43589459, 4140.64102544,12.0
4152.17948697, 946.66665965, 1563.58973790, 799.10255681, 4091.28205094, 829.48717226, 799.61537732, 907.05127497, 795.89742861, 4134.23076896, 2797.17948413, 801.02563373, 2927.94871517, 4147.69230749,12.0
4133.07692280, 995.89742902, 1617.94871239, 813.97435168, 4083.46153812, 868.97435182, 809.99999271, 934.23076222, 794.87178758, 4136.02564082, 2824.74358676, 791.02563373, 2943.97435620, 4140.25641005,12.0
4139.74358954, 1083.20512154, 1723.97435363, 859.48717233, 4079.61538427, 931.66665965, 851.53845432, 1015.76922389, 813.07691578, 4133.58974332, 2878.20512529, 798.84614655, 2988.20512557, 4144.35897415,12.0
4152.94871774, 1240.76922438, 1844.23076416, 953.07691613, 4084.48717914, 1039.48717268, 945.12819811, 1140.76922417, 876.66665951, 4130.51282024, 2960.64102293, 864.35896721, 3046.28204871, 4144.35897415,12.0
4136.41025621, 1367.05127594, 1940.51281565, 1039.99999319, 4079.10256376, 1119.74358315, 1022.43589063, 1239.74358335, 958.07691613, 4127.56410229, 3043.97435641, 948.20512119, 3089.74358732, 4143.84615364,12.0
4149.99999980, 1443.84614787, 2015.76922605, 1098.97435231, 4078.84615350, 1189.10255764, 1073.07691634, 1303.20512196, 1013.46153159, 4126.53846126, 3096.79486937, 1012.30768543, 3121.92307456, 4151.79487159,12.0
4139.99999980, 1545.38460969, 2080.25640567, 1180.76922424, 4077.43589709, 1315.64101946, 1168.97435245, 1410.25640421, 1079.74358301, 4130.38461511, 3134.61538226, 1084.99999333, 3152.94871566, 4143.46153826,12.0
4141.28205108, 1682.56409715, 2178.33332896, 1328.58973741, 4077.43589709, 1470.25640435, 1322.30768613, 1562.82050713, 1221.41025002, 4134.87179460, 3192.82051060, 1214.87178848, 3195.76922855, 4144.74358954,12.0
4151.28205108, 1836.92307178, 2298.84614975, 1519.10255834, 4079.35897402, 1650.89743041, 1509.74358398, 1715.25640491, 1414.48717352, 4135.76923056, 3260.51281843, 1401.28204524, 3242.69230554, 4150.76923056,12.0
4133.84615357, 1968.20512334, 2392.43589348, 1681.02563561, 4076.15384581, 1809.23076409, 1665.12819964, 1840.51281544, 1582.30768668, 4128.33333306, 3316.92307498, 1572.69230200, 3281.66666459, 4144.35897415,12.0
4148.33333313, 2062.05127740, 2462.56409882, 1793.46153325, 4080.64102530, 1899.23076423, 1756.28204600, 1931.92307199, 1694.23076381, 4126.41025614, 3361.28204941, 1691.79486638, 3315.51281857, 4144.74358954,12.0
4140.64102544, 2124.74358523, 2507.43589376, 1874.61537962, 4077.30769196, 1972.43589265, 1844.35896929, 2005.89743118, 1778.07691787, 4132.56410229, 3386.02563922, 1777.94871274, 3332.94871601, 4145.25641005,12.0
4137.69230749, 2182.30768793, 2546.15384254, 1940.25640540, 4075.64102530, 2057.56409791, 1939.87179001, 2078.07691849, 1859.87178980, 4129.35897408, 3400.38461358, 1850.38461032, 3345.38461344, 4149.87179467,12.0
4150.51282031, 2247.94871371, 2591.15384261, 2008.58973887, 4080.64102530, 2122.56409805, 2001.15384136, 2148.33332889, 1948.84614899, 4124.99999973, 3419.23076750, 1927.82050789, 3365.76922890, 4147.43589723,12.0
4129.35897408, 2304.23076513, 2628.71794532, 2077.56409798, 4076.15384581, 2161.28204684, 2041.92307227, 2198.20512383, 2034.10255938, 4126.92307665, 3443.71794698, 2005.12820041, 3383.71794692, 4142.82051262,12.0
4139.48717928, 2359.35897033, 2672.56409923, 2147.94871351, 4078.07692273, 2227.82050852, 2118.97435446, 2245.12820089, 2102.56409805, 4129.74358947, 3467.17948552, 2075.51281593, 3401.41025461, 4150.12820492,12.0
4139.74358954, 2419.99999611, 2716.79486853, 2223.71794441, 4078.58974325, 2313.71794462, 2216.53845723, 2309.10256001, 2166.41025204, 4130.51282024, 3484.10256251, 2149.99999556, 3417.56410083, 4143.33333313,12.0
4132.17948691, 2462.94871420, 2745.89743270, 2275.12820096, 4076.53846119, 2367.30768835, 2269.99999583, 2357.82050879, 2217.17948288, 4128.20512793, 3493.20512661, 2208.33332903, 3426.28204955, 4143.46153826,12.0
4144.10256390, 2486.15384241, 2766.79486867, 2297.30768814, 4077.69230735, 2403.58973970, 2297.30768814, 2384.23076527, 2254.35897012, 4127.05128178, 3495.64102405, 2243.58973935, 3433.71794698, 4149.74358954,12.0
4131.28205101, 2523.46153478, 2791.28204823, 2342.17948315, 4070.51282017, 2454.61538080, 2353.46153444, 2428.97435516, 2312.43589334, 4128.33333306, 3503.58974200, 2291.53845737, 3445.38461365, 4143.20512800,12.0
4143.71794851, 2565.12820159, 2817.56409951, 2394.10256015, 4071.79487145, 2500.64102196, 2411.28204739, 2472.17948343, 2367.43589348, 4129.74358947, 3507.43589584, 2336.15384213, 3453.33333167, 4145.12820492,12.0
4146.28205108, 2572.30768877, 2818.71794566, 2407.56409868, 4076.15384581, 2511.15384247, 2414.87179098, 2476.53845779, 2382.43589348, 4129.48717921, 3499.61538302, 2346.92307290, 3452.30769064, 4144.61538441,12.0
4133.20512793, 2589.99999646, 2828.97435599, 2437.17948336, 4072.05128171, 2525.12820145, 2417.56409868, 2493.71794497, 2409.35897047, 4128.07692280, 3505.38461379, 2374.74358579, 3457.43589577, 4146.28205108,12.0
4145.25641005, 2642.94871455, 2870.89743298, 2499.74358606, 4073.33333299, 2577.05127851, 2475.76922702, 2548.20512460, 2471.41025266, 4128.07692280, 3518.33333181, 2435.51281669, 3471.53845987, 4149.10256390,12.0
4136.41025621, 2677.17948385, 2896.66666382, 2539.35897075, 4075.12820478, 2626.28204788, 2534.87179126, 2587.69230415, 2523.33332965, 4127.69230742, 3519.10256258, 2485.51281676, 3480.64102405, 4143.97435877,12.0
4142.94871774, 2706.66666340, 2921.15384338, 2580.76922723, 4076.92307658, 2668.97435564, 2576.02563749, 2618.07691961, 2572.69230415, 4126.28205101, 3533.97435745, 2537.94871434, 3492.05128046, 4146.66666646,12.0
4142.94871774, 2756.41025322, 2958.58974088, 2646.41025301, 4074.99999966, 2724.61538142, 2630.51281711, 2671.92307359, 2639.61538121, 4126.66666639, 3561.41025495, 2600.38461191, 3506.92307533, 4145.51282031,12.0
4131.28205101, 2808.33333028, 2991.28204865, 2705.76922751, 4071.79487145, 2783.58974047, 2691.53845828, 2726.41025322, 2702.94871469, 4128.46153819, 3576.53846008, 2657.69230429, 3521.15384463, 4146.41025621,12.0
4145.76923056, 2857.30768939, 3025.12820256, 2756.15384296, 4073.33333299, 2838.71794573, 2746.41025322, 2773.84615072, 2763.20512508, 4128.71794844, 3588.84615246, 2717.05127879, 3538.20512668, 4148.46153826,12.0
4130.51282024, 2901.28204844, 3052.94871545, 2806.28204823, 4070.38461504, 2888.20512536, 2799.10256105, 2819.74358669, 2826.28204830, 4127.82051255, 3603.58974220, 2773.71794559, 3551.92307547, 4143.46153826,12.0
4130.76923050, 2929.87179210, 3077.17948468, 2849.87179189, 4072.94871761, 2930.38461261, 2844.35897137, 2846.79486881, 2863.71794580, 4128.46153819, 3613.33333202, 2821.02563797, 3558.20512675, 4146.66666646,12.0
4142.30769210, 2942.82051004, 3097.94871552, 2882.17948426, 4075.76923043, 2958.71794601, 2869.87179196, 2858.71794580, 2873.20512529, 4128.58974332, 3625.25640894, 2854.10256112, 3561.53846008, 4144.35897415,12.0
4126.02564075, 2978.71794601, 3123.33333097, 2926.41025363, 4072.05128171, 2993.33333070, 2903.97435613, 2892.05127921, 2911.02563818, 4127.94871767, 3652.94871670, 2892.69230485, 3575.38461393, 4142.05128185,12.0
4135.51282031, 3060.76922827, 3176.92307463, 3011.15384352, 4076.92307658, 3068.84615135, 2985.12820242, 2971.02563832, 3012.69230506, 4129.23076896, 3680.76922959, 2978.07692037, 3600.12820374, 4146.02564082,12.0
4138.33333313, 3129.23076687, 3228.07692093, 3093.97435655, 4077.43589709, 3142.82051046, 3065.51281802, 3044.10256154, 3116.15384373, 4129.10256383, 3732.17948607, 3071.41025391, 3615.89743458, 4142.05128185,12.0
4135.64102544, 3135.89743354, 3238.46153631, 3111.02563860, 4072.30769196, 3158.33333104, 3084.23076673, 3055.51281802, 3138.20512585, 4127.56410229, 3814.99999910, 3092.05127962, 3618.46153715, 4143.07692287,12.0
4138.84615364, 3118.97435662, 3223.84615170, 3087.43589501, 4072.17948684, 3159.74358745, 3086.41025398, 3055.38461289, 3115.51281808, 4128.58974332, 3834.87179397, 3070.76922827, 3617.56410125, 4146.53846133,12.0
4132.05128178, 3136.28204892, 3224.61538247, 3100.12820270, 4070.64102530, 3181.79486951, 3108.97435655, 3089.23076680, 3119.35897200, 4130.25640998, 3804.48717852, 3084.74358725, 3621.15384484, 4147.43589723,12.0
4143.20512800, 3169.74358745, 3251.28204920, 3156.79486951, 4071.66666632, 3199.87179265, 3123.07692072, 3116.79486937, 3145.12820277, 4129.99999973, 3811.02564013, 3122.30768995, 3625.51281920, 4148.71794851,12.0
4139.48717928, 3161.28204899, 3255.64102356, 3154.10256181, 4073.97435863, 3220.64102349, 3141.92307456, 3130.76922841, 3176.66666438, 4128.33333306, 3806.79487083, 3134.74358738, 3627.43589612, 4146.92307672,12.0
4133.07692280, 3162.56410027, 3249.48717741, 3123.07692072, 4073.97435863, 3263.46153638, 3188.84615163, 3165.38461310, 3219.99999785, 4127.69230742, 3763.58974255, 3150.25640790, 3636.66666535, 4148.84615364,12.0
4144.74358954, 3237.43589529, 3303.33333132, 3205.51281829, 4073.97435863, 3304.48717748, 3231.02563888, 3202.69230547, 3265.38461330, 4127.56410229, 3775.76922980, 3226.66666452, 3653.20512696, 4147.56410236,12.0
4138.07692287, 3300.89743389, 3319.99999806, 3284.23076722, 4072.05128171, 3349.48717761, 3284.48717748, 3247.94871580, 3319.48717755, 4129.23076896, 3809.87179397, 3287.82051081, 3666.66666542, 4147.17948697,12.0
4140.12820492, 3323.84615190, 3273.20512612, 3254.23076715, 4070.64102530, 3416.15384442, 3364.87179300, 3312.43589542, 3392.94871615, 4129.48717921, 3808.84615295, 3294.74358773, 3676.02563985, 4149.87179467,12.0
4138.46153826, 3366.66666479, 3310.51281850, 3296.41025440, 4070.12820478, 3459.35897270, 3404.23076743, 3349.87179300, 3448.07692141, 4126.79487152, 3855.38461455, 3362.30769044, 3689.99999882, 4147.17948697,12.0
4129.48717921, 3414.99999827, 3408.07692127, 3456.41025475, 4071.15384581, 3478.33333167, 3419.99999827, 3370.12820326, 3473.20512654, 4129.61538434, 3925.89743521, 3466.53845987, 3706.41025523, 4147.94871774,12.0
4139.48717928, 3444.10256237, 3404.61538281, 3536.28204976, 4072.82051248, 3501.28204969, 3454.87179321, 3395.76922897, 3498.46153687, 4134.48717921, 3950.76923015, 3471.92307526, 3705.12820395, 4145.38461518,12.0
4130.51282024, 3460.38461372, 3360.76922890, 3562.17948572, 4073.07692273, 3509.61538302, 3462.30769064, 3400.25640845, 3516.41025489, 4131.28205101, 3972.43589688, 3467.56410090, 3700.89743472, 4143.33333313,12.0
4131.66666639, 3452.43589577, 3387.17948538, 3654.35897311, 4074.74358940, 3501.15384456, 3435.25640852, 3383.71794692, 3496.02563943, 4128.97435870, 4018.07692259, 3533.20512668, 3711.66666556, 4149.10256390,12.0
4138.46153826, 3429.87179314, 3394.35897256, 3706.79487062, 4075.38461504, 3490.76922917, 3420.64102391, 3367.43589556, 3454.74358808, 4131.92307665, 4197.69230756, 3522.69230617, 3709.61538351, 4146.15384595,12.0
4125.51282024, 3441.15384442, 3421.66666493, 3732.17948607, 4073.84615350, 3523.46153694, 3469.61538295, 3408.07692127, 3490.12820353, 4131.53846126, 4141.79487159, 3484.10256251, 3703.33333216, 4142.94871774,12.0
4136.79487159, 3507.69230610, 3555.12820367, 3858.84615302, 4075.38461504, 3604.87179349, 3567.82051137, 3508.46153687, 3599.74358836, 4127.69230742, 3750.64102460, 3608.71794733, 3722.43589633, 4146.28205108,12.0
4134.87179460, 3571.28204983, 3659.35897311, 4006.79487131, 4074.74358940, 3638.33333202, 3607.69230631, 3549.23076778, 3641.66666535, 4129.48717921, 4434.23076965, 3732.17948607, 3744.87179383, 4144.99999980,12.0
4133.58974332, 3519.99999848, 3649.10256286, 4008.33333285, 4075.38461504, 3601.79487041, 3563.58974213, 3505.12820353, 3594.99999861, 4135.64102544, 4635.89743674, 3672.43589619, 3743.33333229, 4147.82051262,12.0
4138.20512800, 3413.33333160, 3618.33333202, 3950.12820451, 4078.33333299, 3602.82051143, 3556.92307547, 3502.94871635, 3570.25640880, 4134.48717921, 2260.38461115, 3630.25640894, 3724.35897325, 4144.23076903,12.0
4118.20512793, 3409.61538281, 3637.82051150, 4151.41025621, 4076.79487145, 3627.30769099, 3577.43589605, 3524.87179335, 3566.66666521, 4128.71794844, 1202.69230123, 3722.17948607, 3705.38461421, 4140.25641005,12.0
4138.84615364, 3409.61538281, 3651.28205004, 4533.33333396, 4078.97435863, 3602.05128067, 3534.35897283, 3487.69230610, 3538.58974206, 4128.33333306, 3477.94871628, 3726.66666556, 3700.64102446, 4150.12820492,12.0
4138.07692287, 3347.30769037, 3657.43589619, 4710.76923175, 4078.46153812, 3589.48717810, 3497.69230610, 3453.07692141, 3512.17948565, 4130.12820485, 4700.12820610, 3644.48717824, 3695.64102446, 4146.28205108,12.0
4125.64102537, 3391.28204948, 3702.05128087, 4747.05128310, 4079.74358940, 3634.61538330, 3525.25640873, 3477.56410090, 3515.25640873, 4127.30769203, 3817.82051192, 3697.05128087, 3676.41025523, 4147.56410236,12.0
4148.46153826, 3512.82051130, 3778.07692211, 4926.79487326, 4084.35897402, 3663.46153721, 3556.02563957, 3538.84615232, 3553.46153701, 4127.43589716, 3816.41025551, 3845.76922994, 3673.07692183, 4152.17948697,12.0
4123.97435870, 3508.07692148, 3815.51281961, 5043.33333500, 4078.84615350, 3677.56410139, 3580.64102426, 3588.71794733, 3588.07692169, 4129.99999973, 4376.92307720, 3900.89743514, 3689.87179369, 4143.84615364,12.0
4134.35897408, 3425.76922904, 3827.56410166, 4968.71795025, 4082.43589709, 3731.79487069, 3607.82051143, 3591.28204990, 3578.33333195, 4128.58974332, 4361.02564124, 3913.33333264, 3668.20512696, 4150.51282031,12.0
4145.12820492, 3426.41025468, 3881.41025565, 5028.46154013, 4083.07692273, 3759.74358871, 3586.53846015, 3569.10256265, 3575.12820367, 4128.97435870, 4351.53846175, 4090.12820478, 3625.38461407, 4146.66666646,12.0
4122.82051255, 3445.12820339, 3906.53846085, 5151.53846342, 4077.30769196, 3720.89743479, 3536.79487027, 3548.97435752, 3596.02563964, 4130.12820485, 4322.94871809, 4336.15384637, 3649.61538337, 4143.20512800,12.0
4146.41025621, 3400.89743409, 3873.58974283, 5103.20513002, 4084.48717914, 3687.43589626, 3532.05128053, 3529.61538309, 3580.25640887, 4126.92307665, 4335.51282073, 4403.71794907, 3688.97435780, 4149.48717928,12.0
4127.30769203, 3382.94871615, 3905.76923008, 5068.71795046, 4083.46153812, 3673.71794747, 3540.25640873, 3508.71794712, 3532.69230617, 4130.64102537, 4431.53846196, 4398.33333368, 3634.48717817, 4139.48717928,12.0
4129.61538434, 3428.71794698, 4016.41025593, 5142.69230957, 4085.64102530, 3662.82051157, 3527.56410104, 3501.15384456, 3509.48717789, 4139.74358954, 4235.12820513, 4469.61538511, 3594.35897297, 4146.02564082,12.0
4110.76923050, 3566.79487034, 4200.64102551, 5073.33333507, 4087.43589709, 3642.05128073, 3518.58974206, 3112.17948475, 3544.61538316, 4127.30769203, 803.33332604, 4657.17948802, 3668.71794747, 4141.53846133,12.0
4125.12820485, 3591.66666528, 4188.97435884, 5058.58974533, 4091.92307658, 3646.66666542, 3512.17948565, 3145.64102328, 3541.79487027, 4128.20512793, 669.61537705, 4660.25641109, 3686.15384498, 4148.58974339,12.0
4117.17948691, 3607.30769092, 4166.41025621, 5029.61538629, 4089.74358940, 3652.17948593, 3515.64102412, 3139.61538226, 3547.82051137, 4128.97435870, 783.33332597, 4666.15384706, 3702.17948600, 4145.76923056,12.0
4116.28205101, 3647.30769106, 4176.66666653, 5045.00000167, 4087.56410222, 3695.76922959, 3576.02563957, 3275.25640818, 3602.56410118, 4129.61538434, 817.17947989, 4699.61538559, 3730.51281940, 4150.76923056,12.0
4127.30769203, 3685.51281934, 4198.20512807, 5062.17948892, 4094.10256376, 3752.69230665, 3650.76922952, 3516.02563950, 3660.51281927, 4132.05128178, 815.64101835, 4737.30769335, 3753.07692204, 4150.12820492,12.0
4105.89743562, 3693.97435780, 4210.76923070, 5035.89743757, 4091.92307658, 3776.66666570, 3679.10256293, 3607.94871656, 3689.23076805, 4131.15384588, 824.35896714, 4771.41025753, 3760.89743486, 4144.10256390,12.0
4113.71794844, 3712.69230658, 4285.51282059, 5017.69230929, 4093.97435863, 3806.92307595, 3710.25640915, 3632.17948586, 3734.74358864, 4126.41025614, 827.82050560, 4795.64102683, 3771.66666563, 4151.53846133,12.0
4100.38461504, 3755.25640922, 4381.92307720, 5045.12820680, 4093.84615350, 3890.25640950, 3801.41025544, 3719.35897325, 3827.30769141, 4124.10256383, 841.66665944, 4823.84615503, 3787.69230672, 4149.35897415,12.0
4101.15384581, 3803.58974262, 4419.74359009, 5073.07692482, 4093.58974325, 3964.10256348, 3880.76923001, 3789.10256313, 3919.99999931, 4128.20512793, 863.20512105, 4863.33333466, 3809.10256320, 4147.56410236,12.0
4109.99999973, 3846.02564020, 4436.66666709, 5048.46154013, 4098.84615350, 3981.53846099, 3899.99999924, 3822.30769141, 3984.23076868, 4131.28205101, 901.15383907, 4891.53846293, 3828.97435807, 4146.02564082,12.0
4087.05128171, 3896.92307616, 4472.05128254, 5002.30769391, 4096.66666632, 4012.94871747, 3938.58974297, 3864.61538379, 4053.84615343, 4127.56410229, 932.82050581, 4910.51282191, 3839.74358884, 4145.51282031,12.0
4107.82051255, 3959.99999938, 4489.35897485, 4941.92307839, 4100.12820478, 4068.46153805, 4002.17948663, 3909.74358905, 4114.23076896, 4126.41025614, 954.87178793, 4919.35897575, 3840.51281968, 4149.10256390,12.0
4102.56410229, 3996.28205073, 4462.69230811, 4859.87179620, 4100.12820478, 4080.89743555, 4018.07692259, 3917.94871726, 4122.17948691, 4130.12820485, 972.17948023, 4904.48718088, 3831.02564013, 4143.46153826,12.0
4093.20512786, 3990.12820458, 4427.30769266, 4799.23077042, 4095.89743555, 4056.28205087, 3995.25640970, 3897.30769155, 4095.76923043, 4130.38461511, 972.69230075, 4853.20512946, 3810.89743500, 4146.92307672,12.0
4112.82051255, 3966.79487117, 4396.41025669, 4679.35897527, 4098.07692273, 4028.84615336, 3977.43589688, 3890.25640950, 4075.38461504, 4128.07692280, 976.02563408, 4782.94871906, 3783.07692211, 4146.66666646,12.0
4092.56410222, 3949.87179425, 4337.56410278, 4403.46153881, 4093.58974325, 4013.84615336, 3980.25640970, 3893.71794796, 4072.69230735, 4128.33333306, 966.66665972, 4750.12820617, 3761.15384512, 4141.53846133,12.0
4100.89743555, 3957.56410194, 4284.74358982, 4172.30769217, 4097.17948684, 4032.43589695, 4002.30769176, 3891.15384539, 4092.05128171, 4130.25640998, 938.58973658, 4773.97436009, 3762.94871691, 4149.48717928,12.0
4105.76923050, 3972.30769176, 4278.33333341, 4152.17948697, 4099.10256376, 4047.82051241, 4006.66666618, 3883.46153770, 4115.25640998, 4129.99999973, 935.64101863, 4798.84615503, 3778.58974262, 4145.64102544,12.0
4095.38461504, 3972.56410201, 4282.94871802, 4169.61538448, 4093.84615350, 4031.79487131, 3993.84615329, 3882.69230693, 4127.17948691, 4129.10256383, 957.56409562, 4788.33333445, 3789.10256313, 4143.33333313,12.0
4113.33333306, 3973.20512765, 4274.87179495, 4131.92307665, 4097.69230735, 4036.53846106, 4015.89743541, 3904.48717873, 4151.28205108, 4129.87179460, 958.20512126, 4775.76923188, 3796.41025544, 4148.46153826,12.0
4096.92307658, 3974.74358919, 4261.41025641, 4121.66666639, 4095.51282017, 4050.89743548, 4038.46153805, 3917.69230700, 4163.71794851, 4129.74358947, 886.53845445, 4765.38461650, 3799.48717852, 4148.97435877,12.0
4101.41025607, 3966.53846092, 4255.51282052, 4116.53846126, 4097.56410222, 4037.43589702, 4018.46153798, 3900.89743514, 4134.74358947, 4128.97435870, 858.84614669, 4734.74359079, 3804.48717852, 4152.30769210,12.0
4106.02564075, 3954.35897374, 4247.05128206, 4099.99999966, 4100.38461504, 4023.20512772, 3997.05128150, 3888.97435821, 4122.69230742, 4129.23076896, 964.23076229, 4709.10256508, 3812.69230679, 4144.74358954,12.0
4084.99999966, 3959.48717887, 4240.38461539, 4114.99999973, 4095.89743555, 4035.64102516, 4011.79487131, 3895.25640950, 4148.46153826, 4129.48717921, 899.23076215, 4705.51282149, 3818.46153756, 4146.53846133,12.0
4096.41025607, 3982.94871740, 4247.82051282, 4138.46153826, 4099.48717914, 4067.05128164, 4045.76923036, 3913.58974290, 4166.53846133, 4128.71794844, 1028.84614704, 4707.05128303, 3822.56410166, 4152.94871774,12.0
4088.84615350, 4001.28205073, 4247.69230770, 4149.87179467, 4100.64102530, 4089.61538427, 4064.74358933, 3932.69230700, 4178.07692294, 4129.61538434, 2177.43589306, 4710.89743687, 3828.07692218, 4147.43589723,12.0
4096.79487145, 4020.76923029, 4258.33333334, 4166.92307672, 4099.99999966, 4108.33333306, 4083.84615350, 3958.33333271, 4215.38461532, 4129.99999973, 3946.92307630, 4736.53846258, 3839.48717859, 4148.20512800,12.0
4104.23076896, 4045.64102523, 4273.97435905, 4181.15384602, 4097.43589709, 4132.05128178, 4112.17948691, 3986.53846099, 4253.33333334, 4127.05128178, 4921.41025780, 4761.02564214, 3846.02564020, 4144.35897415,12.0
4090.12820478, 4063.20512779, 4271.28205136, 4182.17948704, 4094.99999966, 4151.79487159, 4129.99999973, 3996.41025586, 4265.76923077, 4125.76923050, 4762.05128317, 4762.43589855, 3848.46153763, 4144.23076903,12.0
4103.84615357, 4086.02564068, 4275.64102571, 4190.51282038, 4101.02564068, 4172.82051269, 4151.02564082, 4011.66666618, 4284.23076930, 4129.10256383, 4499.23076979, 4778.84615496, 3859.87179404, 4143.97435877,12.0
4094.99999966, 4111.41025614, 4281.28205136, 4208.07692301, 4099.35897402, 4189.74358961, 4178.97435884, 4045.12820472, 4319.48717963, 4129.99999973, 4398.33333368, 4805.64102683, 3871.15384532, 4140.76923056,12.0
4102.17948684, 4123.20512793, 4276.79487187, 4212.05128199, 4099.74358940, 4196.66666653, 4194.48717935, 4066.41025600, 4340.38461560, 4127.43589716, 4119.10256383, 4806.66666785, 3884.74358898, 4149.99999980,12.0
4107.69230742, 4129.35897408, 4265.51282052, 4205.76923070, 4102.05128171, 4205.25641019, 4202.56410250, 4067.17948677, 4344.87179508, 4126.41025614, 4419.10256445, 4805.76923195, 3900.76923001, 4147.82051262,12.0
4094.99999966, 4156.53846133, 4263.97435898, 4220.89743583, 4098.71794837, 4227.69230763, 4225.38461532, 4077.82051248, 4364.10256431, 4128.97435870, 5525.51282323, 4835.89743715, 3907.30769162, 4146.53846133,12.0
4117.17948691, 4191.02564089, 4275.64102571, 4248.46153847, 4102.69230742, 4263.97435898, 4268.20512828, 4119.23076896, 4405.89743625, 4130.38461511, 6168.33333737, 4865.00000132, 3908.97435828, 4151.02564082,12.0
4109.48717921, 4191.28205115, 4269.48717956, 4251.15384616, 4099.87179453, 4286.53846161, 4297.69230777, 4156.53846133, 4438.46153888, 4127.43589716, 6176.53846564, 4858.97436030, 3912.43589674, 4146.02564082,12.0
4113.20512793, 4189.74358961, 4266.79487187, 4251.53846154, 4097.30769196, 4283.84615392, 4287.56410264, 4153.97435877, 4444.23076965, 4125.51282024, 6384.61538914, 4854.23077049, 3919.35897367, 4149.87179467,12.0
4124.35897408, 4215.25641019, 4278.58974366, 4275.12820520, 4101.92307658, 4278.84615392, 4267.56410264, 4129.10256383, 4440.76923119, 4128.20512793, 6046.66667049, 4874.23077055, 3923.71794803, 4149.48717928,12.0
4102.82051255, 4226.92307686, 4277.94871802, 4288.97435905, 4100.51282017, 4283.20512828, 4269.87179495, 4118.58974332, 4436.02564145, 4132.30769203, 4827.17948843, 4884.23077055, 3918.33333264, 4147.69230749,12.0
4114.48717921, 4229.87179481, 4277.17948725, 4289.74358982, 4101.53846119, 4298.84615392, 4294.61538469, 4138.33333313, 4439.87179529, 4130.89743562, 3928.84615316, 4884.35897568, 3914.23076854, 4152.56410236,12.0
4105.38461511, 4251.79487180, 4284.23076930, 4306.41025655, 4099.87179453, 4323.84615399, 4328.20512835, 4172.17948704, 4470.89743639, 4124.35897408, 3594.99999861, 4907.82051421, 3921.15384546, 4144.87179467,12.0
4099.74358940, 4281.15384623, 4295.00000007, 4327.05128219, 4101.66666632, 4350.64102585, 4354.35897457, 4202.05128199, 4506.92307748, 4122.69230742, 3257.69230561, 4935.25641172, 3930.51281982, 4146.53846133,12.0
4111.41025614, 4295.76923084, 4295.89743597, 4331.28205142, 4107.05128178, 4362.43589765, 4366.15384644, 4213.33333327, 4512.17948774, 4127.30769203, 2923.97435620, 4929.10256557, 3932.43589674, 4149.61538441,12.0
4087.69230735, 4299.10256418, 4285.89743597, 4328.97435912, 4099.99999966, 4365.76923105, 4374.10256438, 4215.38461532, 4513.97435953, 4129.74358947, 2750.76922758, 4914.61538601, 3931.66666598, 4144.99999980,12.0
4100.51282017, 4306.66666681, 4291.02564110, 4329.61538476, 4100.89743555, 4380.64102592, 4389.87179515, 4230.25641019, 4538.71794935, 4130.38461511, 2653.20512480, 4919.87179627, 3934.99999931, 4149.61538441,12.0
4104.61538434, 4316.79487194, 4297.82051289, 4332.94871816, 4104.61538434, 4390.38461567, 4397.94871830, 4244.35897436, 4561.53846217, 4131.53846126, 2569.23076569, 4931.02564249, 3936.41025572, 4145.76923056,12.0
4091.02564068, 4333.07692329, 4303.07692322, 4350.38461560, 4101.66666632, 4396.02564131, 4399.61538497, 4248.07692308, 4576.53846224, 4130.38461511, 2510.38461171, 4946.92307839, 3937.69230700, 4145.12820492,12.0
4107.56410229, 4350.51282073, 4309.87179501, 4368.58974387, 4102.30769196, 4405.89743625, 4412.17948753, 4254.87179488, 4589.10256480, 4128.58974332, 2478.84615010, 4958.46153999, 3940.51281989, 4147.69230749,12.0
4097.17948684, 4360.38461560, 4301.41025655, 4367.43589772, 4100.51282017, 4415.25641061, 4429.10256445, 4265.12820513, 4596.28205205, 4127.94871767, 2439.23076541, 4948.84615531, 3944.35897374, 4143.71794851,12.0
4101.41025607, 4369.87179515, 4294.23076930, 4360.64102585, 4103.33333306, 4421.66666702, 4431.66666709, 4264.35897436, 4597.56410333, 4128.97435870, 2408.71794483, 4933.20512967, 3950.25640963, 4148.84615364,12.0
4103.71794844, 4375.38461567, 4293.07692315, 4361.41025662, 4104.99999973, 4410.76923112, 4413.20512856, 4255.76923077, 4591.15384685, 4129.74358947, 2592.56409902, 4928.58974505, 3951.53846092, 4147.94871774,12.0
4092.17948684, 4381.92307720, 4294.74358982, 4373.58974387, 4105.76923050, 4397.05128233, 4403.07692343, 4260.38461539, 4593.58974429, 4128.46153819, 2845.64102266, 4934.87179633, 3954.10256348, 4146.79487159,12.0
4107.43589716, 4391.02564131, 4299.61538476, 4378.97435926, 4109.74358947, 4400.51282086, 4403.71794907, 4266.02564103, 4597.94871872, 4127.05128178, 2813.58974054, 4936.28205275, 3960.38461476, 4148.46153826,12.0
4096.15384581, 4398.46153881, 4295.00000007, 4371.79487208, 4102.05128171, 4407.17948753, 4401.41025676, 4260.89743590, 4588.33333403, 4127.30769203, 2656.15384275, 4929.61538608, 3959.61538399, 4145.12820492,12.0
4097.82051248, 4418.71794907, 4299.35897443, 4383.71794900, 4104.74358947, 4420.12820548, 4419.61538497, 4270.38461546, 4595.00000077, 4128.33333306, 2655.76922737, 4937.43589890, 3965.89743528, 4148.84615364,12.0
4101.66666632, 4443.20512863, 4313.33333348, 4410.25641061, 4110.64102537, 4443.20512863, 4448.97435940, 4295.64102571, 4625.38461615, 4128.46153819, 2643.97435557, 4958.46153999, 3980.89743535, 4145.25641005,12.0
4086.79487145, 4462.43589786, 4319.61538476, 4425.25641061, 4103.71794844, 4461.02564145, 4464.35897485, 4308.97435912, 4642.30769315, 4128.20512793, 2628.07691968, 4967.56410410, 3984.48717894, 4143.07692287,12.0
4104.74358947, 4490.38461587, 4337.30769252, 4442.94871837, 4104.99999973, 4481.92307741, 4486.15384664, 4323.20512835, 4662.56410347, 4126.53846126, 2829.87179189, 4976.15384769, 3985.89743535, 4149.61538441,12.0
4094.74358940, 4514.23076979, 4356.66666688, 4468.97435946, 4105.51282024, 4499.61538518, 4509.74359030, 4342.17948739, 4692.82051373, 4126.66666639, 3030.38461282, 4996.53846314, 3994.87179432, 4146.79487159,12.0
4091.41025607, 4522.94871851, 4359.23076944, 4476.41025690, 4103.20512793, 4500.12820569, 4510.25641082, 4353.07692329, 4697.30769328, 4130.64102537, 3027.17948461, 4996.15384776, 4000.89743535, 4149.10256390,12.0
4106.53846126, 4533.97435960, 4358.46153867, 4474.23076972, 4106.53846126, 4509.10256466, 4519.74359030, 4366.53846182, 4695.51282149, 4131.53846126, 2991.92307429, 4974.48718102, 4002.56410201, 4148.46153826,12.0
4088.46153812, 4542.17948781, 4355.00000021, 4476.28205177, 4106.66666639, 4513.20512876, 4527.82051338, 4364.48717970, 4694.61538559, 4127.69230742, 3005.25640762, 4961.15384769, 4001.15384560, 4143.46153826,12.0
4094.48717914, 4534.87179550, 4347.82051303, 4463.20512863, 4106.02564075, 4492.17948767, 4498.71794928, 4349.87179508, 4672.17948809, 4129.74358947, 2981.92307422, 4949.87179633, 3990.38461483, 4147.30769210,12.0
4092.82051248, 4527.94871851, 4342.30769252, 4450.12820555, 4105.12820485, 4479.35897485, 4475.89743639, 4356.92307714, 4656.02564186, 4133.07692280, 2948.84615107, 4933.46153992, 3977.82051227, 4146.28205108,12.0
4089.23076889, 4534.74359037, 4347.17948739, 4458.20512863, 4107.56410229, 4488.20512870, 4486.79487229, 4373.07692336, 4667.05128296, 4130.25640998, 2946.66666389, 4929.61538608, 3980.25640970, 4149.48717928,12.0
4099.87179453, 4540.51282114, 4351.15384637, 4464.74359023, 4109.48717921, 4497.56410312, 4500.76923133, 4376.92307720, 4677.17948809, 4128.71794844, 2939.61538184, 4936.53846300, 3985.89743535, 4148.71794851,12.0
4087.30769196, 4534.23076986, 4344.23076944, 4450.76923119, 4105.64102537, 4499.74359030, 4499.61538518, 4375.89743618, 4671.15384706, 4130.51282024, 2932.56409979, 4927.56410403, 3988.46153791, 4143.71794851,12.0
4097.30769196, 4532.43589807, 4347.82051303, 4438.07692350, 4107.69230742, 4505.89743646, 4503.07692364, 4379.10256438, 4671.66666757, 4131.15384588, 2929.87179210, 4911.15384755, 3995.25640970, 4148.71794851,12.0
4094.48717914, 4544.61538524, 4356.41025662, 4448.20512863, 4108.84615357, 4521.41025697, 4527.30769287, 4400.89743625, 4694.61538559, 4129.48717921, 2934.48717671, 4919.23077062, 4000.76923022, 4146.15384595,12.0
4085.51282017, 4574.10256480, 4375.00000028, 4478.84615434, 4105.64102537, 4547.56410319, 4558.97435960, 4438.07692350, 4726.28205233, 4130.25640998, 2950.25640748, 4950.12820659, 4010.51282003, 4145.76923056,12.0
4100.89743555, 4599.87179564, 4396.92307720, 4502.94871851, 4109.35897408, 4558.97435960, 4564.61538531, 4454.35897478, 4745.25641130, 4131.28205101, 2968.46153576, 4968.84615538, 4022.69230721, 4147.94871774,12.0
4091.41025607, 4604.10256487, 4396.92307720, 4502.30769287, 4109.61538434, 4550.89743653, 4555.64102627, 4459.10256452, 4762.56410368, 4128.46153819, 2984.23076652, 4967.69230922, 4027.30769183, 4145.76923056,12.0
4102.82051255, 4605.76923154, 4397.82051310, 4497.56410312, 4109.48717921, 4561.53846217, 4569.35897506, 4465.25641075, 4771.28205240, 4128.97435870, 2993.33333070, 4962.30769384, 4032.82051234, 4148.20512800,12.0
4100.89743555, 4607.82051359, 4398.20512856, 4497.94871851, 4109.10256383, 4565.51282121, 4570.38461608, 4445.00000042, 4744.23077028, 4130.89743562, 2989.35897172, 4946.15384762, 4026.53846106, 4145.76923056,12.0
4082.82051248, 4607.82051359, 4390.51282079, 4492.69230818, 4108.07692280, 4544.23076986, 4546.53846217, 4426.28205163, 4712.30769328, 4129.74358947, 2976.79486909, 4920.64102703, 4005.51282003, 4147.30769210,12.0
4098.97435863, 4615.25641102, 4393.58974387, 4491.28205177, 4113.07692280, 4545.25641089, 4549.48718012, 4437.43589786, 4711.15384713, 4130.38461511, 2977.17948447, 4911.79487319, 4000.51281996, 4150.76923056,12.0
4086.66666632, 4620.51282128, 4399.87179522, 4496.66666723, 4109.35897408, 4562.30769301, 4568.71794942, 4440.89743632, 4717.17948816, 4130.12820485, 2987.05127941, 4915.89743729, 4002.82051227, 4143.84615364,12.0
4085.76923043, 4621.92307769, 4404.10256445, 4501.02564159, 4106.53846126, 4561.79487242, 4570.38461608, 4431.28205170, 4716.41025739, 4126.92307665, 2991.41025377, 4914.74359114, 3989.23076868, 4146.53846133,12.0
4094.35897402, 4627.30769308, 4406.53846189, 4505.89743646, 4112.17948691, 4563.84615454, 4575.76923147, 4445.76923119, 4726.28205233, 4127.17948691, 2994.74358711, 4911.79487319, 3979.35897381, 4146.66666646,12.0
4082.05128171, 4637.17948802, 4408.58974394, 4512.69230825, 4112.82051255, 4581.41025711, 4596.79487256, 4466.41025690, 4745.25641130, 4129.48717921, 3003.71794608, 4914.87179627, 3988.58974304, 4143.20512800,12.0
4090.38461504, 4646.41025725, 4416.41025676, 4516.41025697, 4110.25640998, 4586.15384685, 4602.69230846, 4465.89743639, 4751.02564207, 4127.43589716, 3019.35897172, 4913.46153986, 4001.02564047, 4145.64102544,12.0
4081.41025607, 4645.38461622, 4416.92307727, 4513.58974415, 4109.10256383, 4576.41025711, 4586.66666737, 4455.51282093, 4740.00000105, 4126.79487152, 3042.30768974, 4904.35897575, 3999.74358919, 4143.84615364,12.0
4084.74358940, 4639.48718032, 4414.61538497, 4510.51282107, 4115.76923050, 4575.89743660, 4576.15384685, 4448.33333375, 4732.30769335, 4131.15384588, 3064.10256160, 4896.15384755, 3989.99999945, 4147.56410236,12.0
4095.25640991, 4637.94871879, 4415.12820548, 4509.10256466, 4117.05128178, 4579.61538531, 4582.56410326, 4453.84615427, 4739.74359079, 4131.02564075, 3070.76922827, 4886.41025773, 3986.92307637, 4144.87179467,12.0
4083.46153812, 4645.12820597, 4419.61538497, 4512.56410312, 4110.12820485, 4583.84615454, 4596.15384692, 4478.20512870, 4759.35897547, 4125.76923050, 3068.20512571, 4884.74359107, 3994.48717894, 4140.51282031,12.0
4097.17948684, 4665.38461629, 4434.61538504, 4526.66666723, 4114.23076896, 4596.53846231, 4606.92307769, 4503.97435953, 4782.43589855, 4125.76923050, 3076.53845904, 4903.33333473, 4005.89743541, 4145.76923056,12.0
4089.10256376, 4670.64102655, 4434.10256452, 4529.23076986, 4113.71794844, 4594.48718019, 4596.02564179, 4496.02564152, 4780.51282163, 4130.12820485, 3080.89743340, 4904.74359114, 4007.82051234, 4142.43589723,12.0
4087.05128171, 4655.64102648, 4421.15384651, 4515.25641082, 4108.46153819, 4574.23076993, 4565.76923147, 4463.71794921, 4744.23077028, 4130.12820485, 3069.99999750, 4871.66666799, 4003.97435842, 4143.97435877,12.0
4104.61538434, 4656.66666750, 4423.84615420, 4515.00000056, 4111.02564075, 4572.05128275, 4558.46153909, 4456.79487222, 4725.00000098, 4128.33333306, 3067.56410007, 4852.56410382, 4004.99999952, 4148.46153826,12.0
4084.10256376, 4681.66666757, 4438.46153888, 4544.23076986, 4112.94871767, 4595.76923154, 4589.74359044, 4488.20512870, 4760.64102676, 4128.84615357, 3088.20512578, 4880.38461671, 4011.41025593, 4146.92307672,12.0
4094.35897402, 4705.89743687, 4458.71794914, 4568.58974429, 4117.43589716, 4620.38461615, 4620.38461615, 4523.97435953, 4803.07692426, 4129.99999973, 3111.79486937, 4912.30769370, 4022.05128157, 4148.97435877,12.0
4093.58974325, 4707.43589841, 4461.79487222, 4566.28205198, 4113.33333306, 4622.43589820, 4618.58974436, 4525.00000056, 4799.23077042, 4129.74358947, 3113.20512578, 4907.56410396, 4026.28205080, 4140.76923056,12.0
4080.64102530, 4704.61538559, 4448.84615427, 4563.07692378, 4110.89743562, 4615.89743667, 4606.53846231, 4501.53846210, 4775.76923188, 4127.94871767, 3107.94871552, 4892.30769370, 4028.07692259, 4140.12820492,12.0
4099.74358940, 4710.76923175, 4436.02564145, 4568.20512890, 4119.35897408, 4618.46153923, 4605.51282128, 4500.64102620, 4775.25641137, 4126.79487152, 3117.05127962, 4891.79487319, 4032.05128157, 4147.82051262,12.0
4078.33333299, 4711.53846252, 4421.66666702, 4565.25641096, 4114.35897408, 4620.12820590, 4606.92307769, 4517.30769287, 4789.61538573, 4127.17948691, 3126.28204892, 4886.02564235, 4032.17948670, 4145.51282031,12.0
4082.82051248, 4713.97435995, 4425.38461574, 4559.61538524, 4113.97435870, 4633.33333417, 4625.64102641, 4522.94871851, 4792.69230888, 4127.82051255, 3130.89743354, 4870.12820645, 4032.94871747, 4150.51282031,12.0
4092.05128171, 4721.53846252, 4432.30769273, 4567.94871865, 4114.99999973, 4648.58974443, 4647.17948802, 4524.48718005, 4782.82051394, 4127.69230742, 3143.71794636, 4864.74359107, 4034.87179439, 4147.56410236,12.0
4074.10256376, 4722.30769328, 4428.84615420, 4573.33333403, 4110.51282024, 4633.58974443, 4630.00000084, 4522.17948774, 4772.69230881, 4128.71794844, 3156.15384386, 4863.33333466, 4036.41025593, 4142.94871774,12.0
4090.51282017, 4721.02564200, 4437.56410298, 4570.51282121, 4117.69230742, 4616.41025718, 4603.97435974, 4519.61538518, 4778.46153958, 4127.69230742, 3160.64102335, 4859.87179620, 4036.66666618, 4146.79487159,12.0
4081.15384581, 4716.28205226, 4440.51282093, 4565.38461608, 4115.89743562, 4617.94871872, 4602.43589820, 4521.66666723, 4785.25641137, 4129.61538434, 3167.82051053, 4852.17948843, 4032.94871747, 4143.71794851,12.0
4083.71794837, 4708.71794969, 4436.66666709, 4556.53846217, 4113.71794844, 4621.15384692, 4606.92307769, 4522.30769287, 4777.69230881, 4136.41025621, 3174.35897207, 4834.74359100, 4035.25640977, 4145.38461518,12.0
4091.02564068, 4722.17948816, 4446.28205170, 4570.38461608, 4118.33333306, 4633.84615468, 4622.56410333, 4531.79487242, 4786.92307804, 4133.97435870, 3184.23076701, 4840.12820638, 4045.25640984, 4144.48717928,12.0
4074.99999966, 4752.30769335, 4464.74359023, 4604.61538538, 4116.92307665, 4659.61538545, 4651.15384699, 4550.25641089, 4809.35897554, 4126.15384588, 3238.71794657, 4874.35897568, 4052.30769189, 4145.51282031,12.0
4091.53846119, 4757.94871899, 4475.76923126, 4611.79487256, 4119.35897408, 4668.07692398, 4659.48718032, 4553.33333396, 4807.82051401, 4127.05128178, 3311.41025440, 4884.35897568, 4052.69230728, 4145.76923056,12.0
4086.28205094, 4743.97436002, 4470.89743639, 4594.10256480, 4118.58974332, 4658.07692391, 4653.46153930, 4546.41025704, 4797.82051401, 4130.25640998, 3331.41025447, 4866.53846286, 4051.41025600, 4140.25641005,12.0
4087.30769196, 4745.64102669, 4472.69230818, 4593.71794942, 4117.05128178, 4656.15384699, 4656.66666750, 4551.79487242, 4801.41025760, 4128.20512793, 3331.28204934, 4863.33333466, 4052.56410215, 4148.20512800,12.0
4095.51282017, 4748.20512925, 4474.35897485, 4599.74359051, 4116.41025614, 4663.20512911, 4667.30769321, 4562.43589813, 4802.05128324, 4127.69230742, 3347.17948524, 4862.56410389, 4051.41025600, 4148.97435877,12.0
4077.69230735, 4746.92307797, 4471.41025690, 4602.82051359, 4114.23076896, 4676.15384706, 4685.38461629, 4571.41025711, 4801.02564221, 4129.10256383, 3346.92307498, 4857.30769356, 4051.79487138, 4144.99999980,12.0
4092.94871761, 4761.02564214, 4485.00000049, 4616.02564179, 4117.82051255, 4681.66666757, 4690.64102655, 4582.43589813, 4807.82051401, 4129.61538434, 3368.97435710, 4867.43589876, 4060.12820472, 4149.48717928,12.0
4086.66666632, 4767.56410368, 4490.12820562, 4619.61538538, 4115.64102537, 4657.56410340, 4657.05128289, 4575.89743660, 4808.33333452, 4129.74358947, 3442.05128032, 4872.69230902, 4063.97435856, 4145.76923056,12.0
4077.94871761, 4762.69230881, 4485.89743639, 4612.82051359, 4116.79487152, 4634.23077007, 4621.79487256, 4543.97435960, 4793.20512939, 4127.94871767, 3481.28204969, 4861.92307825, 4063.07692266, 4147.56410236,12.0
4091.66666632, 4761.28205240, 4488.46153895, 4612.43589820, 4122.17948691, 4638.20512904, 4621.92307769, 4521.15384671, 4775.25641137, 4128.20512793, 3463.84615218, 4853.33333459, 4063.58974318, 4147.94871774,12.0
4080.25640991, 4758.71794976, 4484.74359023, 4613.58974436, 4116.41025614, 4643.97435981, 4632.43589827, 4526.79487235, 4767.94871906, 4128.84615357, 3473.58974193, 4848.20512946, 4063.84615343, 4144.61538441,12.0
4088.84615350, 4765.76923188, 4486.02564152, 4615.12820590, 4117.94871767, 4653.07692391, 4645.64102648, 4546.02564165, 4774.35897547, 4126.66666639, 3517.56410104, 4843.97436023, 4067.94871754, 4150.38461518,12.0
4083.20512786, 4775.25641137, 4497.30769287, 4621.92307769, 4121.79487152, 4672.56410347, 4669.74359065, 4561.02564165, 4787.05128317, 4128.33333306, 3534.23076771, 4848.84615510, 4075.12820478, 4147.05128185,12.0
4075.76923043, 4774.74359086, 4507.43589800, 4627.17948795, 4118.71794844, 4678.58974450, 4679.87179578, 4564.10256480, 4792.69230888, 4130.89743562, 3527.56410104, 4854.10256536, 4080.12820478, 4144.61538441,12.0
4092.69230735, 4774.61538573, 4507.69230825, 4624.23077000, 4120.89743562, 4671.02564193, 4670.25641116, 4568.97435967, 4795.38461657, 4126.15384588, 3533.58974206, 4847.94871920, 4082.30769196, 4145.38461518,12.0
4077.94871761, 4776.28205240, 4504.23076979, 4616.02564179, 4121.66666639, 4674.23077014, 4676.02564193, 4579.35897506, 4800.51282170, 4127.43589716, 3544.99999854, 4838.71794997, 4083.84615350, 4141.02564082,12.0
4084.35897402, 4777.94871906, 4512.17948774, 4614.35897513, 4121.28205101, 4684.35897527, 4690.64102655, 4580.38461608, 4795.76923195, 4137.94871774, 3546.92307547, 4834.10256536, 4085.89743555, 4145.76923056,12.0
4088.97435863, 4772.30769342, 4510.76923133, 4614.61538538, 4120.38461511, 4671.28205219, 4678.07692398, 4572.56410326, 4779.74359086, 4134.87179460, 3552.69230624, 4822.43589862, 4082.43589709, 4145.64102544,12.0
4080.25640991, 4768.84615496, 4503.71794928, 4610.25641102, 4122.30769203, 4650.25641109, 4656.92307776, 4569.23076993, 4772.43589855, 4124.87179460, 3569.48717803, 4811.15384734, 4083.84615350, 4146.41025621,12.0
4095.38461504, 4781.92307804, 4515.25641082, 4620.51282128, 4124.87179460, 4661.28205219, 4665.51282142, 4574.87179557, 4783.97436009, 4129.48717921, 3588.97435759, 4827.05128331, 4094.23076889, 4150.12820492,12.0
4083.20512786, 4789.87179599, 4522.82051338, 4634.10256494, 4116.92307665, 4681.28205219, 4680.38461629, 4577.94871865, 4790.76923188, 4132.30769203, 3627.56410125, 4845.76923202, 4094.10256376, 4145.89743569,12.0
4091.15384581, 4787.43589855, 4523.20512876, 4630.64102648, 4119.61538434, 4681.28205219, 4680.64102655, 4582.69230839, 4793.07692426, 4127.17948691, 3694.87179369, 4844.10256536, 4091.66666632, 4146.79487159,12.0
4098.20512786, 4790.38461650, 4524.61538518, 4627.17948795, 4124.87179460, 4675.00000091, 4680.76923168, 4590.76923147, 4799.23077042, 4128.46153819, 3751.41025537, 4838.84615510, 4096.66666632, 4146.66666646,12.0
4081.15384581, 4800.12820631, 4522.69230825, 4631.28205212, 4120.25640998, 4676.53846245, 4677.94871886, 4588.71794942, 4797.56410375, 4130.64102537, 3776.92307595, 4838.20512946, 4100.51282017, 4148.07692287,12.0
4096.15384581, 4806.41025760, 4522.94871851, 4629.48718032, 4122.17948691, 4680.89743680, 4674.74359065, 4588.20512890, 4797.43589862, 4126.79487152, 3797.69230672, 4837.82051408, 4104.23076896, 4149.61538441,12.0
4084.99999966, 4801.28205247, 4518.71794928, 4622.56410333, 4120.38461511, 4678.07692398, 4680.00000091, 4596.53846231, 4799.74359093, 4128.71794844, 3814.74358884, 4831.53846279, 4105.12820485, 4145.89743569,12.0
4084.99999966, 4796.15384734, 4517.56410312, 4625.00000077, 4119.99999973, 4676.02564193, 4682.82051373, 4597.56410333, 4789.48718060, 4136.41025621, 3823.33333243, 4819.74359093, 4104.61538434, 4151.28205108,12.0
4097.30769196, 4799.23077042, 4520.76923133, 4628.84615468, 4123.07692280, 4676.28205219, 4676.28205219, 4587.82051352, 4777.94871906, 4133.84615357, 3834.23076833, 4811.79487298, 4106.79487152, 4146.15384595,12.0
4078.20512786, 4803.46153965, 4520.64102620, 4627.56410333, 4118.97435870, 4674.74359065, 4670.64102655, 4580.64102634, 4777.43589855, 4128.71794844, 3850.25640943, 4812.56410375, 4110.12820485, 4140.64102544,12.0
4087.69230735, 4799.87179606, 4523.71794928, 4624.74359051, 4121.41025614, 4677.82051373, 4673.71794963, 4582.05128275, 4775.38461650, 4132.30769203, 3859.87179404, 4808.20512939, 4111.92307665, 4147.30769210,12.0
4084.61538427, 4796.15384734, 4522.43589800, 4625.89743667, 4123.84615357, 4678.84615475, 4670.64102655, 4575.76923147, 4765.76923188, 4133.71794844, 3864.10256327, 4803.97436016, 4114.23076896, 4143.33333313,12.0
4084.10256376, 4809.74359093, 4526.92307748, 4636.66666750, 4125.38461511, 4678.58974450, 4666.41025732, 4566.79487249, 4761.41025753, 4129.10256383, 3888.46153770, 4811.53846272, 4122.56410229, 4145.25641005,12.0
4093.58974325, 4819.74359093, 4535.64102627, 4644.48718032, 4126.28205101, 4682.82051373, 4670.25641116, 4572.43589813, 4768.33333445, 4126.41025614, 3936.53846085, 4817.94871913, 4128.58974332, 4148.20512800,12.0
4075.89743555, 4818.71794990, 4536.53846217, 4646.15384699, 4120.25640998, 4690.00000091, 4681.02564193, 4594.87179564, 4783.84615496, 4131.15384588, 3992.56410201, 4823.20512939, 4129.48717921, 4144.48717928,12.0
4089.99999966, 4824.35897554, 4542.82051345, 4646.92307776, 4122.94871767, 4705.38461636, 4705.12820610, 4622.69230846, 4798.71794990, 4136.41025621, 4031.15384567, 4827.43589869, 4131.66666639, 4146.15384595,12.0
4090.38461504, 4827.05128331, 4544.87179550, 4646.15384699, 4126.66666639, 4717.82051380, 4723.71794969, 4643.71794956, 4815.76923195, 4133.33333306, 4041.79487138, 4828.33333459, 4133.07692280, 4141.92307672,12.0
4083.71794837, 4827.82051408, 4545.64102627, 4650.00000084, 4124.10256383, 4715.51282149, 4718.07692405, 4652.94871879, 4831.66666792, 4127.05128178, 4056.15384574, 4828.71794997, 4135.64102544, 4144.74358954,12.0
4100.25640991, 4830.64102690, 4548.33333396, 4653.58974443, 4124.61538434, 4702.56410354, 4697.94871893, 4633.46153930, 4816.53846272, 4128.46153819, 4076.92307658, 4815.25641144, 4134.99999973, 4147.56410236,12.0
4086.02564068, 4826.66666792, 4540.00000063, 4649.87179571, 4122.17948691, 4688.46153937, 4675.76923168, 4594.61538531, 4778.46153958, 4131.41025614, 4079.10256376, 4794.48718067, 4135.76923056, 4143.71794851,12.0
4095.38461504, 4827.30769356, 4543.33333396, 4650.64102648, 4124.74358947, 4688.84615475, 4672.05128296, 4588.97435967, 4770.89743701, 4130.25640998, 4123.07692280, 4795.12820631, 4145.25641005, 4145.12820492,12.0
4099.87179453, 4835.76923202, 4552.56410319, 4661.41025732, 4124.74358947, 4702.30769328, 4691.28205219, 4619.48718026, 4796.53846272, 4128.84615357, 4247.69230770, 4811.41025760, 4151.15384595, 4144.10256390,12.0
4089.48717914, 4837.69230895, 4548.97435960, 4664.23077014, 4123.71794844, 4706.02564200, 4697.69230867, 4625.64102641, 4801.53846272, 4126.28205101, 4345.25641047, 4807.43589862, 4148.58974339, 4148.97435877,12.0
4100.89743555, 4837.30769356, 4550.00000063, 4659.48718032, 4129.23076896, 4702.43589841, 4686.79487270, 4607.94871872, 4784.10256522, 4126.41025614, 4364.48717970, 4796.66666785, 4149.35897415, 4150.38461518,12.0
4082.05128171, 4843.71794997, 4558.97435960, 4667.05128296, 4124.23076896, 4705.25641123, 4691.28205219, 4614.35897513, 4785.00000112, 4129.61538434, 4380.89743618, 4808.07692426, 4155.89743569, 4143.20512800,12.0
4090.12820478, 4848.33333459, 4564.87179557, 4675.38461629, 4122.69230742, 4710.51282149, 4699.74359072, 4629.48718032, 4790.89743701, 4132.30769203, 4412.43589779, 4808.71794990, 4161.02564082, 4146.79487159,12.0
4097.56410222, 4842.94871920, 4557.17948781, 4669.87179578, 4127.69230742, 4709.23077021, 4697.94871893, 4628.58974443, 4784.87179599, 4131.79487152, 4423.97435933, 4785.51282163, 4157.69230749, 4144.35897415,12.0
4080.12820478, 4837.82051408, 4550.89743653, 4664.23077014, 4125.89743562, 4700.89743687, 4704.48718046, 4627.17948795, 4784.48718060, 4129.48717921, 4431.53846196, 4770.51282163, 4155.76923056, 4144.23076903,12.0
4099.10256376, 4845.51282177, 4563.84615454, 4670.12820604, 4127.94871767, 4698.97435995, 4718.46153944, 4637.43589827, 4794.87179606, 4130.64102537, 4449.23076965, 4774.74359086, 4162.69230749, 4148.46153826,12.0
4087.43589709, 4857.94871927, 4572.05128275, 4683.46153937, 4125.76923050, 4703.97435995, 4730.12820617, 4647.69230853, 4806.53846272, 4131.02564075, 4462.94871837, 4779.74359086, 4166.92307672, 4141.02564082,12.0
4087.94871761, 4861.41025773, 4568.07692378, 4689.61538552, 4126.41025614, 4704.61538559, 4735.38461643, 4647.56410340, 4801.92307811, 4127.43589716, 4470.89743639, 4768.33333445, 4167.69230749, 4145.76923056,12.0
4101.28205094, 4860.25641158, 4570.51282121, 4697.05128303, 4127.30769203, 4701.28205226, 4725.12820610, 4642.17948802, 4788.46153958, 4126.92307665, 4483.97435946, 4761.92307804, 4173.20512807, 4147.94871774,12.0
4082.17948684, 4866.41025773, 4578.58974429, 4714.61538559, 4122.17948691, 4691.28205219, 4702.56410354, 4631.28205212, 4787.56410368, 4129.48717921, 4503.33333389, 4777.05128317, 4180.38461525, 4142.82051262,12.0
4096.28205094, 4872.56410389, 4585.89743660, 4722.82051380, 4128.46153819, 4685.51282142, 4693.71794969, 4628.58974443, 4792.94871913, 4129.35897408, 4514.23076979, 4785.89743701, 4185.64102551, 4145.76923056,12.0
4094.23076889, 4866.79487312, 4582.30769301, 4717.82051380, 4131.28205101, 4689.61538552, 4700.38461636, 4640.76923161, 4794.87179606, 4128.84615357, 4514.61538518, 4776.92307804, 4188.58974345, 4143.84615364,12.0
4092.30769196, 4866.15384748, 4582.94871865, 4716.53846252, 4129.10256383, 4693.07692398, 4704.48718046, 4650.12820597, 4799.74359093, 4128.97435870, 4522.43589800, 4774.48718060, 4193.71794858, 4147.56410236,12.0
4106.53846126, 4865.12820645, 4582.69230839, 4714.87179585, 4129.10256383, 4688.46153937, 4703.58974457, 4647.30769315, 4802.56410375, 4127.56410229, 4528.33333389, 4774.23077035, 4194.99999986, 4149.10256390,12.0
4091.02564068, 4852.82051408, 4569.35897506, 4704.87179585, 4124.61538434, 4685.12820604, 4707.82051380, 4645.51282135, 4795.38461657, 4127.56410229, 4521.15384671, 4760.38461650, 4191.79487166, 4146.28205108,12.0
4100.64102530, 4856.28205254, 4573.33333403, 4705.64102662, 4128.84615357, 4693.84615482, 4721.15384713, 4656.41025725, 4794.23077042, 4130.51282024, 4522.30769287, 4757.30769335, 4193.07692294, 4149.87179467,12.0
4097.69230735, 4876.28205261, 4582.94871865, 4721.92307790, 4131.66666639, 4702.94871893, 4737.30769335, 4665.64102655, 4805.64102683, 4130.89743562, 4532.30769294, 4773.71794983, 4196.92307679, 4147.05128185,12.0
4094.87179453, 4881.41025773, 4586.15384685, 4730.64102669, 4128.33333306, 4712.43589841, 4748.97436002, 4663.33333424, 4813.46153965, 4127.43589716, 4540.51282114, 4782.56410368, 4201.66666660, 4148.71794851,12.0
4109.35897408, 4862.94871927, 4586.15384685, 4721.92307790, 4128.07692280, 4718.71794969, 4744.74359079, 4657.94871879, 4803.33333452, 4127.05128178, 4544.87179550, 4770.25641137, 4204.23076917, 4148.58974339,12.0
4089.61538427, 4853.58974484, 4582.43589813, 4717.69230867, 4128.71794844, 4718.97435995, 4741.28205233, 4665.51282142, 4800.25641144, 4129.35897408, 4543.46153909, 4763.84615496, 4203.46153840, 4144.10256390,12.0
4100.25640991, 4874.48718081, 4594.48718019, 4731.79487284, 4132.56410229, 4726.53846258, 4756.53846258, 4681.02564193, 4822.56410375, 4129.10256383, 4545.12820576, 4773.97436009, 4209.87179481, 4149.74358954,12.0
4101.92307658, 4884.10256543, 4601.28205205, 4732.43589848, 4131.15384588, 4725.64102662, 4756.02564207, 4682.30769321, 4829.87179613, 4128.71794844, 4548.71794935, 4770.76923188, 4216.15384609, 4145.12820492,12.0
4086.02564068, 4871.53846286, 4597.43589820, 4723.58974457, 4129.23076896, 4710.64102662, 4729.61538566, 4674.23077014, 4810.51282170, 4131.66666639, 4550.76923140, 4758.84615489, 4215.89743583, 4141.66666646,12.0
4101.66666632, 4864.23077055, 4594.87179564, 4723.33333431, 4135.38461518, 4693.84615482, 4705.64102662, 4663.07692398, 4794.61538580, 4132.43589716, 4548.71794935, 4754.61538566, 4214.61538455, 4145.64102544,12.0
4092.94871761, 4857.82051414, 4582.82051352, 4712.43589841, 4133.84615357, 4684.23077014, 4695.51282149, 4645.89743674, 4783.58974471, 4128.97435870, 4540.64102627, 4740.51282156, 4213.20512814, 4143.84615364,12.0
4098.46153812, 4857.43589876, 4583.71794942, 4702.43589841, 4131.66666639, 4690.00000091, 4701.53846252, 4639.74359058, 4772.94871906, 4128.71794844, 4539.35897499, 4732.17948823, 4216.02564096, 4146.92307672,12.0
4099.99999966, 4862.69230902, 4593.33333403, 4710.38461636, 4130.76923050, 4695.89743687, 4710.51282149, 4650.64102648, 4776.53846265, 4129.48717921, 4543.33333396, 4742.82051387, 4219.87179481, 4144.99999980,12.0
4088.33333299, 4857.94871927, 4586.66666737, 4708.71794969, 4129.61538434, 4685.25641116, 4702.94871893, 4652.05128289, 4776.15384727, 4128.33333306, 4534.48718012, 4738.07692412, 4216.92307686, 4145.38461518,12.0
4107.56410229, 4852.69230895, 4580.38461608, 4696.02564200, 4133.58974332, 4679.35897527, 4699.61538559, 4647.94871879, 4765.12820624, 4128.84615357, 4520.89743646, 4719.61538559, 4215.64102558, 4148.33333313,12.0
4097.69230735, 4859.61538594, 4585.51282121, 4701.53846252, 4130.25640998, 4692.82051373, 4714.87179585, 4656.15384699, 4770.25641137, 4129.61538434, 4527.05128261, 4721.66666764, 4220.89743583, 4143.97435877,12.0
4100.76923043, 4865.00000132, 4592.56410326, 4709.74359072, 4130.89743562, 4703.58974457, 4721.92307790, 4656.28205212, 4776.66666778, 4130.12820485, 4537.43589807, 4728.71794976, 4225.38461532, 4148.71794851,12.0
4110.89743562, 4855.51282177, 4588.71794942, 4704.35897534, 4133.58974332, 4696.53846252, 4708.84615482, 4646.15384699, 4770.76923188, 4130.25640998, 4529.48718012, 4717.17948816, 4224.74358968, 4149.10256390,12.0
4094.99999966, 4858.71795004, 4591.92307762, 4714.10256508, 4128.46153819, 4705.38461636, 4717.69230867, 4655.89743674, 4781.92307804, 4129.74358947, 4524.74359030, 4716.66666764, 4227.94871788, 4147.05128185,12.0
4109.61538434, 4876.02564235, 4606.41025718, 4727.94871899, 4132.05128178, 4740.00000105, 4762.69230881, 4683.58974450, 4802.56410375, 4128.84615357, 4543.97435960, 4730.12820617, 4233.46153840, 4149.61538441,12.0
4101.53846119, 4861.53846286, 4596.41025718, 4712.30769328, 4133.71794844, 4732.69230874, 4756.41025746, 4682.30769321, 4789.87179599, 4127.82051255, 4541.79487242, 4714.48718046, 4229.10256404, 4145.38461518,12.0
4099.23076889, 4838.07692433, 4585.51282121, 4698.20512918, 4134.48717921, 4683.71794963, 4683.58974450, 4645.12820597, 4756.66666771, 4128.84615357, 4511.02564159, 4685.76923168, 4226.28205122, 4149.10256390,12.0
4111.66666639, 4842.43589869, 4593.84615454, 4709.23077021, 4136.92307672, 4668.58974450, 4654.48718032, 4621.79487256, 4745.38461643, 4132.17948691, 4552.69230832, 4688.07692398, 4231.53846147, 4150.89743569,12.0
4092.82051248, 4841.15384741, 4592.30769301, 4710.25641123, 4133.58974332, 4680.25641116, 4679.23077014, 4623.46153923, 4744.10256515, 4132.30769203, 4639.74359058, 4696.92307790, 4232.05128199, 4145.89743569,12.0
4106.28205101, 4826.41025766, 4588.20512890, 4696.28205226, 4137.94871774, 4680.51282142, 4686.41025732, 4627.56410333, 4735.51282156, 4129.23076896, 4632.43589827, 4692.30769321, 4231.79487173, 4146.15384595,12.0
4105.12820485, 4825.51282177, 4590.00000070, 4696.28205226, 4138.58974339, 4681.53846245, 4682.05128296, 4632.82051366, 4735.12820617, 4129.61538434, 4567.69230839, 4695.51282149, 4236.02564103, 4143.58974339,12.0
4096.41025607, 4833.97436023, 4591.79487249, 4703.20512918, 4136.53846133, 4687.82051373, 4692.30769321, 4643.71794956, 4744.35897541, 4130.64102537, 4559.61538524, 4701.28205226, 4240.25641026, 4147.94871774,12.0
4108.58974332, 4833.20512946, 4594.87179564, 4697.82051380, 4140.25641005, 4682.56410347, 4696.28205226, 4650.25641109, 4746.79487284, 4128.33333306, 4568.84615454, 4704.35897534, 4241.66666667, 4148.07692287,12.0
4093.84615350, 4832.69230895, 4596.79487256, 4696.15384713, 4135.25640998, 4685.00000091, 4699.74359072, 4651.15384699, 4744.35897541, 4128.07692280, 4549.10256473, 4711.02564200, 4242.05128206, 4142.30769210,12.0
4106.92307665, 4839.35897561, 4602.56410333, 4703.07692405, 4134.61538434, 4702.82051380, 4713.58974457, 4658.07692391, 4748.46153951, 4131.66666639, 4538.71794935, 4702.69230867, 4244.10256411, 4147.69230749,12.0
4109.35897408, 4829.48718074, 4595.25641102, 4693.84615482, 4135.12820485, 4696.79487277, 4704.74359072, 4656.28205212, 4748.33333438, 4130.38461511, 4528.46153902, 4670.12820604, 4240.25641026, 4146.02564082,12.0
4099.10256376, 4813.97436016, 4583.71794942, 4676.41025732, 4133.46153819, 4682.17948809, 4688.97435988, 4644.10256494, 4733.33333438, 4126.02564075, 4514.61538518, 4648.07692391, 4236.41025641, 4145.89743569,12.0
4113.58974332, 4811.79487298, 4586.66666737, 4672.94871886, 4136.92307672, 4691.28205219, 4696.92307790, 4641.79487263, 4719.48718046, 4126.02564075, 4513.20512876, 4648.07692391, 4240.51282052, 4146.02564082,12.0
4098.58974325, 4811.92307811, 4585.64102634, 4674.74359065, 4134.87179460, 4686.53846245, 4691.41025732, 4637.30769315, 4713.71794969, 4127.56410229, 4510.00000056, 4650.38461622, 4245.00000000, 4140.25641005,12.0
4107.94871767, 4820.89743708, 4590.76923147, 4684.48718039, 4136.53846133, 4672.05128296, 4674.74359065, 4630.25641109, 4717.82051380, 4129.74358947, 4507.05128261, 4657.82051366, 4248.84615385, 4146.79487159,12.0
4113.58974332, 4831.92307818, 4600.25641102, 4701.02564200, 4138.97435877, 4679.23077014, 4682.30769321, 4637.05128289, 4729.87179592, 4130.89743562, 4510.64102620, 4670.76923168, 4251.79487180, 4148.07692287,12.0
4098.58974325, 4830.64102690, 4599.35897513, 4705.12820610, 4134.74358947, 4685.25641116, 4691.92307783, 4646.53846238, 4735.51282156, 4128.33333306, 4514.87179543, 4675.51282142, 4253.58974359, 4145.38461518,12.0
4115.89743562, 4825.38461664, 4596.79487256, 4698.97435995, 4134.99999973, 4679.74359065, 4686.15384706, 4650.89743674, 4734.35897541, 4126.41025614, 4513.97435953, 4670.12820604, 4255.51282052, 4145.89743569,12.0
4104.61538434, 4820.89743708, 4592.17948788, 4694.87179585, 4133.20512793, 4680.12820604, 4686.41025732, 4653.46153930, 4734.74359079, 4128.58974332, 4510.25641082, 4663.07692398, 4255.76923077, 4143.84615364,12.0
4106.02564075, 4816.15384734, 4591.92307762, 4689.87179578, 4135.89743569, 4680.38461629, 4687.69230860, 4648.46153930, 4729.35897541, 4131.15384588, 4504.87179543, 4656.15384699, 4256.66666667, 4149.35897415,12.0
4115.51282024, 4808.84615503, 4589.74359044, 4681.92307783, 4137.43589723, 4672.94871886, 4682.05128296, 4640.51282135, 4719.48718046, 4130.64102537, 4497.43589800, 4653.20512904, 4258.84615385, 4146.66666646,12.0
4099.48717914, 4807.94871913, 4585.64102634, 4681.53846245, 4132.43589716, 4676.92307783, 4689.10256501, 4649.10256494, 4726.79487284, 4129.74358947, 4495.51282100, 4660.25641109, 4261.41025641, 4144.48717928,12.0
4111.66666639, 4812.56410375, 4592.43589813, 4685.38461629, 4139.35897415, 4687.56410347, 4695.51282149, 4659.74359058, 4734.61538566, 4130.38461511, 4496.02564152, 4665.89743680, 4263.46153847, 4151.41025621,12.0
4102.17948684, 4811.41025760, 4594.23076993, 4684.23077014, 4141.02564082, 4686.28205219, 4690.00000091, 4650.51282135, 4722.43589841, 4129.61538434, 4491.66666716, 4660.38461622, 4263.07692308, 4147.17948697,12.0
4103.58974332, 4811.79487298, 4592.43589813, 4682.30769321, 4137.43589723, 4685.00000091, 4694.48718046, 4651.66666750, 4722.69230867, 4128.84615357, 4486.79487229, 4653.33333417, 4264.23076923, 4148.71794851,12.0
4118.71794844, 4808.97436016, 4586.92307762, 4678.07692398, 4137.94871774, 4681.66666757, 4693.71794969, 4661.41025732, 4727.43589848, 4129.10256383, 4479.35897485, 4644.74359058, 4263.46153847, 4148.84615364,12.0
4101.02564068, 4798.97436016, 4574.35897506, 4670.51282142, 4134.48717921, 4667.17948809, 4672.94871886, 4640.38461622, 4706.92307790, 4127.05128178, 4475.25641075, 4630.51282135, 4261.66666667, 4143.97435877,12.0
4109.74358947, 4797.17948836, 4573.84615454, 4667.17948809, 4137.17948697, 4658.58974443, 4660.00000084, 4616.66666743, 4693.46153944, 4126.66666639, 4486.28205177, 4624.87179564, 4265.89743590, 4147.69230749,12.0
4105.38461511, 4796.92307811, 4574.35897506, 4663.97435988, 4138.97435877, 4656.53846238, 4657.30769315, 4627.17948795, 4703.33333431, 4128.84615357, 4493.20512870, 4633.07692391, 4266.66666674, 4144.35897415,12.0
4107.56410229, 4791.41025753, 4573.46153916, 4655.64102648, 4139.35897415, 4652.94871879, 4650.12820597, 4639.48718032, 4704.10256508, 4128.71794844, 4482.56410305, 4643.58974443, 4265.76923077, 4146.53846133,12.0
4125.38461511, 4792.05128324, 4578.07692378, 4656.28205212, 4139.99999980, 4660.12820597, 4655.25641109, 4637.82051366, 4699.74359072, 4126.02564075, 4476.92307741, 4650.12820597, 4270.25641033, 4148.71794851,12.0
4106.92307665, 4794.10256529, 4576.92307762, 4662.56410347, 4136.41025621, 4667.30769321, 4669.23077014, 4645.00000084, 4708.58974457, 4125.12820485, 4479.74359023, 4647.43589827, 4270.25641033, 4144.35897415,12.0
4116.79487152, 4793.46153965, 4578.71794942, 4659.87179571, 4140.76923056, 4668.20512911, 4675.51282142, 4659.74359058, 4719.35897534, 4127.30769203, 4475.76923126, 4641.15384699, 4270.51282059, 4148.58974339,12.0
4114.99999973, 4788.46153958, 4577.30769301, 4651.79487263, 4137.30769210, 4671.02564193, 4678.46153937, 4668.07692398, 4724.61538559, 4128.33333306, 4467.30769280, 4639.10256494, 4275.76923084, 4149.23076903,12.0
4105.25640998, 4781.53846265, 4570.64102634, 4647.17948802, 4134.23076896, 4671.15384706, 4677.94871886, 4660.00000084, 4715.38461636, 4127.17948691, 4461.53846196, 4632.82051366, 4277.30769238, 4148.46153826,12.0
4121.41025614, 4779.61538573, 4567.69230839, 4645.64102648, 4141.15384595, 4667.17948809, 4674.87179578, 4644.23077007, 4697.94871893, 4126.53846126, 4453.97435940, 4622.82051359, 4274.10256418, 4146.79487159,12.0
4105.51282024, 4775.64102676, 4562.05128275, 4644.35897520, 4136.79487159, 4666.41025732, 4677.43589834, 4641.41025725, 4695.64102662, 4128.20512793, 4448.46153888, 4620.12820590, 4273.20512828, 4145.89743569,12.0
4113.97435870, 4770.38461650, 4560.25641089, 4641.28205212, 4138.07692287, 4665.51282142, 4675.12820604, 4645.51282135, 4699.35897534, 4130.38461511, 4450.12820555, 4620.89743667, 4278.07692315, 4150.12820492,12.0
4114.35897408, 4765.64102676, 4558.07692371, 4637.56410340, 4139.10256390, 4649.35897520, 4651.02564186, 4637.69230853, 4692.43589834, 4129.48717921, 4447.05128247, 4623.58974436, 4282.17948725, 4143.20512800,12.0
4097.82051248, 4762.43589855, 4559.35897499, 4633.58974443, 4134.99999973, 4633.20512904, 4630.76923161, 4629.35897520, 4686.53846245, 4126.79487152, 4436.53846196, 4628.71794956, 4281.53846161, 4145.25641005,12.0
4115.89743562, 4763.97436009, 4566.79487249, 4633.71794956, 4140.64102544, 4640.25641109, 4641.15384699, 4642.94871879, 4695.76923175, 4126.15384588, 4433.33333375, 4630.51282135, 4282.43589751, 4152.94871774,12.0
4103.07692280, 4762.82051394, 4561.15384678, 4636.53846238, 4138.33333313, 4644.87179571, 4644.61538545, 4650.51282135, 4699.10256508, 4126.53846126, 4433.33333375, 4622.69230846, 4283.46153853, 4143.58974339,12.0
4105.12820485, 4756.53846258, 4557.30769294, 4634.48718032, 4135.25640998, 4637.17948802, 4629.35897520, 4634.35897520, 4683.58974450, 4126.66666639, 4429.35897471, 4611.79487256, 4283.46153853, 4141.92307672,12.0
4114.74358947, 4747.17948823, 4557.17948781, 4627.94871879, 4139.87179467, 4636.02564186, 4631.92307776, 4631.02564186, 4675.25641116, 4127.30769203, 4427.05128240, 4606.02564179, 4283.07692315, 4143.07692287,12.0
4101.92307658, 4742.82051387, 4550.12820576, 4625.51282128, 4140.12820492, 4638.97435981, 4642.30769315, 4645.12820597, 4683.71794963, 4128.46153819, 4425.89743625, 4603.97435974, 4284.74358982, 4144.48717928,12.0
4118.33333306, 4744.48718053, 4549.61538524, 4625.12820590, 4140.89743569, 4637.69230853, 4635.00000084, 4643.71794956, 4685.51282142, 4129.10256383, 4422.56410292, 4602.30769308, 4289.10256418, 4147.69230749,12.0
4109.74358947, 4739.35897541, 4550.25641089, 4623.71794949, 4138.71794851, 4636.28205212, 4630.64102648, 4633.33333417, 4680.12820604, 4128.20512793, 4421.66666702, 4602.56410333, 4288.71794879, 4142.05128185,12.0
4109.87179460, 4735.00000105, 4552.69230832, 4622.30769308, 4137.17948697, 4642.94871879, 4642.30769315, 4632.94871879, 4681.66666757, 4126.15384588, 4424.23076958, 4600.64102641, 4288.46153853, 4146.79487159,12.0
4123.46153819, 4736.41025746, 4554.35897499, 4617.30769308, 4141.02564082, 4647.05128289, 4648.71794956, 4637.69230853, 4683.97435988, 4124.61538434, 4418.58974394, 4588.71794942, 4288.97435905, 4147.94871774,12.0
4109.61538434, 4737.30769335, 4551.02564165, 4613.84615461, 4142.94871774, 4643.46153930, 4645.12820597, 4641.79487263, 4684.35897527, 4126.28205101, 4413.97435933, 4583.46153916, 4289.10256418, 4142.17948697,12.0
4121.92307665, 4733.84615489, 4553.20512883, 4614.10256487, 4143.46153826, 4638.97435981, 4636.41025725, 4639.61538545, 4681.66666757, 4128.71794844, 4416.66666702, 4586.53846224, 4290.00000007, 4145.64102544,12.0
4114.99999973, 4728.97436002, 4547.82051345, 4612.17948795, 4139.87179467, 4633.71794956, 4627.43589820, 4633.33333417, 4678.58974450, 4125.38461511, 4417.05128240, 4584.10256480, 4288.97435905, 4145.89743569,12.0
4111.79487152, 4734.74359079, 4536.28205191, 4612.94871872, 4143.07692287, 4630.00000084, 4624.23077000, 4634.61538545, 4680.12820604, 4122.30769203, 4416.15384651, 4583.58974429, 4291.53846161, 4145.64102544,12.0
4125.76923050, 4734.35897541, 4526.15384671, 4611.92307769, 4145.64102544, 4625.00000077, 4617.17948795, 4633.07692391, 4669.35897527, 4127.17948691, 4412.82051317, 4580.51282121, 4293.97435905, 4144.35897415,12.0
4107.82051255, 4725.89743687, 4521.53846210, 4608.71794949, 4136.66666646, 4624.10256487, 4614.35897513, 4625.00000077, 4652.94871879, 4130.89743562, 4406.66666702, 4574.10256480, 4291.66666674, 4145.64102544,12.0
4118.33333306, 4728.84615489, 4530.89743653, 4606.66666743, 4140.76923056, 4630.38461622, 4623.33333410, 4623.84615461, 4655.00000084, 4128.71794844, 4402.94871830, 4571.66666737, 4290.25641033, 4152.30769210,12.0
4113.58974332, 4726.79487284, 4527.69230825, 4601.79487256, 4144.23076903, 4627.82051366, 4627.05128282, 4626.53846231, 4665.51282142, 4126.53846126, 4400.12820548, 4567.82051352, 4289.48717956, 4147.56410236,12.0
4101.28205094, 4721.15384713, 4521.53846210, 4605.25641102, 4139.48717928, 4620.38461615, 4620.38461615, 4622.17948795, 4663.07692398, 4126.79487152, 4404.10256445, 4569.87179557, 4292.69230777, 4146.66666646,12.0
4119.35897408, 4727.43589848, 4531.66666730, 4618.33333410, 4140.89743569, 4622.69230846, 4617.05128282, 4614.61538538, 4654.74359058, 4127.82051255, 4412.56410292, 4583.46153916, 4297.94871802, 4146.79487159,12.0
4107.56410229, 4730.12820617, 4535.25641089, 4620.25641102, 4141.15384595, 4625.51282128, 4621.15384692, 4617.56410333, 4657.05128289, 4128.33333306, 4411.02564138, 4588.33333403, 4300.12820527, 4141.15384595,12.0
4116.28205101, 4726.53846258, 4536.15384678, 4617.05128282, 4143.46153826, 4629.35897520, 4629.87179571, 4635.89743674, 4669.48718039, 4129.23076896, 4411.41025676, 4580.64102634, 4301.66666681, 4147.69230749,12.0
4116.92307665, 4724.87179585, 4533.84615448, 4619.87179564, 4142.05128185, 4640.25641109, 4640.89743674, 4645.12820597, 4676.66666757, 4128.71794844, 4414.10256445, 4576.28205198, 4301.41025655, 4144.99999980,12.0
4101.92307658, 4721.92307790, 4527.94871851, 4617.94871872, 4138.46153826, 4637.56410340, 4634.87179571, 4625.00000077, 4663.46153937, 4128.46153819, 4409.87179522, 4569.87179557, 4299.74358989, 4141.79487159,12.0
4119.23076896, 4714.23077021, 4527.30769287, 4606.28205205, 4143.58974339, 4623.84615461, 4617.94871872, 4611.79487256, 4649.74359058, 4127.43589716, 4425.64102599, 4557.69230832, 4298.33333341, 4148.20512800,12.0
4110.51282024, 4702.05128303, 4520.76923133, 4593.20512890, 4142.82051262, 4622.43589820, 4621.53846231, 4626.15384692, 4649.74359058, 4123.33333306, 4450.00000042, 4547.56410319, 4296.66666674, 4146.79487159,12.0
4115.89743562, 4698.84615482, 4517.30769287, 4589.74359044, 4141.41025621, 4623.46153923, 4625.76923154, 4626.53846231, 4639.35897520, 4124.35897408, 4447.94871837, 4545.25641089, 4296.41025648, 4148.07692287,12.0
4122.43589716, 4704.35897534, 4515.89743646, 4592.30769301, 4142.17948697, 4605.51282128, 4597.69230846, 4602.56410333, 4620.38461615, 4128.84615357, 4438.20512863, 4545.76923140, 4295.00000007, 4147.05128185,12.0
4111.79487152, 4705.76923175, 4513.46153902, 4590.38461608, 4138.58974339, 4589.48718019, 4572.17948788, 4593.58974429, 4619.61538538, 4128.07692280, 4445.51282093, 4543.33333396, 4295.64102571, 4147.05128185,12.0
4130.38461511, 4701.79487277, 4519.61538518, 4590.76923147, 4141.53846133, 4599.23077000, 4587.05128275, 4609.74359051, 4633.84615468, 4125.64102537, 4453.84615427, 4546.28205191, 4301.66666681, 4147.94871774,12.0
4117.05128178, 4692.69230860, 4514.87179543, 4590.38461608, 4141.28205108, 4610.00000077, 4604.23077000, 4612.17948795, 4636.41025725, 4125.89743562, 4450.38461581, 4545.89743653, 4302.56410271, 4143.20512800,12.0
4114.61538434, 4687.56410347, 4509.87179543, 4583.46153916, 4143.46153826, 4607.30769308, 4599.10256487, 4601.66666743, 4626.41025718, 4125.64102537, 4443.97435940, 4537.43589807, 4299.87179501, 4148.97435877,12.0
4124.74358947, 4689.48718039, 4517.43589800, 4580.89743660, 4145.38461518, 4606.28205205, 4596.53846231, 4608.71794949, 4625.38461615, 4127.82051255, 4442.05128247, 4539.61538524, 4303.84615399, 4150.38461518,12.0
4106.92307665, 4691.92307783, 4520.64102620, 4586.15384685, 4139.23076903, 4604.74359051, 4599.35897513, 4613.46153923, 4629.10256494, 4130.76923050, 4446.66666709, 4551.66666730, 4305.64102578, 4146.02564082,12.0
4120.89743562, 4690.76923168, 4519.35897492, 4587.94871865, 4142.05128185, 4600.12820590, 4597.69230846, 4600.25641102, 4620.25641102, 4127.43589716, 4447.94871837, 4548.71794935, 4302.82051296, 4147.69230749,12.0
4113.07692280, 4680.00000091, 4510.25641082, 4576.02564172, 4142.56410236, 4605.89743667, 4603.71794949, 4594.87179564, 4609.87179564, 4125.38461511, 4440.89743632, 4531.28205191, 4301.15384630, 4144.10256390,12.0
4107.82051255, 4669.35897527, 4503.97435953, 4561.92307755, 4141.02564082, 4610.76923154, 4606.28205205, 4600.38461615, 4612.30769308, 4129.35897408, 4440.64102606, 4517.56410312, 4300.64102578, 4147.82051262,12.0
4123.84615357, 4664.48718039, 4504.61538518, 4561.41025704, 4142.43589723, 4591.53846224, 4582.43589813, 4598.20512897, 4612.82051359, 4131.41025614, 4443.97435940, 4511.15384671, 4298.71794879, 4147.94871774,12.0
4106.53846126, 4659.61538545, 4506.28205184, 4570.12820583, 4140.25641005, 4572.17948788, 4562.56410326, 4592.17948788, 4604.74359051, 4127.94871767, 4443.46153888, 4518.58974415, 4298.20512828, 4142.56410236,12.0
4117.94871767, 4658.97435981, 4514.61538518, 4569.74359044, 4143.58974339, 4578.97435967, 4571.41025711, 4590.76923147, 4595.89743667, 4127.17948691, 4440.12820555, 4527.56410312, 4304.23076937, 4148.58974339,12.0
4121.66666639, 4661.15384706, 4514.48718005, 4564.10256480, 4140.76923056, 4580.38461608, 4573.71794942, 4590.00000070, 4588.07692378, 4128.84615357, 4424.10256445, 4522.17948774, 4305.89743604, 4145.38461518,12.0
4114.48717921, 4662.56410347, 4510.51282107, 4566.28205198, 4138.71794851, 4574.48718019, 4571.15384685, 4590.12820583, 4584.10256480, 4127.43589716, 4399.23076958, 4515.12820569, 4304.61538476, 4142.56410236,12.0
4124.74358947, 4666.79487270, 4515.00000056, 4567.17948788, 4144.74358954, 4581.92307762, 4583.07692378, 4592.56410326, 4588.84615454, 4127.43589716, 4386.92307720, 4520.00000056, 4310.00000014, 4145.76923056,12.0
4110.51282024, 4666.41025732, 4512.82051338, 4568.33333403, 4140.89743569, 4580.00000070, 4576.15384685, 4588.97435967, 4589.23076993, 4130.76923050, 4384.74359003, 4522.30769287, 4310.76923091, 4145.51282031,12.0
4125.64102537, 4662.05128296, 4510.12820569, 4575.12820583, 4141.15384595, 4574.35897506, 4562.56410326, 4589.35897506, 4589.23076993, 4130.89743562, 4378.46153874, 4512.94871851, 4307.56410271, 4148.46153826,12.0
4128.33333306, 4660.64102655, 4508.84615441, 4581.41025711, 4143.07692287, 4580.64102634, 4574.87179557, 4598.97435974, 4600.64102641, 4125.51282024, 4372.30769259, 4508.58974415, 4309.23076937, 4144.23076903,12.0
4112.17948691, 4663.20512911, 4509.10256466, 4582.82051352, 4142.43589723, 4580.51282121, 4578.97435967, 4597.69230846, 4600.38461615, 4126.02564075, 4371.92307720, 4512.56410312, 4312.17948732, 4145.12820492,12.0
4127.82051255, 4664.35897527, 4513.58974415, 4583.97435967, 4145.51282031, 4575.89743660, 4569.74359044, 4593.20512890, 4590.00000070, 4132.17948691, 4369.74359003, 4512.69230825, 4311.66666681, 4147.43589723,12.0
4116.66666639, 4659.87179571, 4505.89743646, 4583.84615454, 4140.51282031, 4579.61538531, 4575.25641096, 4601.02564179, 4596.02564179, 4131.79487152, 4363.71794893, 4505.25641082, 4309.87179501, 4143.33333313,12.0
4120.89743562, 4659.35897520, 4502.30769287, 4580.12820583, 4140.64102544, 4586.02564172, 4585.12820583, 4607.56410333, 4603.07692385, 4128.07692280, 4358.07692329, 4499.87179543, 4314.61538476, 4147.82051262,12.0
4122.82051255, 4657.43589827, 4504.23076979, 4578.07692378, 4143.97435877, 4582.69230839, 4580.51282121, 4601.79487256, 4594.74359044, 4127.69230742, 4354.10256431, 4498.20512876, 4317.05128219, 4144.74358954,12.0
4105.76923050, 4653.07692391, 4501.66666723, 4579.48718019, 4142.69230749, 4576.53846224, 4570.89743660, 4588.84615454, 4587.94871865, 4127.56410229, 4353.07692329, 4496.28205177, 4315.89743604, 4143.58974339,12.0
4124.23076896, 4656.92307776, 4504.74359030, 4582.69230839, 4145.12820492, 4577.69230839, 4566.41025711, 4579.48718019, 4585.51282121, 4126.02564075, 4353.84615406, 4498.97435953, 4318.58974373, 4148.97435877,12.0
4115.38461511, 4657.05128289, 4503.58974415, 4584.23076993, 4141.53846133, 4577.05128275, 4565.38461608, 4582.30769301, 4582.05128275, 4127.82051255, 4352.82051303, 4501.28205184, 4320.12820527, 4143.07692287,12.0
4117.30769203, 4650.89743674, 4503.58974415, 4583.33333403, 4141.41025621, 4577.82051352, 4569.87179557, 4588.58974429, 4581.66666737, 4129.10256383, 4349.10256431, 4497.30769287, 4319.10256425, 4145.12820492,12.0
4127.69230742, 4643.20512904, 4503.97435953, 4576.41025711, 4144.74358954, 4571.53846224, 4562.56410326, 4580.89743660, 4573.71794942, 4127.05128178, 4339.74358996, 4489.35897485, 4314.74358989, 4147.69230749,12.0
4108.84615357, 4640.00000084, 4499.35897492, 4569.23076993, 4139.48717928, 4560.25641089, 4549.23076986, 4576.79487249, 4568.58974429, 4126.02564075, 4333.20512842, 4484.10256459, 4313.20512835, 4145.89743569,12.0
4122.30769203, 4639.74359058, 4499.61538518, 4567.69230839, 4140.89743569, 4568.71794942, 4566.53846224, 4587.43589813, 4577.05128275, 4127.05128178, 4336.53846175, 4482.94871844, 4316.41025655, 4146.41025621,12.0
4117.94871767, 4630.25641109, 4493.71794921, 4560.89743653, 4141.92307672, 4569.35897506, 4575.76923147, 4583.84615454, 4573.33333403, 4127.56410229, 4334.48717970, 4473.84615434, 4313.33333348, 4141.53846133,12.0
4116.28205101, 4626.15384692, 4490.25641075, 4556.41025704, 4141.79487159, 4551.79487242, 4550.25641089, 4577.56410326, 4566.02564172, 4128.58974332, 4327.05128219, 4465.76923126, 4310.76923091, 4146.92307672,12.0
4130.51282024, 4628.97435981, 4490.25641075, 4558.33333396, 4145.64102544, 4547.56410319, 4536.66666730, 4581.92307762, 4569.23076993, 4128.97435870, 4323.33333348, 4468.46153895, 4312.82051296, 4148.33333313,12.0
4116.41025614, 4620.25641102, 4481.66666716, 4553.58974422, 4142.17948697, 4545.89743653, 4535.12820576, 4569.23076993, 4559.48718012, 4126.15384588, 4319.61538476, 4467.17948767, 4310.25641040, 4141.28205108,12.0
4128.46153819, 4614.35897513, 4482.05128254, 4549.87179550, 4144.99999980, 4539.35897499, 4525.51282107, 4553.20512883, 4545.76923140, 4127.82051255, 4318.84615399, 4462.43589786, 4306.66666681, 4146.66666646,12.0
4124.35897408, 4620.00000077, 4485.76923126, 4554.48718012, 4146.15384595, 4546.41025704, 4530.64102627, 4563.58974429, 4553.97435960, 4129.99999973, 4321.28205142, 4466.02564152, 4307.94871809, 4148.20512800,12.0
4117.56410229, 4624.10256487, 4484.87179536, 4553.20512883, 4140.76923056, 4557.05128268, 4550.25641089, 4576.15384685, 4560.38461601, 4127.17948691, 4321.66666681, 4465.12820562, 4312.69230784, 4147.43589723,12.0
4132.94871767, 4621.41025718, 4482.94871844, 4546.92307755, 4140.89743569, 4556.66666730, 4554.48718012, 4573.97435967, 4555.89743653, 4128.71794844, 4319.48717963, 4454.74359016, 4314.35897450, 4147.05128185,12.0
4116.28205101, 4617.69230846, 4479.35897485, 4545.00000063, 4141.15384595, 4553.97435960, 4548.07692371, 4576.92307762, 4560.51282114, 4131.41025614, 4316.53846168, 4453.46153888, 4310.51282066, 4144.99999980,12.0
4126.15384588, 4614.10256487, 4482.94871844, 4541.79487242, 4144.99999980, 4551.28205191, 4544.10256473, 4580.51282121, 4561.41025704, 4128.71794844, 4316.15384630, 4454.48717991, 4309.48717963, 4147.69230749,12.0
4125.51282024, 4599.61538538, 4473.97435946, 4530.51282114, 4144.35897415, 4544.23076986, 4540.76923140, 4570.00000070, 4545.00000063, 4127.17948691, 4310.76923091, 4441.41025683, 4308.46153860, 4144.10256390,12.0
4111.53846126, 4582.94871865, 4457.43589786, 4518.20512876, 4142.17948697, 4537.82051345, 4534.61538524, 4553.71794935, 4528.97435953, 4129.35897408, 4297.82051289, 4427.94871830, 4303.58974373, 4145.12820492,12.0
4127.94871767, 4581.79487249, 4461.41025683, 4517.43589800, 4146.28205108, 4536.02564165, 4528.46153902, 4557.17948781, 4532.69230832, 4127.56410229, 4293.84615392, 4427.43589779, 4303.97435912, 4146.41025621,12.0
4112.17948691, 4591.28205198, 4469.10256459, 4527.43589800, 4142.43589723, 4540.00000063, 4537.94871858, 4578.07692378, 4550.64102627, 4126.02564075, 4301.15384630, 4438.58974401, 4308.07692322, 4139.87179467,12.0
4117.17948691, 4600.38461615, 4473.71794921, 4535.25641089, 4143.97435877, 4548.58974422, 4555.00000063, 4580.38461608, 4558.84615448, 4130.89743562, 4303.07692322, 4449.48717991, 4312.94871809, 4146.41025621,12.0
4125.64102537, 4593.71794942, 4472.94871844, 4529.23076986, 4147.56410236, 4547.30769294, 4551.79487242, 4564.74359044, 4547.05128268, 4131.79487152, 4295.64102571, 4442.94871837, 4313.84615399, 4146.28205108,12.0
4111.92307665, 4581.02564172, 4465.25641075, 4520.00000056, 4144.61538441, 4537.56410319, 4535.89743653, 4556.41025704, 4533.33333396, 4128.33333306, 4295.76923084, 4432.05128247, 4309.48717963, 4142.82051262,12.0
4125.12820485, 4584.87179557, 4465.51282100, 4524.35897492, 4147.05128185, 4537.43589807, 4537.56410319, 4568.07692378, 4540.64102627, 4127.56410229, 4300.64102578, 4432.82051324, 4309.74358989, 4147.94871774,12.0
4114.23076896, 4586.66666737, 4464.61538511, 4528.58974415, 4142.94871774, 4539.61538524, 4543.33333396, 4575.25641096, 4547.05128268, 4127.69230742, 4296.41025648, 4427.94871830, 4311.79487194, 4144.35897415,12.0
4121.66666639, 4578.84615454, 4465.25641075, 4522.56410312, 4142.17948697, 4534.35897499, 4531.66666730, 4560.51282114, 4531.28205191, 4128.84615357, 4288.97435905, 4415.64102599, 4310.76923091, 4144.87179467,12.0
4133.58974332, 4573.58974429, 4463.84615434, 4515.00000056, 4145.51282031, 4529.48718012, 4521.66666723, 4553.71794935, 4521.92307748, 4130.51282024, 4285.76923084, 4415.38461574, 4308.97435912, 4146.28205108,12.0
4115.76923050, 4568.58974429, 4455.12820555, 4511.92307748, 4140.25641005, 4525.00000056, 4521.92307748, 4559.10256473, 4527.30769287, 4129.48717921, 4287.17948725, 4416.53846189, 4309.10256425, 4147.69230749,12.0
4130.25640998, 4561.79487242, 4451.02564145, 4503.71794928, 4143.84615364, 4514.74359030, 4509.61538518, 4547.69230832, 4512.30769287, 4129.10256383, 4284.35897443, 4404.61538497, 4308.33333348, 4149.74358954,12.0
4125.25640998, 4560.76923140, 4449.61538504, 4499.48718005, 4145.76923056, 4508.33333389, 4498.58974415, 4532.82051345, 4498.20512876, 4129.87179460, 4280.00000007, 4401.28205163, 4306.15384630, 4142.69230749,12.0
4122.82051255, 4570.51282121, 4458.97435940, 4511.15384671, 4144.74358954, 4519.35897492, 4514.87179543, 4544.23076986, 4513.97435953, 4130.38461511, 4286.02564110, 4414.61538497, 4310.38461553, 4146.92307672,12.0
4133.58974332, 4569.87179557, 4464.35897485, 4513.07692364, 4146.41025621, 4526.53846210, 4526.28205184, 4555.38461601, 4522.56410312, 4130.51282024, 4290.12820520, 4423.33333368, 4313.58974373, 4150.64102544,12.0
4118.33333306, 4562.56410326, 4456.41025683, 4501.53846210, 4145.12820492, 4515.00000056, 4514.23076979, 4550.89743653, 4512.56410312, 4131.02564075, 4281.79487187, 4418.58974394, 4313.97435912, 4148.33333313,12.0
4131.79487152, 4566.28205198, 4459.23076965, 4502.05128261, 4147.56410236, 4515.76923133, 4514.74359030, 4558.46153909, 4513.58974415, 4129.99999973, 4276.28205136, 4413.46153881, 4316.79487194, 4151.02564082,12.0
4123.07692280, 4558.71794935, 4454.74359016, 4501.15384671, 4146.02564082, 4529.48718012, 4531.02564165, 4556.92307755, 4514.23076979, 4128.33333306, 4276.15384623, 4407.94871830, 4314.23076937, 4147.17948697,12.0
4111.66666639, 4544.23076986, 4443.33333375, 4488.58974408, 4143.97435877, 4532.17948781, 4533.97435960, 4533.07692371, 4504.87179543, 4133.46153819, 4273.33333341, 4396.66666695, 4311.66666681, 4147.82051262,12.0
4127.82051255, 4546.53846217, 4446.79487222, 4491.15384664, 4144.61538441, 4532.43589807, 4533.71794935, 4528.20512876, 4516.41025697, 4137.94871774, 4273.07692315, 4394.23076951, 4318.46153860, 4147.05128185,12.0
4112.17948691, 4553.33333396, 4449.23076965, 4499.74359030, 4142.05128185, 4529.61538524, 4535.00000063, 4536.41025704, 4530.38461601, 4132.94871767, 4274.74358982, 4404.61538497, 4322.43589758, 4142.43589723,12.0
4121.53846126, 4551.28205191, 4446.02564145, 4489.10256459, 4145.89743569, 4519.35897492, 4517.17948774, 4521.66666723, 4511.15384671, 4128.33333306, 4278.07692315, 4400.00000035, 4317.05128219, 4148.84615364,12.0
4123.33333306, 4544.35897499, 4437.56410298, 4477.05128254, 4144.10256390, 4511.92307748, 4498.58974415, 4505.38461594, 4491.79487229, 4128.84615357, 4280.38461546, 4378.46153874, 4310.25641040, 4147.05128185,12.0
4112.94871767, 4538.07692371, 4429.48717984, 4474.10256459, 4139.99999980, 4511.41025697, 4502.05128261, 4503.07692364, 4491.53846203, 4128.20512793, 4277.43589751, 4368.58974387, 4307.82051296, 4144.35897415,12.0
4132.82051255, 4534.87179550, 4433.97435940, 4475.00000049, 4146.53846133, 4517.30769287, 4517.56410312, 4508.71794928, 4495.64102613, 4127.43589716, 4278.33333341, 4376.66666695, 4313.07692322, 4146.02564082,12.0
4118.97435870, 4535.25641089, 4438.20512863, 4479.35897485, 4145.25641005, 4517.69230825, 4521.15384671, 4517.05128261, 4499.87179543, 4127.56410229, 4282.69230777, 4384.87179515, 4315.89743604, 4144.87179467,12.0
4120.51282024, 4535.89743653, 4439.10256452, 4480.89743639, 4144.99999980, 4515.12820569, 4516.92307748, 4511.15384671, 4504.61538518, 4127.56410229, 4279.61538469, 4383.58974387, 4313.20512835, 4150.25641005,12.0
4127.05128178, 4529.48718012, 4435.00000042, 4474.35897485, 4146.15384595, 4511.02564159, 4512.05128261, 4496.41025697, 4501.02564159, 4128.58974332, 4271.53846161, 4377.82051310, 4311.53846168, 4146.53846133,12.0
4117.43589716, 4528.58974415, 4432.05128247, 4475.38461587, 4140.89743569, 4510.25641082, 4512.69230825, 4507.17948774, 4500.12820569, 4128.46153819, 4271.92307700, 4380.12820541, 4314.87179501, 4143.46153826,12.0
4132.56410229, 4538.71794935, 4438.07692350, 4482.94871844, 4143.33333313, 4523.84615441, 4532.17948781, 4537.30769294, 4512.56410312, 4128.71794844, 4275.00000007, 4390.38461567, 4320.76923091, 4149.35897415,12.0
4120.12820485, 4538.84615448, 4435.89743632, 4482.43589793, 4143.58974339, 4523.71794928, 4536.28205191, 4540.25641089, 4514.10256466, 4129.74358947, 4269.48717956, 4390.64102592, 4320.12820527, 4146.02564082,12.0
4126.79487152, 4536.92307755, 4433.46153888, 4480.38461587, 4143.46153826, 4502.94871851, 4507.69230825, 4520.25641082, 4501.28205184, 4129.87179460, 4260.89743590, 4382.17948746, 4317.05128219, 4147.69230749,12.0
4136.41025621, 4534.10256473, 4429.23076958, 4475.51282100, 4144.48717928, 4488.84615434, 4480.12820562, 4505.76923133, 4488.46153895, 4130.38461511, 4255.25641026, 4370.89743618, 4314.61538476, 4149.35897415,12.0
4113.71794844, 4523.33333389, 4422.17948753, 4465.25641075, 4142.30769210, 4492.69230818, 4480.64102613, 4497.17948774, 4481.53846203, 4129.48717921, 4252.56410257, 4358.84615406, 4312.69230784, 4146.92307672,12.0
4129.48717921, 4531.15384678, 4430.38461574, 4467.05128254, 4145.12820492, 4502.56410312, 4496.79487235, 4493.84615434, 4481.53846203, 4127.17948691, 4255.51282052, 4365.12820541, 4316.02564117, 4148.07692287,12.0
4121.53846126, 4545.00000063, 4436.53846196, 4476.79487229, 4141.79487159, 4506.79487235, 4505.64102620, 4496.02564152, 4483.97435946, 4127.69230742, 4261.79487180, 4384.48717977, 4319.23076937, 4145.76923056,12.0
4114.99999973, 4536.92307755, 4436.66666709, 4474.87179536, 4140.51282031, 4505.00000056, 4508.20512876, 4499.74359030, 4480.38461587, 4129.99999973, 4264.74358975, 4387.56410285, 4320.64102578, 4150.64102544,12.0
4130.25640998, 4523.33333389, 4434.23076965, 4463.46153888, 4144.87179467, 4497.82051338, 4504.61538518, 4501.79487235, 4475.00000049, 4128.33333306, 4263.71794872, 4374.48717977, 4320.89743604, 4149.35897415,12.0
4112.56410229, 4525.89743646, 4427.30769266, 4456.66666709, 4142.94871774, 4493.20512870, 4498.20512876, 4503.97435953, 4481.28205177, 4126.02564075, 4261.66666667, 4367.30769259, 4319.74358989, 4143.46153826,12.0
4121.02564075, 4530.00000063, 4431.53846196, 4461.02564145, 4146.28205108, 4493.07692357, 4498.58974415, 4506.79487235, 4485.64102613, 4129.23076896, 4260.76923077, 4368.97435926, 4321.79487194, 4148.07692287,12.0
4120.89743562, 4519.87179543, 4430.25641061, 4463.84615434, 4146.15384595, 4491.92307741, 4502.69230825, 4513.46153902, 4480.51282100, 4130.89743562, 4259.23076923, 4367.43589772, 4323.71794886, 4144.23076903,12.0
4117.43589716, 4509.23076979, 4419.61538497, 4449.10256452, 4144.87179467, 4492.17948767, 4503.58974415, 4518.97435953, 4476.28205177, 4127.69230742, 4254.74358975, 4351.53846175, 4321.02564117, 4146.02564082,12.0
4127.94871767, 4500.64102620, 4413.07692343, 4426.53846189, 4146.92307672, 4488.71794921, 4496.53846210, 4510.64102620, 4467.69230818, 4127.69230742, 4245.00000000, 4331.02564117, 4315.00000014, 4150.12820492,12.0
4111.28205101, 4494.10256459, 4409.23076958, 4419.48717984, 4141.41025621, 4481.79487229, 4491.28205177, 4504.87179543, 4459.10256452, 4128.84615357, 4233.20512814, 4325.00000014, 4311.02564117, 4145.25641005,12.0
4127.17948691, 4493.33333382, 4411.92307727, 4420.38461574, 4145.64102544, 4486.15384664, 4496.02564152, 4511.92307748, 4457.56410298, 4129.10256383, 4230.64102558, 4322.30769245, 4310.12820527, 4147.69230749,12.0
4127.56410229, 4485.76923126, 4406.02564138, 4410.64102599, 4146.92307672, 4485.76923126, 4488.84615434, 4502.17948774, 4452.69230811, 4129.99999973, 4233.33333327, 4310.38461553, 4305.64102578, 4144.87179467,12.0
4114.61538434, 4481.79487229, 4399.61538497, 4404.61538497, 4139.10256390, 4466.53846203, 4464.10256459, 4472.56410305, 4438.20512863, 4129.23076896, 4231.92307686, 4306.79487194, 4305.89743604, 4145.89743569,12.0
4135.64102544, 4489.74359023, 4409.74359009, 4413.46153881, 4143.71794851, 4457.94871837, 4461.41025683, 4467.69230818, 4437.05128247, 4125.76923050, 4232.56410250, 4319.10256425, 4310.89743604, 4151.02564082,12.0
4124.87179460, 4495.89743639, 4416.02564138, 4423.97435933, 4146.92307672, 4471.92307741, 4485.38461587, 4487.05128254, 4455.76923119, 4127.43589716, 4240.51282052, 4333.58974380, 4311.92307707, 4147.43589723,12.0
4129.74358947, 4499.87179543, 4421.53846189, 4426.28205163, 4145.12820492, 4486.02564152, 4496.53846210, 4500.51282107, 4469.10256459, 4130.76923050, 4247.94871795, 4346.02564124, 4315.89743604, 4148.46153826,12.0
4131.92307665, 4494.61538511, 4420.51282086, 4417.94871830, 4143.20512800, 4482.94871844, 4490.64102613, 4506.92307748, 4467.82051331, 4130.12820485, 4243.07692308, 4351.02564124, 4319.35897450, 4148.46153826,12.0
4114.99999973, 4481.41025690, 4410.76923112, 4406.79487215, 4143.46153826, 4478.97435946, 4497.69230825, 4508.07692364, 4458.84615427, 4129.74358947, 4235.12820513, 4342.94871816, 4317.30769245, 4148.07692287,12.0
4130.89743562, 4477.30769280, 4410.38461574, 4403.58974394, 4147.17948697, 4484.23076972, 4508.07692364, 4504.35897492, 4448.33333375, 4130.12820485, 4235.51282052, 4330.25641040, 4314.87179501, 4148.58974339,12.0
4118.46153819, 4472.30769280, 4406.02564138, 4401.41025676, 4143.84615364, 4482.56410305, 4502.69230825, 4507.43589800, 4444.87179529, 4129.99999973, 4232.56410250, 4322.82051296, 4310.64102578, 4145.89743569,12.0
4120.38461511, 4463.33333375, 4400.38461574, 4393.71794900, 4145.12820492, 4470.12820562, 4483.71794921, 4505.76923133, 4442.56410298, 4129.87179460, 4228.84615378, 4318.71794886, 4308.84615399, 4149.10256390,12.0
4128.20512793, 4458.07692350, 4397.69230797, 4385.38461567, 4144.74358954, 4460.00000042, 4465.00000049, 4486.66666716, 4430.12820548, 4128.84615357, 4230.76923070, 4305.76923091, 4308.20512835, 4141.66666646,12.0
4110.25640998, 4454.87179529, 4395.76923105, 4383.84615413, 4138.33333313, 4457.82051324, 4461.53846196, 4472.69230818, 4419.23076958, 4128.46153819, 4231.92307686, 4295.00000007, 4304.10256425, 4138.33333313,12.0
4127.05128178, 4454.74359016, 4397.82051310, 4387.69230797, 4144.74358954, 4456.66666709, 4462.56410298, 4476.41025690, 4423.07692343, 4129.35897408, 4226.79487173, 4301.41025655, 4305.12820527, 4149.35897415,12.0
4119.99999973, 4452.69230811, 4394.35897464, 4387.43589772, 4144.48717928, 4447.30769273, 4453.84615427, 4478.07692357, 4427.43589779, 4127.69230742, 4221.92307686, 4306.66666681, 4308.97435912, 4146.53846133,12.0
4118.97435870, 4456.02564145, 4395.51282079, 4388.46153874, 4139.99999980, 4446.92307734, 4454.35897478, 4481.66666716, 4433.46153888, 4126.28205101, 4225.51282045, 4304.35897450, 4309.74358989, 4146.66666646,12.0
4131.79487152, 4461.53846196, 4398.84615420, 4392.17948746, 4143.20512800, 4458.84615427, 4470.25641075, 4498.71794928, 4451.92307734, 4128.58974332, 4232.69230763, 4308.20512835, 4311.02564117, 4147.17948697,12.0
4116.41025614, 4459.35897478, 4398.71794907, 4392.43589772, 4142.43589723, 4461.41025683, 4479.74359023, 4508.46153902, 4464.87179536, 4130.64102537, 4235.25641026, 4317.69230784, 4314.87179501, 4144.10256390,12.0
4129.23076896, 4455.64102606, 4400.76923112, 4383.46153874, 4145.76923056, 4458.71794914, 4482.05128254, 4507.17948774, 4456.79487222, 4130.38461511, 4232.43589737, 4318.20512835, 4316.66666681, 4147.94871774,12.0
4125.51282024, 4452.17948760, 4392.43589772, 4372.43589772, 4145.25641005, 4460.76923119, 4487.43589793, 4516.41025697, 4451.53846196, 4130.25640998, 4230.38461532, 4306.66666681, 4311.79487194, 4145.38461518,12.0
4125.51282024, 4453.33333375, 4389.48717977, 4372.69230797, 4143.20512800, 4470.64102613, 4501.53846210, 4533.07692371, 4462.56410298, 4134.35897408, 4231.79487173, 4301.53846168, 4309.35897450, 4147.43589723,12.0
4139.35897415, 4452.94871837, 4395.12820541, 4377.30769259, 4143.33333313, 4478.97435946, 4515.12820569, 4533.46153909, 4461.92307734, 4135.89743569, 4228.20512814, 4305.51282066, 4312.69230784, 4148.46153826,12.0
4121.66666639, 4443.71794914, 4386.79487208, 4373.71794900, 4139.74358954, 4461.02564145, 4492.56410305, 4515.25641082, 4444.48717991, 4130.51282024, 4220.25641019, 4302.69230784, 4311.79487194, 4144.74358954,12.0
4132.69230742, 4439.61538504, 4382.05128233, 4371.02564131, 4144.74358954, 4439.87179529, 4460.76923119, 4504.10256466, 4438.46153888, 4128.84615357, 4218.20512814, 4293.07692315, 4308.71794886, 4147.94871774,12.0
4127.94871767, 4443.84615427, 4382.94871823, 4378.71794900, 4144.87179467, 4446.79487222, 4467.94871844, 4504.23076979, 4441.66666709, 4130.76923050, 4218.46153840, 4292.94871802, 4309.48717963, 4146.41025621,12.0
4115.38461511, 4446.92307734, 4382.56410285, 4383.46153874, 4141.28205108, 4453.33333375, 4476.28205177, 4494.48717998, 4431.28205170, 4131.28205101, 4215.76923070, 4298.97435905, 4310.76923091, 4148.07692287,12.0
4130.64102537, 4444.74359016, 4386.66666695, 4376.92307720, 4144.10256390, 4441.02564145, 4460.12820555, 4483.71794921, 4419.48717984, 4130.64102537, 4217.05128199, 4302.94871809, 4309.61538476, 4150.25641005,12.0
4115.38461511, 4443.20512863, 4384.87179515, 4372.69230797, 4142.17948697, 4437.82051324, 4456.66666709, 4488.07692357, 4422.30769266, 4127.43589716, 4217.82051275, 4307.82051296, 4308.84615399, 4146.15384595,12.0
4123.07692280, 4444.35897478, 4383.33333362, 4375.00000028, 4142.69230749, 4449.23076965, 4469.74359023, 4494.87179536, 4423.58974394, 4127.94871767, 4214.23076917, 4305.12820527, 4311.53846168, 4149.48717928,12.0
4125.12820485, 4443.07692350, 4382.30769259, 4376.53846182, 4142.17948697, 4449.87179529, 4473.46153895, 4496.79487235, 4421.41025676, 4130.38461511, 4213.33333327, 4297.94871802, 4313.07692322, 4145.12820492,12.0
4109.99999973, 4449.23076965, 4382.17948746, 4379.74359003, 4140.64102544, 4445.38461581, 4472.69230818, 4501.15384671, 4431.53846196, 4126.79487152, 4217.69230763, 4303.58974373, 4314.35897450, 4142.30769210,12.0
4126.41025614, 4457.69230811, 4386.79487208, 4381.66666695, 4146.79487159, 4449.87179529, 4478.07692357, 4512.43589800, 4447.56410298, 4125.38461511, 4220.12820506, 4310.38461553, 4316.53846168, 4145.89743569,12.0
4114.74358947, 4448.46153888, 4381.53846182, 4373.84615413, 4144.10256390, 4446.41025683, 4476.28205177, 4513.07692364, 4444.23076965, 4128.33333306, 4215.76923070, 4298.71794879, 4312.17948732, 4143.20512800,12.0
4122.05128178, 4442.43589786, 4380.38461567, 4368.71794900, 4144.48717928, 4442.82051324, 4469.48717998, 4499.87179543, 4428.07692343, 4127.56410229, 4213.71794865, 4284.10256418, 4307.82051296, 4147.69230749,12.0
4130.76923050, 4445.25641068, 4378.97435926, 4371.41025669, 4147.69230749, 4438.71794914, 4457.30769273, 4489.87179536, 4419.10256445, 4127.43589716, 4210.64102558, 4279.48717956, 4307.94871809, 4145.51282031,12.0
4113.07692280, 4440.51282093, 4367.43589772, 4369.61538490, 4141.92307672, 4422.05128240, 4439.35897478, 4477.94871844, 4405.12820548, 4129.61538434, 4201.92307686, 4274.61538469, 4305.64102578, 4143.46153826,12.0
4129.10256383, 4440.12820555, 4367.94871823, 4368.33333362, 4142.17948697, 4416.92307727, 4439.10256452, 4470.76923126, 4391.92307720, 4129.48717921, 4200.64102551, 4271.53846161, 4304.61538476, 4149.61538441,12.0
4122.56410229, 4442.05128247, 4370.51282079, 4372.17948746, 4142.30769210, 4425.89743625, 4451.41025683, 4478.07692357, 4401.28205163, 4129.87179460, 4207.43589737, 4273.07692315, 4305.25641040, 4146.02564082,12.0
4127.69230742, 4438.97435940, 4367.82051310, 4371.79487208, 4143.33333313, 4425.51282086, 4451.53846196, 4481.15384664, 4410.51282086, 4129.74358947, 4211.41025634, 4272.05128212, 4305.76923091, 4146.28205108,12.0
4140.12820492, 4433.20512863, 4361.79487201, 4363.20512842, 4145.25641005, 4416.02564138, 4441.79487222, 4467.94871844, 4392.94871823, 4127.43589716, 4206.28205122, 4264.48717949, 4305.00000014, 4147.30769210,12.0
4119.23076896, 4428.20512856, 4353.97435919, 4358.20512842, 4142.17948697, 4417.94871830, 4446.79487222, 4461.02564145, 4380.89743618, 4127.43589716, 4204.35897429, 4260.25641026, 4303.07692322, 4147.56410236,12.0
4130.25640998, 4427.30769266, 4358.20512842, 4363.97435919, 4144.23076903, 4427.69230804, 4459.10256452, 4472.94871844, 4393.84615413, 4128.71794844, 4209.48717942, 4262.69230770, 4307.17948732, 4150.12820492,12.0
4124.87179460, 4424.48717984, 4356.53846175, 4365.00000021, 4143.20512800, 4423.97435933, 4453.71794914, 4478.33333382, 4399.87179522, 4129.10256383, 4210.51282045, 4263.84615385, 4307.82051296, 4145.64102544,12.0
4120.64102537, 4418.71794907, 4348.07692329, 4355.76923098, 4143.84615364, 4421.53846189, 4444.61538504, 4470.38461587, 4387.82051310, 4129.10256383, 4209.35897429, 4259.23076923, 4304.23076937, 4149.74358954,12.0
4130.38461511, 4410.25641061, 4344.61538483, 4348.97435919, 4143.07692287, 4416.79487215, 4432.56410298, 4466.53846203, 4380.64102592, 4129.23076896, 4207.05128199, 4252.94871795, 4302.94871809, 4152.05128185,12.0
4112.43589716, 4404.35897471, 4340.64102585, 4346.28205149, 4139.23076903, 4397.43589772, 4414.87179522, 4466.53846203, 4382.43589772, 4129.48717921, 4200.64102551, 4251.53846154, 4302.82051296, 4145.25641005,12.0
4128.20512793, 4404.74359009, 4340.25641047, 4340.76923098, 4146.66666646, 4389.23076951, 4416.15384651, 4464.35897485, 4378.20512849, 4129.35897408, 4197.69230756, 4250.89743590, 4302.05128219, 4145.64102544,12.0
4125.25640998, 4401.66666702, 4338.07692329, 4337.69230790, 4146.02564082, 4399.10256445, 4432.05128247, 4465.76923126, 4376.28205156, 4128.58974332, 4199.61538448, 4249.61538462, 4300.64102578, 4142.17948697,12.0
4112.94871767, 4392.94871823, 4335.00000021, 4337.82051303, 4140.12820492, 4405.25641061, 4433.07692350, 4465.12820562, 4379.10256438, 4129.35897408, 4197.05128192, 4245.00000000, 4301.66666681, 4144.87179467,12.0
4131.53846126, 4383.20512849, 4329.74358989, 4332.69230790, 4144.35897415, 4398.58974394, 4421.02564138, 4457.30769273, 4373.97435926, 4130.12820485, 4192.94871781, 4236.02564103, 4299.23076930, 4148.46153826,12.0
4116.41025614, 4382.69230797, 4326.66666681, 4337.17948739, 4141.79487159, 4397.94871830, 4424.35897471, 4461.79487222, 4375.89743618, 4127.69230742, 4191.66666653, 4242.30769231, 4298.33333341, 4143.20512800,12.0
4120.89743562, 4391.15384644, 4342.05128226, 4348.07692329, 4141.53846133, 4410.76923112, 4442.82051324, 4479.23076972, 4391.02564131, 4128.97435870, 4196.41025628, 4254.87179488, 4303.20512835, 4145.89743569,12.0
4125.64102537, 4387.69230797, 4342.69230790, 4339.48717970, 4144.48717928, 4409.87179522, 4444.61538504, 4478.20512870, 4392.94871823, 4131.02564075, 4219.48717942, 4247.69230770, 4299.61538476, 4144.10256390,12.0
4119.10256383, 4377.82051310, 4328.46153860, 4328.33333348, 4143.33333313, 4393.46153874, 4424.23076958, 4458.33333375, 4377.94871823, 4126.53846126, 4252.43589744, 4237.82051282, 4295.38461546, 4144.74358954,12.0
4133.97435870, 4382.56410285, 4335.00000021, 4338.46153867, 4144.87179467, 4401.15384651, 4429.10256445, 4458.33333375, 4380.64102592, 4124.61538434, 4273.97435905, 4250.89743590, 4302.82051296, 4146.15384595,12.0
4121.28205101, 4386.79487208, 4341.79487201, 4349.35897457, 4139.61538441, 4413.71794907, 4446.53846196, 4470.51282100, 4391.15384644, 4129.87179460, 4280.89743597, 4261.28205129, 4306.53846168, 4142.30769210,12.0
4132.43589716, 4386.15384644, 4338.58974380, 4349.23076944, 4141.28205108, 4397.43589772, 4429.35897471, 4466.66666716, 4384.10256438, 4132.56410229, 4285.76923084, 4257.30769231, 4306.53846168, 4148.58974339,12.0
4135.76923056, 4383.46153874, 4332.56410278, 4346.79487201, 4145.89743569, 4387.82051310, 4419.35897471, 4473.84615434, 4382.05128233, 4128.33333306, 4288.07692315, 4257.05128206, 4307.69230784, 4146.41025621,12.0
4112.30769203, 4373.58974387, 4325.51282066, 4339.35897457, 4142.30769210, 4394.48717977, 4429.48717984, 4488.71794921, 4390.51282079, 4125.76923050, 4289.74358982, 4253.33333334, 4303.20512835, 4142.56410236,12.0
4129.48717921, 4368.97435926, 4328.71794886, 4338.58974380, 4146.02564082, 4387.69230797, 4414.61538497, 4473.58974408, 4386.28205156, 4126.66666639, 4287.30769238, 4247.43589744, 4303.84615399, 4149.87179467,12.0
4123.84615357, 4369.48717977, 4328.46153860, 4344.87179508, 4143.97435877, 4376.28205156, 4394.87179515, 4450.76923119, 4375.38461567, 4127.05128178, 4268.20512828, 4250.00000000, 4307.43589758, 4149.35897415,12.0
4125.76923050, 4369.87179515, 4325.76923091, 4341.66666688, 4140.64102544, 4381.92307720, 4405.76923112, 4455.38461581, 4375.00000028, 4127.56410229, 4252.56410257, 4252.17948718, 4305.12820527, 4148.71794851,12.0
4134.35897408, 4368.71794900, 4323.46153860, 4336.79487201, 4142.56410236, 4387.56410285, 4420.64102599, 4468.20512870, 4378.97435926, 4128.46153819, 4254.23076923, 4247.82051282, 4303.20512835, 4144.35897415,12.0
4114.10256383, 4364.10256431, 4317.17948732, 4338.20512842, 4141.66666646, 4383.97435926, 4418.46153881, 4461.79487222, 4377.56410285, 4128.97435870, 4254.74358975, 4243.84615385, 4304.87179501, 4142.43589723,12.0
4128.20512793, 4360.38461560, 4314.87179501, 4337.30769252, 4143.97435877, 4383.07692336, 4410.38461574, 4450.76923119, 4369.35897464, 4130.64102537, 4248.58974359, 4237.17948718, 4304.74358989, 4151.53846133,12.0
4122.17948691, 4353.20512842, 4307.94871809, 4331.41025655, 4140.76923056, 4379.35897464, 4404.87179522, 4447.17948760, 4360.38461560, 4129.48717921, 4244.61538462, 4229.10256404, 4299.10256418, 4150.51282031,12.0
4117.17948691, 4351.28205149, 4307.17948732, 4333.33333355, 4139.23076903, 4377.30769259, 4406.92307727, 4449.23076965, 4358.71794893, 4127.43589716, 4246.28205129, 4232.56410250, 4298.58974366, 4148.58974339,12.0
4132.69230742, 4356.92307714, 4313.71794886, 4340.51282073, 4143.07692287, 4372.69230797, 4398.33333368, 4449.87179529, 4356.02564124, 4127.43589716, 4246.79487180, 4234.61538462, 4303.20512835, 4147.69230749,12.0
4119.35897408, 4353.97435919, 4309.35897450, 4335.00000021, 4140.25641005, 4353.84615406, 4369.23076951, 4431.41025683, 4335.12820534, 4127.56410229, 4244.35897436, 4230.89743583, 4303.46153860, 4144.99999980,12.0
4131.79487152, 4349.23076944, 4310.89743604, 4327.43589758, 4141.92307672, 4342.69230790, 4357.56410278, 4415.25641061, 4321.41025655, 4127.17948691, 4242.30769231, 4234.35897436, 4301.28205142, 4149.99999980,12.0
4127.69230742, 4345.89743611, 4310.89743604, 4328.07692322, 4142.05128185, 4346.15384637, 4369.61538490, 4424.61538497, 4336.41025662, 4128.97435870, 4239.61538462, 4235.51282052, 4300.38461553, 4146.02564082,12.0
4119.35897408, 4341.02564124, 4306.15384630, 4325.51282066, 4140.89743569, 4351.15384637, 4381.02564131, 4439.74359016, 4351.15384637, 4128.71794844, 4240.64102564, 4227.05128199, 4300.89743604, 4146.02564082,12.0
4134.87179460, 4337.05128226, 4309.23076937, 4320.64102578, 4142.94871774, 4363.58974380, 4395.25641054, 4444.61538504, 4353.46153867, 4126.02564075, 4242.94871795, 4225.64102558, 4299.74358989, 4148.07692287,12.0
4122.30769203, 4332.43589765, 4307.82051296, 4321.15384630, 4139.23076903, 4370.25641054, 4403.46153881, 4446.02564145, 4357.30769252, 4127.82051255, 4240.25641026, 4227.69230763, 4298.33333341, 4144.74358954,12.0
4134.35897408, 4335.25641047, 4306.92307707, 4325.00000014, 4142.94871774, 4366.15384644, 4400.76923112, 4454.48717991, 4368.20512849, 4129.61538434, 4248.20512821, 4227.56410250, 4302.17948732, 4149.48717928,12.0
4131.41025614, 4336.53846175, 4305.76923091, 4326.79487194, 4145.25641005, 4361.15384637, 4393.84615413, 4454.74359016, 4372.17948746, 4125.76923050, 4265.00000000, 4228.84615378, 4305.00000014, 4147.94871774,12.0
4118.84615357, 4330.64102578, 4303.33333348, 4325.64102578, 4142.69230749, 4365.25641054, 4395.76923105, 4452.56410298, 4367.56410285, 4125.51282024, 4268.97435905, 4224.74358968, 4304.10256425, 4148.20512800,12.0
4137.05128185, 4323.46153860, 4301.28205142, 4318.71794886, 4145.76923056, 4380.64102592, 4420.38461574, 4460.25641068, 4363.20512842, 4130.51282024, 4263.07692308, 4216.15384609, 4300.89743604, 4150.76923056,12.0
4117.43589716, 4317.43589758, 4292.94871802, 4312.30769245, 4141.79487159, 4370.51282079, 4414.35897471, 4447.82051324, 4350.89743611, 4130.25640998, 4260.64102564, 4213.71794865, 4295.38461546, 4147.43589723,12.0
4121.92307665, 4316.92307707, 4293.20512828, 4313.46153860, 4141.66666646, 4338.07692329, 4363.20512842, 4416.92307727, 4332.17948732, 4127.82051255, 4260.76923077, 4217.17948711, 4294.61538469, 4152.69230749,12.0
4129.99999973, 4313.33333348, 4295.38461546, 4315.12820527, 4145.76923056, 4329.48717963, 4346.66666688, 4408.71794907, 4324.23076937, 4129.10256383, 4258.84615385, 4217.30769224, 4297.30769238, 4151.66666646,12.0
4111.02564075, 4312.30769245, 4292.69230777, 4319.48717963, 4143.07692287, 4344.35897457, 4382.94871823, 4425.64102599, 4332.30769252, 4129.10256383, 4258.71794872, 4214.10256404, 4298.71794879, 4149.74358954,12.0
4127.05128178, 4308.84615399, 4293.20512828, 4315.00000014, 4142.69230749, 4342.05128226, 4392.82051310, 4430.38461574, 4334.23076944, 4129.35897408, 4255.00000000, 4210.76923070, 4294.87179495, 4148.97435877,12.0
4120.89743562, 4297.17948725, 4289.61538469, 4306.15384630, 4140.12820492, 4320.76923091, 4361.28205149, 4419.87179522, 4327.05128219, 4129.61538434, 4251.66666667, 4207.94871788, 4291.02564110, 4139.74358954,12.0
4121.02564075, 4301.02564117, 4291.53846161, 4314.87179501, 4141.92307672, 4327.05128219, 4362.17948739, 4420.51282086, 4327.43589758, 4128.97435870, 4256.02564103, 4209.61538455, 4298.46153853, 4144.87179467,12.0
4129.35897408, 4308.33333348, 4293.07692315, 4321.79487194, 4145.25641005, 4351.53846175, 4389.87179515, 4430.25641061, 4331.92307707, 4126.92307665, 4255.25641026, 4212.56410250, 4301.53846168, 4146.79487159,12.0
4114.74358947, 4304.35897450, 4288.20512828, 4313.20512835, 4140.12820492, 4347.94871816, 4383.97435926, 4430.00000035, 4335.00000021, 4126.79487152, 4252.82051282, 4212.17948711, 4295.12820520, 4141.28205108,12.0
4132.30769203, 4301.15384630, 4290.25641033, 4309.10256425, 4143.71794851, 4330.38461553, 4358.84615406, 4417.17948753, 4332.82051303, 4130.25640998, 4256.92307693, 4211.92307686, 4296.53846161, 4146.92307672,12.0
4127.17948691, 4296.92307700, 4284.48717956, 4309.10256425, 4143.20512800, 4330.64102578, 4359.87179508, 4411.53846189, 4327.05128219, 4131.02564075, 4253.33333334, 4206.92307686, 4295.89743597, 4145.89743569,12.0
4124.99999973, 4293.84615392, 4283.33333341, 4305.89743604, 4140.38461518, 4334.23076944, 4367.05128233, 4413.58974394, 4322.43589758, 4127.30769203, 4248.46153847, 4202.17948711, 4291.15384623, 4146.02564082,12.0
4139.99999980, 4298.33333341, 4292.30769238, 4312.43589758, 4144.23076903, 4328.46153860, 4356.53846175, 4416.28205163, 4328.20512835, 4126.66666639, 4256.28205129, 4216.41025634, 4296.92307700, 4147.17948697,12.0
4124.61538434, 4295.25641033, 4287.17948725, 4316.15384630, 4142.69230749, 4326.15384630, 4352.56410278, 4417.30769266, 4334.10256431, 4129.23076896, 4258.07692308, 4227.05128199, 4301.02564117, 4144.87179467,12.0
4133.97435870, 4285.76923084, 4280.76923084, 4307.94871809, 4143.84615364, 4327.94871809, 4359.35897457, 4420.12820548, 4328.46153860, 4128.46153819, 4248.07692308, 4209.10256404, 4296.66666674, 4147.05128185,12.0
4129.35897408, 4285.89743597, 4276.79487187, 4309.48717963, 4141.28205108, 4325.64102578, 4360.76923098, 4425.00000035, 4323.07692322, 4127.82051255, 4246.66666667, 4195.76923063, 4293.07692315, 4143.71794851,12.0
4125.25640998, 4293.97435905, 4278.84615392, 4320.38461553, 4140.12820492, 4329.10256425, 4364.61538483, 4420.25641061, 4323.20512835, 4129.74358947, 4248.97435898, 4204.10256404, 4292.43589751, 4145.38461518,12.0
4137.56410236, 4295.64102571, 4283.97435905, 4325.89743604, 4143.84615364, 4339.48717970, 4376.28205156, 4416.41025676, 4324.61538476, 4130.12820485, 4246.53846154, 4206.41025634, 4293.20512828, 4148.46153826,12.0
4114.35897408, 4284.61538469, 4274.61538469, 4324.48717963, 4140.25641005, 4335.00000021, 4371.53846182, 4413.97435933, 4319.35897450, 4128.20512793, 4244.74358975, 4194.99999986, 4292.30769238, 4146.28205108,12.0
4127.30769203, 4277.17948725, 4271.15384623, 4323.58974373, 4143.71794851, 4324.74358989, 4357.17948739, 4402.94871830, 4311.66666681, 4127.43589716, 4243.84615385, 4190.38461525, 4291.66666674, 4148.33333313,12.0
4129.87179460, 4276.02564110, 4274.10256418, 4321.15384630, 4143.84615364, 4326.66666681, 4360.51282073, 4401.02564138, 4309.74358989, 4128.46153819, 4242.30769231, 4192.43589730, 4290.64102571, 4146.15384595,12.0
4112.69230742, 4277.05128212, 4273.71794879, 4319.74358989, 4138.07692287, 4327.94871809, 4363.46153867, 4412.69230804, 4312.17948732, 4134.23076896, 4244.61538462, 4192.43589730, 4290.76923084, 4151.53846133,12.0
4129.87179460, 4279.35897443, 4273.71794879, 4322.82051296, 4141.66666646, 4317.17948732, 4346.53846175, 4415.76923112, 4320.00000014, 4137.69230749, 4243.46153847, 4191.28205115, 4293.07692315, 4151.53846133,12.0
4118.07692280, 4274.48717956, 4267.82051289, 4323.20512835, 4141.41025621, 4307.82051296, 4332.69230790, 4404.23076958, 4324.35897450, 4131.15384588, 4236.15384616, 4191.41025628, 4292.30769238, 4139.48717928,12.0
4122.94871767, 4269.74358982, 4265.38461539, 4318.20512835, 4140.76923056, 4311.41025655, 4339.74358996, 4400.38461574, 4315.51282066, 4126.92307665, 4233.46153840, 4188.58974345, 4291.53846161, 4146.41025621,12.0
4131.02564075, 4268.20512828, 4264.74358975, 4315.38461553, 4139.87179467, 4315.12820527, 4351.53846175, 4409.61538497, 4307.56410271, 4128.20512793, 4234.35897436, 4186.66666653, 4292.17948725, 4148.71794851,12.0
4117.43589716, 4276.41025648, 4271.79487187, 4328.58974373, 4139.87179467, 4321.79487194, 4361.41025662, 4418.46153881, 4320.64102578, 4132.17948691, 4238.71794872, 4198.33333320, 4297.94871802, 4143.33333313,12.0
4134.23076896, 4287.69230777, 4283.97435905, 4341.92307714, 4147.69230749, 4328.71794886, 4362.82051303, 4419.61538497, 4331.41025655, 4136.02564082, 4239.35897436, 4209.48717942, 4303.07692322, 4146.92307672,12.0
4126.92307665, 4283.71794879, 4276.79487187, 4335.64102585, 4143.20512800, 4320.12820527, 4350.51282073, 4409.87179522, 4319.87179501, 4133.84615357, 4222.94871788, 4201.79487173, 4296.53846161, 4145.89743569,12.0
4128.46153819, 4280.89743597, 4272.43589751, 4331.53846168, 4139.87179467, 4314.48717963, 4345.25641047, 4401.79487215, 4311.66666681, 4129.35897408, 4208.33333327, 4194.35897422, 4291.15384623, 4148.84615364,12.0
4134.23076896, 4288.46153853, 4277.94871802, 4339.61538483, 4144.10256390, 4325.64102578, 4361.92307714, 4411.53846189, 4323.33333348, 4129.23076896, 4211.79487173, 4199.99999986, 4295.25641033, 4148.46153826,12.0
4122.05128178, 4288.20512828, 4275.12820520, 4337.30769252, 4140.76923056, 4338.20512842, 4382.05128233, 4422.43589779, 4331.41025655, 4130.76923050, 4212.30769224, 4203.97435891, 4296.92307700, 4144.10256390,12.0
4141.41025621, 4277.30769238, 4270.25641033, 4324.10256425, 4141.28205108, 4332.17948732, 4373.07692336, 4407.94871830, 4313.33333348, 4127.17948691, 4202.82051275, 4193.20512807, 4291.79487187, 4145.38461518,12.0
4128.84615357, 4271.41025648, 4261.66666667, 4322.82051296, 4139.99999980, 4311.66666681, 4345.00000021, 4391.92307720, 4300.25641040, 4128.20512793, 4199.61538448, 4184.10256397, 4287.82051289, 4145.38461518,12.0
4124.23076896, 4271.53846161, 4257.30769231, 4325.51282066, 4141.02564082, 4306.53846168, 4339.87179508, 4405.12820548, 4316.41025655, 4137.82051262, 4205.25641019, 4182.94871781, 4290.25641033, 4150.25641005,12.0
4138.84615364, 4262.05128206, 4257.30769231, 4314.35897450, 4142.69230749, 4314.48717963, 4351.79487201, 4416.79487215, 4324.10256425, 4137.69230749, 4204.74358968, 4178.20512807, 4292.30769238, 4148.46153826,12.0
4117.69230742, 4254.10256411, 4252.82051282, 4308.58974373, 4137.69230749, 4312.17948732, 4353.71794893, 4406.02564138, 4309.87179501, 4127.69230742, 4199.10256397, 4175.25641012, 4290.38461546, 4144.35897415,12.0
4127.69230742, 4263.33333334, 4258.20512821, 4317.30769245, 4140.76923056, 4314.23076937, 4353.46153867, 4397.94871830, 4305.00000014, 4126.28205101, 4202.30769224, 4183.84615371, 4292.82051289, 4151.02564082,12.0
4124.87179460, 4268.46153853, 4262.30769231, 4320.00000014, 4143.20512800, 4323.33333348, 4357.56410278, 4399.10256445, 4314.87179501, 4129.48717921, 4208.58974352, 4192.30769217, 4294.10256418, 4148.20512800,12.0
4119.35897408, 4263.07692308, 4258.46153847, 4316.28205142, 4142.17948697, 4321.66666681, 4353.46153867, 4395.64102592, 4310.76923091, 4127.94871767, 4209.48717942, 4192.43589730, 4293.46153853, 4148.33333313,12.0
4134.99999973, 4263.97435898, 4259.74358975, 4319.23076937, 4143.71794851, 4312.56410271, 4339.23076944, 4388.20512849, 4298.07692315, 4129.74358947, 4208.20512814, 4193.20512807, 4294.23076930, 4148.33333313,12.0
4114.48717921, 4271.53846161, 4264.23076923, 4329.35897450, 4141.15384595, 4313.07692322, 4337.94871816, 4393.84615413, 4308.84615399, 4130.51282024, 4210.64102558, 4201.15384609, 4295.12820520, 4139.61538441,12.0
4122.30769203, 4275.25641033, 4268.33333341, 4335.51282073, 4144.61538441, 4326.53846168, 4363.46153867, 4412.94871830, 4329.48717963, 4128.46153819, 4214.10256404, 4208.84615378, 4298.07692315, 4141.79487159,12.0
4127.94871767, 4266.15384616, 4261.15384616, 4327.56410271, 4143.58974339, 4326.41025655, 4375.51282079, 4419.48717984, 4330.12820527, 4129.87179460, 4210.64102558, 4200.38461525, 4296.92307700, 4143.46153826,12.0
4119.99999973, 4261.66666667, 4256.41025641, 4318.20512835, 4137.30769210, 4316.53846168, 4362.43589765, 4410.12820548, 4322.69230784, 4129.23076896, 4207.69230763, 4188.97435884, 4293.33333341, 4147.30769210,12.0
4135.25640998, 4267.17948725, 4260.76923077, 4318.20512835, 4140.25641005, 4315.89743604, 4354.61538483, 4400.64102599, 4317.30769245, 4126.66666639, 4205.64102558, 4189.48717935, 4292.82051289, 4147.94871774,12.0
