AF3,F7,F3,FC5,T7,P7,O1,O2,P8,T8,FC6,F4,F8,AF4,Label
4122.05128178, 4196.92307679, 4153.46153826, 4181.41025628, 4124.48717921, 4162.05128185, 4142.56410236, 4132.17948691, 4161.02564082, 4131.02564075, 4120.89743562, 4153.71794851, 4138.33333313, 4145.25641005,12.0
4118.71794844, 4182.56410243, 4144.10256390, 4175.51282038, 4123.71794844, 4136.28205108, 4119.23076896, 4123.84615357, 4149.48717928, 4130.89743562, 4111.79487152, 4147.05128185, 4134.74358947, 4145.25641005,12.0
4123.46153819, 4185.51282038, 4144.99999980, 4188.84615371, 4118.07692280, 4124.10256383, 4104.23076896, 4099.61538427, 4123.46153819, 4131.02564075, 4106.41025614, 4140.38461518, 4134.48717921, 4147.56410236,12.0
4122.43589716, 4201.02564096, 4158.58974339, 4205.76923070, 4119.74358947, 4145.12820492, 4126.53846126, 4117.82051255, 4141.41025621, 4130.89743562, 4119.35897408, 4159.74358954, 4138.46153826, 4146.79487159,12.0
4120.51282024, 4207.69230763, 4167.69230749, 4208.33333327, 4124.35897408, 4160.51282031, 4143.71794851, 4156.15384595, 4172.30769217, 4130.89743562, 4130.89743562, 4179.23076910, 4139.10256390, 4146.66666646,12.0
4123.58974332, 4204.61538455, 4170.12820499, 4206.53846147, 4121.92307665, 4157.69230749, 4143.58974339, 4161.92307672, 4171.28205115, 4131.02564075, 4132.82051255, 4181.15384602, 4137.82051262, 4147.56410236,12.0
4119.74358947, 4190.25641012, 4160.64102544, 4195.51282038, 4119.74358947, 4149.61538441, 4135.38461518, 4138.58974339, 4149.99999980, 4130.89743562, 4128.58974332, 4168.58974345, 4135.76923056, 4145.64102544,12.0
4119.10256383, 4171.66666653, 4144.74358954, 4169.99999986, 4120.25640998, 4142.43589723, 4118.71794844, 4118.58974332, 4135.25640998, 4130.89743562, 4119.10256383, 4146.79487159, 4138.58974339, 4148.58974339,12.0
4117.82051255, 4170.76923063, 4143.20512800, 4163.84615364, 4120.25640998, 4153.84615364, 4123.71794844, 4122.05128178, 4144.61538441, 4130.89743562, 4113.97435870, 4143.58974339, 4141.28205108, 4151.15384595,12.0
4117.82051255, 4170.76923063, 4143.20512800, 4163.84615364, 4120.25640998, 4153.84615364, 4123.71794844, 4122.05128178, 4144.61538441, 4130.89743562, 4113.97435870, 4143.58974339, 4141.28205108, 4151.15384595,12.0
4117.43589716, 4177.17948704, 4150.51282031, 4175.51282038, 4121.28205101, 4162.69230749, 4141.66666646, 4128.97435870, 4155.25641005, 4130.89743562, 4116.15384588, 4151.92307672, 4136.41025621, 4148.20512800,12.0
4122.05128178, 4168.07692287, 4142.56410236, 4164.10256390, 4122.69230742, 4148.46153826, 4130.76923050, 4115.12820485, 4139.23076903, 4131.02564075, 4111.92307665, 4138.33333313, 4135.64102544, 4146.66666646,12.0
4117.94871767, 4161.02564082, 4138.71794851, 4151.15384595, 4121.92307665, 4138.58974339, 4114.35897408, 4107.30769203, 4126.15384588, 4130.89743562, 4108.71794844, 4131.92307665, 4137.05128185, 4145.64102544,12.0
4119.35897408, 4173.33333320, 4155.12820492, 4168.58974345, 4122.43589716, 4149.99999980, 4133.46153819, 4127.05128178, 4142.30769210, 4130.89743562, 4123.46153819, 4161.53846133, 4136.02564082, 4144.87179467,12.0
4121.15384588, 4169.87179474, 4153.20512800, 4168.20512807, 4125.64102537, 4149.87179467, 4140.89743569, 4134.61538434, 4146.28205108, 4131.02564075, 4125.76923050, 4165.76923056, 4133.84615357, 4144.48717928,12.0
4116.53846126, 4143.07692287, 4126.53846126, 4131.28205101, 4122.82051255, 4121.02564075, 4102.94871767, 4112.17948691, 4115.25640998, 4130.89743562, 4101.79487145, 4119.99999973, 4131.02564075, 4144.61538441,12.0
4121.02564075, 4134.10256383, 4121.66666639, 4120.89743562, 4118.33333306, 4108.20512793, 4081.41025607, 4105.51282024, 4102.56410229, 4130.89743562, 4094.35897402, 4104.99999973, 4133.46153819, 4146.92307672,12.0
4124.23076896, 4152.43589723, 4146.28205108, 4151.53846133, 4119.35897408, 4134.23076896, 4116.15384588, 4136.66666646, 4136.66666646, 4130.89743562, 4115.89743562, 4144.87179467, 4135.51282031, 4146.92307672,12.0
4122.82051255, 4172.56410243, 4161.92307672, 4176.66666653, 4121.92307665, 4165.64102544, 4158.58974339, 4160.12820492, 4169.10256397, 4130.89743562, 4132.56410229, 4174.99999986, 4135.12820485, 4146.79487159,12.0
4123.07692280, 4166.79487159, 4146.15384595, 4160.64102544, 4122.30769203, 4160.38461518, 4145.76923056, 4137.43589723, 4146.66666646, 4131.02564075, 4123.58974332, 4155.89743569, 4135.76923056, 4147.43589723,12.0
4122.30769203, 4147.94871774, 4127.94871767, 4132.17948691, 4119.74358947, 4136.15384595, 4107.82051255, 4105.64102537, 4111.28205101, 4130.89743562, 4110.25640998, 4128.97435870, 4133.71794844, 4147.43589723,12.0
4121.28205101, 4147.94871774, 4135.64102544, 4140.12820492, 4119.99999973, 4134.61538434, 4104.87179460, 4107.43589716, 4118.58974332, 4130.89743562, 4113.84615357, 4138.84615364, 4133.84615357, 4148.33333313,12.0
4121.92307665, 4153.33333313, 4142.69230749, 4154.74358954, 4125.89743562, 4136.53846133, 4114.99999973, 4114.35897408, 4125.25640998, 4131.02564075, 4119.23076896, 4149.23076903, 4134.87179460, 4147.69230749,12.0
4124.87179460, 4144.61538441, 4130.12820485, 4136.41025621, 4125.25640998, 4127.30769203, 4108.07692280, 4106.66666639, 4106.79487152, 4130.89743562, 4108.20512793, 4131.15384588, 4134.99999973, 4147.94871774,12.0
4122.69230742, 4137.56410236, 4121.66666639, 4113.84615357, 4119.61538434, 4128.71794844, 4106.79487152, 4108.07692280, 4103.58974332, 4131.02564075, 4091.28205094, 4111.66666639, 4137.56410236, 4148.97435877,12.0
4119.23076896, 4134.23076896, 4118.84615357, 4115.51282024, 4120.38461511, 4130.64102537, 4106.79487152, 4108.97435870, 4106.15384588, 4130.89743562, 4085.89743555, 4105.25640998, 4136.79487159, 4146.66666646,12.0
4122.43589716, 4131.79487152, 4118.58974332, 4123.97435870, 4121.92307665, 4127.05128178, 4104.99999973, 4108.07692280, 4108.46153819, 4130.89743562, 4102.69230742, 4111.53846126, 4135.51282031, 4144.74358954,12.0
4122.43589716, 4131.79487152, 4118.58974332, 4123.97435870, 4121.92307665, 4127.05128178, 4104.99999973, 4108.07692280, 4108.46153819, 4130.89743562, 4102.69230742, 4111.53846126, 4135.51282031, 4144.74358954,12.0
4119.87179460, 4138.46153826, 4130.25640998, 4126.28205101, 4121.53846126, 4136.92307672, 4123.33333306, 4134.61538434, 4140.76923056, 4130.64102537, 4125.89743562, 4131.28205101, 4134.99999973, 4146.02564082,12.0
4117.56410229, 4126.02564075, 4120.89743562, 4099.74358940, 4120.25640998, 4128.97435870, 4111.53846126, 4131.92307665, 4135.12820485, 4130.64102537, 4121.15384588, 4116.28205101, 4132.17948691, 4148.46153826,12.0
4119.35897408, 4091.41025607, 4088.46153812, 4054.87179446, 4121.02564075, 4093.71794837, 4058.46153805, 4084.35897402, 4073.46153812, 4131.28205101, 4104.23076896, 4067.69230728, 4130.12820485, 4147.56410236,12.0
4116.53846126, 4088.33333299, 4087.30769196, 4052.94871754, 4122.69230742, 4090.51282017, 4054.35897395, 4089.35897402, 4078.58974325, 4130.51282024, 4117.17948691, 4069.74358940, 4133.07692280, 4146.66666646,12.0
4119.61538434, 4106.15384588, 4101.41025607, 4064.87179446, 4121.79487152, 4118.33333306, 4090.12820478, 4120.76923050, 4124.99999973, 4131.15384588, 4132.30769203, 4095.51282017, 4136.41025621, 4142.82051262,12.0
4121.15384588, 4103.97435870, 4099.74358940, 4052.30769189, 4121.66666639, 4129.10256383, 4100.89743555, 4110.89743562, 4122.69230742, 4135.38461518, 4126.41025614, 4092.94871761, 4131.28205101, 4140.25641005,12.0
4120.25640998, 4091.15384581, 4091.41025607, 4035.64102516, 4121.53846126, 4110.25640998, 4081.53846119, 4088.07692273, 4093.97435863, 4137.69230749, 4118.07692280, 4080.64102530, 4128.46153819, 4144.23076903,12.0
4123.58974332, 4078.71794837, 4077.82051248, 4019.23076875, 4121.02564075, 4085.89743555, 4055.12820472, 4068.07692266, 4067.94871754, 4134.35897408, 4107.43589716, 4060.38461497, 4131.28205101, 4144.87179467,12.0
4120.89743562, 4074.87179453, 4071.66666632, 4015.25640977, 4122.43589716, 4092.43589709, 4055.76923036, 4063.20512779, 4068.33333292, 4130.76923050, 4100.25640991, 4049.87179446, 4132.43589716, 4144.35897415,12.0
4122.69230742, 4080.89743555, 4081.41025607, 4029.61538413, 4124.35897408, 4110.12820485, 4071.02564068, 4078.84615350, 4094.48717914, 4129.61538434, 4105.51282024, 4065.76923036, 4132.05128178, 4146.41025621,12.0
4124.23076896, 4071.53846119, 4077.94871761, 4025.89743541, 4124.48717921, 4095.89743555, 4058.20512779, 4078.46153812, 4088.84615350, 4129.87179460, 4106.02564075, 4063.97435856, 4129.74358947, 4146.15384595,12.0
4120.25640998, 4076.15384581, 4079.99999966, 4032.56410208, 4121.28205101, 4103.58974332, 4066.79487138, 4096.02564068, 4089.99999966, 4128.58974332, 4111.92307665, 4065.64102523, 4132.43589716, 4147.69230749,12.0
4123.58974332, 4118.84615357, 4117.43589716, 4088.58974325, 4117.82051255, 4154.99999980, 4123.46153819, 4156.66666646, 4148.84615364, 4128.46153819, 4137.56410236, 4119.35897408, 4133.71794844, 4147.30769210,12.0
4123.97435870, 4127.05128178, 4128.07692280, 4100.51282017, 4120.89743562, 4157.94871774, 4137.43589723, 4175.12820499, 4169.61538448, 4133.71794844, 4141.28205108, 4139.48717928, 4131.79487152, 4145.38461518,12.0
4120.51282024, 4088.46153812, 4091.28205094, 4045.89743548, 4124.99999973, 4111.02564075, 4092.82051248, 4131.79487152, 4117.43589716, 4136.53846133, 4114.87179460, 4086.15384581, 4135.38461518, 4143.71794851,12.0
4120.76923050, 4078.84615350, 4075.12820478, 4030.38461490, 4122.69230742, 4099.23076889, 4073.20512786, 4102.82051255, 4086.28205094, 4133.71794844, 4106.79487152, 4060.38461497, 4133.84615357, 4144.61538441,12.0
4121.79487152, 4099.35897402, 4091.28205094, 4059.99999959, 4118.33333306, 4117.69230742, 4090.51282017, 4106.53846126, 4099.23076889, 4134.10256383, 4115.25640998, 4084.48717914, 4132.82051255, 4147.30769210,12.0
4121.66666639, 4101.28205094, 4097.56410222, 4063.33333292, 4119.35897408, 4117.82051255, 4094.61538427, 4104.35897408, 4104.74358947, 4136.41025621, 4113.71794844, 4093.84615350, 4134.48717921, 4142.94871774,12.0
4117.94871767, 4085.89743555, 4084.61538427, 4043.20512779, 4123.97435870, 4098.58974325, 4073.58974325, 4088.20512786, 4083.71794837, 4135.12820485, 4105.12820485, 4077.30769196, 4130.76923050, 4143.97435877,12.0
4120.51282024, 4077.94871761, 4076.15384581, 4041.28205087, 4122.94871767, 4088.84615350, 4060.25640984, 4076.92307658, 4071.02564068, 4133.97435870, 4105.76923050, 4065.89743548, 4132.17948691, 4149.10256390,12.0
4123.20512793, 4085.51282017, 4080.89743555, 4053.58974318, 4121.66666639, 4107.69230742, 4078.84615350, 4084.99999966, 4087.56410222, 4134.61538434, 4108.20512793, 4069.23076882, 4134.74358947, 4144.35897415,12.0
4116.28205101, 4096.41025607, 4090.64102530, 4062.30769189, 4123.84615357, 4131.02564075, 4098.58974325, 4094.23076889, 4097.43589709, 4134.61538434, 4104.74358947, 4082.17948684, 4134.61538434, 4143.20512800,12.0
4117.56410229, 4097.69230735, 4096.28205094, 4060.76923036, 4124.10256383, 4123.84615357, 4088.07692273, 4087.69230735, 4081.92307658, 4134.35897408, 4104.87179460, 4089.99999966, 4134.74358947, 4145.76923056,12.0
4117.69230742, 4099.48717914, 4101.66666632, 4067.43589702, 4120.38461511, 4126.79487152, 4091.66666632, 4105.38461511, 4096.02564068, 4134.48717921, 4113.84615357, 4098.07692273, 4131.66666639, 4147.82051262,12.0
4117.30769203, 4103.58974332, 4104.10256383, 4082.56410222, 4120.25640998, 4154.74358954, 4113.84615357, 4128.07692280, 4123.07692280, 4134.61538434, 4117.17948691, 4102.05128171, 4132.82051255, 4148.84615364,12.0
4123.97435870, 4088.46153812, 4090.64102530, 4069.48717907, 4124.74358947, 4147.30769210, 4092.94871761, 4098.33333299, 4093.84615350, 4134.87179460, 4099.87179453, 4076.79487145, 4132.69230742, 4144.74358954,12.0
4118.84615357, 4068.58974318, 4076.79487145, 4039.87179446, 4124.74358947, 4112.05128178, 4052.30769189, 4065.51282010, 4054.23076882, 4134.35897408, 4088.33333299, 4054.99999959, 4128.84615357, 4143.46153826,12.0
4119.35897408, 4081.02564068, 4094.48717914, 4051.15384574, 4121.92307665, 4115.76923050, 4065.89743548, 4092.05128171, 4078.84615350, 4134.61538434, 4105.89743562, 4086.28205094, 4131.28205101, 4146.41025621,12.0
4124.23076896, 4108.46153819, 4115.64102537, 4098.07692273, 4121.79487152, 4141.41025621, 4098.71794837, 4123.20512793, 4111.66666639, 4135.12820485, 4117.82051255, 4118.07692280, 4134.23076896, 4144.87179467,12.0
4118.07692280, 4114.74358947, 4113.07692280, 4117.30769203, 4121.66666639, 4146.53846133, 4101.02564068, 4117.56410229, 4108.33333306, 4132.94871767, 4113.71794844, 4114.23076896, 4135.64102544, 4142.69230749,12.0
4120.12820485, 4094.74358940, 4105.51282024, 4084.61538427, 4120.64102537, 4140.89743569, 4097.30769196, 4110.76923050, 4104.74358947, 4129.87179460, 4115.12820485, 4106.66666639, 4133.84615357, 4143.07692287,12.0
4122.56410229, 4073.97435863, 4099.35897402, 4051.41025600, 4119.87179460, 4135.12820485, 4092.82051248, 4105.89743562, 4094.10256376, 4128.84615357, 4105.76923050, 4089.99999966, 4131.92307665, 4145.51282031,12.0
4122.30769203, 4087.30769196, 4102.17948684, 4076.53846119, 4121.02564075, 4136.53846133, 4092.82051248, 4103.71794844, 4082.30769196, 4128.97435870, 4093.58974325, 4085.76923043, 4134.23076896, 4146.66666646,12.0
4121.28205101, 4106.66666639, 4115.12820485, 4116.15384588, 4122.82051255, 4144.10256390, 4102.43589709, 4112.05128178, 4101.02564068, 4129.23076896, 4109.10256383, 4113.58974332, 4133.84615357, 4145.51282031,12.0
4121.28205101, 4106.66666639, 4115.12820485, 4116.15384588, 4122.82051255, 4144.10256390, 4102.43589709, 4112.05128178, 4101.02564068, 4129.23076896, 4109.10256383, 4113.58974332, 4133.84615357, 4145.51282031,12.0
4116.28205101, 4099.10256376, 4112.82051255, 4114.87179460, 4120.38461511, 4145.12820492, 4107.69230742, 4121.92307665, 4117.82051255, 4129.99999973, 4117.43589716, 4116.66666639, 4136.28205108, 4146.28205108,12.0
4122.30769203, 4093.97435863, 4105.25640998, 4107.94871767, 4119.23076896, 4141.53846133, 4104.99999973, 4121.28205101, 4100.25640991, 4130.38461511, 4095.25640991, 4093.84615350, 4136.15384595, 4146.53846133,12.0
4125.12820485, 4099.61538427, 4111.02564075, 4113.07692280, 4122.17948691, 4137.69230749, 4098.71794837, 4110.64102537, 4087.56410222, 4129.99999973, 4089.99999966, 4097.43589709, 4131.92307665, 4146.66666646,12.0
4121.79487152, 4086.41025607, 4101.28205094, 4095.76923043, 4121.28205101, 4115.38461511, 4066.66666625, 4083.97435863, 4073.07692273, 4130.25640998, 4101.92307658, 4093.58974325, 4134.61538434, 4145.76923056,12.0
4122.94871767, 4063.84615343, 4075.51282017, 4069.48717907, 4120.38461511, 4081.66666632, 4019.61538413, 4042.94871754, 4029.10256362, 4130.25640998, 4087.94871761, 4056.02564061, 4135.76923056, 4143.33333313,12.0
4117.05128178, 4070.38461504, 4080.51282017, 4084.23076889, 4121.15384588, 4089.74358940, 4027.69230721, 4047.94871754, 4025.64102516, 4130.25640998, 4078.84615350, 4060.76923036, 4132.05128178, 4143.97435877,12.0
4121.02564075, 4103.84615357, 4114.23076896, 4130.64102537, 4121.02564075, 4135.89743569, 4084.48717914, 4107.56410229, 4089.61538427, 4130.25640998, 4104.23076896, 4115.64102537, 4130.89743562, 4145.38461518,12.0
4122.69230742, 4117.30769203, 4124.87179460, 4142.17948697, 4121.92307665, 4147.94871774, 4110.38461511, 4136.41025621, 4127.69230742, 4130.25640998, 4120.12820485, 4134.48717921, 4133.20512793, 4145.25641005,12.0
4113.97435870, 4093.20512786, 4100.25640991, 4106.53846126, 4122.43589716, 4116.02564075, 4079.87179453, 4100.12820478, 4089.35897402, 4130.25640998, 4101.79487145, 4098.20512786, 4134.61538434, 4145.64102544,12.0
4118.46153819, 4079.61538427, 4089.99999966, 4096.92307658, 4124.35897408, 4109.61538434, 4063.97435856, 4076.66666632, 4060.76923036, 4130.25640998, 4088.07692273, 4080.25640991, 4131.66666639, 4145.76923056,12.0
4116.79487152, 4097.82051248, 4107.17948691, 4127.17948691, 4124.87179460, 4133.84615357, 4092.17948684, 4104.23076896, 4084.99999966, 4130.25640998, 4098.58974325, 4101.41025607, 4131.79487152, 4145.25641005,12.0
4118.33333306, 4114.10256383, 4120.64102537, 4139.23076903, 4124.23076896, 4142.30769210, 4113.84615357, 4123.97435870, 4103.07692280, 4130.25640998, 4108.58974332, 4118.84615357, 4135.51282031, 4145.38461518,12.0
4122.94871767, 4111.41025614, 4117.30769203, 4131.53846126, 4125.89743562, 4133.58974332, 4109.87179460, 4121.02564075, 4095.12820478, 4130.25640998, 4108.46153819, 4118.33333306, 4133.84615357, 4145.12820492,12.0
4115.64102537, 4106.28205101, 4111.92307665, 4128.46153819, 4122.82051255, 4130.51282024, 4098.71794837, 4116.28205101, 4092.69230735, 4130.25640998, 4106.53846126, 4114.23076896, 4133.20512793, 4145.64102544,12.0
4118.71794844, 4109.48717921, 4116.41025614, 4128.58974332, 4120.89743562, 4134.10256383, 4096.79487145, 4113.97435870, 4093.58974325, 4130.25640998, 4100.25640991, 4113.71794844, 4134.48717921, 4146.79487159,12.0
4119.10256383, 4109.74358947, 4118.71794844, 4132.94871767, 4123.71794844, 4129.61538434, 4096.53846119, 4110.25640998, 4080.38461504, 4130.25640998, 4096.28205094, 4118.58974332, 4133.58974332, 4146.41025621,12.0
4116.41025614, 4109.74358947, 4118.84615357, 4142.05128185, 4123.20512793, 4124.10256383, 4090.12820478, 4102.43589709, 4074.61538427, 4130.25640998, 4102.43589709, 4127.05128178, 4133.58974332, 4144.61538441,12.0
4121.66666639, 4106.92307665, 4117.43589716, 4138.07692287, 4122.05128178, 4115.89743562, 4072.56410222, 4087.94871761, 4068.20512779, 4130.25640998, 4102.82051255, 4123.97435870, 4131.79487152, 4142.69230749,12.0
4122.94871767, 4100.76923043, 4113.46153819, 4128.84615357, 4122.94871767, 4109.74358947, 4066.02564061, 4079.10256376, 4054.61538420, 4130.25640998, 4099.74358940, 4117.56410229, 4130.64102537, 4143.58974339,12.0
4122.43589716, 4102.43589709, 4113.33333306, 4132.94871767, 4124.23076896, 4111.15384588, 4073.33333299, 4083.33333299, 4060.51282010, 4130.25640998, 4101.02564068, 4117.69230742, 4131.92307665, 4145.38461518,12.0
4121.41025614, 4102.69230742, 4113.58974332, 4132.43589716, 4124.61538434, 4109.48717921, 4069.87179453, 4088.20512786, 4073.97435863, 4130.25640998, 4097.94871761, 4114.23076896, 4131.79487152, 4145.25641005,12.0
4122.56410229, 4100.25640991, 4113.84615357, 4126.15384588, 4122.17948691, 4111.28205101, 4071.79487145, 4091.02564068, 4076.79487145, 4130.25640998, 4098.58974325, 4113.58974332, 4133.07692280, 4145.25641005,12.0
4122.17948691, 4102.05128171, 4114.87179460, 4128.71794844, 4121.02564075, 4118.33333306, 4082.82051248, 4091.28205094, 4074.74358940, 4130.12820485, 4101.79487145, 4119.35897408, 4133.71794844, 4147.05128185,12.0
4120.64102537, 4105.76923050, 4116.66666639, 4133.20512793, 4120.89743562, 4119.99999973, 4084.61538427, 4091.53846119, 4071.53846119, 4129.99999973, 4101.15384581, 4128.33333306, 4133.71794844, 4148.20512800,12.0
4123.97435870, 4099.74358940, 4112.56410229, 4120.51282024, 4121.66666639, 4108.58974332, 4071.66666632, 4083.71794837, 4061.02564061, 4129.87179460, 4097.69230735, 4122.94871767, 4134.99999973, 4146.02564082,12.0
4120.12820485, 4099.35897402, 4113.07692280, 4120.64102537, 4123.97435870, 4111.02564075, 4075.38461504, 4088.33333299, 4066.41025600, 4130.51282024, 4100.12820478, 4122.56410229, 4134.23076896, 4145.76923056,12.0
4118.71794844, 4123.84615357, 4132.30769203, 4155.25641005, 4120.38461511, 4135.76923056, 4109.48717921, 4122.69230742, 4097.94871761, 4129.99999973, 4114.74358947, 4153.58974339, 4133.20512793, 4148.07692287,12.0
4119.10256383, 4135.64102544, 4142.05128185, 4169.74358961, 4118.20512793, 4146.53846133, 4131.28205101, 4138.97435877, 4109.74358947, 4129.48717921, 4119.74358947, 4167.94871774, 4134.48717921, 4146.02564082,12.0
4115.76923050, 4117.56410229, 4126.53846126, 4141.15384595, 4122.94871767, 4133.33333306, 4114.23076896, 4120.12820485, 4090.25640991, 4133.58974332, 4105.89743562, 4138.97435877, 4134.87179460, 4144.35897415,12.0
4119.10256383, 4099.48717914, 4109.74358947, 4116.66666639, 4124.61538434, 4108.33333306, 4080.64102530, 4102.17948684, 4073.84615350, 4137.30769210, 4091.66666632, 4110.12820485, 4133.58974332, 4145.51282031,12.0
4118.20512793, 4094.48717914, 4104.23076896, 4116.02564075, 4122.05128178, 4091.28205094, 4070.25640991, 4101.53846119, 4072.17948684, 4133.71794844, 4086.66666632, 4105.25640998, 4132.17948691, 4145.38461518,12.0
4119.35897408, 4092.56410222, 4099.23076889, 4112.43589716, 4121.15384588, 4094.48717914, 4084.23076889, 4101.15384581, 4065.51282010, 4131.15384588, 4083.46153812, 4098.33333299, 4132.56410229, 4146.15384595,12.0
4120.64102537, 4089.10256376, 4095.89743555, 4099.35897402, 4122.69230742, 4100.25640991, 4091.02564068, 4096.79487145, 4054.10256369, 4134.48717921, 4080.51282017, 4086.41025607, 4131.53846126, 4147.43589723,12.0
4117.43589716, 4091.15384581, 4098.71794837, 4100.38461504, 4122.94871767, 4090.89743555, 4082.17948684, 4097.82051248, 4057.17948677, 4135.64102544, 4081.41025607, 4089.99999966, 4131.79487152, 4146.02564082,12.0
4119.61538434, 4092.56410222, 4097.56410222, 4107.56410229, 4122.30769203, 4078.84615350, 4067.94871754, 4090.38461504, 4056.15384574, 4133.20512793, 4074.87179453, 4089.35897402, 4134.48717921, 4143.33333313,12.0
4117.82051255, 4086.53846119, 4090.25640991, 4103.84615357, 4123.20512793, 4076.66666632, 4058.20512779, 4074.10256376, 4035.38461490, 4132.69230742, 4069.61538420, 4076.15384581, 4132.94871767, 4143.20512800,12.0
4119.23076896, 4083.97435863, 4090.38461504, 4099.23076889, 4123.71794844, 4078.07692273, 4061.41025600, 4066.41025600, 4024.99999952, 4133.97435870, 4074.35897402, 4073.46153812, 4129.99999973, 4145.25641005,12.0
4120.12820485, 4089.48717914, 4097.43589709, 4098.71794837, 4124.35897408, 4082.56410222, 4069.87179453, 4068.07692266, 4037.17948677, 4134.35897408, 4075.38461504, 4080.25640991, 4130.89743562, 4145.12820492,12.0
4114.99999973, 4090.25640991, 4094.87179453, 4092.43589709, 4123.46153819, 4081.79487145, 4066.28205087, 4071.66666632, 4041.02564061, 4134.61538434, 4069.61538420, 4076.41025607, 4132.17948691, 4143.84615364,12.0
4120.25640998, 4080.25640991, 4081.66666632, 4078.84615350, 4121.15384588, 4075.64102530, 4055.64102523, 4068.58974318, 4016.41025593, 4134.48717921, 4063.71794830, 4063.97435856, 4132.43589716, 4144.35897415,12.0
4122.69230742, 4065.25640984, 4068.20512779, 4058.46153805, 4121.53846126, 4067.82051241, 4043.71794830, 4043.07692266, 3980.38461483, 4134.48717921, 4055.38461497, 4048.07692266, 4132.82051255, 4145.25641005,12.0
4119.87179460, 4058.07692266, 4063.71794830, 4048.46153805, 4123.46153819, 4059.74358933, 4031.02564054, 4014.74358926, 3967.17948656, 4134.61538434, 4046.53846113, 4032.30769183, 4133.71794844, 4146.28205108,12.0
4120.76923050, 4069.87179453, 4073.07692273, 4065.51282010, 4121.15384588, 4066.92307651, 4043.97435856, 4033.71794824, 3995.12820458, 4134.48717921, 4052.82051241, 4042.43589702, 4135.64102544, 4145.51282031,12.0
4118.46153819, 4078.58974325, 4077.69230735, 4076.66666632, 4118.71794844, 4078.07692273, 4064.35897395, 4068.46153805, 4023.46153798, 4134.48717921, 4059.61538420, 4057.05128164, 4135.12820485, 4145.76923056,12.0
4121.15384588, 4071.79487145, 4073.07692273, 4067.82051241, 4122.17948691, 4076.66666632, 4057.69230728, 4066.02564061, 4024.10256362, 4134.48717921, 4057.69230728, 4052.05128164, 4134.35897408, 4147.82051262,12.0
4122.30769203, 4072.17948684, 4077.82051248, 4074.23076889, 4125.64102537, 4075.89743555, 4051.79487138, 4062.69230728, 4029.48717900, 4134.48717921, 4065.51282010, 4060.76923036, 4133.46153819, 4146.28205108,12.0
4116.28205101, 4069.99999966, 4076.53846119, 4077.43589709, 4123.20512793, 4072.56410222, 4053.07692266, 4068.33333292, 4031.15384567, 4134.48717921, 4069.23076882, 4065.51282010, 4131.02564075, 4143.97435877,12.0
4118.97435870, 4052.30769189, 4057.43589702, 4052.56410215, 4120.12820485, 4053.84615343, 4036.53846106, 4048.71794830, 4004.48717900, 4134.48717921, 4053.33333292, 4034.74358926, 4132.43589716, 4145.51282031,12.0
4118.71794844, 4046.28205087, 4055.12820472, 4047.30769189, 4121.79487152, 4047.30769189, 4027.94871747, 4035.25640977, 3992.56410201, 4134.48717921, 4046.92307651, 4023.07692259, 4132.94871767, 4145.12820492,12.0
4116.02564075, 4062.94871754, 4077.43589709, 4079.87179453, 4121.92307665, 4066.66666625, 4049.35897395, 4052.30769189, 4018.07692259, 4134.48717921, 4068.71794830, 4061.92307651, 4130.51282024, 4143.46153826,12.0
4117.05128178, 4066.79487138, 4078.20512786, 4089.35897402, 4118.84615357, 4065.12820472, 4044.99999959, 4052.05128164, 4022.94871747, 4134.48717921, 4073.71794837, 4068.46153805, 4131.15384588, 4144.48717928,12.0
4115.76923050, 4053.33333292, 4059.10256369, 4067.43589702, 4120.12820485, 4043.84615343, 4018.07692259, 4035.38461490, 4003.84615329, 4134.48717921, 4056.15384574, 4038.07692266, 4133.07692280, 4145.89743569,12.0
4117.30769203, 4057.82051241, 4068.58974318, 4070.25640991, 4122.69230742, 4053.84615343, 4035.25640977, 4047.30769189, 4021.53846106, 4134.48717921, 4064.10256369, 4053.07692266, 4133.46153819, 4146.79487159,12.0
4114.23076896, 4069.10256369, 4084.48717914, 4086.79487145, 4121.28205101, 4076.02564068, 4063.71794830, 4070.64102530, 4049.23076882, 4134.48717921, 4080.76923043, 4083.20512786, 4133.97435870, 4146.41025621,12.0
4115.51282024, 4064.61538420, 4071.66666632, 4086.53846119, 4119.35897408, 4065.38461497, 4052.94871754, 4068.58974318, 4031.53846106, 4134.48717921, 4063.46153805, 4061.79487138, 4132.82051255, 4143.58974339,12.0
4119.99999973, 4045.38461497, 4051.66666625, 4070.38461504, 4123.71794844, 4040.64102523, 4025.51282003, 4048.46153805, 3999.99999945, 4134.48717921, 4036.66666618, 4021.15384567, 4130.12820485, 4143.07692287,12.0
4117.05128178, 4035.89743541, 4040.51282010, 4042.30769189, 4126.28205101, 4028.71794824, 4009.35897388, 4035.64102516, 3994.99999945, 4134.48717921, 4037.17948677, 4008.71794824, 4131.66666639, 4145.25641005,12.0
4120.12820485, 4065.51282010, 4045.76923036, 4034.61538413, 4121.28205101, 4035.25640977, 4016.66666618, 4042.94871754, 4010.76923029, 4134.48717921, 4054.48717907, 4026.28205080, 4134.10256383, 4146.41025621,12.0
4120.12820485, 4103.20512793, 4062.69230728, 4054.87179446, 4119.48717921, 4055.76923036, 4047.05128164, 4062.17948677, 4031.02564054, 4134.48717921, 4063.46153805, 4049.10256369, 4130.51282024, 4146.66666646,12.0
4118.46153819, 4102.30769196, 4060.64102523, 4062.94871754, 4122.56410229, 4060.89743548, 4051.41025600, 4058.07692266, 4029.74358926, 4134.48717921, 4056.02564061, 4041.41025600, 4128.58974332, 4146.41025621,12.0
4120.51282024, 4080.76923043, 4048.97435856, 4057.17948677, 4123.33333306, 4049.87179446, 4031.28205080, 4038.07692266, 4017.17948670, 4134.48717921, 4053.46153805, 4026.92307644, 4130.51282024, 4143.07692287,12.0
4118.71794844, 4071.28205094, 4054.35897395, 4056.66666625, 4120.64102537, 4049.35897395, 4035.12820465, 4050.25640984, 4027.30769183, 4134.48717921, 4064.61538420, 4041.02564061, 4128.46153819, 4142.17948697,12.0
4119.23076896, 4063.97435856, 4058.07692266, 4051.66666625, 4119.74358947, 4050.12820472, 4041.02564061, 4069.74358940, 4036.02564054, 4134.48717921, 4059.74358933, 4045.51282010, 4129.61538434, 4145.38461518,12.0
4114.74358947, 4059.87179446, 4053.84615343, 4055.51282010, 4122.69230742, 4047.56410215, 4035.12820465, 4070.25640991, 4034.61538413, 4134.48717921, 4048.46153805, 4035.25640977, 4132.30769203, 4146.28205108,12.0
4115.76923050, 4067.30769189, 4059.87179446, 4070.12820478, 4122.94871767, 4048.84615343, 4032.43589695, 4066.53846113, 4033.84615336, 4134.48717921, 4060.64102523, 4042.43589702, 4130.12820485, 4144.87179467,12.0
4120.64102537, 4061.28205087, 4059.10256369, 4061.53846113, 4119.23076896, 4042.43589702, 4019.61538413, 4047.56410215, 4011.02564054, 4134.48717921, 4062.30769189, 4044.35897395, 4126.53846126, 4143.20512800,12.0
4116.15384588, 4043.71794830, 4046.53846113, 4038.58974318, 4119.99999973, 4034.23076875, 4006.66666618, 4019.35897388, 3973.58974304, 4134.48717921, 4041.53846113, 4025.25640977, 4128.97435870, 4144.48717928,12.0
4117.69230742, 4033.33333285, 4041.02564061, 4025.76923029, 4121.79487152, 4035.12820465, 4013.33333285, 4011.92307644, 3959.23076861, 4134.48717921, 4041.02564061, 4013.20512772, 4133.33333306, 4147.30769210,12.0
4117.05128178, 4040.25640984, 4044.23076882, 4039.99999959, 4118.33333306, 4042.69230728, 4032.94871747, 4029.35897388, 3980.25640970, 4134.48717921, 4056.92307651, 4026.15384567, 4130.12820485, 4146.66666646,12.0
4117.82051255, 4052.56410215, 4054.35897395, 4061.92307651, 4119.10256383, 4053.84615343, 4048.58974318, 4048.97435856, 4009.48717900, 4134.48717921, 4060.76923036, 4044.99999959, 4130.25640998, 4146.41025621,12.0
4119.61538434, 4049.23076882, 4059.99999959, 4059.61538420, 4121.41025614, 4063.33333292, 4057.30769189, 4054.10256369, 4018.20512772, 4134.48717921, 4054.99999959, 4045.38461497, 4131.79487152, 4144.74358954,12.0
4115.25640998, 4050.51282010, 4064.61538420, 4067.69230728, 4120.38461511, 4070.89743555, 4066.79487138, 4063.20512779, 4032.82051234, 4134.48717921, 4063.84615343, 4054.48717907, 4131.41025614, 4144.23076903,12.0
4119.61538434, 4064.23076882, 4081.15384581, 4091.15384581, 4122.05128178, 4070.12820478, 4064.87179446, 4077.56410222, 4062.30769189, 4134.48717921, 4080.51282017, 4080.25640991, 4135.51282031, 4147.05128185,12.0
4115.25640998, 4062.30769189, 4085.51282017, 4084.87179453, 4122.43589716, 4058.71794830, 4047.30769189, 4069.35897395, 4056.02564061, 4134.48717921, 4075.76923043, 4080.38461504, 4133.71794844, 4146.28205108,12.0
4112.05128178, 4060.89743548, 4083.46153812, 4085.25640991, 4120.38461511, 4060.89743548, 4051.79487138, 4070.89743555, 4043.58974318, 4134.48717921, 4070.38461504, 4076.28205094, 4135.38461518, 4145.12820492,12.0
4122.43589716, 4072.05128171, 4089.74358940, 4105.12820485, 4122.17948691, 4066.66666625, 4060.89743548, 4090.12820478, 4059.10256369, 4134.48717921, 4074.99999966, 4088.84615350, 4136.79487159, 4144.35897415,12.0
4117.30769203, 4055.64102523, 4075.51282017, 4077.82051248, 4124.87179460, 4042.56410215, 4029.10256362, 4067.82051241, 4033.33333285, 4134.48717921, 4062.56410215, 4069.48717907, 4130.38461511, 4143.20512800,12.0
4114.10256383, 4043.20512779, 4065.64102523, 4060.76923036, 4123.20512793, 4041.28205087, 4029.74358926, 4051.92307651, 4001.41025586, 4134.48717921, 4060.51282010, 4058.58974318, 4130.89743562, 4144.87179467,12.0
4120.51282024, 4069.87179453, 4087.94871761, 4108.84615357, 4120.89743562, 4083.20512786, 4091.28205094, 4091.79487145, 4037.17948677, 4134.48717921, 4086.02564068, 4098.71794837, 4133.20512793, 4145.25641005,12.0
4120.76923050, 4079.10256376, 4096.41025607, 4123.58974332, 4122.43589716, 4096.53846119, 4111.66666639, 4104.10256383, 4056.02564061, 4134.48717921, 4089.48717914, 4108.97435870, 4133.33333306, 4146.02564082,12.0
4121.66666639, 4060.51282010, 4080.64102530, 4084.48717914, 4123.20512793, 4083.58974325, 4090.12820478, 4084.35897402, 4032.43589695, 4134.48717921, 4071.02564068, 4080.25640991, 4134.10256383, 4145.64102544,12.0
4119.23076896, 4051.28205087, 4070.76923043, 4068.71794830, 4121.41025614, 4078.58974325, 4085.12820478, 4088.97435863, 4032.17948670, 4134.48717921, 4065.76923036, 4067.17948677, 4132.69230742, 4149.48717928,12.0
4119.74358947, 4052.94871754, 4065.12820472, 4082.82051248, 4122.82051255, 4068.46153805, 4071.02564068, 4068.33333292, 4020.89743541, 4134.48717921, 4060.38461497, 4058.97435856, 4133.33333306, 4150.12820492,12.0
4124.10256383, 4053.84615343, 4064.23076882, 4086.92307658, 4125.25640998, 4057.94871754, 4048.20512779, 4028.46153798, 3996.28205073, 4134.48717921, 4056.66666625, 4054.74358933, 4133.20512793, 4144.48717928,12.0
4121.66666639, 4058.46153805, 4079.74358940, 4085.76923043, 4122.43589716, 4067.17948677, 4062.82051241, 4056.28205087, 4034.61538413, 4134.48717921, 4079.87179453, 4081.41025607, 4134.10256383, 4151.41025621,12.0
4122.94871767, 4065.76923036, 4093.33333299, 4094.23076889, 4118.58974332, 4079.74358940, 4081.66666632, 4099.23076889, 4080.89743555, 4134.48717921, 4098.07692273, 4103.46153819, 4133.97435870, 4153.46153826,12.0
4120.51282024, 4061.66666625, 4085.89743555, 4097.30769196, 4119.99999973, 4076.02564068, 4066.15384574, 4082.94871761, 4066.79487138, 4134.48717921, 4089.10256376, 4090.38461504, 4131.15384588, 4147.94871774,12.0
4116.92307665, 4050.25640984, 4073.71794837, 4083.58974325, 4120.38461511, 4066.66666625, 4057.05128164, 4070.64102530, 4055.25640984, 4134.48717921, 4083.46153812, 4080.89743555, 4132.69230742, 4151.66666646,12.0
4122.05128178, 4051.15384574, 4076.15384581, 4079.61538427, 4120.38461511, 4071.92307658, 4078.33333299, 4096.92307658, 4074.87179453, 4134.48717921, 4086.66666632, 4087.30769196, 4131.92307665, 4151.41025621,12.0
4117.43589716, 4063.58974318, 4084.10256376, 4097.56410222, 4121.92307665, 4082.94871761, 4093.33333299, 4113.20512793, 4085.12820478, 4134.48717921, 4084.74358940, 4094.10256376, 4129.74358947, 4147.43589723,12.0
4112.69230742, 4068.71794830, 4084.87179453, 4104.99999973, 4121.28205101, 4078.84615350, 4078.46153812, 4102.94871767, 4081.15384581, 4134.48717921, 4080.12820478, 4093.46153812, 4133.97435870, 4148.20512800,12.0
4116.15384588, 4069.99999966, 4087.82051248, 4102.30769196, 4124.35897408, 4071.92307658, 4067.05128164, 4094.48717914, 4076.92307658, 4134.48717921, 4076.79487145, 4093.07692273, 4134.61538434, 4152.30769210,12.0
4115.12820485, 4074.61538427, 4092.94871761, 4108.46153819, 4125.25640998, 4076.41025607, 4078.46153812, 4101.02564068, 4074.87179453, 4134.48717921, 4072.82051248, 4097.82051248, 4133.84615357, 4151.92307672,12.0
4118.20512793, 4072.82051248, 4089.99999966, 4107.17948691, 4121.41025614, 4080.38461504, 4086.53846119, 4104.10256383, 4074.87179453, 4134.48717921, 4071.79487145, 4094.99999966, 4133.97435870, 4148.46153826,12.0
4113.97435870, 4066.28205087, 4086.66666632, 4099.48717914, 4120.25640998, 4085.76923043, 4086.79487145, 4099.48717914, 4074.74358940, 4134.48717921, 4075.64102530, 4091.53846119, 4133.71794844, 4149.87179467,12.0
4113.20512793, 4060.51282010, 4079.99999966, 4094.87179453, 4121.53846126, 4086.79487145, 4083.58974325, 4086.79487145, 4061.28205087, 4134.48717921, 4075.51282017, 4086.02564068, 4132.94871767, 4150.38461518,12.0
4124.35897408, 4048.07692266, 4062.30769189, 4079.10256376, 4122.82051255, 4069.23076882, 4067.69230728, 4070.25640991, 4041.15384574, 4134.48717921, 4068.33333292, 4065.12820472, 4128.97435870, 4148.84615364,12.0
4118.07692280, 4048.46153805, 4057.30769189, 4074.10256376, 4120.89743562, 4062.30769189, 4061.53846113, 4079.99999966, 4049.74358933, 4134.48717921, 4064.61538420, 4054.99999959, 4133.46153819, 4149.48717928,12.0
4115.51282024, 4071.79487145, 4076.92307658, 4102.30769196, 4121.53846126, 4082.30769196, 4081.41025607, 4109.10256383, 4080.76923043, 4134.48717921, 4071.66666632, 4075.89743555, 4135.64102544, 4149.35897415,12.0
4119.99999973, 4083.46153812, 4095.38461504, 4128.71794844, 4124.61538434, 4094.99999966, 4093.46153812, 4115.89743562, 4090.12820478, 4134.48717921, 4082.05128171, 4102.30769196, 4130.64102537, 4149.48717928,12.0
4120.64102537, 4079.61538427, 4096.41025607, 4130.89743562, 4123.33333306, 4088.84615350, 4084.10256376, 4099.10256376, 4076.66666632, 4134.48717921, 4085.76923043, 4111.92307665, 4134.99999973, 4149.35897415,12.0
4127.05128178, 4078.46153812, 4089.61538427, 4122.56410229, 4122.94871767, 4083.46153812, 4076.28205094, 4092.05128171, 4066.79487138, 4134.87179460, 4076.41025607, 4102.17948684, 4136.66666646, 4149.48717928,12.0
4117.17948691, 4073.97435863, 4083.71794837, 4112.05128178, 4119.61538434, 4085.64102530, 4079.35897402, 4103.71794844, 4072.05128171, 4135.25640998, 4069.48717907, 4093.46153812, 4133.46153819, 4150.25641005,12.0
4116.92307665, 4074.87179453, 4093.33333299, 4118.71794844, 4118.71794844, 4093.46153812, 4084.48717914, 4107.05128178, 4078.33333299, 4133.46153819, 4077.69230735, 4107.30769203, 4135.64102544, 4149.48717928,12.0
4125.25640998, 4080.25640991, 4098.84615350, 4134.87179460, 4119.99999973, 4092.56410222, 4081.66666632, 4087.82051248, 4060.64102523, 4134.87179460, 4078.97435863, 4114.61538434, 4135.12820485, 4151.53846133,12.0
4114.23076896, 4075.89743555, 4084.35897402, 4130.89743562, 4116.28205101, 4075.89743555, 4066.92307651, 4071.79487145, 4038.20512779, 4137.30769210, 4068.20512779, 4096.79487145, 4134.23076896, 4151.41025621,12.0
4117.94871767, 4080.64102530, 4088.46153812, 4131.66666639, 4123.20512793, 4081.79487145, 4069.48717907, 4087.69230735, 4055.76923036, 4127.17948691, 4068.97435856, 4097.56410222, 4135.38461518, 4145.64102544,12.0
4118.46153819, 4085.76923043, 4094.74358940, 4136.15384595, 4125.25640998, 4102.94871767, 4089.61538427, 4102.05128171, 4071.92307658, 4122.43589716, 4072.30769196, 4107.05128178, 4134.35897408, 4145.64102544,12.0
4116.15384588, 4064.61538420, 4068.20512779, 4106.79487152, 4119.61538434, 4079.10256376, 4068.71794830, 4068.07692266, 4027.56410208, 4131.15384588, 4050.76923036, 4070.25640991, 4132.56410229, 4150.64102544,12.0
4119.10256383, 4054.35897395, 4054.99999959, 4092.56410222, 4120.89743562, 4045.76923036, 4039.10256369, 4047.94871754, 3999.87179432, 4128.97435870, 4035.89743541, 4043.46153805, 4133.71794844, 4153.71794851,12.0
4109.23076896, 4087.17948684, 4086.53846119, 4144.99999980, 4118.71794844, 4076.02564068, 4074.99999966, 4096.53846119, 4058.58974318, 4122.56410229, 4062.30769189, 4093.58974325, 4136.28205108, 4151.41025621,12.0
4119.99999973, 4113.97435870, 4113.33333306, 4182.05128192, 4122.82051255, 4117.30769203, 4118.33333306, 4129.10256383, 4105.89743562, 4124.61538434, 4084.87179453, 4138.20512800, 4134.35897408, 4147.56410236,12.0
4113.46153819, 4091.53846119, 4095.64102530, 4145.51282031, 4125.76923050, 4104.61538434, 4102.17948684, 4101.79487145, 4076.28205094, 4127.56410229, 4071.66666632, 4111.53846126, 4133.33333306, 4150.51282031,12.0
4104.87179460, 4076.28205094, 4083.58974325, 4117.82051255, 4122.17948691, 4094.23076889, 4086.41025607, 4086.41025607, 4056.15384574, 4129.48717921, 4059.35897395, 4088.97435863, 4135.51282031, 4150.38461518,12.0
4125.89743562, 4095.25640991, 4097.17948684, 4141.02564082, 4123.20512793, 4108.58974332, 4092.17948684, 4090.51282017, 4066.79487138, 4132.43589716, 4066.53846113, 4106.28205101, 4133.71794844, 4144.74358954,12.0
4113.58974332, 4101.66666632, 4097.56410222, 4160.76923056, 4119.35897408, 4092.17948684, 4065.38461497, 4072.56410222, 4054.35897395, 4131.41025614, 4071.92307658, 4112.43589716, 4130.38461511, 4146.92307672,12.0
4114.61538434, 4101.53846119, 4098.97435863, 4165.38461518, 4120.25640998, 4076.66666632, 4052.30769189, 4068.33333292, 4047.43589702, 4132.94871767, 4073.97435863, 4111.79487152, 4131.41025614, 4152.30769210,12.0
4123.58974332, 4111.28205101, 4108.33333306, 4170.76923063, 4123.07692280, 4100.64102530, 4091.15384581, 4098.46153812, 4072.69230735, 4136.79487159, 4074.23076889, 4123.20512793, 4134.23076896, 4149.10256390,12.0
4114.99999973, 4101.92307658, 4096.53846119, 4152.17948697, 4120.12820485, 4097.56410222, 4088.33333299, 4089.48717914, 4061.28205087, 4133.46153819, 4062.30769189, 4107.30769203, 4135.51282031, 4147.82051262,12.0
4128.20512793, 4077.43589709, 4078.71794837, 4126.79487152, 4120.89743562, 4057.69230728, 4037.17948677, 4049.35897395, 4019.23076875, 4132.94871767, 4049.35897395, 4076.53846119, 4137.56410236, 4152.82051262,12.0
4114.87179460, 4072.94871761, 4078.71794837, 4134.61538434, 4120.25640998, 4057.69230728, 4046.28205087, 4068.33333292, 4033.58974311, 4136.02564082, 4054.23076882, 4082.82051248, 4133.71794844, 4152.94871774,12.0
4117.05128178, 4082.94871761, 4086.66666632, 4137.30769210, 4122.17948691, 4093.84615350, 4094.10256376, 4104.74358947, 4070.25640991, 4131.79487152, 4056.79487138, 4093.33333299, 4129.74358947, 4146.28205108,12.0
4126.66666639, 4066.79487138, 4072.56410222, 4109.10256383, 4124.10256383, 4103.07692280, 4093.71794837, 4088.71794837, 4053.71794830, 4128.07692280, 4040.89743548, 4065.76923036, 4130.89743562, 4142.43589723,12.0
4106.79487152, 4042.69230728, 4051.28205087, 4088.33333299, 4120.38461511, 4091.15384581, 4076.53846119, 4070.51282017, 4026.92307644, 4131.92307665, 4032.56410208, 4043.07692266, 4127.69230742, 4148.07692287,12.0
4123.84615357, 4051.53846113, 4057.56410215, 4091.28205094, 4124.74358947, 4086.92307658, 4076.53846119, 4076.02564068, 4034.48717900, 4137.05128185, 4036.79487131, 4047.17948677, 4127.94871767, 4153.84615364,12.0
4119.74358947, 4074.61538427, 4073.97435863, 4118.07692280, 4124.35897408, 4096.53846119, 4081.92307658, 4082.17948684, 4057.30769189, 4136.02564082, 4044.61538420, 4066.66666625, 4129.87179460, 4149.99999980,12.0
4114.99999973, 4089.87179453, 4092.43589709, 4145.76923056, 4120.12820485, 4114.10256383, 4091.79487145, 4089.87179453, 4076.92307658, 4133.58974332, 4061.79487138, 4095.12820478, 4125.89743562, 4148.58974339,12.0
4130.64102537, 4086.92307658, 4102.30769196, 4142.69230749, 4121.53846126, 4116.41025614, 4093.20512786, 4096.41025607, 4085.51282017, 4134.35897408, 4072.05128171, 4108.20512793, 4128.07692280, 4149.99999980,12.0
4114.48717921, 4077.56410222, 4091.79487145, 4140.25641005, 4117.82051255, 4109.23076896, 4089.48717914, 4097.56410222, 4083.84615350, 4135.12820485, 4061.02564061, 4096.66666632, 4132.82051255, 4149.35897415,12.0
4127.56410229, 4085.64102530, 4092.94871761, 4154.35897415, 4121.28205101, 4113.20512793, 4098.71794837, 4107.69230742, 4082.17948684, 4133.20512793, 4051.79487138, 4089.87179453, 4132.94871767, 4150.64102544,12.0
4120.25640998, 4086.28205094, 4099.23076889, 4149.74358954, 4122.94871767, 4112.43589716, 4101.15384581, 4113.46153819, 4082.82051248, 4133.07692280, 4062.82051241, 4103.58974332, 4130.12820485, 4150.38461518,12.0
4109.74358947, 4077.56410222, 4096.02564068, 4135.64102544, 4121.66666639, 4103.33333306, 4089.61538427, 4099.74358940, 4079.99999966, 4133.07692280, 4068.20512779, 4107.17948691, 4130.12820485, 4149.35897415,12.0
4129.23076896, 4083.46153812, 4092.30769196, 4138.33333313, 4126.92307665, 4108.33333306, 4096.28205094, 4100.76923043, 4076.66666632, 4131.15384588, 4057.94871754, 4091.79487145, 4130.64102537, 4148.46153826,12.0
4108.33333306, 4078.71794837, 4079.61538427, 4131.66666639, 4119.23076896, 4107.43589716, 4100.76923043, 4104.48717921, 4061.02564061, 4131.15384588, 4046.02564061, 4072.94871761, 4127.94871767, 4150.51282031,12.0
4116.02564075, 4059.23076882, 4071.41025607, 4109.61538434, 4119.10256383, 4089.23076889, 4078.07692273, 4077.17948684, 4029.87179439, 4134.74358947, 4036.02564054, 4055.64102523, 4128.07692280, 4151.02564082,12.0
4123.33333306, 4059.10256369, 4077.17948684, 4110.38461511, 4126.02564075, 4088.58974325, 4074.99999966, 4071.79487145, 4034.74358926, 4134.48717921, 4042.30769189, 4064.61538420, 4129.23076896, 4141.41025621,12.0
4110.64102537, 4077.43589709, 4086.53846119, 4131.02564075, 4124.74358947, 4104.61538434, 4096.02564068, 4098.07692273, 4066.53846113, 4132.17948691, 4059.35897395, 4090.38461504, 4130.64102537, 4143.20512800,12.0
4126.79487152, 4079.61538427, 4089.35897402, 4134.48717921, 4127.69230742, 4101.41025607, 4092.82051248, 4094.61538427, 4064.23076882, 4133.58974332, 4058.71794830, 4090.51282017, 4130.89743562, 4148.71794851,12.0
4113.58974332, 4078.20512786, 4090.89743555, 4142.17948697, 4122.56410229, 4103.20512793, 4086.79487145, 4090.38461504, 4061.28205087, 4134.10256383, 4057.17948677, 4089.35897402, 4127.30769203, 4142.69230749,12.0
4115.51282024, 4106.41025614, 4114.74358947, 4175.38461525, 4120.12820485, 4134.35897408, 4117.05128178, 4133.20512793, 4107.05128178, 4134.10256383, 4078.46153812, 4124.87179460, 4129.35897408, 4145.89743569,12.0
4120.64102537, 4114.99999973, 4125.38461511, 4180.64102551, 4122.94871767, 4141.15384595, 4134.48717921, 4153.07692287, 4131.28205101, 4134.48717921, 4083.33333299, 4136.66666646, 4132.94871767, 4149.10256390,12.0
4110.76923050, 4094.23076889, 4109.35897408, 4157.30769210, 4118.07692280, 4121.53846126, 4119.10256383, 4124.99999973, 4100.76923043, 4134.10256383, 4061.79487138, 4108.97435870, 4129.87179460, 4146.28205108,12.0
4129.74358947, 4089.99999966, 4114.74358947, 4150.38461518, 4118.07692280, 4123.84615357, 4114.99999973, 4122.94871767, 4097.82051248, 4134.35897408, 4065.25640984, 4114.74358947, 4128.71794844, 4146.79487159,12.0
4121.92307665, 4086.92307658, 4120.76923050, 4141.53846133, 4121.79487152, 4124.10256383, 4114.48717921, 4133.84615357, 4114.99999973, 4134.35897408, 4079.48717914, 4129.61538434, 4130.38461511, 4146.28205108,12.0
4120.25640998, 4081.79487145, 4107.94871767, 4128.71794844, 4123.71794844, 4106.02564075, 4099.61538427, 4111.15384588, 4093.33333299, 4134.23076896, 4065.38461497, 4104.61538434, 4130.12820485, 4145.89743569,12.0
4127.17948691, 4080.76923043, 4096.92307658, 4126.41025614, 4122.69230742, 4103.20512793, 4098.84615350, 4098.20512786, 4075.38461504, 4134.61538434, 4051.28205087, 4081.53846119, 4127.30769203, 4145.89743569,12.0
4116.28205101, 4075.12820478, 4098.84615350, 4116.28205101, 4121.79487152, 4114.87179460, 4111.15384588, 4109.35897408, 4086.79487145, 4134.87179460, 4060.89743548, 4090.64102530, 4126.92307665, 4146.02564082,12.0
4126.41025614, 4071.02564068, 4099.10256376, 4105.89743562, 4123.07692280, 4108.71794844, 4100.25640991, 4101.66666632, 4079.48717914, 4135.25640998, 4065.64102523, 4093.97435863, 4130.12820485, 4145.38461518,12.0
4123.71794844, 4055.89743548, 4069.74358940, 4092.94871761, 4119.61538434, 4072.56410222, 4050.76923036, 4056.15384574, 4029.87179439, 4137.30769210, 4042.56410215, 4053.07692266, 4129.35897408, 4144.74358954,12.0
4120.51282024, 4053.84615343, 4061.28205087, 4095.12820478, 4117.69230742, 4065.25640984, 4037.56410215, 4039.10256369, 4012.17948670, 4133.71794844, 4038.33333292, 4041.15384574, 4127.69230742, 4145.89743569,12.0
4121.92307665, 4081.02564068, 4097.69230735, 4134.23076896, 4121.53846126, 4108.84615357, 4091.53846119, 4089.87179453, 4060.76923036, 4130.38461511, 4063.07692266, 4091.92307658, 4132.05128178, 4144.99999980,12.0
4115.64102537, 4085.25640991, 4110.12820485, 4138.07692287, 4123.46153819, 4118.58974332, 4114.48717921, 4120.76923050, 4092.69230735, 4134.48717921, 4067.69230728, 4107.94871767, 4132.05128178, 4144.61538441,12.0
4118.07692280, 4076.02564068, 4101.66666632, 4114.23076896, 4121.02564075, 4098.71794837, 4098.46153812, 4107.43589716, 4084.87179453, 4130.89743562, 4066.02564061, 4093.07692273, 4128.97435870, 4145.89743569,12.0
4112.94871767, 4099.99999966, 4118.07692280, 4146.53846133, 4119.87179460, 4105.38461511, 4106.41025614, 4119.48717921, 4094.48717914, 4122.30769203, 4081.92307658, 4119.10256383, 4129.23076896, 4144.35897415,12.0
4117.94871767, 4109.61538434, 4126.02564075, 4172.43589730, 4122.30769203, 4113.58974332, 4117.43589716, 4129.10256383, 4105.76923050, 4128.84615357, 4081.41025607, 4129.74358947, 4130.25640998, 4142.69230749,12.0
4121.66666639, 4096.79487145, 4116.79487152, 4143.20512800, 4123.97435870, 4122.17948691, 4129.99999973, 4124.74358947, 4108.07692280, 4138.33333313, 4072.82051248, 4115.12820485, 4131.02564075, 4144.10256390,12.0
4119.23076896, 4107.05128178, 4129.10256383, 4136.15384595, 4124.23076896, 4138.84615364, 4150.64102544, 4143.46153826, 4123.71794844, 4134.99999973, 4082.69230735, 4134.87179460, 4130.25640998, 4143.97435877,12.0
4120.64102537, 4096.28205094, 4132.56410229, 4142.94871774, 4123.20512793, 4114.61538434, 4126.02564075, 4134.87179460, 4115.25640998, 4133.46153819, 4087.30769196, 4141.15384595, 4128.33333306, 4142.69230749,12.0
4114.87179460, 4062.82051241, 4113.84615357, 4125.12820485, 4123.97435870, 4081.92307658, 4086.92307658, 4098.84615350, 4087.17948684, 4137.30769210, 4078.97435863, 4115.38461511, 4127.82051255, 4143.71794851,12.0
4124.10256383, 4075.25640991, 4118.46153819, 4130.64102537, 4125.38461511, 4109.87179460, 4107.69230742, 4117.56410229, 4102.94871767, 4134.87179460, 4080.64102530, 4122.56410229, 4130.76923050, 4143.33333313,12.0
4121.41025614, 4079.35897402, 4115.64102537, 4126.41025614, 4121.79487152, 4120.51282024, 4115.51282024, 4128.46153819, 4108.33333306, 4129.87179460, 4076.53846119, 4119.61538434, 4131.15384588, 4142.82051262,12.0
4115.25640998, 4054.35897395, 4095.38461504, 4096.53846119, 4121.02564075, 4082.17948684, 4079.99999966, 4086.66666632, 4073.71794837, 4128.20512793, 4066.53846113, 4090.64102530, 4125.64102537, 4143.07692287,12.0
4125.51282024, 4065.51282010, 4103.46153819, 4104.10256383, 4122.94871767, 4080.51282017, 4082.17948684, 4087.94871761, 4077.43589709, 4128.97435870, 4074.99999966, 4103.20512793, 4127.69230742, 4143.20512800,12.0
4122.43589716, 4083.84615350, 4119.35897408, 4125.51282024, 4122.05128178, 4108.97435870, 4114.35897408, 4127.30769203, 4106.66666639, 4129.61538434, 4082.05128171, 4124.74358947, 4131.66666639, 4144.10256390,12.0
4125.51282024, 4075.25640991, 4113.46153819, 4120.76923050, 4122.56410229, 4106.41025614, 4112.82051255, 4116.66666639, 4093.97435863, 4129.61538434, 4074.74358940, 4110.89743562, 4129.61538434, 4145.76923056,12.0
4125.76923050, 4072.69230735, 4105.89743562, 4118.07692280, 4123.84615357, 4092.30769196, 4096.79487145, 4086.28205094, 4072.05128171, 4130.25640998, 4070.25640991, 4102.56410229, 4129.23076896, 4145.12820492,12.0
4119.74358947, 4079.48717914, 4110.38461511, 4123.46153819, 4123.07692280, 4097.94871761, 4106.79487152, 4096.79487145, 4077.17948684, 4130.25640998, 4070.38461504, 4110.51282024, 4132.17948691, 4143.33333313,12.0
4126.02564075, 4076.53846119, 4115.76923050, 4120.25640998, 4122.43589716, 4102.82051255, 4115.25640998, 4109.87179460, 4084.74358940, 4130.12820485, 4072.05128171, 4111.79487152, 4133.84615357, 4143.97435877,12.0
4122.69230742, 4070.64102530, 4108.07692280, 4117.94871767, 4122.05128178, 4092.94871761, 4097.05128171, 4093.84615350, 4073.84615350, 4130.25640998, 4071.66666632, 4104.10256383, 4131.53846126, 4144.35897415,12.0
4125.12820485, 4069.74358940, 4098.71794837, 4112.17948691, 4122.05128178, 4079.99999966, 4074.74358940, 4077.82051248, 4058.58974318, 4130.25640998, 4069.10256369, 4097.94871761, 4128.97435870, 4144.35897415,12.0
4127.43589716, 4073.07692273, 4109.48717921, 4111.92307665, 4122.05128178, 4083.71794837, 4080.89743555, 4088.58974325, 4074.87179453, 4130.25640998, 4077.05128171, 4112.43589716, 4131.66666639, 4143.84615364,12.0
4118.97435870, 4080.12820478, 4123.84615357, 4123.97435870, 4121.15384588, 4099.99999966, 4108.33333306, 4116.41025614, 4108.71794844, 4130.25640998, 4087.43589709, 4131.41025614, 4132.94871767, 4142.82051262,12.0
4126.28205101, 4065.76923036, 4104.10256383, 4102.43589709, 4122.56410229, 4080.89743555, 4089.74358940, 4094.74358940, 4076.92307658, 4130.25640998, 4071.02564068, 4099.10256376, 4130.38461511, 4145.51282031,12.0
4120.76923050, 4046.66666625, 4083.07692273, 4075.12820478, 4124.35897408, 4048.07692266, 4054.61538420, 4058.07692266, 4031.15384567, 4130.25640998, 4053.97435856, 4067.94871754, 4129.23076896, 4146.66666646,12.0
4114.87179460, 4073.58974325, 4112.30769203, 4113.84615357, 4123.07692280, 4075.51282017, 4088.58974325, 4103.20512793, 4082.69230735, 4130.25640998, 4076.02564068, 4114.48717921, 4129.35897408, 4144.99999980,12.0
4129.48717921, 4104.10256383, 4141.92307672, 4152.05128185, 4123.46153819, 4117.69230742, 4133.58974332, 4154.35897415, 4138.97435877, 4130.25640998, 4099.10256376, 4160.12820492, 4131.02564075, 4146.02564082,12.0
4118.58974332, 4086.92307658, 4123.46153819, 4127.43589716, 4123.71794844, 4111.28205101, 4127.56410229, 4134.48717921, 4108.97435870, 4130.25640998, 4089.10256376, 4135.76923056, 4129.48717921, 4145.89743569,12.0
4117.30769203, 4083.84615350, 4111.92307665, 4118.46153819, 4123.07692280, 4108.84615357, 4127.56410229, 4125.76923050, 4092.30769196, 4130.25640998, 4076.02564068, 4113.58974332, 4127.69230742, 4143.20512800,12.0
4126.28205101, 4104.61538434, 4126.02564075, 4143.97435877, 4122.56410229, 4117.17948691, 4131.02564075, 4134.48717921, 4112.05128178, 4130.25640998, 4081.66666632, 4130.51282024, 4129.35897408, 4142.43589723,12.0
4116.53846126, 4100.38461504, 4127.69230742, 4140.76923056, 4121.66666639, 4106.02564075, 4107.82051255, 4105.89743562, 4101.02564068, 4130.25640998, 4091.41025607, 4139.10256390, 4126.28205101, 4144.61538441,12.0
4126.41025614, 4097.82051248, 4125.38461511, 4128.46153819, 4123.33333306, 4112.56410229, 4116.28205101, 4097.94871761, 4093.20512786, 4130.25640998, 4090.12820478, 4133.46153819, 4129.23076896, 4145.12820492,12.0
4128.20512793, 4105.12820485, 4127.82051255, 4139.10256390, 4122.30769203, 4127.17948691, 4140.25641005, 4125.89743562, 4112.05128178, 4130.25640998, 4087.69230735, 4132.56410229, 4135.12820485, 4142.94871774,12.0
4123.33333306, 4096.92307658, 4124.48717921, 4135.64102544, 4121.41025614, 4116.15384588, 4123.97435870, 4126.53846126, 4112.17948691, 4130.25640998, 4091.15384581, 4130.51282024, 4133.97435870, 4143.58974339,12.0
4126.53846126, 4089.74358940, 4118.97435870, 4119.23076896, 4125.12820485, 4108.97435870, 4116.02564075, 4121.66666639, 4103.07692280, 4130.25640998, 4091.92307658, 4125.76923050, 4129.61538434, 4145.12820492,12.0
4118.97435870, 4095.51282017, 4118.07692280, 4122.82051255, 4123.97435870, 4110.51282024, 4123.71794844, 4130.25640998, 4107.82051255, 4130.64102537, 4088.71794837, 4125.38461511, 4126.92307665, 4143.97435877,12.0
4131.66666639, 4096.28205094, 4121.15384588, 4126.02564075, 4122.17948691, 4102.94871767, 4109.99999973, 4122.17948691, 4103.58974332, 4129.74358947, 4088.58974325, 4123.46153819, 4131.66666639, 4145.64102544,12.0
4133.07692280, 4089.61538427, 4119.23076896, 4118.97435870, 4121.92307665, 4103.84615357, 4107.05128178, 4114.99999973, 4094.35897402, 4129.48717921, 4088.84615350, 4121.79487152, 4130.89743562, 4147.82051262,12.0
4127.05128178, 4089.61538427, 4114.87179460, 4118.84615357, 4122.30769203, 4111.66666639, 4120.38461511, 4118.33333306, 4091.15384581, 4132.05128178, 4085.76923043, 4122.82051255, 4124.61538434, 4146.41025621,12.0
4134.23076896, 4091.28205094, 4116.66666639, 4120.89743562, 4123.46153819, 4110.38461511, 4116.15384588, 4118.07692280, 4091.79487145, 4127.17948691, 4086.02564068, 4121.15384588, 4130.25640998, 4143.97435877,12.0
4127.94871767, 4096.15384581, 4120.89743562, 4126.41025614, 4119.87179460, 4114.61538434, 4113.33333306, 4119.87179460, 4105.12820485, 4122.30769203, 4090.12820478, 4125.38461511, 4134.10256383, 4144.10256390,12.0
4132.05128178, 4104.74358947, 4124.23076896, 4138.71794851, 4120.64102537, 4121.92307665, 4125.64102537, 4120.25640998, 4117.56410229, 4130.25640998, 4096.02564068, 4133.71794844, 4132.82051255, 4147.30769210,12.0
4128.07692280, 4100.12820478, 4122.43589716, 4136.53846133, 4124.23076896, 4122.30769203, 4135.38461518, 4131.92307665, 4121.41025614, 4136.15384595, 4097.05128171, 4137.94871774, 4130.51282024, 4146.92307672,12.0
4120.76923050, 4099.35897402, 4121.92307665, 4128.84615357, 4122.56410229, 4126.41025614, 4139.10256390, 4141.53846133, 4118.33333306, 4133.33333306, 4090.12820478, 4137.82051262, 4128.71794844, 4143.71794851,12.0
4126.92307665, 4108.58974332, 4124.23076896, 4137.17948697, 4121.92307665, 4128.84615357, 4135.76923056, 4127.56410229, 4103.33333306, 4133.46153819, 4086.28205094, 4128.84615357, 4131.28205101, 4142.05128185,12.0
4119.48717921, 4096.92307658, 4113.20512793, 4127.43589716, 4123.20512793, 4120.12820485, 4120.76923050, 4118.46153819, 4100.12820478, 4135.51282031, 4084.48717914, 4110.76923050, 4128.97435870, 4143.58974339,12.0
4125.64102537, 4072.30769196, 4094.10256376, 4089.48717914, 4122.17948691, 4104.99999973, 4098.07692273, 4111.66666639, 4099.48717914, 4133.58974332, 4072.43589709, 4088.33333299, 4126.41025614, 4146.41025621,12.0
4127.05128178, 4067.82051241, 4088.97435863, 4076.02564068, 4122.17948691, 4100.51282017, 4095.25640991, 4101.28205094, 4086.53846119, 4133.71794844, 4066.28205087, 4081.28205094, 4129.74358947, 4144.48717928,12.0
4119.99999973, 4089.48717914, 4109.99999973, 4109.74358947, 4125.89743562, 4121.66666639, 4123.84615357, 4122.56410229, 4101.02564068, 4134.61538434, 4086.66666632, 4111.66666639, 4130.38461511, 4142.82051262,12.0
4126.53846126, 4114.99999973, 4133.33333306, 4150.25641005, 4126.15384588, 4146.15384595, 4145.64102544, 4149.61538441, 4139.99999980, 4133.46153819, 4108.07692280, 4147.43589723, 4129.87179460, 4144.23076903,12.0
4123.07692280, 4116.79487152, 4129.35897408, 4149.35897415, 4123.20512793, 4137.30769210, 4134.74358947, 4135.76923056, 4138.97435877, 4134.48717921, 4102.82051255, 4141.15384595, 4127.56410229, 4144.99999980,12.0
4124.87179460, 4102.69230742, 4118.07692280, 4125.25640998, 4125.38461511, 4114.99999973, 4116.79487152, 4113.20512793, 4108.07692280, 4134.35897408, 4093.84615350, 4121.53846126, 4126.15384588, 4146.15384595,12.0
4124.99999973, 4106.53846126, 4125.64102537, 4135.51282031, 4126.66666639, 4118.97435870, 4119.23076896, 4129.48717921, 4119.48717921, 4134.10256383, 4105.76923050, 4138.97435877, 4129.23076896, 4147.17948697,12.0
4126.79487152, 4130.89743562, 4143.58974339, 4171.15384602, 4122.94871767, 4142.94871774, 4142.05128185, 4162.69230749, 4160.64102544, 4134.35897408, 4120.76923050, 4173.33333320, 4132.05128178, 4147.69230749,12.0
4133.97435870, 4139.23076903, 4147.94871774, 4177.43589730, 4120.89743562, 4157.69230749, 4164.74358954, 4176.66666653, 4176.02564089, 4134.23076896, 4121.53846126, 4178.97435884, 4130.89743562, 4147.17948697,12.0
4124.35897408, 4115.64102537, 4125.89743562, 4141.79487159, 4121.79487152, 4147.94871774, 4153.33333313, 4154.99999980, 4149.23076903, 4134.23076896, 4110.64102537, 4148.97435877, 4126.53846126, 4145.64102544,12.0
4130.76923050, 4099.74358940, 4112.30769203, 4114.23076896, 4124.23076896, 4133.46153819, 4134.10256383, 4139.35897415, 4130.12820485, 4134.23076896, 4108.46153819, 4129.99999973, 4128.07692280, 4145.38461518,12.0
4135.25640998, 4114.35897408, 4129.74358947, 4134.23076896, 4124.35897408, 4140.64102544, 4146.41025621, 4159.23076903, 4151.66666646, 4134.23076896, 4118.84615357, 4152.82051262, 4131.66666639, 4146.15384595,12.0
4126.92307665, 4125.64102537, 4137.30769210, 4157.17948697, 4121.15384588, 4147.05128185, 4146.41025621, 4154.74358954, 4154.23076903, 4134.23076896, 4117.43589716, 4163.97435877, 4130.76923050, 4147.05128185,12.0
4132.56410229, 4114.23076896, 4117.05128178, 4138.84615364, 4120.89743562, 4132.17948691, 4118.46153819, 4119.10256383, 4125.12820485, 4134.23076896, 4104.48717921, 4136.53846133, 4130.12820485, 4146.79487159,12.0
4127.05128178, 4108.46153819, 4109.74358947, 4130.89743562, 4121.15384588, 4124.35897408, 4117.05128178, 4120.25640998, 4115.38461511, 4134.23076896, 4102.69230742, 4127.43589716, 4128.97435870, 4146.66666646,12.0
4130.25640998, 4124.35897408, 4129.99999973, 4159.10256390, 4121.15384588, 4138.58974339, 4141.53846133, 4143.84615364, 4128.58974332, 4134.23076896, 4114.48717921, 4146.79487159, 4128.07692280, 4147.56410236,12.0
4133.07692280, 4124.35897408, 4133.33333306, 4159.23076903, 4122.17948691, 4145.12820492, 4143.33333313, 4141.79487159, 4139.23076903, 4134.23076896, 4115.51282024, 4146.79487159, 4128.97435870, 4147.30769210,12.0
4118.84615357, 4109.35897408, 4118.33333306, 4134.87179460, 4123.33333306, 4136.53846133, 4133.07692280, 4131.79487152, 4137.94871774, 4134.23076896, 4106.02564075, 4130.38461511, 4129.61538434, 4146.41025621,12.0
4127.05128178, 4119.74358947, 4125.64102537, 4146.28205108, 4124.35897408, 4144.74358954, 4146.79487159, 4141.41025621, 4137.69230749, 4134.23076896, 4111.02564075, 4137.05128185, 4128.84615357, 4145.12820492,12.0
4125.25640998, 4127.05128178, 4130.64102537, 4154.10256390, 4123.20512793, 4150.38461518, 4152.43589723, 4151.66666646, 4138.97435877, 4134.23076896, 4114.61538434, 4140.64102544, 4128.46153819, 4144.61538441,12.0
4119.87179460, 4115.76923050, 4118.58974332, 4135.25640998, 4123.84615357, 4139.74358954, 4142.43589723, 4150.64102544, 4141.79487159, 4134.23076896, 4102.69230742, 4123.33333306, 4130.89743562, 4144.61538441,12.0
4128.58974332, 4115.89743562, 4120.64102537, 4138.20512800, 4124.35897408, 4141.66666646, 4148.84615364, 4151.41025621, 4148.71794851, 4134.23076896, 4097.05128171, 4123.58974332, 4129.74358947, 4144.23076903,12.0
4118.97435870, 4117.05128178, 4127.17948691, 4144.74358954, 4121.79487152, 4143.84615364, 4153.58974339, 4154.35897415, 4146.53846133, 4134.23076896, 4102.94871767, 4130.76923050, 4126.66666639, 4144.99999980,12.0
4120.76923050, 4109.87179460, 4119.48717921, 4130.89743562, 4123.46153819, 4130.12820485, 4131.02564075, 4134.87179460, 4121.15384588, 4134.23076896, 4101.02564068, 4114.48717921, 4127.43589716, 4145.38461518,12.0
4124.61538434, 4107.94871767, 4114.35897408, 4127.94871767, 4125.64102537, 4123.33333306, 4116.66666639, 4114.61538434, 4105.38461511, 4134.23076896, 4093.20512786, 4107.30769203, 4126.66666639, 4144.48717928,12.0
4122.30769203, 4110.64102537, 4123.20512793, 4133.71794844, 4122.94871767, 4133.58974332, 4132.43589716, 4123.33333306, 4123.20512793, 4134.23076896, 4098.84615350, 4124.74358947, 4126.53846126, 4145.64102544,12.0
4129.10256383, 4109.48717921, 4124.35897408, 4127.94871767, 4124.10256383, 4138.84615364, 4141.92307672, 4128.07692280, 4130.51282024, 4134.23076896, 4104.61538434, 4124.61538434, 4129.35897408, 4146.41025621,12.0
4123.07692280, 4115.51282024, 4120.51282024, 4139.23076903, 4126.79487152, 4144.10256390, 4144.23076903, 4121.41025614, 4123.33333306, 4134.23076896, 4102.17948684, 4117.94871767, 4129.10256383, 4146.28205108,12.0
4128.46153819, 4131.53846126, 4136.66666646, 4165.64102544, 4125.89743562, 4157.94871774, 4160.12820492, 4129.35897408, 4131.66666639, 4134.23076896, 4107.69230742, 4139.23076903, 4127.30769203, 4146.66666646,12.0
4131.28205101, 4137.56410236, 4150.89743569, 4168.58974345, 4122.56410229, 4161.79487159, 4172.56410243, 4143.71794851, 4142.69230749, 4134.23076896, 4117.69230742, 4158.97435877, 4128.97435870, 4146.66666646,12.0
4122.56410229, 4139.87179467, 4151.15384595, 4168.97435884, 4120.89743562, 4160.25641005, 4175.25641012, 4154.23076903, 4153.07692287, 4134.23076896, 4125.12820485, 4166.92307672, 4131.15384588, 4146.79487159,12.0
4130.64102537, 4147.05128185, 4157.94871774, 4184.35897422, 4124.99999973, 4162.56410236, 4179.35897422, 4164.48717928, 4166.02564082, 4134.23076896, 4133.58974332, 4181.41025628, 4129.87179460, 4147.30769210,12.0
4126.28205101, 4149.99999980, 4159.99999980, 4188.97435884, 4124.35897408, 4164.87179467, 4178.07692294, 4172.43589730, 4174.35897422, 4134.23076896, 4138.20512800, 4187.05128192, 4128.33333306, 4148.20512800,12.0
4127.82051255, 4142.94871774, 4143.97435877, 4168.07692287, 4122.69230742, 4152.43589723, 4154.48717928, 4153.84615364, 4158.33333313, 4134.23076896, 4125.51282024, 4158.71794851, 4131.66666639, 4148.46153826,12.0
4130.76923050, 4127.94871767, 4130.89743562, 4148.97435877, 4125.25640998, 4136.41025621, 4131.79487152, 4132.94871767, 4138.20512800, 4134.23076896, 4112.30769203, 4135.64102544, 4132.69230742, 4146.28205108,12.0
4121.66666639, 4132.69230742, 4144.99999980, 4162.69230749, 4123.97435870, 4142.17948697, 4138.33333313, 4147.05128185, 4149.87179467, 4134.23076896, 4119.87179460, 4156.41025621, 4129.99999973, 4145.89743569,12.0
4133.58974332, 4152.94871774, 4162.30769210, 4185.89743576, 4125.25640998, 4158.58974339, 4164.61538441, 4167.56410236, 4174.61538448, 4134.48717921, 4133.58974332, 4180.25641012, 4131.15384588, 4146.92307672,12.0
4129.10256383, 4147.56410236, 4152.43589723, 4181.79487166, 4125.38461511, 4166.02564082, 4173.20512807, 4158.71794851, 4169.23076910, 4134.99999973, 4134.10256383, 4171.15384602, 4132.30769203, 4145.76923056,12.0
4123.20512793, 4128.20512793, 4135.38461518, 4159.10256390, 4124.87179460, 4152.69230749, 4144.87179467, 4126.41025614, 4129.61538434, 4133.46153819, 4119.10256383, 4147.30769210, 4131.02564075, 4146.02564082,12.0
4127.94871767, 4122.43589716, 4128.46153819, 4142.69230749, 4126.92307665, 4131.66666639, 4122.05128178, 4113.07692280, 4112.82051255, 4133.71794844, 4108.71794844, 4130.64102537, 4130.89743562, 4149.10256390,12.0
4119.74358947, 4128.97435870, 4129.61538434, 4147.43589723, 4123.58974332, 4137.17948697, 4141.15384595, 4136.28205108, 4141.41025621, 4136.53846133, 4112.56410229, 4133.58974332, 4132.56410229, 4147.82051262,12.0
4129.99999973, 4142.56410236, 4145.51282031, 4171.02564089, 4124.23076896, 4163.84615364, 4166.15384595, 4164.74358954, 4174.48717935, 4129.10256383, 4121.41025614, 4155.38461518, 4133.46153819, 4143.33333313,12.0
4122.82051255, 4132.05128178, 4138.46153826, 4160.38461518, 4125.25640998, 4150.25641005, 4141.28205108, 4151.41025621, 4158.58974339, 4122.05128178, 4110.64102537, 4142.94871774, 4129.74358947, 4142.94871774,12.0
4112.17948691, 4114.74358947, 4116.28205101, 4133.20512793, 4122.43589716, 4127.69230742, 4120.51282024, 4136.15384595, 4137.05128185, 4130.76923050, 4095.38461504, 4110.51282024, 4129.10256383, 4146.28205108,12.0
4128.20512793, 4134.10256383, 4133.71794844, 4156.28205108, 4125.38461511, 4156.28205108, 4155.25641005, 4165.12820492, 4165.89743569, 4139.35897415, 4107.30769203, 4129.61538434, 4131.79487152, 4145.12820492,12.0
4119.35897408, 4155.38461518, 4154.61538441, 4187.30769217, 4123.33333306, 4176.02564089, 4177.43589730, 4172.56410243, 4179.74358961, 4136.15384595, 4122.56410229, 4163.71794851, 4128.58974332, 4141.92307672,12.0
4122.17948691, 4152.30769210, 4148.97435877, 4178.33333320, 4123.46153819, 4168.97435884, 4164.48717928, 4147.17948697, 4160.12820492, 4134.61538434, 4119.99999973, 4160.38461518, 4126.66666639, 4143.71794851,12.0
4131.41025614, 4148.97435877, 4141.66666646, 4169.48717935, 4126.53846126, 4171.53846140, 4163.71794851, 4138.58974339, 4159.10256390, 4137.69230749, 4112.56410229, 4145.12820492, 4128.58974332, 4144.35897415,12.0
4125.25640998, 4150.51282031, 4138.20512800, 4174.74358961, 4123.97435870, 4166.53846133, 4164.74358954, 4135.51282031, 4160.25641005, 4136.92307672, 4108.58974332, 4136.15384595, 4127.56410229, 4143.07692287,12.0
4134.61538434, 4140.64102544, 4133.84615357, 4162.17948697, 4128.46153819, 4151.79487159, 4148.58974339, 4126.92307665, 4137.94871774, 4135.51282031, 4105.64102537, 4126.79487152, 4127.17948691, 4146.02564082,12.0
4125.89743562, 4136.66666646, 4136.53846133, 4162.82051262, 4128.20512793, 4160.51282031, 4155.89743569, 4148.97435877, 4149.87179467, 4135.12820485, 4110.89743562, 4139.87179467, 4128.07692280, 4148.33333313,12.0
4127.05128178, 4152.56410236, 4149.74358954, 4183.71794858, 4124.10256383, 4173.97435884, 4170.89743576, 4168.20512807, 4183.20512807, 4135.64102544, 4116.66666639, 4158.71794851, 4129.99999973, 4146.15384595,12.0
4132.43589716, 4158.33333313, 4151.02564082, 4184.35897422, 4124.99999973, 4163.33333313, 4161.28205108, 4149.61538441, 4172.82051269, 4136.53846133, 4116.28205101, 4158.58974339, 4130.12820485, 4144.23076903,12.0
4121.79487152, 4154.23076903, 4146.15384595, 4183.07692294, 4122.69230742, 4161.92307672, 4159.23076903, 4143.07692287, 4156.28205108, 4136.02564082, 4123.97435870, 4163.84615364, 4128.33333306, 4147.43589723,12.0
4134.23076896, 4161.02564082, 4153.84615364, 4192.94871781, 4124.10256383, 4169.35897422, 4165.89743569, 4160.51282031, 4167.82051262, 4136.02564082, 4123.20512793, 4170.76923063, 4130.25640998, 4148.07692287,12.0
4128.46153819, 4170.12820499, 4159.74358954, 4202.05128199, 4123.71794844, 4173.71794858, 4174.10256397, 4180.76923063, 4188.58974345, 4136.28205108, 4118.97435870, 4172.94871781, 4130.51282024, 4145.64102544,12.0
4124.87179460, 4167.05128185, 4157.43589723, 4202.69230763, 4123.33333306, 4179.48717935, 4179.35897422, 4181.79487166, 4190.51282038, 4136.15384595, 4126.15384588, 4172.17948704, 4128.58974332, 4147.82051262,12.0
4128.46153819, 4156.66666646, 4154.48717928, 4198.46153833, 4127.17948691, 4177.56410243, 4176.15384602, 4166.79487159, 4176.53846140, 4136.15384595, 4129.74358947, 4170.89743576, 4128.20512793, 4146.92307672,12.0
4117.05128178, 4156.53846133, 4155.64102544, 4195.25641012, 4124.61538434, 4174.61538448, 4173.46153833, 4151.66666646, 4160.76923056, 4136.15384595, 4125.25640998, 4171.15384602, 4127.94871767, 4144.23076903,12.0
4127.05128178, 4159.99999980, 4156.53846133, 4189.10256397, 4122.69230742, 4176.28205115, 4170.64102551, 4135.89743569, 4144.61538441, 4136.15384595, 4119.99999973, 4162.82051262, 4128.33333306, 4146.41025621,12.0
4121.53846126, 4146.92307672, 4145.51282031, 4177.43589730, 4123.84615357, 4167.69230749, 4155.12820492, 4128.71794844, 4138.33333313, 4136.15384595, 4117.82051255, 4147.69230749, 4127.30769203, 4145.89743569,12.0
4119.10256383, 4148.46153826, 4145.89743569, 4177.30769217, 4124.48717921, 4167.17948697, 4153.07692287, 4142.82051262, 4154.99999980, 4136.15384595, 4125.51282024, 4155.76923056, 4127.82051255, 4145.12820492,12.0
4127.43589716, 4158.46153826, 4149.48717928, 4183.46153833, 4123.33333306, 4167.69230749, 4152.56410236, 4143.33333313, 4159.99999980, 4136.15384595, 4127.56410229, 4161.41025621, 4129.23076896, 4145.76923056,12.0
4116.66666639, 4131.28205101, 4123.46153819, 4154.61538441, 4122.30769203, 4131.66666639, 4109.61538434, 4108.33333306, 4124.99999973, 4136.15384595, 4105.51282024, 4121.02564075, 4127.43589716, 4144.48717928,12.0
4119.74358947, 4119.23076896, 4117.17948691, 4141.92307672, 4124.10256383, 4119.23076896, 4098.97435863, 4113.33333306, 4128.84615357, 4136.15384595, 4100.64102530, 4109.10256383, 4129.10256383, 4143.58974339,12.0
4119.35897408, 4159.87179467, 4153.33333313, 4188.58974345, 4123.84615357, 4173.71794858, 4167.82051262, 4178.97435884, 4196.15384602, 4136.15384595, 4128.20512793, 4164.48717928, 4130.38461511, 4142.43589723,12.0
4120.89743562, 4181.28205115, 4171.02564089, 4208.84615378, 4124.10256383, 4203.07692301, 4204.48717942, 4206.79487173, 4222.56410250, 4136.15384595, 4141.41025621, 4191.15384602, 4128.46153819, 4142.69230749,12.0
4125.12820485, 4157.56410236, 4152.17948697, 4175.12820499, 4125.64102537, 4175.12820499, 4169.23076910, 4171.79487166, 4184.74358961, 4136.15384595, 4127.43589716, 4164.74358954, 4130.76923050, 4143.84615364,12.0
4119.35897408, 4153.33333313, 4147.56410236, 4177.17948704, 4126.53846126, 4174.35897422, 4166.92307672, 4158.71794851, 4172.69230756, 4136.15384595, 4120.89743562, 4162.17948697, 4131.15384588, 4143.84615364,12.0
4126.53846126, 4171.92307679, 4163.71794851, 4203.46153840, 4125.64102537, 4207.43589737, 4204.10256404, 4180.38461525, 4195.38461525, 4136.15384595, 4132.17948691, 4180.12820499, 4127.30769203, 4144.10256390,12.0
4123.46153819, 4170.38461525, 4162.17948697, 4184.99999986, 4123.20512793, 4207.56410250, 4204.23076917, 4191.41025628, 4203.20512814, 4136.15384595, 4132.82051255, 4171.02564089, 4125.38461511, 4144.10256390,12.0
4126.79487152, 4137.82051262, 4131.02564075, 4149.35897415, 4125.12820485, 4156.92307672, 4155.76923056, 4162.43589723, 4173.84615371, 4136.15384595, 4122.30769203, 4134.48717921, 4125.89743562, 4149.87179467,12.0
4114.35897408, 4132.69230742, 4119.10256383, 4143.33333313, 4124.74358947, 4157.05128185, 4147.30769210, 4160.12820492, 4170.38461525, 4136.15384595, 4117.56410229, 4125.76923050, 4125.89743562, 4149.10256390,12.0
4121.79487152, 4126.79487152, 4115.76923050, 4128.07692280, 4123.84615357, 4145.38461518, 4125.25640998, 4135.76923056, 4151.15384595, 4136.15384595, 4112.43589716, 4118.97435870, 4130.38461511, 4145.64102544,12.0
4119.74358947, 4134.61538434, 4122.94871767, 4139.99999980, 4124.35897408, 4151.02564082, 4143.20512800, 4142.05128185, 4162.05128185, 4136.15384595, 4115.76923050, 4123.33333306, 4129.23076896, 4144.35897415,12.0
4111.28205101, 4167.30769210, 4147.43589723, 4187.94871781, 4124.99999973, 4186.92307679, 4192.17948704, 4186.02564089, 4209.23076917, 4136.15384595, 4139.48717928, 4165.25641005, 4126.28205101, 4146.41025621,12.0
4124.74358947, 4174.35897422, 4159.35897415, 4194.10256397, 4124.99999973, 4190.76923063, 4186.15384602, 4181.79487166, 4213.20512814, 4136.15384595, 4148.46153826, 4186.53846140, 4128.84615357, 4147.30769210,12.0
4118.97435870, 4142.56410236, 4131.28205101, 4149.10256390, 4124.35897408, 4152.82051262, 4129.35897408, 4133.58974332, 4168.33333320, 4136.15384595, 4128.33333306, 4144.61538441, 4128.07692280, 4141.41025621,12.0
4121.53846126, 4143.84615364, 4123.71794844, 4142.30769210, 4124.61538434, 4150.38461518, 4133.71794844, 4143.46153826, 4168.58974345, 4136.15384595, 4121.79487152, 4131.28205101, 4126.15384588, 4139.99999980,12.0
4129.61538434, 4174.48717935, 4146.79487159, 4168.58974345, 4125.51282024, 4174.48717935, 4178.71794858, 4177.82051269, 4198.71794858, 4136.15384595, 4131.15384588, 4163.97435877, 4129.23076896, 4144.87179467,12.0
4119.10256383, 4175.76923063, 4141.15384595, 4167.69230749, 4124.74358947, 4168.71794858, 4168.20512807, 4155.64102544, 4178.20512807, 4136.15384595, 4125.38461511, 4155.64102544, 4127.69230742, 4145.25641005,12.0
4126.02564075, 4170.25641012, 4125.76923050, 4156.41025621, 4124.23076896, 4159.99999980, 4150.12820492, 4140.38461518, 4156.41025621, 4136.15384595, 4115.51282024, 4129.61538434, 4127.17948691, 4143.46153826,12.0
4123.84615357, 4172.94871781, 4124.87179460, 4155.76923056, 4123.33333306, 4167.30769210, 4162.69230749, 4157.82051262, 4172.05128192, 4136.15384595, 4110.64102537, 4127.30769203, 4125.89743562, 4142.94871774,12.0
4123.07692280, 4178.20512807, 4130.25640998, 4168.33333320, 4124.23076896, 4176.53846140, 4167.56410236, 4154.74358954, 4179.35897422, 4136.15384595, 4114.23076896, 4133.20512793, 4118.58974332, 4147.30769210,12.0
4132.82051255, 4179.99999986, 4135.12820485, 4177.69230756, 4125.64102537, 4177.69230756, 4166.02564082, 4148.07692287, 4178.33333320, 4136.15384595, 4128.46153819, 4141.02564082, 4116.66666639, 4150.89743569,12.0
4120.38461511, 4165.64102544, 4131.92307665, 4173.71794858, 4123.58974332, 4171.53846140, 4170.12820499, 4154.10256390, 4176.66666653, 4136.15384595, 4126.28205101, 4142.43589723, 4116.41025614, 4148.20512800,12.0
4126.53846126, 4128.71794844, 4124.87179460, 4170.51282038, 4124.99999973, 4171.92307679, 4163.71794851, 4139.23076903, 4156.28205108, 4136.15384595, 4109.61538434, 4126.28205101, 4116.28205101, 4148.20512800,12.0
4131.02564075, 4068.46153805, 4111.02564075, 4155.38461518, 4123.33333306, 4162.43589723, 4141.15384595, 4111.28205101, 4134.35897408, 4136.15384595, 4099.87179453, 4103.07692280, 4116.28205101, 4148.71794851,12.0
4124.61538434, 4035.89743541, 4101.41025607, 4143.07692287, 4121.41025614, 4139.99999980, 4114.35897408, 4095.76923043, 4129.23076896, 4136.15384595, 4096.66666632, 4093.97435863, 4115.38461511, 4147.43589723,12.0
4129.87179460, 4072.30769196, 4123.97435870, 4182.17948704, 4126.41025614, 4148.58974339, 4132.56410229, 4120.51282024, 4145.76923056, 4136.15384595, 4104.23076896, 4122.94871767, 4117.69230742, 4145.38461518,12.0
4117.17948691, 4098.58974325, 4145.51282031, 4231.79487173, 4124.23076896, 4181.41025628, 4186.28205115, 4170.89743576, 4180.51282038, 4136.15384595, 4117.05128178, 4157.30769210, 4116.79487152, 4143.20512800,12.0
4120.51282024, 4073.20512786, 4137.05128185, 4242.05128206, 4121.92307665, 4189.10256397, 4188.58974345, 4180.76923063, 4207.30769224, 4136.15384595, 4117.82051255, 4147.30769210, 4116.15384588, 4143.97435877,12.0
4124.35897408, 4058.20512779, 4130.64102537, 4260.25641026, 4126.66666639, 4177.82051269, 4152.94871774, 4155.12820492, 4188.71794858, 4136.15384595, 4112.17948691, 4131.92307665, 4117.17948691, 4142.05128185,12.0
4114.48717921, 4072.17948684, 4139.74358954, 4291.53846161, 4127.56410229, 4167.82051262, 4146.79487159, 4144.10256390, 4151.15384595, 4136.15384595, 4108.84615357, 4144.74358954, 4111.92307665, 4142.17948697,12.0
4121.53846126, 4058.58974318, 4141.02564082, 4299.23076930, 4127.05128178, 4168.07692287, 4154.35897415, 4146.41025621, 4153.97435877, 4136.15384595, 4107.43589716, 4146.15384595, 4107.43589716, 4145.89743569,12.0
4113.58974332, 4009.10256362, 4137.30769210, 4308.07692322, 4128.20512793, 4178.71794858, 4158.07692287, 4156.53846133, 4181.02564089, 4136.15384595, 4111.28205101, 4142.56410236, 4110.25640998, 4145.76923056,12.0
4117.43589716, 3986.53846099, 4147.82051262, 4328.33333348, 4128.97435870, 4183.46153833, 4167.94871774, 4164.48717928, 4182.82051269, 4136.15384595, 4119.74358947, 4162.05128185, 4115.25640998, 4145.76923056,12.0
4124.10256383, 4007.30769183, 4158.46153826, 4341.66666688, 4126.15384588, 4179.35897422, 4167.05128185, 4163.97435877, 4175.38461525, 4136.15384595, 4123.84615357, 4178.46153833, 4111.28205101, 4144.99999980,12.0
4112.82051255, 4019.87179439, 4152.43589723, 4348.71794893, 4125.51282024, 4170.12820499, 4144.99999980, 4158.97435877, 4173.97435884, 4136.15384595, 4116.66666639, 4164.23076903, 4104.48717921, 4142.94871774,12.0
4121.66666639, 4001.79487124, 4135.12820485, 4350.38461560, 4128.46153819, 4160.89743569, 4132.43589716, 4140.38461518, 4152.05128185, 4136.15384595, 4105.76923050, 4134.61538434, 4106.79487152, 4144.35897415,12.0
4119.23076896, 3993.58974304, 4128.71794844, 4354.10256431, 4126.41025614, 4157.30769210, 4138.33333313, 4131.41025614, 4138.71794851, 4136.15384595, 4109.35897408, 4134.35897408, 4108.33333306, 4147.05128185,12.0
4121.79487152, 4015.25640977, 4146.02564082, 4368.71794900, 4127.30769203, 4168.58974345, 4162.56410236, 4156.15384595, 4165.64102544, 4136.15384595, 4121.02564075, 4162.05128185, 4107.30769203, 4148.71794851,12.0
4129.61538434, 4025.51282003, 4151.41025621, 4377.17948746, 4129.35897408, 4182.30769217, 4181.92307679, 4174.23076910, 4187.56410243, 4136.15384595, 4117.94871767, 4161.79487159, 4110.12820485, 4147.56410236,12.0
4120.38461511, 4024.35897388, 4141.02564082, 4369.87179515, 4123.84615357, 4179.87179474, 4174.10256397, 4167.69230749, 4185.51282038, 4136.15384595, 4110.12820485, 4147.05128185, 4109.35897408, 4146.15384595,12.0
4129.10256383, 4027.17948670, 4144.35897415, 4366.79487208, 4124.10256383, 4172.05128192, 4154.35897415, 4151.28205108, 4164.99999980, 4136.15384595, 4107.82051255, 4153.33333313, 4107.82051255, 4147.30769210,12.0
4124.87179460, 4026.15384567, 4142.56410236, 4373.33333362, 4125.25640998, 4167.05128185, 4145.12820492, 4137.69230749, 4147.05128185, 4136.15384595, 4107.69230742, 4154.48717928, 4106.92307665, 4148.58974339,12.0
4122.17948691, 4052.05128164, 4134.61538434, 4363.71794893, 4123.07692280, 4163.20512800, 4149.23076903, 4143.58974339, 4165.51282031, 4136.15384595, 4115.89743562, 4145.51282031, 4104.23076896, 4149.61538441,12.0
4131.66666639, 4089.61538427, 4138.20512800, 4350.12820534, 4123.97435870, 4153.33333313, 4143.33333313, 4151.92307672, 4185.38461525, 4136.15384595, 4120.25640998, 4147.43589723, 4104.74358947, 4148.20512800,12.0
4118.84615357, 4079.87179453, 4147.05128185, 4377.82051310, 4123.20512793, 4158.46153826, 4144.10256390, 4152.82051262, 4182.82051269, 4136.15384595, 4125.38461511, 4164.74358954, 4103.07692280, 4145.76923056,12.0
4124.23076896, 4071.79487145, 4154.74358954, 4415.89743625, 4123.97435870, 4174.61538448, 4158.33333313, 4157.94871774, 4184.23076910, 4136.15384595, 4141.28205108, 4177.43589730, 4102.05128171, 4147.05128185,12.0
4122.17948691, 4087.17948684, 4143.97435877, 4398.97435933, 4125.89743562, 4172.56410243, 4158.97435877, 4156.41025621, 4176.53846140, 4136.15384595, 4152.43589723, 4158.46153826, 4100.76923043, 4147.94871774,12.0
4116.02564075, 4078.58974325, 4135.51282031, 4387.05128233, 4127.17948691, 4173.07692294, 4160.76923056, 4154.10256390, 4162.69230749, 4136.15384595, 4147.05128185, 4146.02564082, 4099.23076889, 4147.43589723,12.0
4126.53846126, 4066.66666625, 4149.61538441, 4412.17948753, 4129.23076896, 4177.43589730, 4168.20512807, 4162.82051262, 4174.48717935, 4136.15384595, 4154.61538441, 4167.05128185, 4103.46153819, 4145.51282031,12.0
4112.94871767, 4064.99999959, 4144.48717928, 4403.58974394, 4127.30769203, 4165.12820492, 4159.10256390, 4152.56410236, 4177.43589730, 4136.15384595, 4194.99999986, 4158.84615364, 4103.20512793, 4144.23076903,12.0
4120.51282024, 4066.15384574, 4131.92307665, 4385.89743618, 4128.71794844, 4161.66666646, 4151.92307672, 4138.33333313, 4162.94871774, 4136.15384595, 4224.35897429, 4129.99999973, 4101.66666632, 4146.53846133,12.0
4126.53846126, 4066.53846113, 4141.41025621, 4407.56410292, 4129.61538434, 4179.99999986, 4172.30769217, 4154.74358954, 4176.02564089, 4136.15384595, 4221.79487173, 4147.69230749, 4101.41025607, 4145.51282031,12.0
4114.23076896, 4060.38461497, 4139.99999980, 4407.30769266, 4125.51282024, 4178.84615371, 4171.79487166, 4153.07692287, 4183.58974345, 4136.15384595, 4206.15384609, 4155.51282031, 4098.58974325, 4144.35897415,12.0
4124.61538434, 4052.30769189, 4116.41025614, 4362.69230790, 4127.82051255, 4145.25641005, 4131.92307665, 4120.12820485, 4149.61538441, 4136.15384595, 4173.33333320, 4107.69230742, 4095.51282017, 4144.87179467,12.0
4114.87179460, 4062.05128164, 4111.53846126, 4352.56410278, 4127.69230742, 4136.02564082, 4120.51282024, 4122.69230742, 4141.66666646, 4136.15384595, 4134.35897408, 4101.41025607, 4095.51282017, 4144.48717928,12.0
4116.02564075, 4100.25640991, 4141.66666646, 4398.20512856, 4128.20512793, 4164.74358954, 4144.61538441, 4154.61538441, 4182.69230756, 4136.15384595, 4140.64102544, 4159.48717928, 4097.05128171, 4145.38461518,12.0
4122.69230742, 4126.92307665, 4164.35897415, 4426.41025676, 4130.12820485, 4179.74358961, 4171.53846140, 4183.58974345, 4214.23076917, 4136.15384595, 4156.79487159, 4194.61538448, 4093.84615350, 4145.12820492,12.0
4109.48717921, 4122.05128178, 4151.92307672, 4399.23076958, 4125.89743562, 4163.07692287, 4177.43589730, 4190.64102551, 4200.64102551, 4136.15384595, 4121.15384588, 4172.56410243, 4091.53846119, 4144.74358954,12.0
4124.87179460, 4114.74358947, 4133.33333306, 4373.33333362, 4128.84615357, 4151.66666646, 4151.41025621, 4157.17948697, 4170.51282038, 4136.15384595, 4097.17948684, 4141.15384595, 4094.48717914, 4146.28205108,12.0
4122.94871767, 4125.12820485, 4139.10256390, 4400.64102599, 4129.99999973, 4163.84615364, 4142.05128185, 4135.64102544, 4173.07692294, 4136.15384595, 4112.69230742, 4153.07692287, 4091.66666632, 4146.79487159,12.0
4120.25640998, 4143.84615364, 4158.07692287, 4431.66666709, 4126.41025614, 4171.79487166, 4165.76923056, 4152.56410236, 4187.94871781, 4136.15384595, 4115.76923050, 4179.99999986, 4088.07692273, 4146.66666646,12.0
4131.02564075, 4146.92307672, 4149.74358954, 4412.43589779, 4129.10256383, 4166.66666646, 4164.87179467, 4146.66666646, 4167.94871774, 4136.15384595, 4095.89743555, 4165.76923056, 4088.58974325, 4146.79487159,12.0
4118.07692280, 4141.41025621, 4130.89743562, 4389.23076951, 4131.02564075, 4168.97435884, 4155.51282031, 4130.38461511, 4155.89743569, 4136.15384595, 4080.51282017, 4144.87179467, 4088.71794837, 4145.89743569,12.0
4127.30769203, 4147.17948697, 4139.61538441, 4395.38461567, 4131.28205101, 4174.23076910, 4171.02564089, 4146.02564082, 4175.64102551, 4136.15384595, 4078.20512786, 4155.38461518, 4093.20512786, 4145.64102544,12.0
4124.48717921, 4130.38461511, 4132.17948691, 4382.30769259, 4127.82051255, 4151.53846133, 4149.74358954, 4142.56410236, 4170.76923063, 4136.15384595, 4065.12820472, 4144.35897415, 4093.20512786, 4146.79487159,12.0
4117.56410229, 4119.74358947, 4112.94871767, 4359.74358996, 4127.05128178, 4134.35897408, 4120.25640998, 4128.46153819, 4157.05128185, 4136.15384595, 4048.07692266, 4117.82051255, 4088.97435863, 4148.71794851,12.0
4129.10256383, 4163.84615364, 4131.92307665, 4371.66666695, 4132.69230742, 4164.10256390, 4159.99999980, 4163.20512800, 4187.43589730, 4136.15384595, 4058.84615343, 4141.02564082, 4091.41025607, 4149.10256390,12.0
4114.23076896, 4181.92307679, 4148.20512800, 4392.30769259, 4130.89743562, 4186.02564089, 4185.64102551, 4184.87179474, 4205.89743583, 4136.15384595, 4065.38461497, 4168.84615371, 4091.66666632, 4148.20512800,12.0
4117.17948691, 4147.17948697, 4134.74358947, 4387.05128233, 4130.12820485, 4167.30769210, 4152.82051262, 4150.64102544, 4175.25641012, 4136.15384595, 4038.71794830, 4148.58974339, 4091.53846119, 4148.46153826,12.0
4115.64102537, 4134.23076896, 4119.23076896, 4371.92307720, 4130.25640998, 4143.97435877, 4131.79487152, 4122.69230742, 4149.23076903, 4136.15384595, 4031.66666618, 4125.12820485, 4091.79487145, 4145.51282031,12.0
4112.43589716, 4172.30769217, 4133.33333306, 4375.64102592, 4127.30769203, 4162.05128185, 4160.89743569, 4140.12820492, 4162.56410236, 4136.15384595, 4049.87179446, 4147.56410236, 4089.99999966, 4145.51282031,12.0
4127.94871767, 4197.69230756, 4157.56410236, 4395.64102592, 4129.99999973, 4201.53846147, 4198.97435884, 4170.64102551, 4185.12820499, 4136.15384595, 4048.46153805, 4177.05128192, 4091.28205094, 4146.02564082,12.0
4113.71794844, 4172.94871781, 4138.71794851, 4386.53846182, 4132.30769203, 4181.02564089, 4166.41025621, 4146.41025621, 4170.38461525, 4136.15384595, 4031.92307644, 4153.33333313, 4089.99999966, 4142.17948697,12.0
4117.69230742, 4158.58974339, 4115.38461511, 4357.56410278, 4132.05128178, 4139.10256390, 4112.94871767, 4102.69230742, 4143.33333313, 4136.15384595, 4025.12820465, 4121.28205101, 4087.94871761, 4144.87179467,12.0
4124.99999973, 4173.46153833, 4134.35897408, 4376.02564131, 4129.35897408, 4166.53846133, 4146.28205108, 4130.64102537, 4169.23076910, 4136.15384595, 4036.79487131, 4144.35897415, 4089.74358940, 4145.25641005,12.0
4116.28205101, 4181.41025628, 4151.02564082, 4407.05128240, 4127.43589716, 4196.28205115, 4188.07692294, 4171.66666653, 4196.28205115, 4136.15384595, 4038.97435856, 4169.74358961, 4090.51282017, 4142.56410236,12.0
4123.84615357, 4173.71794858, 4133.20512793, 4387.82051310, 4131.02564075, 4166.02564082, 4152.94871774, 4154.48717928, 4170.64102551, 4136.15384595, 4014.99999952, 4142.17948697, 4089.99999966, 4144.10256390,12.0
4118.46153819, 4174.10256397, 4122.30769203, 4359.61538483, 4129.99999973, 4152.43589723, 4132.30769203, 4146.66666646, 4164.99999980, 4136.15384595, 4016.53846106, 4123.20512793, 4087.94871761, 4143.84615364,12.0
4121.66666639, 4177.56410243, 4132.30769203, 4367.30769259, 4128.07692280, 4167.56410236, 4147.43589723, 4153.20512800, 4184.10256397, 4136.15384595, 4040.25640984, 4136.15384595, 4090.25640991, 4141.66666646,12.0
4119.87179460, 4174.23076910, 4128.33333306, 4375.25641054, 4128.20512793, 4155.51282031, 4136.41025621, 4131.02564075, 4162.94871774, 4136.15384595, 4017.94871747, 4137.69230749, 4092.94871761, 4141.15384595,12.0
4113.97435870, 4187.94871781, 4130.12820485, 4358.33333355, 4127.69230742, 4150.89743569, 4141.15384595, 4126.92307665, 4145.64102544, 4136.15384595, 4006.41025593, 4147.94871774, 4090.89743555, 4145.12820492,12.0
4128.20512793, 4202.94871788, 4151.66666646, 4359.74358996, 4130.12820485, 4175.12820499, 4168.07692287, 4155.38461518, 4176.53846140, 4136.15384595, 4049.87179446, 4174.23076910, 4092.82051248, 4148.07692287,12.0
4120.51282024, 4198.58974345, 4157.82051262, 4386.79487208, 4129.23076896, 4194.87179474, 4179.74358961, 4177.94871781, 4210.25641019, 4136.15384595, 4049.74358933, 4179.10256397, 4091.79487145, 4147.56410236,12.0
4123.46153819, 4195.89743576, 4148.84615364, 4395.51282079, 4128.58974332, 4192.82051269, 4177.30769217, 4172.43589730, 4200.76923063, 4136.15384595, 3996.66666611, 4160.64102544, 4090.51282017, 4145.89743569,12.0
4125.38461511, 4195.76923063, 4141.92307672, 4379.61538490, 4129.48717921, 4173.97435884, 4164.61538441, 4141.79487159, 4169.48717935, 4136.15384595, 3991.66666611, 4151.15384595, 4091.53846119, 4145.12820492,12.0
4113.46153819, 4196.02564089, 4144.74358954, 4366.41025669, 4127.43589716, 4163.58974339, 4158.07692287, 4138.33333313, 4173.33333320, 4136.15384595, 4010.76923029, 4160.76923056, 4089.74358940, 4149.10256390,12.0
4126.53846126, 4202.69230763, 4151.79487159, 4356.28205149, 4128.97435870, 4174.61538448, 4169.23076910, 4163.33333313, 4202.94871788, 4136.15384595, 3993.46153791, 4172.17948704, 4089.74358940, 4148.58974339,12.0
4119.10256383, 4203.07692301, 4148.97435877, 4356.53846175, 4128.46153819, 4184.35897422, 4175.89743576, 4173.97435884, 4204.23076917, 4136.15384595, 3989.99999945, 4178.84615371, 4088.84615350, 4144.99999980,12.0
4118.33333306, 4208.07692301, 4146.15384595, 4373.71794900, 4126.02564075, 4179.61538448, 4164.23076903, 4163.71794851, 4185.12820499, 4136.15384595, 4003.33333278, 4167.17948697, 4089.23076889, 4146.66666646,12.0
4124.99999973, 4203.97435891, 4137.05128185, 4353.20512842, 4126.79487152, 4159.61538441, 4139.10256390, 4134.10256383, 4167.56410236, 4136.15384595, 3987.17948663, 4128.46153819, 4092.17948684, 4146.41025621,12.0
4109.10256383, 4176.41025628, 4119.87179460, 4301.79487194, 4130.12820485, 4143.58974339, 4114.61538434, 4107.94871767, 4145.51282031, 4136.15384595, 3972.69230714, 4108.33333306, 4091.15384581, 4144.10256390,12.0
4118.58974332, 4178.58974345, 4130.12820485, 4295.89743597, 4133.58974332, 4159.99999980, 4126.66666639, 4128.71794844, 4149.10256390, 4136.15384595, 3995.64102509, 4141.53846133, 4089.10256376, 4143.58974339,12.0
4117.56410229, 4201.66666660, 4143.07692287, 4306.79487194, 4130.89743562, 4169.10256397, 4149.61538441, 4157.05128185, 4171.66666653, 4136.15384595, 4014.87179439, 4164.61538441, 4090.89743555, 4142.56410236,12.0
4113.58974332, 4185.38461525, 4125.38461511, 4285.89743597, 4130.76923050, 4140.76923056, 4121.28205101, 4125.12820485, 4152.43589723, 4136.15384595, 4007.43589695, 4130.12820485, 4093.97435863, 4143.07692287,12.0
4123.71794844, 4174.99999986, 4131.66666639, 4292.05128212, 4133.46153819, 4142.43589723, 4106.53846126, 4110.38461511, 4144.99999980, 4136.15384595, 4008.33333285, 4137.30769210, 4093.84615350, 4145.64102544,12.0
4113.58974332, 4219.23076917, 4169.35897422, 4331.02564117, 4130.64102537, 4182.17948704, 4153.84615364, 4161.41025621, 4193.97435884, 4136.15384595, 4027.05128157, 4196.41025628, 4095.38461504, 4144.87179467,12.0
4118.97435870, 4237.69230770, 4169.87179474, 4328.97435912, 4129.99999973, 4189.61538448, 4181.02564089, 4179.35897422, 4212.94871788, 4136.15384595, 4037.05128164, 4188.20512807, 4098.97435863, 4144.35897415,12.0
4121.15384588, 4199.61538448, 4137.17948697, 4286.02564110, 4131.15384588, 4163.84615364, 4154.35897415, 4146.02564082, 4178.33333320, 4136.15384595, 4021.53846106, 4135.51282031, 4094.10256376, 4145.64102544,12.0
4121.02564075, 4186.41025628, 4129.61538434, 4267.82051289, 4132.17948691, 4151.79487159, 4132.69230742, 4129.35897408, 4155.38461518, 4136.15384595, 4013.97435849, 4132.43589716, 4089.23076889, 4145.25641005,12.0
4129.23076896, 4199.35897422, 4136.02564082, 4284.10256418, 4132.05128178, 4159.74358954, 4145.38461518, 4133.71794844, 4152.17948697, 4136.15384595, 4015.12820465, 4145.25641005, 4092.56410222, 4144.10256390,12.0
4117.05128178, 4187.56410243, 4128.33333306, 4284.10256418, 4128.84615357, 4168.07692287, 4162.05128185, 4132.69230742, 4147.43589723, 4136.15384595, 3998.46153791, 4129.48717921, 4092.56410222, 4144.99999980,12.0
4125.38461511, 4175.38461525, 4122.94871767, 4257.43589744, 4131.28205101, 4154.35897415, 4142.56410236, 4114.61538434, 4132.69230742, 4136.15384595, 4004.74358926, 4112.56410229, 4091.66666632, 4146.15384595,12.0
4127.69230742, 4182.69230756, 4125.51282024, 4251.66666667, 4130.64102537, 4139.61538441, 4119.23076896, 4105.89743562, 4123.58974332, 4136.15384595, 4023.84615336, 4120.51282024, 4092.30769196, 4143.97435877,12.0
4119.87179460, 4193.58974345, 4139.48717928, 4283.58974366, 4126.66666639, 4162.43589723, 4142.56410236, 4140.51282031, 4156.66666646, 4136.15384595, 4016.02564054, 4151.02564082, 4092.94871761, 4146.02564082,12.0
4128.97435870, 4198.84615371, 4149.10256390, 4294.10256418, 4130.38461511, 4177.69230756, 4156.53846133, 4164.35897415, 4188.46153833, 4136.15384595, 4025.64102516, 4166.41025621, 4095.51282017, 4148.07692287,12.0
4114.10256383, 4187.69230756, 4131.41025614, 4273.07692315, 4131.41025614, 4158.71794851, 4139.74358954, 4146.92307672, 4172.05128192, 4136.15384595, 4045.76923036, 4141.41025621, 4093.71794837, 4143.46153826,12.0
4117.82051255, 4178.33333320, 4122.05128178, 4267.94871802, 4129.10256383, 4152.05128185, 4138.97435877, 4139.23076903, 4159.10256390, 4136.41025621, 4032.30769183, 4124.99999973, 4093.20512786, 4143.33333313,12.0
4124.10256383, 4187.30769217, 4133.20512793, 4268.84615392, 4127.94871767, 4155.25641005, 4139.48717928, 4141.28205108, 4163.84615364, 4137.17948697, 4010.76923029, 4137.17948697, 4095.51282017, 4146.79487159,12.0
4109.74358947, 4193.33333320, 4137.56410236, 4267.05128212, 4128.07692280, 4153.33333313, 4142.43589723, 4133.97435870, 4159.74358954, 4135.12820485, 4015.89743541, 4143.84615364, 4093.84615350, 4147.43589723,12.0
4118.58974332, 4179.23076910, 4129.74358947, 4260.76923077, 4131.66666639, 4152.30769210, 4150.38461518, 4127.94871767, 4147.43589723, 4136.92307672, 4027.82051234, 4133.07692280, 4094.35897402, 4146.02564082,12.0
4113.58974332, 4166.41025621, 4126.79487152, 4250.76923077, 4131.79487152, 4143.20512800, 4142.82051262, 4130.64102537, 4148.07692287, 4138.58974339, 4031.28205080, 4132.94871767, 4094.87179453, 4144.23076903,12.0
4115.64102537, 4193.97435884, 4146.15384595, 4262.56410257, 4129.99999973, 4146.15384595, 4144.87179467, 4144.23076903, 4164.35897415, 4128.46153819, 4032.30769183, 4154.61538441, 4093.20512786, 4145.12820492,12.0
4122.30769203, 4218.84615378, 4156.79487159, 4277.17948725, 4129.10256383, 4164.87179467, 4167.05128185, 4163.33333313, 4177.69230756, 4124.61538434, 4027.43589695, 4161.79487159, 4094.23076889, 4143.33333313,12.0
4109.35897408, 4192.17948704, 4142.56410236, 4264.87179488, 4128.97435870, 4156.79487159, 4161.53846133, 4162.17948697, 4168.84615371, 4128.84615357, 4026.92307644, 4149.61538441, 4095.76923043, 4140.51282031,12.0
4118.84615357, 4170.76923063, 4143.46153826, 4253.33333334, 4131.66666639, 4139.35897415, 4142.43589723, 4144.61538441, 4155.89743569, 4125.38461511, 4029.23076875, 4151.02564082, 4097.69230735, 4141.92307672,12.0
4116.53846126, 4180.38461525, 4150.38461518, 4258.71794872, 4129.87179460, 4152.56410236, 4153.58974339, 4148.71794851, 4162.56410236, 4125.51282024, 4032.17948670, 4160.25641005, 4095.64102530, 4142.82051262,12.0
4118.07692280, 4187.17948704, 4142.56410236, 4250.38461539, 4129.99999973, 4162.94871774, 4156.53846133, 4156.02564082, 4161.41025621, 4134.23076896, 4031.92307644, 4156.79487159, 4094.10256376, 4143.84615364,12.0
4126.79487152, 4177.17948704, 4138.58974339, 4234.48717949, 4132.56410229, 4144.99999980, 4136.92307672, 4141.92307672, 4150.64102544, 4135.76923056, 4027.30769183, 4151.02564082, 4097.56410222, 4145.76923056,12.0
4113.84615357, 4172.17948704, 4141.28205108, 4239.35897436, 4129.74358947, 4138.33333313, 4132.82051255, 4142.94871774, 4162.82051262, 4133.07692280, 4029.87179439, 4147.82051262, 4096.53846119, 4146.79487159,12.0
4125.51282024, 4190.12820499, 4142.82051262, 4251.66666667, 4130.64102537, 4158.33333313, 4157.17948697, 4164.99999980, 4185.12820499, 4136.28205108, 4031.28205080, 4144.74358954, 4095.12820478, 4147.05128185,12.0
4126.92307665, 4190.64102551, 4140.51282031, 4251.66666667, 4132.17948691, 4166.53846133, 4173.46153833, 4176.53846140, 4191.28205115, 4135.38461518, 4037.56410215, 4153.71794851, 4096.79487145, 4145.12820492,12.0
4119.99999973, 4182.17948704, 4146.79487159, 4249.35897436, 4131.02564075, 4157.43589723, 4167.94871774, 4181.66666653, 4193.33333320, 4134.74358947, 4049.61538420, 4173.20512807, 4098.20512786, 4145.89743569,12.0
4130.51282024, 4193.58974345, 4154.99999980, 4246.53846154, 4132.05128178, 4159.35897415, 4166.15384595, 4182.30769217, 4198.71794858, 4136.41025621, 4052.17948677, 4177.17948704, 4098.58974325, 4146.92307672,12.0
4119.48717921, 4190.12820499, 4139.10256390, 4236.66666667, 4131.02564075, 4155.25641005, 4152.69230749, 4154.23076903, 4175.12820499, 4135.25640998, 4043.07692266, 4152.56410236, 4093.97435863, 4145.25641005,12.0
4124.74358947, 4174.48717935, 4126.02564075, 4232.05128199, 4132.30769203, 4140.51282031, 4138.20512800, 4134.74358947, 4150.25641005, 4134.99999973, 4039.99999959, 4131.66666639, 4096.02564068, 4147.17948697,12.0
4122.94871767, 4176.02564089, 4136.53846133, 4233.46153840, 4132.30769203, 4150.12820492, 4162.05128185, 4167.43589723, 4170.25641012, 4134.48717921, 4038.07692266, 4140.76923056, 4101.28205094, 4148.71794851,12.0
4108.07692280, 4182.05128192, 4141.41025621, 4233.33333327, 4129.23076896, 4160.25641005, 4178.71794858, 4183.33333320, 4187.43589730, 4134.35897408, 4028.07692259, 4145.25641005, 4098.46153812, 4147.43589723,12.0
4120.25640998, 4179.87179474, 4136.92307672, 4235.64102564, 4130.76923050, 4149.48717928, 4158.07692287, 4157.17948697, 4176.79487166, 4134.61538434, 4029.23076875, 4137.43589723, 4096.02564068, 4146.02564082,12.0
4112.94871767, 4181.53846140, 4140.25641005, 4234.10256411, 4131.15384588, 4149.87179467, 4151.02564082, 4156.92307672, 4176.15384602, 4134.35897408, 4030.89743541, 4156.41025621, 4096.79487145, 4144.99999980,12.0
4116.28205101, 4188.33333320, 4142.43589723, 4223.97435891, 4131.02564075, 4160.64102544, 4161.41025621, 4168.20512807, 4172.69230756, 4134.48717921, 4025.12820465, 4164.48717928, 4099.48717914, 4144.99999980,12.0
4123.33333306, 4178.97435884, 4133.20512793, 4216.28205122, 4130.12820485, 4150.25641005, 4154.61538441, 4164.23076903, 4164.87179467, 4134.48717921, 4037.43589702, 4137.43589723, 4099.48717914, 4142.56410236,12.0
4109.10256383, 4172.43589730, 4138.07692287, 4224.23076917, 4127.56410229, 4137.17948697, 4151.02564082, 4169.35897422, 4177.94871781, 4134.48717921, 4058.58974318, 4147.56410236, 4096.15384581, 4141.28205108,12.0
4117.82051255, 4187.56410243, 4157.05128185, 4240.64102564, 4129.74358947, 4151.02564082, 4166.02564082, 4179.48717935, 4190.51282038, 4134.48717921, 4059.23076882, 4189.87179474, 4097.17948684, 4142.30769210,12.0
4115.64102537, 4188.97435884, 4151.53846133, 4239.74358975, 4132.05128178, 4155.64102544, 4164.87179467, 4172.05128192, 4177.30769217, 4134.48717921, 4048.33333292, 4182.30769217, 4097.43589709, 4141.28205108,12.0
4118.46153819, 4178.46153833, 4144.48717928, 4230.12820506, 4133.97435870, 4144.87179467, 4156.15384595, 4169.74358961, 4168.58974345, 4134.48717921, 4051.79487138, 4158.71794851, 4097.94871761, 4143.58974339,12.0
4122.82051255, 4181.28205115, 4157.69230749, 4238.58974359, 4132.05128178, 4150.76923056, 4164.35897415, 4189.99999986, 4186.02564089, 4134.48717921, 4053.07692266, 4179.48717935, 4099.10256376, 4143.97435877,12.0
4112.56410229, 4186.66666653, 4156.66666646, 4245.38461539, 4128.33333306, 4167.56410236, 4175.38461525, 4198.20512807, 4200.51282038, 4134.48717921, 4048.07692266, 4188.71794858, 4097.94871761, 4142.56410236,12.0
4125.38461511, 4192.43589730, 4149.61538441, 4226.66666660, 4132.30769203, 4174.74358961, 4180.38461525, 4181.79487166, 4196.02564089, 4134.48717921, 4054.35897395, 4167.56410236, 4101.02564068, 4142.30769210,12.0
4121.92307665, 4188.58974345, 4150.25641005, 4216.79487173, 4133.84615357, 4162.30769210, 4176.02564089, 4167.30769210, 4186.28205115, 4134.48717921, 4066.41025600, 4165.12820492, 4102.17948684, 4142.69230749,12.0
4122.05128178, 4173.84615371, 4149.10256390, 4222.17948711, 4130.64102537, 4155.12820492, 4170.12820499, 4169.10256397, 4180.89743576, 4134.48717921, 4069.35897395, 4173.97435884, 4100.76923043, 4144.61538441,12.0
4131.28205101, 4166.53846133, 4144.87179467, 4215.64102558, 4130.12820485, 4160.25641005, 4174.23076910, 4175.89743576, 4181.02564089, 4134.48717921, 4051.02564061, 4166.79487159, 4102.17948684, 4145.25641005,12.0
4119.99999973, 4173.97435884, 4143.20512800, 4209.61538455, 4130.89743562, 4156.79487159, 4176.66666653, 4173.71794858, 4176.66666653, 4134.48717921, 4041.28205087, 4155.89743569, 4100.89743555, 4145.89743569,12.0
4128.58974332, 4176.66666653, 4144.10256390, 4209.48717942, 4133.20512793, 4148.84615364, 4168.71794858, 4165.51282031, 4162.69230749, 4134.48717921, 4057.56410215, 4153.07692287, 4100.38461504, 4147.56410236,12.0
4123.71794844, 4165.25641005, 4143.46153826, 4211.92307686, 4131.66666639, 4154.23076903, 4167.17948697, 4163.84615364, 4157.56410236, 4134.48717921, 4060.51282010, 4161.92307672, 4102.43589709, 4145.89743569,12.0
4119.10256383, 4170.89743576, 4149.61538441, 4214.99999993, 4130.89743562, 4153.97435877, 4165.51282031, 4162.17948697, 4162.43589723, 4134.48717921, 4054.99999959, 4174.10256397, 4103.58974332, 4144.87179467,12.0
4127.82051255, 4168.33333320, 4144.35897415, 4202.30769224, 4133.33333306, 4139.61538441, 4148.33333313, 4155.25641005, 4154.35897415, 4134.48717921, 4063.20512779, 4163.84615364, 4100.76923043, 4146.28205108,12.0
4112.30769203, 4151.41025621, 4128.07692280, 4186.92307679, 4131.53846126, 4143.46153826, 4147.30769210, 4160.38461518, 4148.84615364, 4134.48717921, 4066.92307651, 4143.97435877, 4098.97435863, 4147.30769210,12.0
4120.25640998, 4163.33333313, 4130.76923050, 4191.79487166, 4130.64102537, 4159.87179467, 4170.25641012, 4174.87179474, 4163.07692287, 4134.48717921, 4061.92307651, 4141.41025621, 4102.69230742, 4146.53846133,12.0
4118.71794844, 4165.89743569, 4130.38461511, 4194.35897422, 4131.66666639, 4150.76923056, 4166.41025621, 4167.94871774, 4162.82051262, 4134.48717921, 4059.99999959, 4136.79487159, 4101.28205094, 4144.48717928,12.0
4106.41025614, 4150.89743569, 4125.51282024, 4187.30769217, 4133.20512793, 4140.64102544, 4150.25641005, 4150.12820492, 4147.30769210, 4134.48717921, 4055.51282010, 4136.02564082, 4100.76923043, 4141.66666646,12.0
4121.41025614, 4161.66666646, 4137.17948697, 4191.79487166, 4133.71794844, 4158.71794851, 4171.28205115, 4160.25641005, 4158.84615364, 4134.48717921, 4058.84615343, 4151.79487159, 4104.74358947, 4141.02564082,12.0
4114.74358947, 4176.28205115, 4144.23076903, 4200.64102551, 4130.12820485, 4168.20512807, 4186.53846140, 4181.41025628, 4177.30769217, 4134.48717921, 4069.10256369, 4158.84615364, 4100.12820478, 4145.25641005,12.0
4117.43589716, 4172.82051269, 4145.12820492, 4212.82051275, 4130.76923050, 4159.10256390, 4167.94871774, 4181.79487166, 4175.76923063, 4134.48717921, 4077.82051248, 4163.46153826, 4098.07692273, 4146.02564082,12.0
4121.92307665, 4171.02564089, 4149.35897415, 4217.82051275, 4131.53846126, 4162.30769210, 4171.28205115, 4178.20512807, 4183.20512807, 4134.48717921, 4087.56410222, 4172.94871781, 4101.41025607, 4139.35897415,12.0
4115.38461511, 4171.02564089, 4147.30769210, 4209.61538455, 4129.61538434, 4166.15384595, 4187.05128192, 4180.25641012, 4192.56410243, 4134.48717921, 4085.38461504, 4164.74358954, 4102.05128171, 4142.56410236,12.0
4126.66666639, 4173.07692294, 4146.79487159, 4211.02564096, 4132.30769203, 4161.28205108, 4176.79487166, 4174.61538448, 4186.28205115, 4134.48717921, 4084.61538427, 4158.84615364, 4102.56410229, 4148.71794851,12.0
4118.33333306, 4183.33333320, 4155.12820492, 4216.28205122, 4131.66666639, 4165.38461518, 4170.64102551, 4173.33333320, 4182.69230756, 4134.48717921, 4094.35897402, 4172.43589730, 4103.20512793, 4144.10256390,12.0
4122.56410229, 4176.53846140, 4151.41025621, 4203.07692301, 4131.41025614, 4162.05128185, 4161.53846133, 4158.20512800, 4163.84615364, 4134.48717921, 4092.69230735, 4165.25641005, 4106.02564075, 4141.92307672,12.0
4128.71794844, 4152.94871774, 4133.20512793, 4183.97435884, 4131.92307665, 4145.12820492, 4145.64102544, 4137.43589723, 4134.35897408, 4134.48717921, 4079.99999966, 4144.74358954, 4105.76923050, 4145.38461518,12.0
4114.99999973, 4152.82051262, 4130.64102537, 4184.48717935, 4128.71794844, 4153.84615364, 4163.20512800, 4168.20512807, 4156.02564082, 4134.48717921, 4074.74358940, 4149.23076903, 4101.41025607, 4149.23076903,12.0
4127.82051255, 4175.51282038, 4143.84615364, 4195.76923063, 4130.12820485, 4167.94871774, 4174.48717935, 4194.48717935, 4184.87179474, 4134.48717921, 4080.38461504, 4156.79487159, 4102.30769196, 4149.87179467,12.0
4124.61538434, 4174.48717935, 4140.38461518, 4190.64102551, 4131.53846126, 4152.17948697, 4153.71794851, 4166.28205108, 4163.58974339, 4134.48717921, 4090.51282017, 4154.61538441, 4103.71794844, 4147.17948697,12.0
4121.41025614, 4154.23076903, 4128.84615357, 4173.71794858, 4131.15384588, 4139.74358954, 4149.35897415, 4148.33333313, 4145.38461518, 4134.48717921, 4101.79487145, 4151.66666646, 4104.35897408, 4148.58974339,12.0
4126.79487152, 4152.82051262, 4125.51282024, 4173.46153833, 4131.15384588, 4149.48717928, 4158.71794851, 4161.15384595, 4154.99999980, 4134.74358947, 4097.94871761, 4146.15384595, 4105.25640998, 4149.74358954,12.0
4111.79487152, 4168.46153833, 4127.30769203, 4182.82051269, 4130.51282024, 4158.84615364, 4159.23076903, 4170.25641012, 4168.84615371, 4134.61538434, 4093.07692273, 4150.51282031, 4101.79487145, 4146.53846133,12.0
4119.35897408, 4167.94871774, 4134.48717921, 4178.46153833, 4131.28205101, 4157.30769210, 4160.76923056, 4169.48717935, 4172.43589730, 4134.23076896, 4097.17948684, 4162.56410236, 4102.17948684, 4145.38461518,12.0
4115.64102537, 4159.10256390, 4138.07692287, 4180.64102551, 4131.28205101, 4158.07692287, 4172.05128192, 4175.51282038, 4168.97435884, 4134.99999973, 4096.53846119, 4166.28205108, 4105.51282024, 4144.87179467,12.0
4113.84615357, 4161.53846133, 4131.66666639, 4180.64102551, 4131.92307665, 4160.38461518, 4170.89743576, 4174.10256397, 4161.15384595, 4134.10256383, 4098.20512786, 4149.74358954, 4103.07692280, 4142.56410236,12.0
4123.58974332, 4156.28205108, 4122.43589716, 4160.38461518, 4129.87179460, 4156.41025621, 4154.61538441, 4157.43589723, 4152.56410236, 4131.92307665, 4108.33333306, 4134.87179460, 4101.53846119, 4143.20512800,12.0
4107.82051255, 4159.74358954, 4124.48717921, 4156.79487159, 4126.15384588, 4152.43589723, 4158.71794851, 4160.76923056, 4156.02564082, 4129.61538434, 4117.30769203, 4154.23076903, 4101.15384581, 4146.02564082,12.0
4115.89743562, 4170.25641012, 4128.33333306, 4171.15384602, 4131.28205101, 4147.05128185, 4162.82051262, 4172.82051269, 4164.87179467, 4129.99999973, 4110.76923050, 4162.43589723, 4102.43589709, 4146.02564082,12.0
4117.30769203, 4146.15384595, 4111.79487152, 4163.58974339, 4133.46153819, 4131.02564075, 4132.43589716, 4161.53846133, 4162.30769210, 4133.58974332, 4100.25640991, 4126.92307665, 4105.76923050, 4141.53846133,12.0
4111.15384588, 4135.89743569, 4107.43589716, 4145.51282031, 4131.28205101, 4124.48717921, 4118.46153819, 4149.23076903, 4152.94871774, 4133.46153819, 4108.71794844, 4118.84615357, 4107.17948691, 4143.33333313,12.0
4123.71794844, 4159.99999980, 4127.94871767, 4146.53846133, 4132.43589716, 4141.53846133, 4150.38461518, 4160.89743569, 4159.99999980, 4133.07692280, 4123.84615357, 4152.30769210, 4107.30769203, 4146.15384595,12.0
4114.61538434, 4157.05128185, 4126.28205101, 4149.99999980, 4130.12820485, 4152.05128185, 4165.64102544, 4169.74358961, 4167.43589723, 4132.82051255, 4126.02564075, 4154.23076903, 4106.15384588, 4143.20512800,12.0
4122.94871767, 4147.82051262, 4112.69230742, 4146.28205108, 4131.15384588, 4152.43589723, 4155.76923056, 4168.97435884, 4158.97435877, 4130.25640998, 4123.58974332, 4130.89743562, 4107.56410229, 4144.74358954,12.0
4127.30769203, 4156.41025621, 4117.56410229, 4152.82051262, 4134.10256383, 4154.23076903, 4158.58974339, 4170.25641012, 4160.12820492, 4129.74358947, 4129.35897408, 4136.28205108, 4106.66666639, 4146.79487159,12.0
4116.02564075, 4148.58974339, 4121.53846126, 4158.46153826, 4132.69230742, 4152.94871774, 4159.87179467, 4158.46153826, 4162.43589723, 4133.84615357, 4132.30769203, 4147.69230749, 4105.76923050, 4143.84615364,12.0
4126.66666639, 4148.20512800, 4126.53846126, 4153.97435877, 4132.94871767, 4164.48717928, 4179.99999986, 4180.25641012, 4180.89743576, 4137.69230749, 4136.41025621, 4155.38461518, 4110.76923050, 4143.58974339,12.0
4119.87179460, 4159.23076903, 4128.20512793, 4142.30769210, 4132.17948691, 4166.28205108, 4196.28205115, 4214.99999993, 4201.28205122, 4130.25640998, 4139.87179467, 4160.12820492, 4108.58974332, 4146.28205108,12.0
4123.20512793, 4148.46153826, 4114.23076896, 4129.23076896, 4131.66666639, 4136.53846133, 4153.46153826, 4176.66666653, 4173.84615371, 4122.30769203, 4131.15384588, 4143.07692287, 4105.25640998, 4146.41025621,12.0
4125.25640998, 4125.76923050, 4098.20512786, 4127.56410229, 4129.74358947, 4118.07692280, 4114.10256383, 4130.89743562, 4143.58974339, 4128.84615357, 4124.87179460, 4127.05128178, 4108.20512793, 4145.25641005,12.0
4109.87179460, 4131.53846126, 4106.15384588, 4139.48717928, 4129.48717921, 4140.12820492, 4143.07692287, 4155.64102544, 4161.53846133, 4135.89743569, 4138.07692287, 4142.69230749, 4108.58974332, 4147.17948697,12.0
4122.94871767, 4156.41025621, 4130.51282024, 4151.02564082, 4132.69230742, 4160.76923056, 4181.79487166, 4182.94871781, 4178.71794858, 4131.41025614, 4157.56410236, 4170.38461525, 4108.20512793, 4148.46153826,12.0
4115.89743562, 4156.92307672, 4130.51282024, 4151.02564082, 4129.61538434, 4155.38461518, 4183.58974345, 4175.64102551, 4172.30769217, 4129.74358947, 4157.56410236, 4173.71794858, 4106.53846126, 4146.41025621,12.0
4111.66666639, 4145.89743569, 4119.99999973, 4145.64102544, 4129.35897408, 4151.15384595, 4175.89743576, 4178.33333320, 4175.89743576, 4135.89743569, 4149.87179467, 4160.38461518, 4106.15384588, 4145.76923056,12.0
4119.61538434, 4141.92307672, 4119.23076896, 4135.51282031, 4133.07692280, 4148.84615364, 4170.38461525, 4179.74358961, 4176.92307679, 4136.79487159, 4159.23076903, 4151.92307672, 4107.82051255, 4145.76923056,12.0
4105.64102537, 4143.07692287, 4119.35897408, 4136.28205108, 4130.64102537, 4145.76923056, 4167.69230749, 4168.20512807, 4169.48717935, 4133.58974332, 4168.97435884, 4152.05128185, 4104.87179460, 4145.76923056,12.0
4115.25640998, 4151.15384595, 4126.53846126, 4152.43589723, 4131.15384588, 4155.38461518, 4170.25641012, 4177.05128192, 4178.97435884, 4132.94871767, 4157.43589723, 4163.20512800, 4106.28205101, 4145.51282031,12.0
4115.76923050, 4151.79487159, 4130.38461511, 4151.53846133, 4130.76923050, 4158.33333313, 4172.17948704, 4202.17948711, 4195.25641012, 4133.46153819, 4158.71794851, 4174.74358961, 4110.38461511, 4141.92307672,12.0
4114.87179460, 4142.69230749, 4120.25640998, 4133.33333306, 4127.56410229, 4140.64102544, 4163.07692287, 4196.15384602, 4191.28205115, 4134.23076896, 4177.05128192, 4162.82051262, 4108.97435870, 4141.53846133,12.0
4124.10256383, 4137.17948697, 4113.07692280, 4130.38461511, 4128.84615357, 4131.02564075, 4148.46153826, 4165.64102544, 4170.64102551, 4136.28205108, 4165.51282031, 4144.48717928, 4108.07692280, 4142.56410236,12.0
4107.69230742, 4145.64102544, 4125.12820485, 4146.79487159, 4130.12820485, 4147.82051262, 4157.56410236, 4165.51282031, 4166.53846133, 4136.02564082, 4148.71794851, 4160.12820492, 4108.20512793, 4143.33333313,12.0
4115.12820485, 4155.25641005, 4132.05128178, 4150.89743569, 4131.79487152, 4154.61538441, 4170.25641012, 4170.38461525, 4164.61538441, 4131.41025614, 4163.58974339, 4170.51282038, 4109.35897408, 4146.92307672,12.0
4121.15384588, 4150.38461518, 4119.74358947, 4140.51282031, 4131.66666639, 4144.35897415, 4170.12820499, 4169.10256397, 4161.28205108, 4130.12820485, 4166.28205108, 4159.61538441, 4108.33333306, 4146.15384595,12.0
4116.15384588, 4149.99999980, 4125.38461511, 4144.48717928, 4131.15384588, 4150.76923056, 4180.25641012, 4191.79487166, 4183.71794858, 4132.56410229, 4150.38461518, 4172.82051269, 4108.07692280, 4144.35897415,12.0
4124.87179460, 4153.20512800, 4137.56410236, 4151.66666646, 4131.79487152, 4156.41025621, 4185.76923063, 4198.97435884, 4192.82051269, 4130.76923050, 4152.82051262, 4182.17948704, 4110.51282024, 4145.64102544,12.0
4116.92307665, 4148.58974339, 4121.15384588, 4138.71794851, 4128.46153819, 4143.97435877, 4168.46153833, 4173.58974345, 4164.99999980, 4127.43589716, 4158.58974339, 4156.92307672, 4108.46153819, 4146.53846133,12.0
4125.38461511, 4154.99999980, 4115.25640998, 4132.17948691, 4131.02564075, 4144.23076903, 4167.94871774, 4169.48717935, 4158.84615364, 4129.10256383, 4155.76923056, 4146.02564082, 4109.35897408, 4144.61538441,12.0
4123.97435870, 4147.94871774, 4124.61538434, 4137.69230749, 4132.17948691, 4148.46153826, 4178.46153833, 4184.87179474, 4178.46153833, 4132.17948691, 4150.25641005, 4160.64102544, 4110.51282024, 4142.30769210,12.0
4114.10256383, 4129.23076896, 4117.82051255, 4134.10256383, 4128.20512793, 4130.51282024, 4153.33333313, 4173.33333320, 4167.94871774, 4131.28205101, 4139.99999980, 4156.28205108, 4109.10256383, 4146.28205108,12.0
4131.02564075, 4139.74358954, 4110.25640998, 4137.30769210, 4130.12820485, 4123.97435870, 4135.25640998, 4163.07692287, 4154.87179467, 4131.28205101, 4143.07692287, 4151.15384595, 4113.97435870, 4146.02564082,12.0
4117.05128178, 4140.25641005, 4104.99999973, 4136.41025621, 4129.61538434, 4129.23076896, 4145.38461518, 4177.82051269, 4165.51282031, 4133.71794844, 4149.35897415, 4149.99999980, 4117.17948691, 4141.79487159,12.0
4115.38461511, 4133.97435870, 4110.89743562, 4127.69230742, 4128.07692280, 4131.66666639, 4162.30769210, 4188.46153833, 4175.25641012, 4134.35897408, 4150.51282031, 4149.10256390, 4116.41025614, 4146.41025621,12.0
4124.23076896, 4149.35897415, 4124.74358947, 4139.74358954, 4129.61538434, 4146.66666646, 4180.25641012, 4186.79487166, 4186.02564089, 4134.35897408, 4164.10256390, 4171.02564089, 4115.12820485, 4149.48717928,12.0
4111.92307665, 4154.10256390, 4125.89743562, 4156.28205108, 4129.61538434, 4154.99999980, 4182.56410243, 4182.69230756, 4191.28205115, 4131.28205101, 4177.30769217, 4186.02564089, 4115.25640998, 4146.53846133,12.0
4122.05128178, 4143.71794851, 4123.33333306, 4151.41025621, 4130.64102537, 4144.87179467, 4168.58974345, 4177.82051269, 4177.82051269, 4125.25640998, 4168.33333320, 4171.53846140, 4117.30769203, 4145.12820492,12.0
4112.69230742, 4145.64102544, 4124.61538434, 4148.71794851, 4129.35897408, 4146.15384595, 4165.76923056, 4181.15384602, 4172.82051269, 4126.28205101, 4164.35897415, 4167.05128185, 4114.35897408, 4144.35897415,12.0
4112.94871767, 4162.43589723, 4135.89743569, 4156.53846133, 4130.12820485, 4155.25641005, 4177.56410243, 4193.97435884, 4192.43589730, 4133.58974332, 4179.23076910, 4189.99999986, 4113.71794844, 4145.25641005,12.0
4126.79487152, 4158.84615364, 4138.84615364, 4147.82051262, 4131.92307665, 4142.94871774, 4175.12820499, 4188.71794858, 4193.58974345, 4134.10256383, 4183.07692294, 4192.94871781, 4113.33333306, 4145.25641005,12.0
4114.74358947, 4141.15384595, 4124.48717921, 4135.89743569, 4127.56410229, 4138.33333313, 4166.66666646, 4174.23076910, 4174.10256397, 4132.43589716, 4174.61538448, 4167.56410236, 4110.76923050, 4143.46153826,12.0
4120.76923050, 4139.61538441, 4119.35897408, 4133.84615357, 4127.30769203, 4145.25641005, 4158.20512800, 4173.33333320, 4171.41025628, 4135.12820485, 4173.58974345, 4157.17948697, 4114.99999973, 4142.69230749,12.0
4116.92307665, 4137.82051262, 4121.41025614, 4128.20512793, 4129.99999973, 4123.33333306, 4136.53846133, 4170.89743576, 4171.66666653, 4134.87179460, 4171.02564089, 4159.35897415, 4116.28205101, 4143.33333313,12.0
4118.97435870, 4146.02564082, 4130.12820485, 4132.82051255, 4131.02564075, 4118.33333306, 4142.17948697, 4180.51282038, 4179.10256397, 4134.35897408, 4167.30769210, 4171.53846140, 4114.10256383, 4144.61538441,12.0
4129.99999973, 4162.05128185, 4138.71794851, 4141.53846133, 4130.51282024, 4142.69230749, 4167.82051262, 4196.28205115, 4194.23076910, 4136.15384595, 4172.94871781, 4183.71794858, 4116.15384588, 4144.35897415,12.0
4117.05128178, 4155.25641005, 4130.51282024, 4137.43589723, 4127.94871767, 4134.35897408, 4159.61538441, 4182.69230756, 4181.66666653, 4132.94871767, 4178.71794858, 4172.94871781, 4116.66666639, 4144.35897415,12.0
4125.12820485, 4141.15384595, 4120.25640998, 4130.89743562, 4129.74358947, 4113.58974332, 4139.87179467, 4159.99999980, 4155.25641005, 4132.56410229, 4177.69230756, 4154.23076903, 4116.79487152, 4142.69230749,12.0
4124.35897408, 4140.38461518, 4119.10256383, 4132.30769203, 4130.12820485, 4127.30769203, 4150.89743569, 4167.05128185, 4161.02564082, 4135.89743569, 4172.94871781, 4153.58974339, 4117.43589716, 4142.05128185,12.0
4120.64102537, 4143.46153826, 4121.02564075, 4135.25640998, 4129.48717921, 4140.25641005, 4165.51282031, 4178.07692294, 4174.48717935, 4129.35897408, 4164.87179467, 4159.48717928, 4117.56410229, 4147.82051262,12.0
4129.87179460, 4137.82051262, 4116.79487152, 4120.51282024, 4130.38461511, 4127.43589716, 4152.43589723, 4155.76923056, 4151.53846133, 4122.94871767, 4159.35897415, 4151.41025621, 4118.58974332, 4149.48717928,12.0
4114.74358947, 4129.48717921, 4111.28205101, 4105.76923050, 4127.43589716, 4115.51282024, 4128.84615357, 4127.17948691, 4126.15384588, 4130.12820485, 4168.07692287, 4145.38461518, 4118.84615357, 4146.41025621,12.0
4120.76923050, 4128.07692280, 4114.74358947, 4112.94871767, 4128.33333306, 4111.02564075, 4118.84615357, 4125.64102537, 4133.07692280, 4136.79487159, 4173.20512807, 4145.51282031, 4117.82051255, 4145.12820492,12.0
4121.15384588, 4132.30769203, 4114.99999973, 4125.25640998, 4129.10256383, 4115.64102537, 4137.30769210, 4152.69230749, 4153.33333313, 4134.23076896, 4165.38461518, 4145.64102544, 4115.76923050, 4144.48717928,12.0
4108.84615357, 4150.64102544, 4123.58974332, 4134.87179460, 4126.28205101, 4136.41025621, 4165.12820492, 4185.12820499, 4176.28205115, 4126.28205101, 4176.66666653, 4168.84615371, 4116.79487152, 4146.66666646,12.0
4121.28205101, 4167.17948697, 4143.07692287, 4147.43589723, 4128.58974332, 4149.23076903, 4172.82051269, 4204.23076917, 4205.38461532, 4124.23076896, 4201.02564096, 4200.64102551, 4118.33333306, 4147.69230749,12.0
4113.33333306, 4156.02564082, 4142.56410236, 4151.41025621, 4131.02564075, 4142.94871774, 4174.99999986, 4207.17948711, 4218.58974352, 4130.12820485, 4204.10256404, 4203.46153840, 4114.74358947, 4143.84615364,12.0
4118.58974332, 4141.15384595, 4129.74358947, 4139.87179467, 4132.05128178, 4137.82051262, 4172.94871781, 4190.76923063, 4198.58974345, 4134.48717921, 4190.38461525, 4183.84615371, 4116.79487152, 4143.46153826,12.0
4122.30769203, 4140.38461518, 4127.69230742, 4132.56410229, 4129.10256383, 4138.84615364, 4166.28205108, 4179.74358961, 4180.64102551, 4131.53846126, 4182.43589730, 4172.69230756, 4119.74358947, 4145.12820492,12.0
4107.82051255, 4153.97435877, 4136.79487159, 4136.02564082, 4126.79487152, 4144.48717928, 4179.35897422, 4187.69230756, 4187.82051269, 4132.94871767, 4188.33333320, 4178.20512807, 4117.30769203, 4144.10256390,12.0
4122.30769203, 4166.92307672, 4139.10256390, 4133.97435870, 4129.61538434, 4145.25641005, 4181.02564089, 4177.17948704, 4176.66666653, 4137.17948697, 4191.53846140, 4178.71794858, 4118.07692280, 4141.66666646,12.0
4117.30769203, 4150.25641005, 4125.12820485, 4122.17948691, 4127.05128178, 4123.84615357, 4139.10256390, 4142.94871774, 4142.56410236, 4135.12820485, 4184.23076910, 4164.87179467, 4117.56410229, 4141.41025621,12.0
4114.48717921, 4132.94871767, 4120.12820485, 4117.69230742, 4128.84615357, 4106.15384588, 4114.10256383, 4134.61538434, 4138.20512800, 4134.74358947, 4183.07692294, 4155.76923056, 4117.56410229, 4145.25641005,12.0
4123.33333306, 4141.28205108, 4126.28205101, 4127.30769203, 4133.07692280, 4119.23076896, 4141.66666646, 4163.71794851, 4164.74358954, 4134.87179460, 4187.82051269, 4165.64102544, 4117.69230742, 4146.28205108,12.0
4118.20512793, 4150.64102544, 4124.48717921, 4129.48717921, 4129.35897408, 4132.43589716, 4162.17948697, 4180.51282038, 4173.84615371, 4134.61538434, 4185.89743576, 4171.79487166, 4116.41025614, 4144.61538441,12.0
4128.84615357, 4149.23076903, 4124.74358947, 4121.66666639, 4128.58974332, 4126.79487152, 4156.02564082, 4168.07692287, 4162.82051262, 4135.38461518, 4188.58974345, 4164.23076903, 4119.74358947, 4146.79487159,12.0
4122.17948691, 4147.82051262, 4131.53846126, 4118.97435870, 4128.46153819, 4126.79487152, 4163.20512800, 4160.12820492, 4162.43589723, 4134.48717921, 4199.74358961, 4172.05128192, 4120.64102537, 4146.79487159,12.0
4122.17948691, 4148.46153826, 4132.30769203, 4111.28205101, 4127.17948691, 4138.33333313, 4178.58974345, 4168.71794858, 4164.99999980, 4135.38461518, 4200.25641012, 4178.46153833, 4119.74358947, 4144.35897415,12.0
4131.79487152, 4134.10256383, 4118.33333306, 4096.15384581, 4127.17948691, 4129.23076896, 4160.38461518, 4165.76923056, 4154.61538441, 4135.64102544, 4189.99999986, 4155.25641005, 4119.87179460, 4143.71794851,12.0
