AF3,F7,F3,FC5,T7,P7,O1,O2,P8,T8,FC6,F4,F8,AF4,Label
4120.38461511, 4115.38461511, 4127.05128178, 3644.87179362, 4117.82051255, 4129.87179460, 4133.84615357, 4156.53846133, 4185.64102551, 4124.87179460, 4130.25640998, 4171.28205115, 4145.38461518, 4134.23076896,12.0
4119.87179460, 4113.97435870, 4123.84615357, 3636.92307561, 4120.12820485, 4104.87179460, 4108.33333306, 4133.97435870, 4158.07692287, 4126.53846126, 4118.46153819, 4147.69230749, 4138.71794851, 4137.05128185,12.0
4124.74358947, 4114.35897408, 4123.84615357, 3636.92307561, 4118.20512793, 4109.74358947, 4104.61538434, 4131.92307665, 4159.23076903, 4123.33333306, 4112.94871767, 4139.48717928, 4138.07692287, 4137.56410236,12.0
4118.33333306, 4109.61538434, 4116.92307665, 3642.05128073, 4116.02564075, 4122.43589716, 4112.05128178, 4144.61538441, 4177.17948704, 4122.17948691, 4111.79487152, 4138.20512800, 4139.10256390, 4136.79487159,12.0
4123.46153819, 4110.12820485, 4120.89743562, 3636.15384484, 4117.94871767, 4118.58974332, 4106.02564075, 4140.38461518, 4163.71794851, 4125.51282024, 4112.05128178, 4129.35897408, 4137.69230749, 4138.46153826,12.0
4119.35897408, 4107.56410229, 4121.02564075, 3634.35897304, 4118.20512793, 4112.05128178, 4102.82051255, 4136.92307672, 4152.30769210, 4126.15384588, 4115.38461511, 4122.56410229, 4134.61538434, 4134.61538434,12.0
4113.07692280, 4105.51282024, 4116.92307665, 3648.58974234, 4116.15384588, 4110.38461511, 4106.41025614, 4139.99999980, 4159.23076903, 4124.61538434, 4116.53846126, 4122.69230742, 4137.05128185, 4137.94871774,12.0
4120.89743562, 4108.46153819, 4120.25640998, 3659.99999875, 4118.71794844, 4112.17948691, 4105.64102537, 4133.58974332, 4153.84615364, 4122.69230742, 4111.66666639, 4123.07692280, 4137.94871774, 4142.05128185,12.0
4115.51282024, 4102.94871767, 4117.69230742, 3662.94871670, 4118.71794844, 4118.07692280, 4110.76923050, 4131.79487152, 4144.87179467, 4121.79487152, 4110.38461511, 4122.94871767, 4134.99999973, 4137.56410236,12.0
4114.99999973, 4106.15384588, 4120.25640998, 3666.66666542, 4119.48717921, 4116.02564075, 4108.20512793, 4130.25640998, 4137.94871774, 4123.84615357, 4114.48717921, 4119.10256383, 4136.79487159, 4137.17948697,12.0
4115.89743562, 4110.25640998, 4120.76923050, 3670.51281927, 4122.43589716, 4109.61538434, 4096.79487145, 4124.87179460, 4132.30769203, 4124.74358947, 4112.43589716, 4112.82051255, 4134.48717921, 4137.56410236,12.0
4114.74358947, 4106.53846126, 4119.10256383, 3667.82051157, 4118.46153819, 4106.15384588, 4084.35897402, 4123.33333306, 4135.64102544, 4124.23076896, 4104.74358947, 4107.56410229, 4132.17948691, 4139.10256390,12.0
4120.76923050, 4106.79487152, 4125.89743562, 3665.64102439, 4115.12820485, 4104.10256383, 4077.82051248, 4125.38461511, 4141.66666646, 4123.20512793, 4101.79487145, 4102.94871767, 4137.30769210, 4134.99999973,12.0
4116.41025614, 4103.58974332, 4124.87179460, 3676.79487062, 4118.46153819, 4103.07692280, 4084.48717914, 4131.02564075, 4142.56410236, 4121.28205101, 4105.25640998, 4104.61538434, 4137.69230749, 4129.99999973,12.0
4120.12820485, 4103.33333306, 4126.02564075, 3689.48717831, 4118.46153819, 4107.30769203, 4091.02564068, 4131.66666639, 4145.51282031, 4122.56410229, 4111.92307665, 4106.79487152, 4135.64102544, 4138.84615364,12.0
4121.53846126, 4099.48717914, 4123.46153819, 3679.23076805, 4113.71794844, 4111.79487152, 4091.53846119, 4126.02564075, 4144.74358954, 4126.53846126, 4110.25640998, 4097.43589709, 4135.51282031, 4137.43589723,12.0
4121.02564075, 4096.02564068, 4118.20512793, 3674.61538337, 4115.64102537, 4106.41025614, 4093.46153812, 4124.99999973, 4133.07692280, 4125.51282024, 4104.99999973, 4096.41025607, 4135.51282031, 4131.53846126,12.0
4126.28205101, 4096.92307658, 4120.89743562, 3685.76922959, 4119.61538434, 4093.20512786, 4086.28205094, 4121.92307665, 4114.61538434, 4124.10256383, 4100.76923043, 4098.71794837, 4134.61538434, 4136.79487159,12.0
4117.05128178, 4085.12820478, 4115.12820485, 3684.87179369, 4114.61538434, 4094.74358940, 4080.76923043, 4116.53846126, 4110.38461511, 4124.61538434, 4096.92307658, 4088.20512786, 4131.53846126, 4136.15384595,12.0
4121.53846126, 4082.43589709, 4116.41025614, 3691.15384498, 4110.89743562, 4114.61538434, 4090.12820478, 4116.41025614, 4123.07692280, 4125.25640998, 4103.58974332, 4093.84615350, 4134.99999973, 4136.92307672,12.0
4126.41025614, 4082.82051248, 4118.58974332, 3699.48717831, 4114.61538434, 4105.76923050, 4081.28205094, 4115.89743562, 4116.41025614, 4128.33333306, 4104.74358947, 4100.64102530, 4137.43589723, 4138.33333313,12.0
4116.92307665, 4073.97435863, 4114.35897408, 3694.61538344, 4115.76923050, 4078.46153812, 4062.56410215, 4111.02564075, 4098.33333299, 4127.69230742, 4095.51282017, 4084.48717914, 4132.17948691, 4136.53846133,12.0
4116.92307665, 4071.92307658, 4116.41025614, 3706.53846036, 4108.58974332, 4088.97435863, 4075.51282017, 4114.74358947, 4110.12820485, 4124.99999973, 4100.76923043, 4084.23076889, 4133.97435870, 4138.20512800,12.0
4114.48717921, 4067.56410215, 4113.07692280, 3724.61538351, 4108.46153819, 4105.51282024, 4086.41025607, 4126.28205101, 4126.92307665, 4124.23076896, 4108.20512793, 4093.97435863, 4136.15384595, 4136.66666646,12.0
4118.20512793, 4068.84615343, 4114.23076896, 3717.94871684, 4115.51282024, 4092.30769196, 4074.48717914, 4127.82051255, 4126.02564075, 4124.23076896, 4104.61538434, 4087.17948684, 4134.23076896, 4137.56410236,12.0
4118.58974332, 4069.48717907, 4115.25640998, 3707.56410139, 4117.05128178, 4078.97435863, 4072.94871761, 4118.58974332, 4123.33333306, 4125.25640998, 4104.10256383, 4080.25640991, 4134.48717921, 4138.33333313,12.0
4111.66666639, 4064.87179446, 4112.17948691, 3720.38461428, 4116.28205101, 4084.74358940, 4078.84615350, 4116.53846126, 4124.23076896, 4126.02564075, 4106.92307665, 4088.97435863, 4133.58974332, 4136.02564082,12.0
4118.07692280, 4067.69230728, 4116.79487152, 3737.69230658, 4116.92307665, 4102.82051255, 4081.41025607, 4122.05128178, 4126.15384588, 4125.25640998, 4109.74358947, 4102.43589709, 4134.87179460, 4136.66666646,12.0
4116.92307665, 4063.84615343, 4117.56410229, 3736.41025530, 4118.07692280, 4109.23076896, 4081.92307658, 4118.71794844, 4118.07692280, 4124.23076896, 4107.30769203, 4090.64102530, 4134.10256383, 4133.84615357,12.0
4118.20512793, 4062.94871754, 4119.99999973, 3718.71794761, 4118.97435870, 4082.94871761, 4059.87179446, 4099.23076889, 4091.66666632, 4125.76923050, 4094.87179453, 4058.33333292, 4129.99999973, 4136.02564082,12.0
4120.76923050, 4067.56410215, 4123.58974332, 3731.28205017, 4118.33333306, 4070.89743555, 4049.48717907, 4098.07692273, 4096.02564068, 4125.51282024, 4096.79487145, 4075.38461504, 4131.02564075, 4137.82051262,12.0
4116.66666639, 4065.76923036, 4124.10256383, 3779.10256313, 4114.10256383, 4107.69230742, 4089.99999966, 4133.84615357, 4146.15384595, 4124.48717921, 4117.43589716, 4138.46153826, 4135.89743569, 4135.25640998,12.0
4124.87179460, 4067.56410215, 4130.25640998, 3794.87179390, 4107.94871767, 4121.66666639, 4116.28205101, 4146.79487159, 4164.35897415, 4124.87179460, 4123.84615357, 4148.20512800, 4135.64102544, 4137.56410236,12.0
4121.41025614, 4064.61538420, 4124.87179460, 3770.51281947, 4110.12820485, 4086.53846119, 4087.05128171, 4120.12820485, 4130.25640998, 4124.61538434, 4109.74358947, 4101.53846119, 4130.76923050, 4134.35897408,12.0
4119.99999973, 4062.56410215, 4120.51282024, 3761.02563999, 4113.58974332, 4074.99999966, 4065.64102523, 4105.76923050, 4109.35897408, 4125.38461511, 4105.25640998, 4087.30769196, 4132.05128178, 4135.25640998,12.0
4124.74358947, 4064.99999959, 4124.61538434, 3772.94871691, 4110.51282024, 4095.12820478, 4081.02564068, 4115.76923050, 4127.43589716, 4123.58974332, 4109.61538434, 4103.84615357, 4136.28205108, 4138.71794851,12.0
4116.92307665, 4058.97435856, 4120.89743562, 3774.99999903, 4111.79487152, 4100.12820478, 4096.28205094, 4128.46153819, 4144.61538441, 4122.17948691, 4107.30769203, 4101.15384581, 4132.56410229, 4136.53846133,12.0
4123.71794844, 4058.07692266, 4122.05128178, 3767.56410153, 4115.38461511, 4089.35897402, 4089.61538427, 4123.07692280, 4129.87179460, 4125.89743562, 4105.12820485, 4088.84615350, 4130.76923050, 4138.20512800,12.0
4125.25640998, 4056.79487138, 4114.35897408, 3758.71794768, 4112.69230742, 4073.97435863, 4065.12820472, 4107.94871767, 4108.58974332, 4126.92307665, 4095.89743555, 4073.07692273, 4131.02564075, 4135.89743569,12.0
4117.43589716, 4053.46153805, 4107.43589716, 3770.89743486, 4113.20512793, 4078.97435863, 4061.79487138, 4110.89743562, 4115.64102537, 4123.46153819, 4095.76923043, 4080.25640991, 4129.99999973, 4134.87179460,12.0
4116.92307665, 4055.89743548, 4116.66666639, 3789.99999903, 4118.84615357, 4093.46153812, 4076.92307658, 4112.05128178, 4115.38461511, 4122.43589716, 4104.10256383, 4097.05128171, 4129.35897408, 4137.43589723,12.0
4111.41025614, 4050.76923036, 4110.12820485, 3759.74358871, 4116.92307665, 4072.94871761, 4061.79487138, 4094.10256376, 4083.84615350, 4124.61538434, 4088.71794837, 4058.97435856, 4123.20512793, 4135.25640998,12.0
4116.66666639, 4053.20512779, 4110.64102537, 3756.41025537, 4110.12820485, 4069.35897395, 4056.15384574, 4099.61538427, 4096.53846119, 4127.43589716, 4089.48717914, 4054.23076882, 4125.12820485, 4137.05128185,12.0
4119.35897408, 4057.43589702, 4121.53846126, 3803.46153749, 4109.35897408, 4095.64102530, 4078.46153812, 4120.64102537, 4135.76923056, 4127.43589716, 4117.43589716, 4112.82051255, 4132.43589716, 4133.71794844,12.0
4115.38461511, 4053.46153805, 4120.89743562, 3793.58974262, 4113.97435870, 4080.64102530, 4068.20512779, 4104.87179460, 4111.15384588, 4124.35897408, 4122.05128178, 4116.02564075, 4130.25640998, 4131.28205101,12.0
4121.66666639, 4056.53846113, 4123.20512793, 3756.41025537, 4118.71794844, 4064.48717907, 4057.94871754, 4090.51282017, 4086.79487145, 4122.94871767, 4119.87179460, 4097.82051248, 4131.15384588, 4137.17948697,12.0
4119.48717921, 4054.23076882, 4124.23076896, 3769.35897332, 4117.43589716, 4086.92307658, 4085.64102530, 4114.10256383, 4123.20512793, 4123.84615357, 4132.69230742, 4128.58974332, 4134.87179460, 4134.10256383,12.0
4121.92307665, 4052.69230728, 4122.69230742, 3769.23076819, 4114.23076896, 4073.71794837, 4080.38461504, 4117.43589716, 4127.56410229, 4123.46153819, 4128.07692280, 4124.61538434, 4133.84615357, 4131.15384588,12.0
4123.58974332, 4051.79487138, 4117.56410229, 3729.48717838, 4116.92307665, 4043.58974318, 4044.87179446, 4098.84615350, 4092.05128171, 4125.25640998, 4109.10256383, 4071.15384581, 4131.28205101, 4133.33333306,12.0
4117.43589716, 4048.97435856, 4116.79487152, 3728.33333223, 4117.56410229, 4056.28205087, 4043.07692266, 4101.28205094, 4093.84615350, 4128.33333306, 4107.17948691, 4063.71794830, 4130.38461511, 4136.79487159,12.0
4124.99999973, 4053.07692266, 4124.99999973, 3752.05128101, 4114.23076896, 4055.51282010, 4051.02564061, 4103.07692280, 4108.07692280, 4125.51282024, 4116.28205101, 4085.38461504, 4130.38461511, 4138.84615364,12.0
4122.69230742, 4049.99999959, 4116.79487152, 3747.56410153, 4113.33333306, 4037.69230728, 4049.23076882, 4100.76923043, 4106.92307665, 4121.79487152, 4119.10256383, 4082.82051248, 4130.12820485, 4132.82051255,12.0
4120.76923050, 4048.58974318, 4113.97435870, 3748.97435794, 4112.82051255, 4067.17948677, 4063.84615343, 4109.74358947, 4112.05128178, 4122.82051255, 4117.69230742, 4080.64102530, 4134.10256383, 4134.87179460,12.0
4124.35897408, 4051.28205087, 4120.76923050, 3773.07692204, 4110.38461511, 4093.84615350, 4079.35897402, 4108.07692280, 4114.35897408, 4123.46153819, 4115.12820485, 4091.28205094, 4135.64102544, 4139.10256390,12.0
4118.33333306, 4048.84615343, 4114.87179460, 3778.07692211, 4109.48717921, 4069.99999966, 4073.33333299, 4097.82051248, 4101.28205094, 4120.89743562, 4112.17948691, 4089.87179453, 4130.51282024, 4136.41025621,12.0
4120.64102537, 4049.48717907, 4114.35897408, 3765.76922973, 4108.84615357, 4063.20512779, 4069.61538420, 4104.87179460, 4098.58974325, 4123.46153819, 4114.48717921, 4082.30769196, 4131.66666639, 4135.76923056,12.0
4117.43589716, 4049.61538420, 4117.30769203, 3791.66666570, 4109.87179460, 4086.02564068, 4089.99999966, 4124.87179460, 4120.64102537, 4128.46153819, 4122.05128178, 4099.35897402, 4135.38461518, 4132.69230742,12.0
4118.58974332, 4053.71794830, 4121.41025614, 3837.17948628, 4109.35897408, 4099.10256376, 4116.41025614, 4138.97435877, 4150.25641005, 4126.79487152, 4133.07692280, 4133.58974332, 4137.82051262, 4134.35897408,12.0
4121.41025614, 4054.23076882, 4120.12820485, 3834.48717859, 4106.92307665, 4100.64102530, 4108.20512793, 4135.76923056, 4155.64102544, 4123.97435870, 4131.79487152, 4129.99999973, 4138.84615364, 4135.51282031,12.0
4112.69230742, 4043.46153805, 4109.35897408, 3805.38461442, 4109.99999973, 4090.38461504, 4080.64102530, 4125.25640998, 4138.07692287, 4125.12820485, 4115.51282024, 4095.12820478, 4135.51282031, 4133.20512793,12.0
4120.25640998, 4043.07692266, 4111.53846126, 3796.41025544, 4113.71794844, 4087.30769196, 4079.99999966, 4117.69230742, 4131.92307665, 4126.92307665, 4108.20512793, 4081.15384581, 4135.25640998, 4137.43589723,12.0
4120.38461511, 4040.38461497, 4111.66666639, 3790.89743493, 4111.41025614, 4084.74358940, 4073.97435863, 4107.69230742, 4122.56410229, 4125.25640998, 4110.12820485, 4073.20512786, 4133.20512793, 4135.64102544,12.0
4112.82051255, 4035.64102516, 4108.07692280, 3775.89743493, 4109.10256383, 4048.71794830, 4031.92307644, 4093.97435863, 4089.99999966, 4123.58974332, 4106.28205101, 4048.33333292, 4127.94871767, 4135.51282031,12.0
4116.66666639, 4038.97435856, 4108.46153819, 3764.87179383, 4110.25640998, 4024.10256362, 4016.28205080, 4088.58974325, 4073.20512786, 4124.23076896, 4095.51282017, 4032.82051234, 4127.82051255, 4139.10256390,12.0
4116.79487152, 4037.82051241, 4107.69230742, 3778.97435801, 4112.94871767, 4056.92307651, 4050.12820472, 4102.69230742, 4093.97435863, 4125.51282024, 4098.84615350, 4055.12820472, 4131.02564075, 4136.92307672,12.0
4122.17948691, 4041.41025600, 4115.12820485, 3808.46153756, 4111.79487152, 4084.87179453, 4069.48717907, 4112.05128178, 4106.66666639, 4124.61538434, 4119.74358947, 4086.53846119, 4133.97435870, 4136.66666646,12.0
4119.23076896, 4039.61538420, 4115.89743562, 3803.33333236, 4112.05128178, 4063.46153805, 4054.48717907, 4104.87179460, 4096.79487145, 4120.38461511, 4124.10256383, 4074.87179453, 4130.51282024, 4132.56410229,12.0
4116.92307665, 4033.58974311, 4111.41025614, 3771.66666563, 4113.46153819, 4041.02564061, 4044.48717907, 4101.92307658, 4099.23076889, 4120.76923050, 4113.97435870, 4048.84615343, 4129.74358947, 4133.33333306,12.0
4126.15384588, 4036.28205080, 4115.51282024, 3772.43589640, 4111.41025614, 4048.97435856, 4050.12820472, 4106.02564075, 4110.38461511, 4122.30769203, 4117.82051255, 4060.51282010, 4136.53846133, 4136.66666646,12.0
4121.28205101, 4032.94871747, 4112.43589716, 3796.15384518, 4111.41025614, 4058.71794830, 4057.30769189, 4112.05128178, 4114.35897408, 4120.89743562, 4125.25640998, 4079.99999966, 4133.71794844, 4133.97435870,12.0
4121.66666639, 4034.74358926, 4110.38461511, 3800.25640929, 4112.05128178, 4057.17948677, 4063.71794830, 4110.38461511, 4107.69230742, 4122.05128178, 4121.15384588, 4073.58974325, 4129.23076896, 4139.23076903,12.0
4121.28205101, 4033.71794824, 4109.35897408, 3793.71794775, 4109.61538434, 4060.51282010, 4063.33333292, 4099.23076889, 4092.56410222, 4126.02564075, 4114.23076896, 4066.79487138, 4131.66666639, 4138.84615364,12.0
4114.48717921, 4024.87179439, 4107.17948691, 3798.07692211, 4109.61538434, 4057.30769189, 4048.84615343, 4095.76923043, 4081.92307658, 4126.41025614, 4111.79487152, 4069.48717907, 4133.71794844, 4134.99999973,12.0
4119.23076896, 4027.82051234, 4110.76923050, 3810.25640936, 4116.41025614, 4046.41025600, 4038.97435856, 4098.46153812, 4083.71794837, 4124.87179460, 4113.97435870, 4069.35897395, 4132.56410229, 4138.97435877,12.0
4114.10256383, 4028.07692259, 4104.87179460, 3813.71794782, 4115.64102537, 4052.30769189, 4051.79487138, 4098.07692273, 4082.05128171, 4126.15384588, 4111.15384588, 4063.58974318, 4127.69230742, 4139.10256390,12.0
4115.76923050, 4025.12820465, 4104.99999973, 3805.12820416, 4107.17948691, 4055.51282010, 4055.51282010, 4091.28205094, 4068.33333292, 4124.10256383, 4105.25640998, 4051.53846113, 4127.82051255, 4139.74358954,12.0
4119.61538434, 4025.25640977, 4107.94871767, 3800.76922980, 4107.56410229, 4040.51282010, 4039.35897395, 4086.15384581, 4063.84615343, 4122.30769203, 4105.38461511, 4041.02564061, 4130.38461511, 4135.25640998,12.0
4110.76923050, 4025.64102516, 4103.46153819, 3814.61538372, 4109.35897408, 4050.76923036, 4053.58974318, 4097.56410222, 4079.61538427, 4125.25640998, 4107.94871767, 4050.38461497, 4130.38461511, 4129.61538434,12.0
4115.51282024, 4032.17948670, 4111.28205101, 3825.89743500, 4107.69230742, 4074.48717914, 4081.28205094, 4104.87179460, 4086.79487145, 4125.51282024, 4107.82051255, 4060.25640984, 4130.51282024, 4132.82051255,12.0
4116.66666639, 4028.84615336, 4110.89743562, 3819.74358884, 4107.43589716, 4067.69230728, 4073.97435863, 4095.12820478, 4080.76923043, 4122.30769203, 4107.56410229, 4049.99999959, 4128.07692280, 4135.25640998,12.0
4117.94871767, 4026.15384567, 4110.38461511, 3821.02564013, 4108.33333306, 4055.64102523, 4059.35897395, 4090.25640991, 4085.25640991, 4122.43589716, 4111.66666639, 4048.20512779, 4129.23076896, 4137.56410236,12.0
4124.23076896, 4034.23076875, 4116.66666639, 3827.17948628, 4107.69230742, 4054.87179446, 4057.94871754, 4093.97435863, 4088.97435863, 4123.97435870, 4108.58974332, 4052.69230728, 4131.02564075, 4134.87179460,12.0
4117.82051255, 4031.41025593, 4110.76923050, 3824.74358884, 4106.66666639, 4053.07692266, 4053.58974318, 4095.12820478, 4080.38461504, 4121.15384588, 4102.82051255, 4044.61538420, 4129.48717921, 4133.46153819,12.0
4123.20512793, 4029.61538413, 4112.56410229, 3830.25640936, 4110.64102537, 4063.71794830, 4054.10256369, 4093.07692273, 4083.20512786, 4121.92307665, 4110.51282024, 4048.71794830, 4132.30769203, 4135.12820485,12.0
4124.35897408, 4028.71794824, 4114.74358947, 3840.25640943, 4111.02564075, 4065.76923036, 4053.33333292, 4092.05128171, 4090.38461504, 4124.35897408, 4111.92307665, 4059.99999959, 4133.20512793, 4132.69230742,12.0
4120.38461511, 4026.53846106, 4111.53846126, 3842.94871712, 4105.76923050, 4041.41025600, 4040.76923036, 4093.20512786, 4078.07692273, 4124.87179460, 4105.76923050, 4055.12820472, 4131.53846126, 4138.46153826,12.0
4124.74358947, 4030.76923029, 4117.69230742, 3849.74358891, 4107.56410229, 4045.38461497, 4047.17948677, 4100.25640991, 4072.94871761, 4126.79487152, 4106.41025614, 4055.51282010, 4131.66666639, 4139.35897415,12.0
4115.64102537, 4024.35897388, 4115.25640998, 3854.87179404, 4107.94871767, 4073.71794837, 4067.30769189, 4105.12820485, 4088.07692273, 4124.99999973, 4109.48717921, 4063.46153805, 4131.92307665, 4135.25640998,12.0
4117.69230742, 4020.76923029, 4110.51282024, 3851.02564020, 4104.61538434, 4070.25640991, 4063.71794830, 4096.28205094, 4088.71794837, 4124.35897408, 4111.15384588, 4060.25640984, 4134.48717921, 4137.30769210,12.0
4119.35897408, 4023.71794824, 4109.35897408, 3852.94871712, 4107.82051255, 4054.61538420, 4055.89743548, 4094.35897402, 4078.07692273, 4128.33333306, 4106.28205101, 4049.61538420, 4131.41025614, 4135.25640998,12.0
4111.15384588, 4021.53846106, 4110.38461511, 3859.23076840, 4109.10256383, 4054.87179446, 4063.71794830, 4107.82051255, 4089.48717914, 4128.20512793, 4101.28205094, 4047.43589702, 4129.23076896, 4139.10256390,12.0
4118.71794844, 4024.35897388, 4114.87179460, 3859.48717866, 4105.89743562, 4056.53846113, 4064.48717907, 4102.69230742, 4096.92307658, 4122.43589716, 4101.02564068, 4048.84615343, 4132.05128178, 4141.15384595,12.0
4114.10256383, 4018.20512772, 4107.82051255, 3864.87179404, 4107.69230742, 4057.69230728, 4056.53846113, 4083.58974325, 4076.02564068, 4121.92307665, 4102.94871767, 4048.58974318, 4131.92307665, 4135.76923056,12.0
4113.71794844, 4018.07692259, 4111.53846126, 3880.51281975, 4111.79487152, 4071.79487145, 4065.12820472, 4086.28205094, 4069.99999966, 4126.02564075, 4107.17948691, 4055.89743548, 4132.94871767, 4136.28205108,12.0
4121.92307665, 4023.07692259, 4116.53846126, 3866.41025558, 4111.53846126, 4060.76923036, 4059.10256369, 4088.84615350, 4071.66666632, 4122.05128178, 4099.61538427, 4037.69230728, 4129.99999973, 4133.97435870,12.0
4112.17948691, 4017.05128157, 4109.35897408, 3849.35897353, 4106.02564075, 4036.41025593, 4034.61538413, 4085.38461504, 4065.38461497, 4120.25640998, 4093.33333299, 4022.69230721, 4129.48717921, 4136.79487159,12.0
4115.76923050, 4028.07692259, 4121.92307665, 3904.23076847, 4106.41025614, 4074.99999966, 4071.53846119, 4112.82051255, 4101.28205094, 4124.10256383, 4111.41025614, 4079.74358940, 4136.15384595, 4137.69230749,12.0
4119.23076896, 4035.51282003, 4129.99999973, 3973.71794817, 4109.99999973, 4135.25640998, 4142.69230749, 4146.28205108, 4154.48717928, 4123.84615357, 4131.02564075, 4143.46153826, 4141.15384595, 4132.69230742,12.0
4118.20512793, 4032.94871747, 4126.15384588, 3968.07692246, 4107.69230742, 4129.48717921, 4138.58974339, 4134.23076896, 4148.20512800, 4122.56410229, 4128.20512793, 4131.53846126, 4142.82051262, 4137.30769210,12.0
4125.25640998, 4034.10256362, 4124.61538434, 3921.02564033, 4108.58974332, 4076.15384581, 4078.20512786, 4099.35897402, 4101.92307658, 4124.61538434, 4110.25640998, 4078.20512786, 4135.64102544, 4136.53846133,12.0
4116.28205101, 4024.99999952, 4119.61538434, 3925.51281982, 4108.46153819, 4069.35897395, 4072.17948684, 4103.07692280, 4098.84615350, 4125.89743562, 4109.87179460, 4076.02564068, 4134.61538434, 4135.25640998,12.0
4121.53846126, 4030.64102516, 4126.15384588, 3968.46153784, 4106.02564075, 4110.64102537, 4114.99999973, 4125.89743562, 4130.25640998, 4123.20512793, 4122.30769203, 4114.99999973, 4140.89743569, 4135.89743569,12.0
4127.05128178, 4036.15384567, 4125.12820485, 3958.33333271, 4106.66666639, 4105.38461511, 4108.33333306, 4115.64102537, 4116.02564075, 4121.66666639, 4115.38461511, 4101.28205094, 4137.43589723, 4133.07692280,12.0
4121.02564075, 4032.56410208, 4118.33333306, 3930.25640957, 4107.17948691, 4076.53846119, 4083.07692273, 4102.30769196, 4089.74358940, 4122.30769203, 4107.43589716, 4067.94871754, 4135.64102544, 4138.07692287,12.0
4124.74358947, 4043.58974318, 4126.41025614, 3975.38461483, 4109.74358947, 4107.56410229, 4117.94871767, 4125.12820485, 4128.20512793, 4122.43589716, 4120.89743562, 4104.35897408, 4140.12820492, 4137.94871774,12.0
4116.79487152, 4047.94871754, 4127.05128178, 4028.20512772, 4109.35897408, 4145.89743569, 4157.43589723, 4151.15384595, 4172.43589730, 4122.30769203, 4135.12820485, 4153.97435877, 4145.64102544, 4139.99999980,12.0
4119.99999973, 4045.25640984, 4126.41025614, 4006.28205080, 4110.64102537, 4126.79487152, 4140.12820492, 4140.51282031, 4149.74358954, 4123.46153819, 4124.87179460, 4133.07692280, 4144.10256390, 4140.38461518,12.0
4117.69230742, 4039.10256369, 4124.48717921, 3979.23076868, 4112.56410229, 4104.10256383, 4119.48717921, 4122.82051255, 4115.89743562, 4125.89743562, 4110.89743562, 4101.28205094, 4135.64102544, 4134.48717921,12.0
4108.20512793, 4034.87179439, 4120.51282024, 3988.46153791, 4109.35897408, 4098.97435863, 4108.58974332, 4114.99999973, 4111.41025614, 4126.92307665, 4115.25640998, 4102.05128171, 4139.35897415, 4141.15384595,12.0
4117.30769203, 4038.58974318, 4122.05128178, 3995.64102509, 4107.17948691, 4087.94871761, 4087.82051248, 4105.25640998, 4106.15384588, 4124.35897408, 4115.25640998, 4099.87179453, 4142.56410236, 4138.58974339,12.0
4112.56410229, 4032.05128157, 4119.61538434, 4004.10256362, 4107.05128178, 4095.89743555, 4102.05128171, 4114.87179460, 4108.71794844, 4122.17948691, 4111.41025614, 4105.89743562, 4136.79487159, 4133.46153819,12.0
4112.30769203, 4030.64102516, 4127.30769203, 4019.74358926, 4109.35897408, 4116.79487152, 4137.94871774, 4132.30769203, 4125.38461511, 4125.25640998, 4117.69230742, 4124.10256383, 4138.46153826, 4137.82051262,12.0
4115.64102537, 4036.41025593, 4128.97435870, 4017.56410208, 4111.28205101, 4102.56410229, 4127.82051255, 4124.35897408, 4124.35897408, 4127.69230742, 4117.05128178, 4118.20512793, 4140.25641005, 4134.48717921,12.0
4113.71794844, 4038.97435856, 4122.82051255, 4011.28205080, 4110.25640998, 4079.87179453, 4096.02564068, 4111.79487152, 4114.99999973, 4122.56410229, 4112.94871767, 4106.53846126, 4140.76923056, 4134.61538434,12.0
4119.48717921, 4038.71794830, 4128.33333306, 4024.35897388, 4109.99999973, 4094.10256376, 4102.82051255, 4120.64102537, 4120.89743562, 4121.41025614, 4114.99999973, 4116.53846126, 4139.23076903, 4133.97435870,12.0
4116.28205101, 4029.48717900, 4128.07692280, 4034.23076875, 4108.07692280, 4112.82051255, 4127.17948691, 4133.84615357, 4129.99999973, 4132.69230742, 4116.92307665, 4126.15384588, 4136.28205108, 4135.12820485,12.0
4122.05128178, 4031.79487131, 4126.92307665, 4026.28205080, 4106.53846126, 4106.02564075, 4120.64102537, 4125.89743562, 4126.02564075, 4138.46153826, 4115.76923050, 4119.35897408, 4139.35897415, 4140.38461518,12.0
4122.30769203, 4033.20512772, 4123.20512793, 4020.12820465, 4107.82051255, 4098.84615350, 4107.94871767, 4113.07692280, 4114.23076896, 4127.43589716, 4108.20512793, 4106.02564075, 4138.58974339, 4136.28205108,12.0
4117.17948691, 4023.97435849, 4120.76923050, 4018.33333285, 4110.12820485, 4108.97435870, 4122.17948691, 4120.51282024, 4113.20512793, 4120.12820485, 4104.61538434, 4105.38461511, 4138.58974339, 4135.64102544,12.0
4123.33333306, 4022.43589695, 4123.71794844, 4013.07692259, 4109.10256383, 4113.33333306, 4129.23076896, 4125.12820485, 4117.17948691, 4122.05128178, 4108.07692280, 4111.15384588, 4141.79487159, 4137.30769210,12.0
4116.41025614, 4017.69230721, 4119.74358947, 4018.71794824, 4107.43589716, 4094.61538427, 4106.66666639, 4114.74358947, 4109.35897408, 4121.02564075, 4109.87179460, 4107.17948691, 4140.25641005, 4136.41025621,12.0
4120.76923050, 4014.87179439, 4122.56410229, 4031.15384567, 4107.82051255, 4074.35897402, 4088.33333299, 4102.30769196, 4087.43589709, 4122.56410229, 4105.76923050, 4094.99999966, 4138.84615364, 4139.87179467,12.0
4122.56410229, 4009.99999952, 4118.46153819, 4031.79487131, 4107.43589716, 4082.17948684, 4104.87179460, 4103.20512793, 4079.48717914, 4127.05128178, 4099.23076889, 4088.71794837, 4136.53846133, 4136.28205108,12.0
4111.41025614, 4002.56410201, 4112.43589716, 4027.94871747, 4109.23076896, 4098.71794837, 4124.61538434, 4113.58974332, 4098.07692273, 4126.79487152, 4103.58974332, 4096.28205094, 4136.79487159, 4134.87179460,12.0
4114.35897408, 4003.71794817, 4118.20512793, 4014.10256362, 4109.10256383, 4089.35897402, 4104.99999973, 4107.30769203, 4101.15384581, 4123.46153819, 4107.43589716, 4093.58974325, 4139.35897415, 4138.84615364,12.0
4110.38461511, 3998.97435842, 4113.71794844, 3992.82051227, 4104.10256383, 4073.20512786, 4080.76923043, 4100.12820478, 4084.10256376, 4122.94871767, 4099.35897402, 4081.15384581, 4138.07692287, 4137.82051262,12.0
4113.58974332, 3999.61538406, 4115.12820485, 3999.48717894, 4103.46153819, 4080.12820478, 4094.74358940, 4108.58974332, 4089.74358940, 4126.79487152, 4099.10256376, 4091.92307658, 4138.84615364, 4138.07692287,12.0
4116.53846126, 3995.89743535, 4118.58974332, 4015.89743541, 4107.82051255, 4093.33333299, 4111.15384588, 4112.43589716, 4115.38461511, 4124.61538434, 4104.48717921, 4104.35897408, 4138.33333313, 4133.84615357,12.0
4110.89743562, 3988.84615329, 4117.43589716, 4009.48717900, 4110.12820485, 4093.20512786, 4104.48717921, 4109.35897408, 4120.12820485, 4124.10256383, 4102.43589709, 4098.97435863, 4135.12820485, 4132.82051255,12.0
4116.79487152, 3995.38461483, 4125.64102537, 4011.92307644, 4107.94871767, 4096.41025607, 4107.82051255, 4114.23076896, 4112.05128178, 4131.79487152, 4104.74358947, 4106.28205101, 4137.56410236, 4138.84615364,12.0
4113.58974332, 3992.94871740, 4124.87179460, 4025.38461490, 4106.15384588, 4109.35897408, 4128.07692280, 4125.25640998, 4123.33333306, 4131.79487152, 4108.33333306, 4119.48717921, 4141.02564082, 4136.53846133,12.0
4118.71794844, 3993.20512765, 4124.48717921, 4023.58974311, 4107.30769203, 4111.79487152, 4130.51282024, 4124.48717921, 4132.17948691, 4120.25640998, 4105.12820485, 4113.20512793, 4139.35897415, 4135.12820485,12.0
4123.97435870, 3998.58974304, 4124.74358947, 4012.94871747, 4108.84615357, 4106.28205101, 4115.76923050, 4113.71794844, 4117.94871767, 4119.48717921, 4103.46153819, 4102.17948684, 4136.15384595, 4135.38461518,12.0
4116.92307665, 3994.23076868, 4121.66666639, 4010.89743541, 4108.07692280, 4103.46153819, 4111.79487152, 4111.41025614, 4107.69230742, 4130.51282024, 4103.84615357, 4104.10256383, 4138.07692287, 4136.66666646,12.0
4126.15384588, 3997.43589688, 4129.23076896, 4012.56410208, 4106.02564075, 4100.51282017, 4118.46153819, 4115.76923050, 4112.05128178, 4126.92307665, 4104.35897408, 4112.43589716, 4140.51282031, 4138.33333313,12.0
4121.92307665, 3994.99999945, 4124.74358947, 4012.82051234, 4107.17948691, 4097.17948684, 4122.56410229, 4117.94871767, 4114.74358947, 4117.43589716, 4105.12820485, 4111.15384588, 4136.28205108, 4136.79487159,12.0
4118.33333306, 3992.30769176, 4122.82051255, 4023.58974311, 4111.02564075, 4103.07692280, 4122.05128178, 4123.97435870, 4120.12820485, 4119.99999973, 4106.53846126, 4108.97435870, 4138.33333313, 4142.30769210,12.0
4126.28205101, 3996.92307637, 4127.94871767, 4033.07692259, 4112.30769203, 4119.23076896, 4128.84615357, 4129.87179460, 4132.56410229, 4122.69230742, 4111.02564075, 4121.41025614, 4144.48717928, 4141.79487159,12.0
4119.23076896, 3991.66666611, 4121.28205101, 4030.12820465, 4109.74358947, 4124.23076896, 4139.87179467, 4131.53846126, 4137.43589723, 4119.23076896, 4114.10256383, 4130.89743562, 4141.53846133, 4136.28205108,12.0
4122.30769203, 3992.05128150, 4126.92307665, 4029.10256362, 4107.05128178, 4115.25640998, 4134.23076896, 4125.64102537, 4123.58974332, 4119.61538434, 4110.89743562, 4124.61538434, 4139.61538441, 4139.61538441,12.0
4119.48717921, 3989.10256355, 4125.38461511, 4029.35897388, 4109.23076896, 4114.23076896, 4124.10256383, 4117.94871767, 4108.07692280, 4126.66666639, 4104.61538434, 4115.38461511, 4141.41025621, 4137.56410236,12.0
4117.05128178, 3985.25640970, 4118.33333306, 4028.20512772, 4112.82051255, 4120.25640998, 4128.33333306, 4124.23076896, 4114.48717921, 4128.46153819, 4105.89743562, 4116.41025614, 4141.15384595, 4134.61538434,12.0
4122.69230742, 3989.35897381, 4124.35897408, 4025.12820465, 4110.12820485, 4112.17948691, 4118.97435870, 4124.35897408, 4122.30769203, 4125.76923050, 4110.12820485, 4120.51282024, 4140.12820492, 4134.99999973,12.0
4113.33333306, 3987.17948663, 4122.69230742, 4026.53846106, 4111.28205101, 4098.84615350, 4102.69230742, 4116.02564075, 4114.23076896, 4124.61538434, 4110.12820485, 4122.43589716, 4140.12820492, 4135.12820485,12.0
4119.10256383, 3993.58974304, 4126.15384588, 4048.97435856, 4118.07692280, 4109.99999973, 4119.74358947, 4124.87179460, 4120.89743562, 4123.84615357, 4116.66666639, 4138.46153826, 4143.97435877, 4138.97435877,12.0
4120.76923050, 3998.58974304, 4127.82051255, 4066.41025600, 4112.69230742, 4123.58974332, 4145.12820492, 4139.61538441, 4146.66666646, 4122.17948691, 4122.69230742, 4154.48717928, 4146.15384595, 4136.66666646,12.0
4116.53846126, 3999.74358919, 4125.76923050, 4049.35897395, 4105.89743562, 4112.43589716, 4139.99999980, 4136.79487159, 4144.61538441, 4122.69230742, 4116.41025614, 4145.76923056, 4143.46153826, 4134.10256383,12.0
4124.23076896, 4004.48717900, 4129.48717921, 4035.12820465, 4110.76923050, 4112.69230742, 4132.69230742, 4125.38461511, 4126.92307665, 4123.46153819, 4108.46153819, 4130.38461511, 4138.07692287, 4134.10256383,12.0
4118.20512793, 4000.25640970, 4125.76923050, 4038.20512779, 4114.74358947, 4125.51282024, 4141.28205108, 4127.56410229, 4130.12820485, 4121.66666639, 4107.30769203, 4124.74358947, 4135.38461518, 4135.12820485,12.0
4122.56410229, 4002.43589688, 4126.15384588, 4020.76923029, 4115.38461511, 4112.17948691, 4132.56410229, 4126.28205101, 4117.43589716, 4120.64102537, 4103.46153819, 4106.92307665, 4139.10256390, 4138.71794851,12.0
4126.41025614, 4007.30769183, 4127.82051255, 4012.05128157, 4114.35897408, 4100.25640991, 4119.99999973, 4116.28205101, 4093.58974325, 4124.87179460, 4095.51282017, 4093.33333299, 4138.07692287, 4134.99999973,12.0
4119.99999973, 4005.12820465, 4126.92307665, 4025.76923029, 4113.58974332, 4107.69230742, 4125.51282024, 4119.99999973, 4106.41025614, 4132.17948691, 4097.17948684, 4103.33333306, 4134.61538434, 4135.76923056,12.0
4126.53846126, 4007.30769183, 4129.87179460, 4021.41025593, 4115.12820485, 4106.28205101, 4117.17948691, 4128.46153819, 4122.69230742, 4132.43589716, 4099.74358940, 4099.87179453, 4137.69230749, 4140.76923056,12.0
4122.69230742, 4005.38461490, 4124.10256383, 4020.25640977, 4114.10256383, 4105.64102537, 4105.64102537, 4124.35897408, 4106.53846126, 4128.46153819, 4093.71794837, 4091.28205094, 4137.82051262, 4134.99999973,12.0
4124.99999973, 4008.33333285, 4125.89743562, 4044.10256369, 4113.07692280, 4119.48717921, 4125.25640998, 4118.84615357, 4100.38461504, 4129.74358947, 4097.17948684, 4112.94871767, 4137.17948697, 4134.61538434,12.0
4129.61538434, 4013.46153798, 4130.76923050, 4048.20512779, 4113.84615357, 4123.07692280, 4144.35897415, 4128.33333306, 4126.53846126, 4131.66666639, 4108.58974332, 4131.41025614, 4143.20512800, 4138.84615364,12.0
4114.74358947, 4003.33333278, 4121.15384588, 4029.10256362, 4113.58974332, 4112.30769203, 4127.17948691, 4130.89743562, 4129.74358947, 4126.41025614, 4110.89743562, 4119.23076896, 4143.84615364, 4136.41025621,12.0
4114.74358947, 4000.38461483, 4120.76923050, 4027.30769183, 4113.58974332, 4107.43589716, 4111.53846126, 4112.56410229, 4094.48717914, 4121.41025614, 4106.02564075, 4107.30769203, 4138.71794851, 4134.48717921,12.0
4117.17948691, 3997.56410201, 4118.71794844, 4018.71794824, 4113.58974332, 4088.20512786, 4104.61538434, 4102.05128171, 4067.43589702, 4120.51282024, 4096.66666632, 4090.89743555, 4135.51282031, 4135.12820485,12.0
4117.05128178, 3993.71794817, 4116.02564075, 4015.38461490, 4113.58974332, 4083.33333299, 4099.61538427, 4115.64102537, 4071.79487145, 4121.53846126, 4092.17948684, 4082.43589709, 4137.94871774, 4136.66666646,12.0
4121.53846126, 3999.23076868, 4125.51282024, 4043.71794830, 4113.58974332, 4111.02564075, 4118.07692280, 4132.17948691, 4096.28205094, 4127.30769203, 4103.97435870, 4108.46153819, 4141.53846133, 4135.76923056,12.0
4114.48717921, 3994.48717894, 4124.61538434, 4050.89743548, 4113.58974332, 4112.56410229, 4117.82051255, 4126.92307665, 4104.48717921, 4132.17948691, 4109.23076896, 4111.02564075, 4137.94871774, 4135.51282031,12.0
4119.10256383, 3996.28205073, 4124.87179460, 4044.99999959, 4113.58974332, 4100.51282017, 4096.28205094, 4115.76923050, 4088.97435863, 4130.76923050, 4105.38461511, 4095.64102530, 4139.48717928, 4138.71794851,12.0
4119.35897408, 4002.43589688, 4128.33333306, 4070.12820478, 4113.58974332, 4115.25640998, 4116.41025614, 4127.30769203, 4090.76923043, 4129.87179460, 4112.43589716, 4118.84615357, 4146.02564082, 4135.38461518,12.0
4116.15384588, 4002.30769176, 4129.35897408, 4096.02564068, 4113.58974332, 4130.76923050, 4146.92307672, 4141.41025621, 4108.84615357, 4128.07692280, 4123.20512793, 4142.82051262, 4145.25641005, 4135.76923056,12.0
4128.07692280, 4006.53846106, 4133.97435870, 4092.05128171, 4113.58974332, 4126.28205101, 4130.89743562, 4126.41025614, 4102.30769196, 4123.46153819, 4119.48717921, 4129.87179460, 4143.46153826, 4138.20512800,12.0
4121.92307665, 4003.71794817, 4127.30769203, 4085.38461504, 4113.58974332, 4108.71794844, 4103.58974332, 4105.76923050, 4076.53846119, 4127.43589716, 4107.82051255, 4108.20512793, 4139.87179467, 4132.43589716,12.0
4122.30769203, 4005.89743541, 4123.20512793, 4083.20512786, 4113.84615357, 4086.02564068, 4094.61538427, 4102.43589709, 4064.48717907, 4134.48717921, 4103.33333306, 4094.87179453, 4136.15384595, 4136.92307672,12.0
4130.89743562, 4013.58974311, 4126.53846126, 4081.02564068, 4113.84615357, 4090.12820478, 4094.99999966, 4103.33333306, 4060.89743548, 4132.17948691, 4105.64102537, 4087.82051248, 4139.35897415, 4143.46153826,12.0
4122.05128178, 4013.46153798, 4123.07692280, 4098.84615350, 4112.82051255, 4121.28205101, 4118.46153819, 4114.10256383, 4075.64102530, 4127.30769203, 4112.56410229, 4104.74358947, 4144.10256390, 4138.07692287,12.0
4123.20512793, 4012.94871747, 4123.97435870, 4116.41025614, 4114.87179460, 4114.61538434, 4129.35897408, 4123.20512793, 4097.43589709, 4124.35897408, 4114.99999973, 4116.15384588, 4141.92307672, 4136.92307672,12.0
4118.84615357, 4005.25640977, 4118.33333306, 4104.48717921, 4113.58974332, 4085.25640991, 4093.97435863, 4107.56410229, 4071.53846119, 4120.76923050, 4107.05128178, 4088.20512786, 4137.43589723, 4137.56410236,12.0
4116.28205101, 4006.15384567, 4116.15384588, 4073.46153812, 4107.94871767, 4091.02564068, 4073.71794837, 4090.38461504, 4029.74358926, 4122.43589716, 4102.30769196, 4067.17948677, 4137.94871774, 4136.28205108,12.0
4122.05128178, 4013.33333285, 4121.02564075, 4113.46153819, 4111.53846126, 4108.33333306, 4103.58974332, 4101.79487145, 4046.02564061, 4124.87179460, 4105.76923050, 4082.94871761, 4139.87179467, 4135.89743569,12.0
4109.74358947, 4007.56410208, 4113.20512793, 4259.10256411, 4111.92307665, 4117.05128178, 4135.64102544, 4125.38461511, 4091.41025607, 4121.28205101, 4112.30769203, 4109.87179460, 4141.15384595, 4135.38461518,12.0
4112.82051255, 4007.94871747, 4114.87179460, 4338.71794893, 4108.20512793, 4107.94871767, 4112.30769203, 4107.43589716, 4067.43589702, 4123.46153819, 4110.25640998, 4093.71794837, 4141.28205108, 4138.46153826,12.0
4117.56410229, 4004.74358926, 4114.10256383, 4284.61538469, 4112.56410229, 4080.51282017, 4069.87179453, 4068.46153805, 4004.61538413, 4127.69230742, 4098.07692273, 4047.05128164, 4135.12820485, 4135.38461518,12.0
4113.46153819, 4003.58974304, 4113.33333306, 4285.51282059, 4117.56410229, 4104.23076896, 4101.92307658, 4090.51282017, 4041.02564061, 4125.25640998, 4104.35897408, 4066.28205087, 4136.92307672, 4134.35897408,12.0
4119.48717921, 4019.10256362, 4126.02564075, 4358.07692329, 4117.56410229, 4154.99999980, 4168.58974345, 4146.79487159, 4129.48717921, 4121.92307665, 4126.28205101, 4126.92307665, 4148.20512800, 4138.71794851,12.0
4113.71794844, 4018.07692259, 4120.25640998, 4342.05128226, 4116.28205101, 4125.25640998, 4150.12820492, 4132.69230742, 4109.61538434, 4122.30769203, 4124.23076896, 4118.46153819, 4147.82051262, 4134.74358947,12.0
4119.23076896, 4014.48717900, 4118.33333306, 4293.46153853, 4119.35897408, 4084.74358940, 4098.71794837, 4081.41025607, 4043.58974318, 4124.35897408, 4112.05128178, 4084.48717914, 4143.46153826, 4135.38461518,12.0
4119.23076896, 4014.48717900, 4118.33333306, 4293.46153853, 4119.35897408, 4084.74358940, 4098.71794837, 4081.41025607, 4043.58974318, 4124.35897408, 4112.05128178, 4084.48717914, 4143.46153826, 4135.38461518,12.0
4125.25640998, 4024.23076875, 4126.92307665, 4314.48717963, 4117.43589716, 4124.48717921, 4119.23076896, 4102.69230742, 4078.07692273, 4124.23076896, 4121.92307665, 4109.23076896, 4147.82051262, 4136.41025621,12.0
4119.10256383, 4032.43589695, 4123.97435870, 4333.20512842, 4108.33333306, 4143.33333313, 4149.23076903, 4137.82051262, 4121.79487152, 4122.82051255, 4130.76923050, 4133.20512793, 4149.99999980, 4134.35897408,12.0
4122.94871767, 4035.51282003, 4123.07692280, 4319.48717963, 4111.02564075, 4109.48717921, 4137.30769210, 4120.64102537, 4093.33333299, 4121.53846126, 4125.38461511, 4123.71794844, 4149.87179467, 4137.69230749,12.0
4116.41025614, 4029.61538413, 4122.56410229, 4313.97435912, 4115.76923050, 4096.41025607, 4127.17948691, 4110.38461511, 4071.92307658, 4122.69230742, 4122.30769203, 4124.74358947, 4150.51282031, 4136.53846133,12.0
4119.35897408, 4033.46153798, 4126.02564075, 4317.43589758, 4112.05128178, 4105.12820485, 4132.69230742, 4116.15384588, 4081.66666632, 4125.64102537, 4123.20512793, 4124.74358947, 4150.25641005, 4136.53846133,12.0
4124.35897408, 4035.25640977, 4125.89743562, 4313.07692322, 4111.79487152, 4120.51282024, 4143.20512800, 4113.71794844, 4090.51282017, 4127.94871767, 4119.48717921, 4115.25640998, 4149.61538441, 4135.51282031,12.0
4115.51282024, 4025.89743541, 4120.38461511, 4315.38461553, 4112.69230742, 4135.64102544, 4153.46153826, 4122.43589716, 4103.58974332, 4130.76923050, 4122.05128178, 4126.41025614, 4148.71794851, 4135.12820485,12.0
4120.64102537, 4025.89743541, 4125.12820485, 4325.12820527, 4111.28205101, 4129.10256383, 4148.84615364, 4127.43589716, 4105.89743562, 4131.02564075, 4129.99999973, 4137.05128185, 4152.43589723, 4139.87179467,12.0
4116.79487152, 4019.61538413, 4119.10256383, 4319.87179501, 4111.53846126, 4105.25640998, 4132.94871767, 4116.92307665, 4088.46153812, 4124.74358947, 4124.48717921, 4116.66666639, 4152.17948697, 4137.05128185,12.0
4115.38461511, 4016.53846106, 4117.69230742, 4321.28205142, 4111.15384588, 4115.76923050, 4150.25641005, 4127.69230742, 4097.43589709, 4120.64102537, 4123.97435870, 4116.53846126, 4151.15384595, 4135.25640998,12.0
4120.64102537, 4018.71794824, 4123.71794844, 4341.66666688, 4113.97435870, 4146.66666646, 4185.25641012, 4151.79487159, 4128.84615357, 4126.53846126, 4138.71794851, 4141.28205108, 4156.79487159, 4136.92307672,12.0
4115.64102537, 4014.10256362, 4118.07692280, 4341.79487201, 4117.94871767, 4130.76923050, 4169.48717935, 4146.92307672, 4131.53846126, 4128.71794844, 4139.74358954, 4132.30769203, 4155.76923056, 4138.58974339,12.0
4119.10256383, 4017.56410208, 4120.64102537, 4331.02564117, 4117.94871767, 4088.84615350, 4129.99999973, 4120.64102537, 4108.97435870, 4122.94871767, 4131.66666639, 4117.94871767, 4152.30769210, 4139.74358954,12.0
4115.51282024, 4015.76923029, 4121.66666639, 4335.12820534, 4115.38461511, 4078.20512786, 4127.94871767, 4108.58974332, 4096.28205094, 4122.56410229, 4131.41025614, 4126.79487152, 4154.10256390, 4133.33333306,12.0
4116.28205101, 4014.23076875, 4123.46153819, 4339.23076944, 4114.99999973, 4102.69230742, 4141.92307672, 4110.89743562, 4093.84615350, 4125.25640998, 4132.56410229, 4126.66666639, 4155.12820492, 4133.84615357,12.0
4119.61538434, 4019.35897388, 4124.61538434, 4330.51282066, 4116.28205101, 4122.43589716, 4143.20512800, 4113.71794844, 4086.28205094, 4123.84615357, 4130.25640998, 4112.69230742, 4151.79487159, 4138.97435877,12.0
4114.48717921, 4018.71794824, 4119.48717921, 4323.33333348, 4116.92307665, 4123.97435870, 4151.53846133, 4120.64102537, 4091.92307658, 4122.17948691, 4132.17948691, 4116.15384588, 4151.41025621, 4138.07692287,12.0
4125.12820485, 4021.53846106, 4126.41025614, 4331.92307707, 4117.05128178, 4118.46153819, 4160.38461518, 4121.02564075, 4097.94871761, 4123.71794844, 4135.89743569, 4131.41025614, 4158.33333313, 4137.17948697,12.0
4123.46153819, 4019.87179439, 4126.15384588, 4336.53846175, 4115.25640998, 4111.53846126, 4149.74358954, 4117.05128178, 4087.30769196, 4124.61538434, 4130.89743562, 4121.66666639, 4155.89743569, 4134.99999973,12.0
4119.99999973, 4018.71794824, 4122.05128178, 4323.20512835, 4113.07692280, 4103.58974332, 4144.10256390, 4124.74358947, 4086.92307658, 4124.10256383, 4126.66666639, 4100.89743555, 4147.43589723, 4135.12820485,12.0
4124.87179460, 4020.64102516, 4124.61538434, 4308.58974373, 4114.99999973, 4091.02564068, 4148.84615364, 4132.56410229, 4104.99999973, 4121.53846126, 4131.79487152, 4101.66666632, 4148.58974339, 4135.51282031,12.0
4117.43589716, 4016.28205080, 4122.82051255, 4311.53846168, 4115.12820485, 4100.25640991, 4148.58974339, 4127.30769203, 4103.97435870, 4119.99999973, 4134.61538434, 4112.69230742, 4152.05128185, 4135.12820485,12.0
4120.64102537, 4018.84615336, 4126.92307665, 4336.02564124, 4113.20512793, 4126.79487152, 4160.64102544, 4127.43589716, 4105.12820485, 4122.69230742, 4139.61538441, 4124.61538434, 4152.82051262, 4139.10256390,12.0
4119.61538434, 4018.71794824, 4127.05128178, 4356.92307714, 4115.25640998, 4128.97435870, 4180.38461525, 4148.07692287, 4140.64102544, 4125.25640998, 4148.71794851, 4143.33333313, 4155.51282031, 4137.82051262,12.0
4120.64102537, 4019.87179439, 4124.23076896, 4364.10256431, 4117.17948691, 4123.58974332, 4179.74358961, 4151.53846133, 4157.30769210, 4124.23076896, 4150.25641005, 4157.30769210, 4156.92307672, 4138.97435877,12.0
4126.02564075, 4024.48717900, 4127.17948691, 4363.84615406, 4113.33333306, 4126.53846126, 4165.64102544, 4122.82051255, 4133.07692280, 4122.30769203, 4146.02564082, 4156.79487159, 4157.05128185, 4143.07692287,12.0
4115.76923050, 4019.23076875, 4122.82051255, 4355.25641047, 4114.87179460, 4125.38461511, 4157.30769210, 4114.48717921, 4110.64102537, 4122.17948691, 4143.46153826, 4148.58974339, 4157.56410236, 4138.97435877,12.0
4118.07692280, 4023.46153798, 4122.05128178, 4337.30769252, 4121.28205101, 4133.46153819, 4159.35897415, 4133.84615357, 4109.61538434, 4122.56410229, 4144.48717928, 4140.12820492, 4158.84615364, 4137.05128185,12.0
4116.41025614, 4026.66666618, 4117.82051255, 4316.92307707, 4118.97435870, 4134.10256383, 4159.61538441, 4132.94871767, 4097.82051248, 4123.33333306, 4139.48717928, 4122.05128178, 4156.02564082, 4136.92307672,12.0
4113.07692280, 4022.43589695, 4114.87179460, 4303.46153860, 4115.51282024, 4110.89743562, 4146.41025621, 4115.76923050, 4066.28205087, 4123.33333306, 4131.79487152, 4099.10256376, 4152.30769210, 4136.15384595,12.0
4118.58974332, 4022.17948670, 4120.38461511, 4297.82051289, 4114.61538434, 4101.66666632, 4136.92307672, 4119.35897408, 4068.84615343, 4121.15384588, 4133.07692280, 4094.99999966, 4154.74358954, 4135.64102544,12.0
4113.58974332, 4020.76923029, 4118.33333306, 4295.38461546, 4114.99999973, 4110.51282024, 4151.28205108, 4136.53846133, 4102.94871767, 4119.23076896, 4134.61538434, 4098.46153812, 4155.12820492, 4134.74358947,12.0
4119.35897408, 4029.10256362, 4124.87179460, 4292.82051289, 4119.74358947, 4110.38461511, 4161.15384595, 4140.89743569, 4110.51282024, 4119.23076896, 4135.12820485, 4094.10256376, 4153.58974339, 4137.94871774,12.0
4116.15384588, 4030.64102516, 4123.84615357, 4291.79487187, 4118.84615357, 4113.84615357, 4149.35897415, 4142.69230749, 4098.71794837, 4123.58974332, 4139.10256390, 4097.56410222, 4155.51282031, 4135.76923056,12.0
4111.15384588, 4027.43589695, 4119.48717921, 4296.79487187, 4117.30769203, 4112.17948691, 4146.02564082, 4148.07692287, 4090.12820478, 4127.30769203, 4143.84615364, 4110.51282024, 4158.33333313, 4133.20512793,12.0
4122.69230742, 4034.99999952, 4124.35897408, 4284.10256418, 4119.10256383, 4080.12820478, 4130.64102537, 4134.10256383, 4062.82051241, 4123.58974332, 4137.30769210, 4094.23076889, 4158.97435877, 4136.41025621,12.0
4118.46153819, 4030.51282003, 4116.92307665, 4265.76923077, 4118.33333306, 4071.02564068, 4110.89743562, 4118.97435870, 4038.33333292, 4119.61538434, 4126.92307665, 4066.15384574, 4155.25641005, 4136.79487159,12.0
4121.79487152, 4030.64102516, 4121.15384588, 4284.35897443, 4118.33333306, 4112.30769203, 4137.43589723, 4126.02564075, 4047.94871754, 4122.56410229, 4133.58974332, 4085.64102530, 4155.38461518, 4137.69230749,12.0
4123.97435870, 4037.56410215, 4127.69230742, 4313.46153860, 4118.97435870, 4137.17948697, 4163.33333313, 4134.23076896, 4074.23076889, 4123.46153819, 4142.17948697, 4117.82051255, 4158.97435877, 4136.28205108,12.0
4117.05128178, 4037.56410215, 4120.89743562, 4310.00000014, 4118.84615357, 4117.05128178, 4151.79487159, 4136.41025621, 4093.84615350, 4120.64102537, 4138.33333313, 4115.89743562, 4159.87179467, 4135.89743569,12.0
4128.33333306, 4040.89743548, 4120.89743562, 4292.30769238, 4117.69230742, 4100.51282017, 4154.61538441, 4135.25640998, 4086.02564068, 4122.56410229, 4137.69230749, 4104.48717921, 4160.89743569, 4137.94871774,12.0
4122.94871767, 4033.07692259, 4114.23076896, 4286.28205136, 4118.46153819, 4102.17948684, 4161.28205108, 4127.82051255, 4065.51282010, 4124.10256383, 4136.41025621, 4095.12820478, 4158.46153826, 4133.97435870,12.0
4118.33333306, 4027.69230721, 4109.23076896, 4282.43589751, 4119.87179460, 4093.71794837, 4124.61538434, 4117.69230742, 4061.02564061, 4122.56410229, 4127.17948691, 4076.66666632, 4156.02564082, 4137.05128185,12.0
4122.17948691, 4030.25640977, 4113.58974332, 4278.71794879, 4117.94871767, 4083.33333299, 4098.84615350, 4121.02564075, 4076.15384581, 4125.25640998, 4127.30769203, 4072.56410222, 4157.94871774, 4141.28205108,12.0
4112.69230742, 4027.56410208, 4112.69230742, 4286.66666674, 4119.48717921, 4087.30769196, 4122.69230742, 4137.82051262, 4093.07692273, 4127.43589716, 4137.17948697, 4093.20512786, 4156.79487159, 4137.43589723,12.0
4118.07692280, 4035.12820465, 4117.30769203, 4296.53846161, 4122.56410229, 4100.64102530, 4139.99999980, 4142.17948697, 4092.43589709, 4120.12820485, 4138.84615364, 4105.25640998, 4155.89743569, 4137.43589723,12.0
4117.82051255, 4038.58974318, 4118.33333306, 4301.66666681, 4120.76923050, 4105.12820485, 4140.25641005, 4138.20512800, 4091.53846119, 4119.74358947, 4136.53846133, 4102.82051255, 4156.28205108, 4136.41025621,12.0
4114.48717921, 4034.74358926, 4118.46153819, 4302.69230784, 4119.10256383, 4108.20512793, 4156.53846133, 4141.79487159, 4107.17948691, 4133.97435870, 4138.58974339, 4105.38461511, 4155.89743569, 4135.64102544,12.0
4121.02564075, 4035.89743541, 4121.53846126, 4294.48717956, 4119.23076896, 4118.84615357, 4165.25641005, 4136.66666646, 4100.64102530, 4135.51282031, 4139.35897415, 4104.35897408, 4156.66666646, 4135.64102544,12.0
4117.82051255, 4032.82051234, 4114.87179460, 4276.41025648, 4120.51282024, 4104.99999973, 4131.41025614, 4108.46153819, 4054.23076882, 4120.89743562, 4132.30769203, 4080.38461504, 4153.84615364, 4132.94871767,12.0
4123.46153819, 4033.58974311, 4119.48717921, 4272.94871802, 4121.28205101, 4089.35897402, 4112.69230742, 4095.76923043, 4036.28205080, 4119.74358947, 4131.79487152, 4073.07692273, 4153.33333313, 4138.84615364,12.0
4121.02564075, 4034.87179439, 4124.35897408, 4289.87179495, 4119.99999973, 4106.92307665, 4147.94871774, 4120.89743562, 4077.05128171, 4127.56410229, 4141.53846133, 4098.97435863, 4156.79487159, 4138.33333313,12.0
4116.79487152, 4035.64102516, 4120.25640998, 4291.15384623, 4119.87179460, 4109.99999973, 4148.97435877, 4127.69230742, 4101.66666632, 4123.97435870, 4141.79487159, 4100.64102530, 4157.43589723, 4133.97435870,12.0
4125.38461511, 4034.87179439, 4120.25640998, 4266.79487187, 4121.79487152, 4078.07692273, 4093.20512786, 4106.92307665, 4077.69230735, 4119.99999973, 4132.69230742, 4071.02564068, 4155.76923056, 4141.15384595,12.0
4118.07692280, 4030.76923029, 4117.94871767, 4272.05128212, 4119.87179460, 4086.53846119, 4106.41025614, 4123.97435870, 4086.66666632, 4123.46153819, 4141.15384595, 4088.07692273, 4155.64102544, 4139.74358954,12.0
4121.53846126, 4042.05128164, 4127.05128178, 4317.94871809, 4118.07692280, 4133.84615357, 4172.69230756, 4155.51282031, 4132.56410229, 4122.94871767, 4160.12820492, 4145.76923056, 4160.38461518, 4136.28205108,12.0
4126.79487152, 4045.64102523, 4129.99999973, 4332.17948732, 4121.41025614, 4148.97435877, 4179.99999986, 4152.56410236, 4138.46153826, 4122.94871767, 4158.97435877, 4154.61538441, 4161.15384595, 4136.15384595,12.0
4119.23076896, 4037.17948677, 4120.89743562, 4304.23076937, 4120.12820485, 4142.56410236, 4166.53846133, 4148.71794851, 4125.64102537, 4129.48717921, 4151.66666646, 4125.51282024, 4157.30769210, 4134.74358947,12.0
4123.20512793, 4041.02564061, 4122.30769203, 4284.87179495, 4117.56410229, 4135.64102544, 4171.15384602, 4147.43589723, 4121.53846126, 4133.71794844, 4153.07692287, 4115.64102537, 4159.23076903, 4139.10256390,12.0
4116.28205101, 4039.74358933, 4116.92307665, 4279.10256418, 4119.99999973, 4122.94871767, 4153.71794851, 4130.25640998, 4100.12820478, 4127.56410229, 4148.20512800, 4110.25640998, 4157.82051262, 4138.58974339,12.0
4113.46153819, 4039.74358933, 4116.28205101, 4285.89743597, 4120.64102537, 4130.64102537, 4144.35897415, 4122.43589716, 4098.84615350, 4120.89743562, 4149.61538441, 4110.64102537, 4156.79487159, 4137.56410236,12.0
4117.56410229, 4044.74358933, 4122.56410229, 4308.84615399, 4119.87179460, 4154.99999980, 4179.23076910, 4141.53846133, 4140.76923056, 4122.69230742, 4161.41025621, 4132.69230742, 4161.28205108, 4138.46153826,12.0
4109.61538434, 4042.05128164, 4119.10256383, 4308.71794886, 4119.99999973, 4154.35897415, 4193.07692294, 4152.82051262, 4151.02564082, 4124.10256383, 4157.69230749, 4136.28205108, 4158.20512800, 4138.71794851,12.0
4112.82051255, 4041.92307651, 4119.99999973, 4288.71794879, 4120.51282024, 4142.05128185, 4166.41025621, 4136.41025621, 4125.76923050, 4123.33333306, 4151.79487159, 4119.35897408, 4155.89743569, 4141.92307672,12.0
4114.10256383, 4041.28205087, 4119.74358947, 4303.71794886, 4122.30769203, 4151.15384595, 4167.69230749, 4138.84615364, 4139.87179467, 4123.33333306, 4160.51282031, 4138.20512800, 4159.61538441, 4137.69230749,12.0
4117.82051255, 4047.43589702, 4125.64102537, 4328.71794886, 4122.94871767, 4166.41025621, 4191.15384602, 4158.46153826, 4160.76923056, 4121.66666639, 4165.89743569, 4169.23076910, 4160.64102544, 4133.84615357,12.0
4119.74358947, 4050.38461497, 4129.87179460, 4303.58974373, 4120.38461511, 4153.58974339, 4180.38461525, 4147.43589723, 4132.43589716, 4122.17948691, 4158.84615364, 4149.87179467, 4158.46153826, 4134.61538434,12.0
4112.69230742, 4037.43589702, 4121.41025614, 4263.84615385, 4120.64102537, 4123.97435870, 4150.38461518, 4123.84615357, 4102.94871767, 4125.25640998, 4150.51282031, 4109.61538434, 4158.58974339, 4133.33333306,12.0
4123.71794844, 4038.20512779, 4125.51282024, 4255.38461539, 4123.84615357, 4117.69230742, 4139.23076903, 4118.97435870, 4099.10256376, 4125.38461511, 4146.79487159, 4098.84615350, 4159.35897415, 4135.89743569,12.0
4125.89743562, 4040.89743548, 4126.15384588, 4248.07692308, 4122.56410229, 4122.82051255, 4132.05128178, 4119.99999973, 4085.64102530, 4124.10256383, 4142.30769210, 4092.43589709, 4154.10256390, 4136.02564082,12.0
4123.58974332, 4040.51282010, 4124.48717921, 4244.61538462, 4119.99999973, 4126.15384588, 4137.56410236, 4121.41025614, 4085.64102530, 4124.10256383, 4145.25641005, 4095.12820478, 4153.58974339, 4136.15384595,12.0
4127.94871767, 4047.30769189, 4132.82051255, 4271.79487187, 4121.41025614, 4148.97435877, 4171.92307679, 4138.07692287, 4123.58974332, 4120.64102537, 4157.43589723, 4129.10256383, 4161.92307672, 4136.28205108,12.0
4119.61538434, 4042.94871754, 4128.58974332, 4282.17948725, 4121.66666639, 4163.97435877, 4186.53846140, 4152.56410236, 4137.56410236, 4119.61538434, 4158.07692287, 4137.17948697, 4161.41025621, 4135.51282031,12.0
4125.38461511, 4040.64102523, 4124.10256383, 4257.05128206, 4118.46153819, 4141.41025621, 4159.87179467, 4143.71794851, 4120.12820485, 4124.99999973, 4146.53846133, 4103.07692280, 4155.51282031, 4139.10256390,12.0
4125.12820485, 4037.43589702, 4124.35897408, 4251.53846154, 4117.30769203, 4127.17948691, 4136.02564082, 4131.41025614, 4123.33333306, 4124.74358947, 4143.46153826, 4096.28205094, 4157.17948697, 4135.76923056,12.0
4117.05128178, 4034.35897388, 4123.58974332, 4271.02564110, 4119.23076896, 4137.30769210, 4132.43589716, 4131.92307665, 4124.61538434, 4120.89743562, 4151.79487159, 4122.69230742, 4160.89743569, 4135.12820485,12.0
4119.35897408, 4040.38461497, 4122.05128178, 4279.74358982, 4121.79487152, 4151.66666646, 4155.51282031, 4138.46153826, 4116.53846126, 4121.66666639, 4154.87179467, 4131.79487152, 4159.10256390, 4138.20512800,12.0
4113.97435870, 4038.71794830, 4116.53846126, 4269.35897443, 4121.41025614, 4148.71794851, 4168.97435884, 4131.15384588, 4111.28205101, 4123.20512793, 4146.28205108, 4107.82051255, 4156.41025621, 4135.12820485,12.0
4121.28205101, 4039.35897395, 4121.53846126, 4257.17948718, 4119.23076896, 4133.84615357, 4142.43589723, 4112.94871767, 4092.82051248, 4123.07692280, 4141.53846133, 4086.53846119, 4157.94871774, 4136.66666646,12.0
4120.76923050, 4040.64102523, 4119.74358947, 4258.07692308, 4120.12820485, 4136.53846133, 4132.94871767, 4116.02564075, 4091.41025607, 4122.69230742, 4147.30769210, 4093.20512786, 4158.46153826, 4135.12820485,12.0
4110.38461511, 4041.15384574, 4115.76923050, 4269.61538469, 4122.94871767, 4144.87179467, 4146.79487159, 4132.17948691, 4114.99999973, 4122.69230742, 4150.51282031, 4104.99999973, 4160.51282031, 4133.84615357,12.0
4118.97435870, 4044.23076882, 4124.48717921, 4270.25641033, 4124.10256383, 4145.25641005, 4150.89743569, 4131.53846126, 4123.84615357, 4122.69230742, 4149.23076903, 4109.23076896, 4164.10256390, 4137.17948697,12.0
4115.38461511, 4038.33333292, 4122.30769203, 4255.38461539, 4121.66666639, 4145.12820492, 4154.10256390, 4123.46153819, 4114.61538434, 4124.23076896, 4149.48717928, 4110.64102537, 4159.48717928, 4134.99999973,12.0
4115.76923050, 4039.10256369, 4123.20512793, 4246.41025641, 4120.64102537, 4147.94871774, 4155.25641005, 4124.87179460, 4107.94871767, 4124.10256383, 4150.64102544, 4105.64102537, 4157.69230749, 4135.64102544,12.0
4122.05128178, 4040.89743548, 4124.61538434, 4243.46153847, 4121.79487152, 4138.58974339, 4142.17948697, 4127.30769203, 4105.25640998, 4121.66666639, 4147.56410236, 4089.99999966, 4159.35897415, 4135.38461518,12.0
4118.58974332, 4040.38461497, 4120.64102537, 4247.69230770, 4119.74358947, 4134.87179460, 4141.79487159, 4131.92307665, 4113.84615357, 4121.53846126, 4148.97435877, 4098.46153812, 4158.46153826, 4134.99999973,12.0
4123.97435870, 4051.02564061, 4127.69230742, 4255.38461539, 4120.25640998, 4153.84615364, 4153.71794851, 4133.58974332, 4123.46153819, 4122.94871767, 4156.28205108, 4128.71794844, 4159.35897415, 4138.58974339,12.0
4117.17948691, 4048.33333292, 4123.07692280, 4240.00000000, 4121.41025614, 4153.46153826, 4138.84615364, 4123.84615357, 4111.41025614, 4123.33333306, 4147.69230749, 4117.30769203, 4157.43589723, 4137.05128185,12.0
4117.56410229, 4044.23076882, 4121.41025614, 4224.61538455, 4117.69230742, 4140.89743569, 4135.12820485, 4123.33333306, 4107.05128178, 4121.66666639, 4141.53846133, 4095.38461504, 4157.94871774, 4139.87179467,12.0
4127.05128178, 4049.35897395, 4127.43589716, 4228.46153840, 4116.66666639, 4153.46153826, 4157.69230749, 4129.87179460, 4119.48717921, 4122.82051255, 4150.76923056, 4107.17948691, 4162.17948697, 4141.41025621,12.0
4118.07692280, 4044.74358933, 4118.97435870, 4235.64102564, 4120.51282024, 4166.53846133, 4164.74358954, 4133.97435870, 4125.38461511, 4124.23076896, 4154.99999980, 4124.61538434, 4160.64102544, 4138.07692287,12.0
4120.76923050, 4046.15384574, 4120.38461511, 4254.74358975, 4121.53846126, 4166.79487159, 4163.07692287, 4136.79487159, 4129.48717921, 4124.23076896, 4158.84615364, 4138.07692287, 4158.84615364, 4140.89743569,12.0
4122.05128178, 4049.48717907, 4123.33333306, 4267.56410264, 4119.74358947, 4174.23076910, 4161.92307672, 4133.20512793, 4131.79487152, 4130.25640998, 4163.46153826, 4141.15384595, 4159.99999980, 4138.84615364,12.0
4119.61538434, 4049.61538420, 4119.48717921, 4246.28205129, 4118.71794844, 4169.61538448, 4145.38461518, 4119.10256383, 4116.02564075, 4135.38461518, 4157.56410236, 4119.23076896, 4160.38461518, 4136.41025621,12.0
4120.38461511, 4049.74358933, 4119.48717921, 4227.69230763, 4119.99999973, 4145.51282031, 4126.28205101, 4113.33333306, 4103.84615357, 4131.79487152, 4151.41025621, 4106.53846126, 4160.64102544, 4138.46153826,12.0
4111.66666639, 4047.17948677, 4119.48717921, 4239.23076923, 4120.89743562, 4152.17948697, 4145.89743569, 4135.12820485, 4125.51282024, 4127.30769203, 4157.94871774, 4129.61538434, 4160.89743569, 4136.53846133,12.0
4118.33333306, 4053.58974318, 4125.38461511, 4251.02564103, 4121.02564075, 4174.10256397, 4174.87179474, 4150.89743569, 4148.33333313, 4125.12820485, 4164.87179467, 4141.66666646, 4162.56410236, 4136.41025621,12.0
4118.84615357, 4049.87179446, 4121.79487152, 4230.12820506, 4120.76923050, 4148.58974339, 4148.71794851, 4134.35897408, 4124.35897408, 4120.76923050, 4156.92307672, 4110.76923050, 4162.94871774, 4135.12820485,12.0
4116.79487152, 4041.28205087, 4120.25640998, 4202.82051275, 4121.15384588, 4127.82051255, 4127.82051255, 4120.64102537, 4093.33333299, 4121.02564075, 4147.56410236, 4086.79487145, 4162.17948697, 4134.87179460,12.0
4124.87179460, 4045.51282010, 4126.28205101, 4202.69230763, 4123.46153819, 4152.05128185, 4154.35897415, 4131.66666639, 4117.43589716, 4126.66666639, 4148.97435877, 4096.41025607, 4160.38461518, 4135.64102544,12.0
4119.10256383, 4040.64102523, 4120.51282024, 4195.76923063, 4123.33333306, 4142.05128185, 4136.66666646, 4128.84615357, 4124.48717921, 4125.25640998, 4147.56410236, 4083.58974325, 4154.87179467, 4134.61538434,12.0
4121.41025614, 4035.38461490, 4122.43589716, 4171.02564089, 4122.05128178, 4115.12820485, 4094.10256376, 4105.12820485, 4078.46153812, 4123.33333306, 4141.41025621, 4053.46153805, 4155.12820492, 4137.43589723,12.0
4118.58974332, 4039.74358933, 4126.79487152, 4187.82051269, 4121.02564075, 4146.79487159, 4130.76923050, 4120.38461511, 4100.12820478, 4124.74358947, 4148.58974339, 4082.43589709, 4160.64102544, 4134.61538434,12.0
4119.48717921, 4048.84615343, 4129.99999973, 4239.87179488, 4120.76923050, 4188.71794858, 4197.69230756, 4164.35897415, 4175.25641012, 4123.71794844, 4162.56410236, 4139.23076903, 4162.69230749, 4135.51282031,12.0
4130.25640998, 4052.05128164, 4133.71794844, 4242.43589744, 4125.64102537, 4167.05128185, 4177.43589730, 4151.79487159, 4156.02564082, 4121.79487152, 4158.46153826, 4126.41025614, 4161.92307672, 4138.71794851,12.0
4119.61538434, 4039.10256369, 4123.84615357, 4194.48717935, 4128.33333306, 4120.89743562, 4102.69230742, 4092.69230735, 4072.56410222, 4121.79487152, 4141.53846133, 4069.74358940, 4158.97435877, 4134.61538434,12.0
4121.79487152, 4042.69230728, 4125.51282024, 4186.28205115, 4122.94871767, 4130.64102537, 4105.25640998, 4087.69230735, 4070.89743555, 4122.82051255, 4143.58974339, 4079.74358940, 4159.23076903, 4136.53846133,12.0
4126.28205101, 4052.17948677, 4130.89743562, 4233.97435898, 4119.74358947, 4175.51282038, 4178.84615371, 4137.69230749, 4136.79487159, 4123.84615357, 4159.74358954, 4138.20512800, 4162.30769210, 4138.07692287,12.0
4120.51282024, 4047.94871754, 4127.43589716, 4254.61538462, 4123.97435870, 4178.46153833, 4199.10256397, 4157.94871774, 4161.66666646, 4125.25640998, 4163.84615364, 4151.15384595, 4163.84615364, 4139.99999980,12.0
4124.74358947, 4050.12820472, 4130.89743562, 4232.17948711, 4123.46153819, 4158.58974339, 4163.71794851, 4150.12820492, 4150.64102544, 4122.82051255, 4156.66666646, 4126.28205101, 4163.58974339, 4138.71794851,12.0
4114.74358947, 4048.71794830, 4124.74358947, 4233.46153840, 4118.33333306, 4168.84615371, 4161.66666646, 4147.56410236, 4148.58974339, 4120.51282024, 4151.53846133, 4116.02564075, 4160.64102544, 4134.87179460,12.0
4111.53846126, 4046.79487138, 4119.87179460, 4235.89743590, 4118.33333306, 4163.71794851, 4151.15384595, 4120.51282024, 4116.02564075, 4122.43589716, 4149.87179467, 4105.38461511, 4157.82051262, 4140.51282031,12.0
4115.64102537, 4046.41025600, 4120.12820485, 4197.56410243, 4120.12820485, 4127.05128178, 4107.94871767, 4090.76923043, 4078.58974325, 4122.43589716, 4145.89743569, 4085.76923043, 4155.12820492, 4137.05128185,12.0
4112.43589716, 4046.02564061, 4118.07692280, 4189.10256397, 4122.43589716, 4129.48717921, 4115.51282024, 4109.87179460, 4104.35897408, 4121.41025614, 4145.38461518, 4092.94871761, 4154.23076903, 4131.41025614,12.0
4118.97435870, 4056.92307651, 4123.71794844, 4227.17948711, 4123.84615357, 4156.53846133, 4144.87179467, 4124.61538434, 4126.15384588, 4122.69230742, 4148.71794851, 4104.74358947, 4157.82051262, 4137.56410236,12.0
4114.87179460, 4058.84615343, 4118.97435870, 4223.07692301, 4123.58974332, 4149.48717928, 4140.64102544, 4107.30769203, 4097.56410222, 4122.56410229, 4143.20512800, 4083.46153812, 4157.05128185, 4139.10256390,12.0
4117.30769203, 4061.79487138, 4120.25640998, 4193.97435884, 4124.10256383, 4124.87179460, 4126.92307665, 4105.12820485, 4090.51282017, 4120.89743562, 4137.69230749, 4071.15384581, 4154.48717928, 4136.41025621,12.0
4123.46153819, 4068.07692266, 4127.43589716, 4203.46153840, 4122.17948691, 4126.28205101, 4122.56410229, 4112.43589716, 4114.61538434, 4120.76923050, 4143.71794851, 4088.46153812, 4155.25641005, 4132.94871767,12.0
4117.43589716, 4065.25640984, 4122.82051255, 4222.94871788, 4122.30769203, 4150.38461518, 4129.61538434, 4117.43589716, 4126.15384588, 4121.41025614, 4151.02564082, 4107.43589716, 4157.30769210, 4134.35897408,12.0
4124.48717921, 4074.35897402, 4125.12820485, 4209.74358968, 4123.97435870, 4147.69230749, 4134.23076896, 4117.69230742, 4124.61538434, 4122.56410229, 4144.99999980, 4109.10256383, 4160.12820492, 4136.79487159,12.0
4119.61538434, 4081.41025607, 4122.43589716, 4181.15384602, 4121.79487152, 4113.46153819, 4114.23076896, 4103.97435870, 4107.05128178, 4123.84615357, 4136.53846133, 4087.82051248, 4156.53846133, 4132.82051255,12.0
4118.97435870, 4081.53846119, 4121.79487152, 4181.79487166, 4122.56410229, 4120.12820485, 4108.20512793, 4108.97435870, 4105.51282024, 4123.46153819, 4148.58974339, 4086.41025607, 4155.89743569, 4138.97435877,12.0
4127.43589716, 4083.20512786, 4123.71794844, 4196.28205115, 4122.17948691, 4153.97435877, 4134.48717921, 4126.66666639, 4134.35897408, 4122.43589716, 4159.74358954, 4114.48717921, 4159.74358954, 4142.43589723,12.0
4119.74358947, 4086.28205094, 4118.58974332, 4190.64102551, 4119.35897408, 4142.56410236, 4141.15384595, 4125.64102537, 4149.99999980, 4123.07692280, 4155.25641005, 4124.99999973, 4157.69230749, 4133.84615357,12.0
4123.84615357, 4093.84615350, 4122.56410229, 4176.28205115, 4121.92307665, 4114.74358947, 4119.10256383, 4113.58974332, 4136.02564082, 4126.28205101, 4153.07692287, 4119.23076896, 4159.48717928, 4134.61538434,12.0
4122.17948691, 4086.15384581, 4119.23076896, 4173.84615371, 4123.20512793, 4116.92307665, 4119.99999973, 4113.46153819, 4119.74358947, 4126.41025614, 4156.53846133, 4119.99999973, 4163.84615364, 4137.56410236,12.0
4120.64102537, 4079.99999966, 4116.79487152, 4185.76923063, 4122.17948691, 4137.43589723, 4148.71794851, 4120.38461511, 4120.76923050, 4123.20512793, 4163.58974339, 4122.56410229, 4164.87179467, 4138.46153826,12.0
4124.61538434, 4081.15384581, 4122.05128178, 4198.07692294, 4122.82051255, 4146.15384595, 4144.10256390, 4114.48717921, 4123.97435870, 4124.10256383, 4172.69230756, 4127.05128178, 4161.66666646, 4139.35897415,12.0
4112.69230742, 4072.30769196, 4117.05128178, 4230.38461532, 4122.56410229, 4136.53846133, 4120.64102537, 4116.92307665, 4128.46153819, 4125.51282024, 4176.79487166, 4135.76923056, 4158.46153826, 4135.64102544,12.0
4119.10256383, 4071.66666632, 4122.17948691, 4289.35897443, 4122.30769203, 4127.30769203, 4119.23076896, 4127.69230742, 4136.02564082, 4126.79487152, 4177.82051269, 4130.38461511, 4161.66666646, 4136.02564082,12.0
4121.66666639, 4071.02564068, 4123.84615357, 4353.33333355, 4122.30769203, 4125.12820485, 4115.51282024, 4116.79487152, 4125.38461511, 4125.89743562, 4175.25641012, 4111.15384588, 4161.53846133, 4134.48717921,12.0
4112.43589716, 4065.25640984, 4116.15384588, 4396.53846182, 4121.15384588, 4118.58974332, 4099.48717914, 4093.07692273, 4102.30769196, 4122.69230742, 4172.43589730, 4100.25640991, 4155.89743569, 4130.89743562,12.0
4121.02564075, 4065.89743548, 4122.94871767, 4433.46153888, 4122.82051255, 4118.20512793, 4104.61538434, 4091.02564068, 4105.76923050, 4125.89743562, 4185.51282038, 4115.25640998, 4157.56410236, 4135.89743569,12.0
4118.20512793, 4062.30769189, 4124.35897408, 4482.17948767, 4126.79487152, 4128.46153819, 4124.87179460, 4104.61538434, 4110.76923050, 4129.87179460, 4198.20512807, 4126.41025614, 4160.12820492, 4134.48717921,12.0
4119.48717921, 4064.87179446, 4124.23076896, 4508.97435953, 4124.87179460, 4130.51282024, 4124.48717921, 4103.20512793, 4088.07692273, 4126.15384588, 4196.53846140, 4116.66666639, 4158.07692287, 4132.05128178,12.0
4127.82051255, 4065.25640984, 4130.12820485, 4510.64102620, 4121.53846126, 4135.51282031, 4119.48717921, 4103.58974332, 4089.61538427, 4125.89743562, 4200.51282038, 4118.33333306, 4159.23076903, 4135.25640998,12.0
4122.17948691, 4059.10256369, 4127.69230742, 4530.76923140, 4122.94871767, 4140.25641005, 4119.99999973, 4109.87179460, 4112.43589716, 4133.46153819, 4210.89743583, 4131.15384588, 4158.07692287, 4134.74358947,12.0
4125.12820485, 4062.17948677, 4126.92307665, 4554.35897499, 4123.84615357, 4127.56410229, 4113.97435870, 4104.35897408, 4108.84615357, 4134.10256383, 4215.25641019, 4129.23076896, 4159.48717928, 4138.33333313,12.0
4122.30769203, 4056.41025600, 4122.43589716, 4528.33333389, 4121.66666639, 4101.41025607, 4091.79487145, 4097.82051248, 4087.05128171, 4126.41025614, 4205.38461532, 4107.05128178, 4162.94871774, 4136.41025621,12.0
4122.30769203, 4055.51282010, 4125.12820485, 4527.56410312, 4123.07692280, 4105.51282024, 4089.10256376, 4104.48717921, 4095.64102530, 4119.87179460, 4202.94871788, 4104.23076896, 4159.35897415, 4134.35897408,12.0
4125.38461511, 4062.82051241, 4129.10256383, 4592.82051352, 4126.28205101, 4154.48717928, 4136.28205108, 4123.84615357, 4129.35897408, 4123.71794844, 4216.53846147, 4132.82051255, 4160.76923056, 4138.84615364,12.0
4118.97435870, 4062.69230728, 4121.79487152, 4624.35897513, 4123.84615357, 4188.07692294, 4168.97435884, 4136.66666646, 4145.76923056, 4135.51282031, 4224.61538455, 4156.79487159, 4167.69230749, 4137.69230749,12.0
4126.41025614, 4060.76923036, 4120.25640998, 4596.02564179, 4123.58974332, 4153.46153826, 4134.87179460, 4117.30769203, 4125.76923050, 4135.25640998, 4218.84615378, 4141.66666646, 4166.28205108, 4137.17948697,12.0
4122.82051255, 4053.97435856, 4112.94871767, 4553.71794935, 4125.12820485, 4084.35897402, 4073.97435863, 4086.28205094, 4085.89743555, 4127.82051255, 4200.51282038, 4090.64102530, 4157.17948697, 4137.30769210,12.0
4119.48717921, 4057.17948677, 4113.97435870, 4528.84615441, 4123.84615357, 4073.46153812, 4063.58974318, 4087.30769196, 4073.97435863, 4131.15384588, 4186.41025628, 4072.43589709, 4155.38461518, 4138.46153826,12.0
4117.43589716, 4060.64102523, 4122.43589716, 4552.56410319, 4125.51282024, 4118.33333306, 4101.79487145, 4112.56410229, 4108.71794844, 4130.89743562, 4200.38461525, 4118.71794844, 4159.74358954, 4136.53846133,12.0
4111.66666639, 4058.07692266, 4125.89743562, 4606.79487256, 4132.56410229, 4149.10256390, 4130.51282024, 4132.94871767, 4151.79487159, 4121.79487152, 4225.38461532, 4172.56410243, 4163.07692287, 4135.76923056,12.0
4121.66666639, 4061.92307651, 4129.87179460, 4586.41025711, 4136.41025621, 4140.25641005, 4123.33333306, 4129.23076896, 4139.48717928, 4120.51282024, 4215.38461532, 4153.33333313, 4163.20512800, 4138.20512800,12.0
4114.35897408, 4048.71794830, 4114.61538434, 4505.00000056, 4127.94871767, 4110.12820485, 4085.64102530, 4101.02564068, 4081.15384581, 4124.74358947, 4183.46153833, 4084.35897402, 4153.33333313, 4131.28205101,12.0
4119.74358947, 4046.02564061, 4117.17948691, 4521.15384671, 4122.43589716, 4119.87179460, 4081.92307658, 4105.38461511, 4082.43589709, 4124.35897408, 4193.84615371, 4102.05128171, 4155.51282031, 4136.41025621,12.0
4129.35897408, 4065.25640984, 4137.82051262, 4611.79487256, 4126.79487152, 4174.35897422, 4140.51282031, 4160.64102544, 4174.99999986, 4123.20512793, 4230.89743583, 4207.56410250, 4171.02564089, 4141.02564082,12.0
4118.58974332, 4068.46153805, 4133.33333306, 4601.41025718, 4133.97435870, 4174.48717935, 4154.87179467, 4170.76923063, 4218.07692301, 4123.71794844, 4228.84615378, 4221.28205122, 4171.79487166, 4135.76923056,12.0
4126.92307665, 4061.92307651, 4123.84615357, 4509.10256466, 4132.56410229, 4120.25640998, 4084.48717914, 4105.51282024, 4134.74358947, 4124.74358947, 4195.76923063, 4120.38461511, 4160.64102544, 4138.46153826,12.0
4121.41025614, 4050.25640984, 4115.38461511, 4470.25641075, 4120.38461511, 4111.66666639, 4054.48717907, 4073.71794837, 4065.38461497, 4124.10256383, 4178.33333320, 4068.20512779, 4153.58974339, 4136.92307672,12.0
4115.64102537, 4042.17948677, 4114.23076896, 4461.41025683, 4120.38461511, 4112.43589716, 4074.10256376, 4093.46153812, 4078.84615350, 4122.56410229, 4177.69230756, 4076.28205094, 4153.20512800, 4137.05128185,12.0
4127.17948691, 4044.48717907, 4114.23076896, 4398.33333368, 4131.15384588, 4056.41025600, 4026.15384567, 4065.89743548, 4042.30769189, 4124.87179460, 4160.64102544, 4030.38461490, 4151.02564082, 4134.87179460,12.0
4121.15384588, 4035.89743541, 4097.56410222, 4318.33333348, 4136.15384595, 3995.64102509, 3964.61538399, 4026.41025593, 3960.38461476, 4126.66666639, 4131.15384588, 3959.74358912, 4144.48717928, 4130.64102537,12.0
4125.25640998, 4037.05128164, 4099.87179453, 4318.07692322, 4135.12820485, 3984.99999945, 3983.20512765, 4049.48717907, 3973.58974304, 4125.64102537, 4131.28205101, 3971.53846099, 4144.87179467, 4137.05128185,12.0
4128.07692280, 4045.64102523, 4114.23076896, 4367.69230797, 4134.48717921, 4024.48717900, 4034.23076875, 4077.43589709, 4034.61538413, 4125.51282024, 4154.74358954, 4029.48717900, 4151.92307672, 4137.30769210,12.0
4117.56410229, 4042.94871754, 4112.17948691, 4391.41025669, 4135.76923056, 4075.76923043, 4061.15384574, 4082.30769196, 4051.02564061, 4124.23076896, 4166.92307672, 4063.07692266, 4155.25641005, 4135.64102544,12.0
4125.12820485, 4043.97435856, 4109.99999973, 4362.82051303, 4137.17948697, 4062.56410215, 4031.15384567, 4073.46153812, 4033.84615336, 4121.53846126, 4159.48717928, 4046.28205087, 4151.28205108, 4136.92307672,12.0
4123.20512793, 4038.58974318, 4100.89743555, 4306.15384630, 4132.56410229, 4004.23076875, 3968.71794810, 4044.99999959, 4000.25640970, 4127.43589716, 4140.76923056, 3991.41025586, 4142.82051262, 4136.53846133,12.0
4116.41025614, 4044.99999959, 4098.97435863, 4318.58974373, 4127.17948691, 4020.12820465, 3972.17948663, 4038.07692266, 3996.53846099, 4139.10256390, 4144.87179467, 4007.30769183, 4145.89743569, 4141.92307672,12.0
4125.12820485, 4079.87179453, 4117.82051255, 4399.87179522, 4133.46153819, 4087.94871761, 4034.99999952, 4076.15384581, 4057.05128164, 4138.33333313, 4174.61538448, 4099.48717914, 4158.20512800, 4141.53846133,12.0
4118.07692280, 4093.33333299, 4119.23076896, 4419.23076958, 4131.66666639, 4096.66666632, 4067.56410215, 4107.17948691, 4102.56410229, 4123.46153819, 4185.76923063, 4132.82051255, 4159.48717928, 4134.61538434,12.0
4116.02564075, 4090.76923043, 4114.61538434, 4373.46153874, 4124.23076896, 4069.61538420, 4074.99999966, 4102.43589709, 4083.46153812, 4119.87179460, 4173.33333320, 4097.17948684, 4156.28205108, 4136.02564082,12.0
4119.61538434, 4091.15384581, 4116.41025614, 4367.94871823, 4131.02564075, 4073.46153812, 4073.84615350, 4094.23076889, 4078.20512786, 4131.66666639, 4164.74358954, 4080.25640991, 4153.97435877, 4136.15384595,12.0
4116.28205101, 4091.15384581, 4112.82051255, 4383.20512849, 4131.02564075, 4092.82051248, 4062.69230728, 4093.33333299, 4093.84615350, 4131.28205101, 4163.58974339, 4079.74358940, 4151.02564082, 4135.64102544,12.0
4122.17948691, 4098.84615350, 4117.43589716, 4379.10256438, 4126.92307665, 4108.33333306, 4082.94871761, 4102.56410229, 4089.61538427, 4122.17948691, 4164.48717928, 4077.05128171, 4154.87179467, 4138.07692287,12.0
4119.23076896, 4094.10256376, 4114.61538434, 4366.53846182, 4128.20512793, 4099.87179453, 4085.25640991, 4101.92307658, 4082.94871761, 4121.92307665, 4158.33333313, 4069.10256369, 4155.12820492, 4134.99999973,12.0
4123.33333306, 4091.28205094, 4112.43589716, 4340.89743611, 4127.43589716, 4062.05128164, 4029.48717900, 4076.41025607, 4084.61538427, 4124.35897408, 4150.25641005, 4047.94871754, 4150.64102544, 4134.87179460,12.0
4126.41025614, 4104.87179460, 4114.48717921, 4328.07692322, 4126.02564075, 4046.66666625, 4003.58974304, 4065.89743548, 4077.05128171, 4127.43589716, 4151.15384595, 4041.79487138, 4151.15384595, 4133.07692280,12.0
4123.20512793, 4113.46153819, 4110.38461511, 4337.30769252, 4124.74358947, 4063.58974318, 4027.94871747, 4079.48717914, 4058.46153805, 4134.61538434, 4149.87179467, 4052.05128164, 4152.56410236, 4132.30769203,12.0
4133.20512793, 4113.33333306, 4111.79487152, 4327.17948732, 4129.23076896, 4057.30769189, 4029.99999952, 4080.12820478, 4054.74358933, 4136.53846133, 4143.97435877, 4048.07692266, 4152.30769210, 4137.94871774,12.0
4126.28205101, 4104.23076896, 4106.92307665, 4305.64102578, 4131.66666639, 4034.61538413, 4017.05128157, 4072.56410222, 4061.02564061, 4128.33333306, 4142.17948697, 4038.71794830, 4148.46153826, 4137.43589723,12.0
4122.05128178, 4104.48717921, 4109.10256383, 4320.89743604, 4126.92307665, 4047.30769189, 4020.38461490, 4072.17948684, 4061.53846113, 4123.33333306, 4145.64102544, 4045.38461497, 4147.69230749, 4135.64102544,12.0
4121.53846126, 4108.84615357, 4113.20512793, 4351.53846175, 4127.43589716, 4083.84615350, 4037.43589702, 4083.71794837, 4082.30769196, 4125.12820485, 4150.51282031, 4063.20512779, 4152.56410236, 4135.25640998,12.0
4118.46153819, 4102.82051255, 4106.79487152, 4344.23076944, 4130.64102537, 4092.30769196, 4051.92307651, 4092.56410222, 4101.41025607, 4124.10256383, 4150.25641005, 4067.43589702, 4153.33333313, 4137.69230749,12.0
4122.94871767, 4097.17948684, 4104.48717921, 4322.05128219, 4127.56410229, 4072.30769196, 4040.38461497, 4077.05128171, 4073.71794837, 4122.17948691, 4145.12820492, 4050.89743548, 4150.25641005, 4139.99999980,12.0
4115.51282024, 4099.48717914, 4104.35897408, 4334.61538483, 4123.46153819, 4070.25640991, 4042.05128164, 4074.99999966, 4056.79487138, 4128.97435870, 4144.35897415, 4051.02564061, 4148.33333313, 4135.64102544,12.0
4117.82051255, 4113.07692280, 4112.30769203, 4351.53846175, 4126.92307665, 4086.92307658, 4063.84615343, 4093.84615350, 4082.30769196, 4137.69230749, 4147.69230749, 4069.10256369, 4151.66666646, 4137.56410236,12.0
4117.56410229, 4109.23076896, 4109.99999973, 4331.66666681, 4131.66666639, 4081.66666632, 4044.23076882, 4088.58974325, 4084.23076889, 4130.25640998, 4144.23076903, 4062.82051241, 4152.82051262, 4137.56410236,12.0
4112.43589716, 4095.51282017, 4102.94871767, 4314.48717963, 4131.66666639, 4056.02564061, 4009.48717900, 4073.07692273, 4058.84615343, 4119.99999973, 4138.33333313, 4041.66666625, 4149.23076903, 4133.58974332,12.0
4119.74358947, 4103.84615357, 4113.20512793, 4335.64102585, 4128.20512793, 4067.17948677, 4029.87179439, 4083.71794837, 4073.58974325, 4123.46153819, 4142.94871774, 4051.92307651, 4153.07692287, 4135.25640998,12.0
4116.66666639, 4107.43589716, 4115.89743562, 4350.51282073, 4124.61538434, 4100.89743555, 4066.79487138, 4101.53846119, 4108.97435870, 4126.92307665, 4150.64102544, 4076.53846119, 4154.99999980, 4134.99999973,12.0
4121.41025614, 4109.23076896, 4117.69230742, 4342.82051303, 4127.56410229, 4103.84615357, 4072.82051248, 4099.61538427, 4110.25640998, 4123.33333306, 4151.53846133, 4085.89743555, 4152.69230749, 4138.20512800,12.0
4122.56410229, 4114.61538434, 4119.74358947, 4348.71794893, 4132.17948691, 4105.25640998, 4089.48717914, 4101.02564068, 4112.30769203, 4122.56410229, 4151.79487159, 4097.17948684, 4154.87179467, 4136.41025621,12.0
4120.51282024, 4115.38461511, 4118.58974332, 4359.48717970, 4130.12820485, 4126.92307665, 4106.79487152, 4112.30769203, 4142.30769210, 4124.23076896, 4156.66666646, 4110.51282024, 4155.64102544, 4132.43589716,12.0
4128.84615357, 4118.71794844, 4125.12820485, 4360.00000021, 4125.38461511, 4132.82051255, 4095.12820478, 4116.66666639, 4162.05128185, 4123.07692280, 4161.92307672, 4113.07692280, 4155.76923056, 4137.82051262,12.0
4119.74358947, 4118.20512793, 4123.46153819, 4364.35897457, 4128.46153819, 4125.38461511, 4101.66666632, 4122.94871767, 4157.30769210, 4123.20512793, 4161.02564082, 4115.51282024, 4158.58974339, 4139.10256390,12.0
4124.10256383, 4121.28205101, 4123.07692280, 4352.56410278, 4133.84615357, 4118.46153819, 4109.61538434, 4117.30769203, 4134.61538434, 4124.48717921, 4158.33333313, 4116.15384588, 4159.35897415, 4138.84615364,12.0
4129.61538434, 4117.43589716, 4117.05128178, 4319.87179501, 4126.53846126, 4089.10256376, 4059.99999959, 4087.05128171, 4098.58974325, 4121.41025614, 4155.64102544, 4093.84615350, 4154.10256390, 4139.61538441,12.0
4117.43589716, 4113.07692280, 4109.48717921, 4326.28205142, 4123.71794844, 4093.58974325, 4051.02564061, 4093.07692273, 4108.58974332, 4120.25640998, 4156.41025621, 4092.17948684, 4152.43589723, 4138.58974339,12.0
4123.07692280, 4125.64102537, 4119.48717921, 4359.61538483, 4133.20512793, 4145.51282031, 4103.58974332, 4124.87179460, 4151.53846133, 4123.20512793, 4165.25641005, 4129.87179460, 4159.87179467, 4138.20512800,12.0
4120.76923050, 4123.33333306, 4115.89743562, 4346.92307714, 4133.58974332, 4133.46153819, 4089.48717914, 4110.89743562, 4145.64102544, 4123.71794844, 4168.20512807, 4129.99999973, 4159.61538441, 4137.17948697,12.0
4119.35897408, 4121.15384588, 4111.79487152, 4330.00000014, 4132.94871767, 4095.51282017, 4068.20512779, 4101.15384581, 4131.53846126, 4122.05128178, 4164.23076903, 4105.12820485, 4154.35897415, 4140.51282031,12.0
4121.02564075, 4127.82051255, 4114.23076896, 4333.58974380, 4134.10256383, 4108.71794844, 4087.43589709, 4110.25640998, 4131.41025614, 4122.56410229, 4157.82051262, 4102.94871767, 4153.84615364, 4137.69230749,12.0
4113.46153819, 4123.46153819, 4109.61538434, 4323.07692322, 4132.94871767, 4117.05128178, 4072.43589709, 4089.61538427, 4101.02564068, 4122.82051255, 4152.94871774, 4102.56410229, 4155.38461518, 4134.48717921,12.0
4121.02564075, 4126.66666639, 4113.58974332, 4318.84615399, 4132.43589716, 4101.53846119, 4061.15384574, 4078.58974325, 4084.74358940, 4122.56410229, 4158.97435877, 4101.66666632, 4157.30769210, 4139.10256390,12.0
4114.23076896, 4130.76923050, 4112.43589716, 4324.87179501, 4129.61538434, 4106.28205101, 4083.20512786, 4101.92307658, 4110.51282024, 4123.46153819, 4160.51282031, 4106.92307665, 4154.10256390, 4134.23076896,12.0
4114.48717921, 4134.99999973, 4114.99999973, 4318.97435912, 4130.89743562, 4131.41025614, 4086.53846119, 4111.53846126, 4118.46153819, 4123.46153819, 4154.87179467, 4109.61538434, 4153.20512800, 4132.94871767,12.0
4124.10256383, 4140.51282031, 4121.41025614, 4317.94871809, 4130.89743562, 4142.82051262, 4087.17948684, 4107.43589716, 4117.69230742, 4122.94871767, 4154.99999980, 4116.28205101, 4157.43589723, 4135.64102544,12.0
4117.05128178, 4139.48717928, 4117.56410229, 4323.07692322, 4128.97435870, 4116.79487152, 4090.38461504, 4110.89743562, 4128.97435870, 4122.94871767, 4154.23076903, 4117.43589716, 4156.02564082, 4133.07692280,12.0
4124.61538434, 4144.99999980, 4122.43589716, 4311.02564117, 4131.53846126, 4087.82051248, 4062.05128164, 4098.71794837, 4120.12820485, 4126.15384588, 4149.48717928, 4102.56410229, 4153.20512800, 4135.12820485,12.0
4121.66666639, 4139.35897415, 4119.74358947, 4294.87179495, 4132.17948691, 4103.07692280, 4049.48717907, 4083.46153812, 4105.51282024, 4127.69230742, 4146.41025621, 4090.25640991, 4152.30769210, 4134.61538434,12.0
4119.35897408, 4138.07692287, 4118.46153819, 4299.10256418, 4131.02564075, 4132.82051255, 4078.46153812, 4097.94871761, 4108.33333306, 4125.38461511, 4146.66666646, 4098.46153812, 4153.71794851, 4136.15384595,12.0
4127.43589716, 4147.43589723, 4127.82051255, 4318.71794886, 4130.12820485, 4136.53846133, 4109.48717921, 4120.12820485, 4128.97435870, 4123.33333306, 4154.99999980, 4129.74358947, 4157.17948697, 4135.12820485,12.0
4119.35897408, 4150.25641005, 4122.43589716, 4335.76923098, 4130.51282024, 4125.38461511, 4107.05128178, 4117.69230742, 4149.74358954, 4123.58974332, 4164.23076903, 4151.92307672, 4156.92307672, 4134.87179460,12.0
4128.71794844, 4184.61538448, 4121.28205101, 4335.38461560, 4130.12820485, 4118.84615357, 4070.25640991, 4093.07692273, 4136.79487159, 4125.25640998, 4160.25641005, 4137.05128185, 4155.25641005, 4144.87179467,12.0
4126.02564075, 4227.43589737, 4117.56410229, 4321.53846168, 4128.71794844, 4117.69230742, 4057.17948677, 4086.79487145, 4104.10256383, 4124.23076896, 4147.94871774, 4116.15384588, 4152.94871774, 4141.02564082,12.0
4115.76923050, 4240.12820513, 4115.89743562, 4317.05128219, 4132.43589716, 4122.94871767, 4087.56410222, 4112.30769203, 4106.28205101, 4124.10256383, 4146.92307672, 4124.87179460, 4152.56410236, 4136.28205108,12.0
4125.12820485, 4235.76923077, 4120.64102537, 4311.66666681, 4128.58974332, 4118.58974332, 4089.10256376, 4114.23076896, 4123.33333306, 4123.46153819, 4151.92307672, 4128.20512793, 4155.25641005, 4138.58974339,12.0
4118.46153819, 4223.33333327, 4106.92307665, 4274.10256418, 4120.12820485, 4086.92307658, 4043.33333292, 4078.71794837, 4098.58974325, 4121.28205101, 4142.56410236, 4091.66666632, 4151.15384595, 4135.12820485,12.0
4118.97435870, 4226.66666660, 4110.64102537, 4279.48717956, 4128.84615357, 4104.23076896, 4071.15384581, 4095.38461504, 4106.41025614, 4121.15384588, 4142.56410236, 4103.33333306, 4152.69230749, 4136.79487159,12.0
4120.64102537, 4234.10256411, 4122.56410229, 4341.02564124, 4133.46153819, 4163.33333313, 4145.89743569, 4146.28205108, 4172.56410243, 4124.87179460, 4158.97435877, 4173.46153833, 4159.99999980, 4137.43589723,12.0
4112.94871767, 4227.94871788, 4117.82051255, 4328.71794886, 4128.71794844, 4150.51282031, 4116.79487152, 4127.17948691, 4172.30769217, 4125.12820485, 4158.84615364, 4168.58974345, 4155.64102544, 4133.07692280,12.0
4122.43589716, 4226.28205122, 4118.84615357, 4263.84615385, 4129.74358947, 4107.56410229, 4064.74358933, 4090.12820478, 4122.82051255, 4124.35897408, 4146.79487159, 4116.66666639, 4151.79487159, 4132.30769203,12.0
4120.25640998, 4226.79487173, 4117.82051255, 4273.84615392, 4132.82051255, 4129.35897408, 4103.97435870, 4116.79487152, 4142.94871774, 4132.56410229, 4149.35897415, 4138.46153826, 4154.74358954, 4132.56410229,12.0
4119.10256383, 4231.79487173, 4122.43589716, 4304.61538476, 4132.69230742, 4149.23076903, 4127.30769203, 4136.79487159, 4169.61538448, 4134.23076896, 4158.33333313, 4173.71794858, 4157.69230749, 4135.25640998,12.0
4126.66666639, 4233.97435898, 4128.46153819, 4261.79487180, 4129.87179460, 4110.89743562, 4088.71794837, 4106.15384588, 4130.76923050, 4124.23076896, 4149.10256390, 4139.23076903, 4156.66666646, 4134.48717921,12.0
4120.76923050, 4228.84615378, 4124.61538434, 4237.17948718, 4129.87179460, 4102.30769196, 4098.07692273, 4105.76923050, 4132.82051255, 4125.64102537, 4142.43589723, 4125.25640998, 4155.12820492, 4132.82051255,12.0
4123.58974332, 4235.64102564, 4126.92307665, 4258.97435898, 4128.71794844, 4129.23076896, 4112.82051255, 4118.97435870, 4162.82051262, 4133.58974332, 4150.25641005, 4150.76923056, 4156.41025621, 4137.94871774,12.0
4124.35897408, 4234.61538462, 4120.25640998, 4229.48717942, 4128.58974332, 4111.15384588, 4065.25640984, 4093.33333299, 4119.48717921, 4127.69230742, 4142.17948697, 4120.64102537, 4154.99999980, 4136.41025621,12.0
4124.10256383, 4229.48717942, 4118.07692280, 4208.20512814, 4131.92307665, 4089.87179453, 4067.43589702, 4105.89743562, 4109.99999973, 4121.53846126, 4135.12820485, 4103.71794844, 4155.38461518, 4132.56410229,12.0
4130.38461511, 4245.00000000, 4137.43589723, 4269.10256418, 4129.74358947, 4128.71794844, 4133.46153819, 4152.17948697, 4195.51282038, 4123.20512793, 4160.38461518, 4173.33333320, 4159.61538441, 4135.51282031,12.0
4121.28205101, 4248.58974359, 4133.33333306, 4302.17948732, 4125.64102537, 4154.48717928, 4141.41025621, 4137.82051262, 4212.69230763, 4121.02564075, 4173.07692294, 4208.84615378, 4159.48717928, 4136.66666646,12.0
4121.28205101, 4241.02564103, 4118.84615357, 4260.76923077, 4128.33333306, 4130.76923050, 4103.58974332, 4099.23076889, 4140.38461518, 4123.07692280, 4154.61538441, 4163.71794851, 4156.53846133, 4137.30769210,12.0
4124.10256383, 4243.07692308, 4121.79487152, 4239.23076923, 4134.74358947, 4123.20512793, 4112.82051255, 4117.56410229, 4139.23076903, 4128.46153819, 4149.87179467, 4145.38461518, 4156.66666646, 4136.79487159,12.0
4115.89743562, 4242.82051282, 4119.87179460, 4236.79487180, 4133.58974332, 4123.33333306, 4125.76923050, 4134.10256383, 4177.82051269, 4125.64102537, 4148.97435877, 4155.51282031, 4155.51282031, 4137.56410236,12.0
4119.23076896, 4240.76923077, 4115.76923050, 4210.64102558, 4129.87179460, 4117.05128178, 4109.35897408, 4110.38461511, 4156.41025621, 4119.61538434, 4137.43589723, 4140.25641005, 4153.33333313, 4137.82051262,12.0
4115.51282024, 4238.46153847, 4116.28205101, 4190.64102551, 4129.23076896, 4132.17948691, 4115.64102537, 4116.92307665, 4142.05128185, 4121.92307665, 4139.87179467, 4132.43589716, 4153.46153826, 4134.48717921,12.0
4114.10256383, 4238.46153847, 4120.12820485, 4161.66666646, 4129.99999973, 4137.56410236, 4130.64102537, 4136.28205108, 4153.71794851, 4125.12820485, 4139.99999980, 4134.74358947, 4154.48717928, 4138.46153826,12.0
4120.51282024, 4241.66666667, 4119.87179460, 4118.97435870, 4134.74358947, 4132.69230742, 4131.28205101, 4130.12820485, 4154.87179467, 4122.82051255, 4129.10256383, 4136.28205108, 4153.71794851, 4139.48717928,12.0
4115.64102537, 4246.41025641, 4121.66666639, 4108.84615357, 4131.92307665, 4131.66666639, 4116.79487152, 4121.15384588, 4159.87179467, 4121.66666639, 4133.84615357, 4154.48717928, 4153.33333313, 4134.74358947,12.0
4121.15384588, 4249.61538462, 4122.05128178, 4075.25640991, 4128.33333306, 4123.20512793, 4112.69230742, 4123.20512793, 4167.43589723, 4123.07692280, 4140.51282031, 4141.41025621, 4155.64102544, 4135.89743569,12.0
4121.41025614, 4237.30769231, 4100.12820478, 3961.02564040, 4132.17948691, 4126.92307665, 4131.79487152, 4130.38461511, 4153.71794851, 4123.58974332, 4122.82051255, 4081.41025607, 4155.25641005, 4134.87179460,12.0
4119.23076896, 4246.92307693, 4106.28205101, 3948.07692246, 4130.38461511, 4134.35897408, 4122.05128178, 4119.48717921, 4137.56410236, 4123.07692280, 4123.71794844, 4107.05128178, 4154.10256390, 4135.89743569,12.0
4125.25640998, 4261.41025641, 4134.10256383, 4117.05128178, 4128.71794844, 4114.23076896, 4095.12820478, 4097.69230735, 4138.84615364, 4125.89743562, 4155.64102544, 4177.43589730, 4154.61538441, 4136.28205108,12.0
4118.20512793, 4225.12820506, 4122.82051255, 4193.46153833, 4133.58974332, 4098.20512786, 4095.25640991, 4096.66666632, 4122.56410229, 4128.07692280, 4164.23076903, 4125.38461511, 4152.05128185, 4132.82051255,12.0
4123.07692280, 4199.48717935, 4111.15384588, 4124.35897408, 4131.28205101, 4113.97435870, 4097.30769196, 4107.94871767, 4104.61538434, 4122.69230742, 4153.71794851, 4067.56410215, 4150.25641005, 4134.10256383,12.0
4126.53846126, 4218.97435891, 4123.58974332, 4157.43589723, 4121.79487152, 4124.61538434, 4100.38461504, 4121.53846126, 4132.56410229, 4119.10256383, 4166.79487159, 4137.30769210, 4148.84615364, 4134.48717921,12.0
4123.71794844, 4247.69230770, 4132.56410229, 4291.92307700, 4125.38461511, 4114.23076896, 4123.46153819, 4143.71794851, 4159.35897415, 4123.33333306, 4243.33333334, 4187.30769217, 4147.43589723, 4136.79487159,12.0
4131.15384588, 4268.71794879, 4138.71794851, 4359.35897457, 4136.15384595, 4111.66666639, 4132.17948691, 4170.25641012, 4148.33333313, 4124.48717921, 4382.94871823, 4142.43589723, 4148.58974339, 4138.84615364,12.0
4118.84615357, 4282.82051289, 4147.05128185, 4358.20512842, 4133.97435870, 4121.53846126, 4122.05128178, 4188.33333320, 4137.94871774, 4120.38461511, 4271.92307700, 4122.05128178, 4148.84615364, 4134.61538434,12.0
4117.05128178, 4302.05128219, 4162.56410236, 4363.46153867, 4131.15384588, 4134.87179460, 4130.25640998, 4194.87179474, 4129.61538434, 4121.66666639, 4251.15384616, 4143.20512800, 4149.99999980, 4138.84615364,12.0
4125.12820485, 4316.41025655, 4169.99999986, 4390.00000028, 4136.02564082, 4124.10256383, 4131.79487152, 4197.43589730, 4116.28205101, 4124.48717921, 4491.28205177, 4142.17948697, 4149.35897415, 4140.25641005,12.0
4111.79487152, 4327.17948732, 4160.89743569, 4381.02564131, 4134.74358947, 4088.33333299, 4097.69230735, 4185.25641012, 4116.66666639, 4121.66666639, 3627.05128073, 4120.89743562, 4145.64102544, 4135.38461518,12.0
4106.66666639, 4350.38461560, 4167.05128185, 4314.35897450, 4131.79487152, 4073.58974325, 4073.46153812, 4157.05128185, 4096.79487145, 4123.33333306, 1547.05127636, 4108.20512793, 4144.23076903, 4139.61538441,12.0
4100.25640991, 4371.53846182, 4174.99999986, 4284.10256418, 4134.35897408, 4080.76923043, 4086.66666632, 4155.12820492, 4056.15384574, 4126.41025614, 443.20512015, 4124.35897408, 4144.61538441, 4138.46153826,12.0
4094.87179453, 4381.53846182, 4172.17948704, 4286.41025648, 4134.48717921, 4060.12820472, 4081.53846119, 4161.15384595, 4036.02564054, 4124.10256383, 736.15383872, 4131.02564075, 4145.38461518, 4137.82051262,12.0
4095.25640991, 4381.41025669, 4170.89743576, 4248.46153847, 4134.35897408, 4015.51282003, 4041.41025600, 4141.02564082, 4031.53846106, 4127.17948691, 841.79486457, 4105.12820485, 4142.30769210, 4136.92307672,12.0
4088.33333299, 4380.89743618, 4169.74358961, 4244.35897436, 4134.61538434, 4022.82051234, 4046.02564061, 4141.53846133, 4042.43589702, 4133.71794844, 666.79486422, 4107.43589716, 4142.17948697, 4131.53846126,12.0
4091.15384581, 4391.15384644, 4180.89743576, 4283.07692315, 4134.87179460, 4071.79487145, 4082.30769196, 4168.33333320, 4065.89743548, 4133.58974332, 750.51281308, 4140.25641005, 4148.33333313, 4135.89743569,12.0
4086.79487145, 4392.05128233, 4180.38461525, 4272.05128212, 4134.35897408, 4073.33333299, 4078.46153812, 4172.30769217, 4072.94871761, 4126.66666639, 797.94871066, 4141.92307672, 4144.74358954, 4135.51282031,12.0
4085.25640991, 4391.79487208, 4173.46153833, 4234.23076923, 4131.92307665, 4054.35897395, 4074.48717914, 4163.33333313, 4069.35897395, 4122.69230742, 807.30768502, 4134.61538434, 4141.79487159, 4137.69230749,12.0
4088.33333299, 4397.30769259, 4178.84615371, 4204.35897429, 4132.43589716, 4065.64102523, 4094.61538427, 4165.89743569, 4068.33333292, 4127.82051255, 807.05127476, 4145.89743569, 4148.33333313, 4142.17948697,12.0
4079.87179453, 4391.53846182, 4173.33333320, 4178.58974345, 4128.46153819, 4072.17948684, 4097.82051248, 4172.94871781, 4068.07692266, 4134.23076896, 799.87178758, 4148.97435877, 4149.35897415, 4136.41025621,12.0
4083.33333299, 4392.56410285, 4167.82051262, 4166.66666646, 4121.66666639, 4056.41025600, 4075.76923043, 4167.94871774, 4067.30769189, 4131.02564075, 803.84614655, 4139.74358954, 4148.46153826, 4135.25640998,12.0
4080.51282017, 4393.20512849, 4164.48717928, 4122.82051255, 4126.79487152, 4034.99999952, 4051.28205087, 4157.43589723, 4058.07692266, 4125.89743562, 805.12819784, 4120.25640998, 4147.56410236, 4136.79487159,12.0
4075.76923043, 4390.76923105, 4162.94871774, 4062.94871754, 4137.30769210, 4037.56410215, 4061.41025600, 4171.41025628, 4075.51282017, 4130.12820485, 804.35896707, 4123.97435870, 4147.69230749, 4139.23076903,12.0
4072.82051248, 4389.23076951, 4159.35897415, 4038.71794830, 4137.82051262, 4071.92307658, 4104.48717921, 4202.43589737, 4123.20512793, 4130.76923050, 804.99999271, 4169.23076910, 4152.17948697, 4139.87179467,12.0
4067.94871754, 4373.33333362, 4144.87179467, 3985.12820458, 4134.87179460, 4088.84615350, 4110.89743562, 4202.17948711, 4123.97435870, 4124.10256383, 804.74358245, 4183.84615371, 4152.17948697, 4138.71794851,12.0
4074.99999966, 4357.82051303, 4143.58974339, 3881.15384539, 4136.92307672, 4078.33333299, 4092.30769196, 4182.43589730, 4101.28205094, 4124.10256383, 804.74358245, 4160.12820492, 4151.79487159, 4140.51282031,12.0
4061.41025600, 4341.79487201, 4143.46153826, 3833.97435807, 4138.07692287, 4093.71794837, 4116.02564075, 4184.48717935, 4122.05128178, 4127.43589716, 804.74358245, 4162.94871774, 4153.71794851, 4138.33333313,12.0
4054.87179446, 4320.25641040, 4142.05128185, 3848.71794789, 4136.15384595, 4111.15384588, 4127.43589716, 4176.92307679, 4133.46153819, 4123.20512793, 804.74358245, 4171.53846140, 4152.69230749, 4135.89743569,12.0
4059.61538420, 4296.15384623, 4139.35897415, 3835.25640936, 4133.97435870, 4087.17948684, 4097.94871761, 4145.76923056, 4110.25640998, 4121.41025614, 804.74358245, 4158.33333313, 4151.53846133, 4133.84615357,12.0
4054.10256369, 4277.05128212, 4136.41025621, 3813.46153756, 4137.82051262, 4084.87179453, 4101.79487145, 4138.97435877, 4108.84615357, 4125.25640998, 804.74358245, 4161.53846133, 4153.84615364, 4134.87179460,12.0
4059.87179446, 4267.56410264, 4146.02564082, 3839.23076833, 4136.28205108, 4116.41025614, 4135.64102544, 4155.76923056, 4126.53846126, 4123.84615357, 804.74358245, 4182.82051269, 4156.28205108, 4137.43589723,12.0
4054.35897395, 4250.76923077, 4144.61538441, 3884.35897360, 4125.76923050, 4127.82051255, 4145.25641005, 4165.51282031, 4146.79487159, 4124.99999973, 804.74358245, 4192.69230756, 4153.84615364, 4134.99999973,12.0
4058.46153805, 4243.46153847, 4144.10256390, 3904.74358898, 4127.82051255, 4114.74358947, 4127.17948691, 4167.82051262, 4165.76923056, 4134.10256383, 804.74358245, 4193.71794858, 4153.84615364, 4140.25641005,12.0
4058.46153805, 4234.61538462, 4139.48717928, 3906.28205059, 4129.10256383, 4088.07692273, 4094.48717914, 4155.12820492, 4145.25641005, 4135.76923056, 804.74358245, 4189.35897422, 4153.07692287, 4138.97435877,12.0
4047.82051241, 4219.48717942, 4131.15384588, 3932.30769162, 4122.94871767, 4078.71794837, 4095.38461504, 4147.56410236, 4128.97435870, 4125.25640998, 804.74358245, 4188.84615371, 4151.15384595, 4134.61538434,12.0
4061.02564061, 4221.66666660, 4139.61538441, 3977.56410201, 4124.35897408, 4096.92307658, 4128.58974332, 4168.07692287, 4170.51282038, 4125.38461511, 804.74358245, 4201.28205122, 4153.07692287, 4138.20512800,12.0
4052.94871754, 4212.69230763, 4131.15384588, 3995.76923022, 4124.87179460, 4090.89743555, 4110.38461511, 4162.94871774, 4183.84615371, 4134.87179460, 804.74358245, 4203.46153840, 4150.38461518, 4133.84615357,12.0
4052.82051241, 4210.64102558, 4129.10256383, 3994.74358919, 4124.48717921, 4068.58974318, 4073.33333299, 4127.43589716, 4128.84615357, 4128.84615357, 804.74358245, 4191.41025628, 4148.71794851, 4139.23076903,12.0
4057.17948677, 4216.53846147, 4129.61538434, 4008.84615336, 4123.97435870, 4089.10256376, 4088.84615350, 4113.33333306, 4094.35897402, 4119.74358947, 804.74358245, 4178.71794858, 4147.30769210, 4140.51282031,12.0
4043.71794830, 4210.12820506, 4117.69230742, 4025.12820465, 4123.71794844, 4123.71794844, 4114.99999973, 4128.33333306, 4109.87179460, 4127.30769203, 804.61537732, 4177.94871781, 4143.97435877, 4134.23076896,12.0
4051.41025600, 4218.07692301, 4128.84615357, 4026.53846106, 4126.41025614, 4121.15384588, 4116.66666639, 4143.46153826, 4128.33333306, 4130.12820485, 802.05127476, 4190.25641012, 4148.84615364, 4139.10256390,12.0
4040.64102523, 4219.74358968, 4125.76923050, 4025.38461490, 4123.97435870, 4101.41025607, 4110.38461511, 4136.02564082, 4132.30769203, 4121.92307665, 792.94871066, 4188.46153833, 4149.35897415, 4139.10256390,12.0
4039.10256369, 4222.82051275, 4126.02564075, 4033.58974311, 4124.99999973, 4095.38461504, 4101.15384581, 4126.79487152, 4126.79487152, 4129.35897408, 787.82050553, 4176.53846140, 4147.30769210, 4139.61538441,12.0
4048.97435856, 4226.66666660, 4135.89743569, 4045.38461497, 4127.69230742, 4104.35897408, 4101.53846119, 4132.43589716, 4126.66666639, 4136.66666646, 797.82050553, 4185.89743576, 4149.10256390, 4137.69230749,12.0
4035.25640977, 4222.43589737, 4124.99999973, 4061.53846113, 4125.38461511, 4115.51282024, 4127.30769203, 4145.64102544, 4154.35897415, 4126.53846126, 787.30768495, 4209.87179481, 4149.23076903, 4135.12820485,12.0
4046.28205087, 4234.61538462, 4132.56410229, 4072.30769196, 4126.41025614, 4108.58974332, 4129.61538434, 4150.12820492, 4172.94871781, 4125.51282024, 812.30768502, 4216.66666660, 4152.94871774, 4140.51282031,12.0
4045.76923036, 4233.07692301, 4134.35897408, 4061.79487138, 4123.07692280, 4095.38461504, 4106.02564075, 4138.97435877, 4146.92307672, 4126.41025614, 988.07691620, 4204.61538455, 4152.82051262, 4137.17948697,12.0
4039.10256369, 4227.17948711, 4131.41025614, 4065.12820472, 4123.71794844, 4102.05128171, 4117.69230742, 4131.28205101, 4127.43589716, 4120.12820485, 1202.05127559, 4203.07692301, 4149.61538441, 4134.99999973,12.0
4047.43589702, 4232.30769224, 4136.79487159, 4083.84615350, 4126.41025614, 4102.30769196, 4125.76923050, 4126.53846126, 4143.97435877, 4124.87179460, 1310.38460913, 4207.69230763, 4151.15384595, 4136.79487159,12.0
4037.56410215, 4225.12820506, 4126.79487152, 4085.38461504, 4123.33333306, 4093.84615350, 4100.76923043, 4117.82051255, 4149.23076903, 4127.94871767, 1344.99999382, 4201.66666660, 4148.97435877, 4134.87179460,12.0
4045.64102523, 4230.51282045, 4131.28205101, 4084.35897402, 4125.89743562, 4114.23076896, 4106.53846126, 4116.79487152, 4133.20512793, 4122.82051255, 1358.71794261, 4198.46153833, 4146.92307672, 4138.33333313,12.0
4049.10256369, 4236.92307693, 4137.17948697, 4098.97435863, 4127.17948691, 4144.23076903, 4152.56410236, 4135.76923056, 4150.25641005, 4127.82051255, 1399.10255806, 4207.82051275, 4146.28205108, 4135.76923056,12.0
4041.15384574, 4232.05128199, 4133.46153819, 4119.23076896, 4124.87179460, 4138.84615364, 4163.58974339, 4155.38461518, 4189.99999986, 4136.41025621, 1471.92307102, 4220.38461532, 4148.20512800, 4135.51282031,12.0
4049.61538420, 4237.05128206, 4135.89743569, 4129.10256383, 4124.48717921, 4123.97435870, 4130.38461511, 4140.64102544, 4188.46153833, 4133.07692280, 1549.74358405, 4224.35897429, 4150.12820492, 4139.10256390,12.0
4044.35897395, 4239.10256411, 4128.71794844, 4125.89743562, 4125.25640998, 4115.12820485, 4105.38461511, 4115.76923050, 4150.12820492, 4126.53846126, 1640.51281496, 4213.97435891, 4146.66666646, 4133.84615357,12.0
4045.89743548, 4240.25641026, 4127.17948691, 4116.66666639, 4126.53846126, 4100.76923043, 4105.76923050, 4120.89743562, 4125.64102537, 4123.20512793, 1733.58973824, 4199.48717935, 4147.94871774, 4137.17948697,12.0
4048.97435856, 4240.25641026, 4127.30769203, 4090.38461504, 4125.25640998, 4101.41025607, 4110.64102537, 4129.23076896, 4123.20512793, 4119.87179460, 1792.43589223, 4182.82051269, 4150.25641005, 4141.28205108,12.0
4033.71794824, 4234.87179488, 4118.46153819, 4059.35897395, 4125.38461511, 4099.10256376, 4099.10256376, 4122.82051255, 4124.74358947, 4125.76923050, 1806.79486666, 4164.87179467, 4146.41025621, 4138.07692287,12.0
4037.05128164, 4240.64102564, 4124.35897408, 4078.20512786, 4125.76923050, 4099.10256376, 4110.76923050, 4131.66666639, 4139.61538441, 4132.30769203, 1791.92307172, 4180.12820499, 4146.41025621, 4140.25641005,12.0
4040.51282010, 4243.46153847, 4128.07692280, 4129.99999973, 4125.38461511, 4124.61538434, 4143.20512800, 4148.46153826, 4167.94871774, 4126.66666639, 1771.41025113, 4221.41025634, 4148.46153826, 4138.97435877,12.0
4035.64102516, 4245.64102564, 4125.51282024, 4146.28205108, 4127.43589716, 4155.38461518, 4155.76923056, 4152.69230749, 4186.28205115, 4122.43589716, 1771.79486652, 4240.51282052, 4149.23076903, 4135.76923056,12.0
4038.71794830, 4253.33333334, 4128.58974332, 4135.25640998, 4128.20512793, 4161.53846133, 4163.71794851, 4152.30769210, 4188.84615371, 4125.12820485, 1778.33332813, 4235.25641026, 4150.51282031, 4137.17948697,12.0
4033.97435849, 4249.23076923, 4124.74358947, 4130.25640998, 4127.43589716, 4142.05128185, 4161.92307672, 4143.84615364, 4184.48717935, 4124.10256383, 1769.23076395, 4227.30769224, 4148.97435877, 4138.33333313,12.0
4043.07692266, 4245.38461539, 4126.92307665, 4097.43589709, 4122.43589716, 4111.41025614, 4103.97435870, 4122.82051255, 4121.53846126, 4126.53846126, 1965.12820027, 4181.15384602, 4144.99999980, 4138.20512800,12.0
4037.30769189, 4245.64102564, 4126.53846126, 4100.38461504, 4121.28205101, 4121.53846126, 4103.20512793, 4122.30769203, 4115.25640998, 4126.15384588, 1986.28204649, 4178.33333320, 4144.10256390, 4137.17948697,12.0
4036.66666618, 4250.51282052, 4128.71794844, 4093.84615350, 4123.20512793, 4113.84615357, 4109.87179460, 4122.69230742, 4112.56410229, 4127.56410229, 1989.87179008, 4170.25641012, 4142.43589723, 4139.23076903,12.0
4034.74358926, 4248.58974359, 4124.74358947, 4093.33333299, 4127.56410229, 4115.76923050, 4124.87179460, 4121.79487152, 4111.15384588, 4130.38461511, 1995.64102085, 4166.28205108, 4142.30769210, 4138.46153826,12.0
4032.69230721, 4244.61538462, 4118.84615357, 4099.35897402, 4126.02564075, 4126.15384588, 4123.20512793, 4119.99999973, 4114.10256383, 4131.66666639, 2014.61537989, 4169.35897422, 4141.53846133, 4137.94871774,12.0
4035.76923029, 4253.07692308, 4122.94871767, 4109.48717921, 4123.46153819, 4123.71794844, 4120.89743562, 4119.48717921, 4125.76923050, 4129.10256383, 2042.30768766, 4181.66666653, 4139.35897415, 4137.05128185,12.0
4032.17948670, 4255.76923077, 4121.79487152, 4106.92307665, 4126.41025614, 4112.94871767, 4114.48717921, 4118.33333306, 4123.46153819, 4131.02564075, 2066.66666201, 4174.61538448, 4139.48717928, 4136.92307672,12.0
4033.58974311, 4250.12820513, 4118.46153819, 4082.05128171, 4126.15384588, 4100.64102530, 4086.41025607, 4106.41025614, 4098.07692273, 4131.79487152, 2108.07691856, 4139.23076903, 4142.05128185, 4141.79487159,12.0
4028.97435849, 4247.94871795, 4119.35897408, 4082.17948684, 4124.99999973, 4103.20512793, 4091.41025607, 4111.41025614, 4111.79487152, 4126.53846126, 2205.25640595, 4140.51282031, 4141.41025621, 4141.53846133,12.0
4028.46153798, 4256.66666667, 4127.43589716, 4121.15384588, 4126.28205101, 4124.61538434, 4128.46153819, 4132.94871767, 4164.35897415, 4121.28205101, 2182.94871357, 4187.05128192, 4142.05128185, 4139.74358954,12.0
4034.87179439, 4266.02564103, 4131.15384588, 4127.69230742, 4127.17948691, 4124.23076896, 4132.94871767, 4131.79487152, 4171.79487166, 4120.51282024, 2249.48717525, 4192.82051269, 4146.53846133, 4137.82051262,12.0
4030.12820465, 4258.58974359, 4122.82051255, 4087.05128171, 4126.92307665, 4101.41025607, 4111.41025614, 4118.84615357, 4128.33333306, 4121.66666639, 2612.56409909, 4154.10256390, 4145.25641005, 4135.89743569,12.0
4030.76923029, 4252.56410257, 4121.92307665, 4072.82051248, 4124.48717921, 4093.71794837, 4100.12820478, 4110.76923050, 4104.10256383, 4120.12820485, 2274.74358558, 4137.43589723, 4139.61538441, 4136.02564082,12.0
4028.07692259, 4251.41025641, 4118.58974332, 4071.53846119, 4124.10256383, 4077.69230735, 4081.28205094, 4098.71794837, 4097.56410222, 4124.10256383, 1307.56409631, 4123.71794844, 4133.97435870, 4132.17948691,12.0
4025.64102516, 4249.74358975, 4115.38461511, 4043.07692266, 4127.56410229, 4041.02564061, 4041.92307651, 4081.15384581, 4067.43589702, 4130.89743562, 1326.02563485, 4090.64102530, 4132.43589716, 4133.07692280,12.0
4033.84615336, 4251.66666667, 4121.79487152, 4027.69230721, 4127.43589716, 4031.15384567, 4011.79487131, 4065.64102523, 4033.71794824, 4131.15384588, 2143.33332889, 4079.48717914, 4134.87179460, 4137.56410236,12.0
4030.38461490, 4248.84615385, 4116.66666639, 4028.71794824, 4124.87179460, 4029.87179439, 3997.30769176, 4054.10256369, 4020.38461490, 4128.07692280, 2363.07691912, 4082.17948684, 4133.84615357, 4135.12820485,12.0
4031.92307644, 4254.61538462, 4112.17948691, 4024.23076875, 4125.25640998, 4011.28205080, 4001.41025586, 4053.84615343, 4022.94871747, 4128.84615357, 2265.89743173, 4078.20512786, 4131.79487152, 4138.46153826,12.0
4036.66666618, 4259.23076923, 4114.61538434, 4022.82051234, 4125.76923050, 4006.79487131, 4015.64102516, 4065.76923036, 4036.15384567, 4131.28205101, 2459.23076541, 4079.99999966, 4131.92307665, 4140.25641005,12.0
4032.56410208, 4248.97435898, 4111.53846126, 4018.20512772, 4123.07692280, 4014.61538413, 4013.07692259, 4070.25640991, 4041.92307651, 4126.92307665, 2549.74358613, 4077.17948684, 4131.02564075, 4134.10256383,12.0
4036.28205080, 4250.89743590, 4113.07692280, 4014.35897388, 4121.79487152, 4022.43589695, 4009.74358926, 4064.10256369, 4037.30769189, 4121.15384588, 2542.17948357, 4071.92307658, 4130.76923050, 4135.51282031,12.0
4034.87179439, 4260.12820513, 4112.69230742, 4023.46153798, 4123.84615357, 4051.41025600, 4031.79487131, 4072.82051248, 4049.10256369, 4121.02564075, 2587.30768877, 4080.76923043, 4132.30769203, 4137.94871774,12.0
4036.02564054, 4265.51282052, 4113.33333306, 4045.89743548, 4123.33333306, 4083.71794837, 4063.84615343, 4093.97435863, 4084.23076889, 4123.20512793, 2609.61538114, 4107.05128178, 4135.38461518, 4138.58974339,12.0
4035.38461490, 4269.23076930, 4116.66666639, 4058.97435856, 4123.58974332, 4078.46153812, 4071.41025607, 4091.41025607, 4095.89743555, 4122.30769203, 2637.82050942, 4122.69230742, 4137.05128185, 4136.15384595,12.0
4023.58974311, 4269.35897443, 4113.07692280, 4046.15384574, 4126.28205101, 4053.33333292, 4054.10256369, 4073.71794837, 4071.53846119, 4122.17948691, 2629.87179147, 4103.20512793, 4131.15384588, 4133.71794844,12.0
4026.79487131, 4271.28205136, 4114.87179460, 4039.61538420, 4124.61538434, 4046.41025600, 4038.58974318, 4072.05128171, 4062.43589702, 4123.71794844, 2611.92307345, 4088.33333299, 4129.23076896, 4138.71794851,12.0
4028.71794824, 4271.66666674, 4114.74358947, 4048.84615343, 4122.30769203, 4054.74358933, 4038.97435856, 4079.23076889, 4071.02564068, 4122.56410229, 2589.35897082, 4097.94871761, 4131.66666639, 4137.17948697,12.0
4028.07692259, 4271.53846161, 4109.61538434, 4021.41025593, 4124.48717921, 4035.38461490, 4025.64102516, 4068.46153805, 4056.28205087, 4121.41025614, 2546.53845793, 4079.23076889, 4125.89743562, 4133.84615357,12.0
4028.58974311, 4267.05128212, 4105.64102537, 3965.38461476, 4126.41025614, 3979.74358919, 3971.92307637, 4040.38461497, 4017.43589695, 4122.17948691, 2510.38461171, 4020.89743541, 4117.05128178, 4135.89743569,12.0
4023.20512772, 4258.07692308, 4098.33333299, 3945.76923015, 4124.23076896, 3937.82051213, 3930.38461469, 4020.51282003, 3982.69230714, 4122.30769203, 2497.43589376, 3978.46153791, 4112.30769203, 4133.84615357,12.0
4031.66666618, 4257.69230770, 4096.15384581, 3923.07692239, 4122.05128178, 3908.58974290, 3902.17948642, 4003.46153791, 3949.23076861, 4122.56410229, 2488.46153471, 3946.66666605, 4111.15384588, 4131.79487152,12.0
4031.53846106, 4250.25641026, 4084.99999966, 3821.79487090, 4123.71794844, 3819.35897346, 3804.99999903, 3948.71794810, 3858.07692225, 4122.43589716, 2449.48717567, 3854.48717866, 4100.38461504, 4131.53846126,12.0
4024.61538413, 4235.38461539, 4065.12820472, 3692.82051164, 4125.51282024, 3686.66666549, 3665.76922952, 3857.69230686, 3718.07692197, 4120.76923050, 2388.58973963, 3717.56410146, 4082.43589709, 4134.48717921,12.0
4031.79487131, 4224.61538455, 4057.56410215, 3607.69230631, 4122.30769203, 3610.12820374, 3581.28204990, 3796.53846057, 3632.82051150, 4121.53846126, 2339.99999597, 3628.07692176, 4074.48717914, 4137.05128185,12.0
4032.56410208, 4216.66666660, 4051.53846113, 3565.12820367, 4119.99999973, 3573.71794726, 3555.25640880, 3792.69230672, 3619.35897304, 4122.82051255, 2318.20512411, 3599.99999861, 4071.79487145, 4134.35897408,12.0
4032.56410208, 4216.66666660, 4051.53846113, 3565.12820367, 4119.99999973, 3573.71794726, 3555.25640880, 3792.69230672, 3619.35897304, 4122.82051255, 2318.20512411, 3599.99999861, 4071.79487145, 4134.35897408,12.0
4032.56410208, 4216.15384609, 4046.79487138, 3537.17948565, 4121.02564075, 3529.87179335, 3543.58974206, 3788.07692211, 3596.15384477, 4121.53846126, 2309.48717539, 3581.66666528, 4069.23076882, 4136.41025621,12.0
4027.94871747, 4211.15384609, 4042.30769189, 3509.23076764, 4124.10256383, 3509.74358815, 3521.66666514, 3764.48717845, 3551.41025495, 4123.07692280, 2305.38461129, 3546.66666521, 4065.12820472, 4138.58974339,12.0
4024.61538413, 4206.02564096, 4037.30769189, 3492.43589584, 4124.61538434, 3515.51281899, 3498.20512661, 3761.92307588, 3532.69230617, 4124.74358947, 2312.69230360, 3521.15384463, 4062.30769189, 4137.82051262,12.0
4031.79487131, 4211.79487173, 4039.23076882, 3511.66666507, 4119.61538434, 3523.33333181, 3513.20512668, 3778.46153749, 3545.76922931, 4121.41025614, 2316.28204719, 3540.89743437, 4066.15384574, 4137.56410236,12.0
4024.74358926, 4212.69230763, 4040.76923036, 3560.12820367, 4119.99999973, 3560.12820367, 3567.43589598, 3796.66666570, 3581.28204990, 4119.87179460, 2307.69230360, 3591.53846015, 4071.92307658, 4135.51282031,12.0
4023.20512772, 4215.51282045, 4048.20512779, 3605.38461400, 4123.20512793, 3614.61538330, 3605.51281913, 3815.51281961, 3623.46153715, 4123.33333306, 2313.58973949, 3638.84615253, 4072.82051248, 4138.58974339,12.0
4026.28205080, 4219.87179481, 4055.51282010, 3639.74358843, 4121.41025614, 3630.12820381, 3624.61538330, 3830.89743500, 3655.12820388, 4123.58974332, 2313.46153437, 3672.05128080, 4071.53846119, 4138.33333313,12.0
4022.82051234, 4218.71794865, 4054.74358933, 3650.76922952, 4120.76923050, 3628.58974227, 3642.82051150, 3831.02564013, 3660.38461414, 4121.66666639, 2251.66666243, 3676.15384498, 4073.33333299, 4135.25640998,12.0
4024.99999952, 4220.89743583, 4053.46153805, 3625.76922945, 4120.38461511, 3636.92307561, 3629.48717817, 3817.69230679, 3648.20512696, 4121.28205101, 2156.66666222, 3645.12820388, 4074.35897402, 4137.56410236,12.0
4022.69230721, 4219.23076917, 4046.92307651, 3605.51281913, 4119.48717921, 3624.23076791, 3605.64102426, 3821.66666577, 3658.58974234, 4122.43589716, 2106.53845703, 3622.94871663, 4070.51282017, 4136.53846133,12.0
4025.76923029, 4219.10256404, 4048.07692266, 3620.64102432, 4121.66666639, 3609.99999861, 3622.17948586, 3836.92307602, 3677.43589626, 4124.48717921, 2086.79486721, 3639.87179356, 4070.38461504, 4138.20512800,12.0
4027.82051234, 4217.56410250, 4050.51282010, 3612.94871663, 4122.56410229, 3615.25640894, 3619.23076791, 3823.20512731, 3655.25640901, 4123.84615357, 2032.94871323, 3637.05128073, 4073.07692273, 4136.41025621,12.0
4023.84615336, 4211.92307686, 4043.46153805, 3575.12820367, 4120.64102537, 3591.92307554, 3570.12820367, 3799.10256313, 3621.79487048, 4120.51282024, 1954.74358488, 3599.35897297, 4068.33333292, 4131.66666639,12.0
4027.17948670, 4217.56410250, 4045.25640984, 3576.15384470, 4121.15384588, 3562.17948572, 3565.89743444, 3800.64102467, 3626.41025509, 4121.66666639, 1889.35896936, 3593.46153708, 4065.51282010, 4136.53846133,12.0
4022.94871747, 4219.35897429, 4045.51282010, 3596.66666528, 4121.02564075, 3569.87179342, 3586.79487041, 3809.99999910, 3633.97435766, 4123.97435870, 1837.43589230, 3612.30769099, 4066.66666625, 4137.69230749,12.0
4025.25640977, 4218.07692301, 4043.84615343, 3594.35897297, 4116.02564075, 3578.97435759, 3568.46153701, 3803.20512724, 3623.84615253, 4121.15384588, 1819.99999486, 3619.35897304, 4067.82051241, 4134.61538434,12.0
4030.76923029, 4226.92307686, 4050.76923036, 3613.46153715, 4116.02564075, 3610.12820374, 3596.92307554, 3809.23076833, 3649.10256286, 4120.89743562, 1854.87178980, 3645.76922952, 4073.71794837, 4133.07692280,12.0
4024.99999952, 4232.56410250, 4056.53846113, 3664.99999875, 4118.97435870, 3673.97435773, 3668.71794747, 3839.87179397, 3702.17948600, 4124.10256383, 1895.38461039, 3698.58974241, 4077.82051248, 4135.89743569,12.0
4027.30769183, 4236.79487180, 4061.66666625, 3715.12820402, 4117.30769203, 3716.15384505, 3703.58974241, 3865.51281968, 3737.82051171, 4124.23076896, 1922.56409763, 3753.97435794, 4080.12820478, 4141.15384595,12.0
4023.20512772, 4250.51282052, 4069.35897395, 3800.76922980, 4118.71794844, 3797.17948621, 3802.69230672, 3923.84615316, 3822.17948628, 4121.15384588, 1985.25640547, 3849.48717866, 4090.51282017, 4137.05128185,12.0
4019.74358926, 4272.94871802, 4086.79487145, 3932.56410187, 4119.99999973, 3954.61538399, 3971.28205073, 4009.35897388, 3963.84615322, 4122.30769203, 2073.71794414, 3988.07692252, 4106.66666639, 4134.87179460,12.0
4025.38461490, 4282.43589751, 4099.10256376, 4012.56410208, 4118.07692280, 4034.74358926, 4022.82051234, 4026.53846106, 4027.56410208, 4126.15384588, 2126.28204677, 4068.07692266, 4113.58974332, 4138.07692287,12.0
4019.48717900, 4275.89743597, 4094.10256376, 4019.35897388, 4117.05128178, 4019.23076875, 3989.23076868, 4011.28205080, 4018.07692259, 4123.97435870, 2152.17948274, 4077.56410222, 4111.28205101, 4137.43589723,12.0
4019.61538413, 4285.38461546, 4099.35897402, 4041.92307651, 4117.17948691, 4056.02564061, 4031.41025593, 4047.82051241, 4055.38461497, 4121.41025614, 2192.30768793, 4106.79487152, 4115.51282024, 4138.97435877,12.0
4018.20512772, 4294.87179495, 4105.12820485, 4084.74358940, 4118.84615357, 4103.71794844, 4091.28205094, 4084.48717914, 4110.12820485, 4124.23076896, 2228.46153416, 4149.74358954, 4119.10256383, 4137.94871774,12.0
4014.99999952, 4289.10256418, 4102.17948684, 4092.82051248, 4117.05128178, 4086.28205094, 4079.87179453, 4073.58974325, 4107.30769203, 4124.74358947, 2242.82050859, 4154.61538441, 4118.71794844, 4137.43589723,12.0
4024.61538413, 4293.33333341, 4106.02564075, 4095.64102530, 4114.23076896, 4095.89743555, 4077.94871761, 4068.84615343, 4102.56410229, 4120.89743562, 2257.05127782, 4160.38461518, 4123.58974332, 4137.56410236,12.0
4019.74358926, 4302.56410271, 4106.53846126, 4130.25640998, 4117.69230742, 4154.23076903, 4136.28205108, 4101.15384581, 4147.94871774, 4121.53846126, 2284.74358558, 4198.58974345, 4125.64102537, 4134.61538434,12.0
4016.92307644, 4310.51282066, 4109.61538434, 4168.46153833, 4119.48717921, 4190.51282038, 4187.82051269, 4126.79487152, 4188.71794858, 4124.23076896, 2316.15384206, 4229.99999993, 4125.12820485, 4135.25640998,12.0
4019.35897388, 4311.92307707, 4111.02564075, 4174.99999986, 4116.53846126, 4189.48717935, 4173.46153833, 4109.99999973, 4177.56410243, 4121.79487152, 2341.66666264, 4226.79487173, 4126.53846126, 4132.56410229,12.0
4016.79487131, 4309.23076937, 4108.07692280, 4172.05128192, 4116.28205101, 4171.15384602, 4133.84615357, 4081.28205094, 4150.12820492, 4124.87179460, 2369.48717553, 4217.05128199, 4126.41025614, 4132.43589716,12.0
4025.64102516, 4317.05128219, 4115.25640998, 4183.97435884, 4119.23076896, 4156.79487159, 4134.23076896, 4082.05128171, 4149.48717928, 4128.97435870, 2401.02563714, 4224.10256404, 4123.33333306, 4135.89743569,12.0
4025.12820465, 4321.41025655, 4112.82051255, 4185.51282038, 4117.94871767, 4160.89743569, 4153.97435877, 4097.56410222, 4155.25641005, 4121.53846126, 2425.76922688, 4227.69230763, 4123.58974332, 4134.35897408,12.0
4025.89743541, 4326.41025655, 4111.28205101, 4183.71794858, 4114.74358947, 4179.99999986, 4160.12820492, 4107.17948691, 4166.28205108, 4120.12820485, 2449.23076541, 4232.69230763, 4129.99999973, 4138.71794851,12.0
4029.10256362, 4335.38461560, 4118.20512793, 4204.74358968, 4116.66666639, 4200.76923063, 4171.53846140, 4115.89743562, 4188.97435884, 4128.58974332, 2475.89743215, 4252.56410257, 4132.56410229, 4139.10256390,12.0
4019.87179439, 4337.30769252, 4112.30769203, 4209.87179481, 4117.43589716, 4205.64102558, 4178.46153833, 4115.76923050, 4183.58974345, 4125.12820485, 2493.84615010, 4255.38461539, 4128.58974332, 4132.69230742,12.0
4019.87179439, 4337.30769252, 4112.30769203, 4209.87179481, 4117.43589716, 4205.64102558, 4178.46153833, 4115.76923050, 4183.58974345, 4125.12820485, 2493.84615010, 4255.38461539, 4128.58974332, 4132.69230742,12.0
4025.25640977, 4339.23076944, 4110.38461511, 4183.71794858, 4118.20512793, 4198.84615371, 4162.17948697, 4107.43589716, 4162.82051262, 4119.23076896, 2506.28204760, 4238.58974359, 4126.79487152, 4136.41025621,12.0
4025.64102516, 4335.38461560, 4111.66666639, 4176.15384602, 4122.17948691, 4203.84615378, 4178.33333320, 4127.69230742, 4198.71794858, 4125.89743562, 2527.30768870, 4246.28205129, 4130.64102537, 4142.43589723,12.0
4019.35897388, 4334.48717970, 4112.43589716, 4197.43589730, 4121.15384588, 4215.76923070, 4212.69230763, 4148.33333313, 4242.30769231, 4126.79487152, 2548.97435536, 4273.33333341, 4136.41025621, 4142.05128185,12.0
4022.30769183, 4341.92307714, 4111.92307665, 4195.38461525, 4120.38461511, 4203.84615378, 4176.66666653, 4118.97435870, 4205.76923070, 4119.99999973, 2555.12820152, 4259.87179488, 4133.46153819, 4137.94871774,12.0
4018.84615336, 4340.76923098, 4103.58974332, 4157.69230749, 4122.43589716, 4160.51282031, 4114.74358947, 4086.66666632, 4146.15384595, 4121.53846126, 2554.61538101, 4209.10256404, 4124.61538434, 4137.30769210,12.0
