AF3,F7,F3,FC5,T7,P7,O1,O2,P8,T8,FC6,F4,F8,AF4,Label
4124.61538434, 4128.71794844, 4035.38461490, 4027.30769183, 4117.05128178, 4089.35897402, 4072.94871761, 4085.51282017, 4071.41025607, 4130.89743562, 4034.35897388, 4061.79487138, 4131.02564075, 4143.46153826,12.0
4127.69230742, 4132.82051255, 4040.25640984, 4039.87179446, 4116.92307665, 4095.89743555, 4076.53846119, 4079.48717914, 4084.87179453, 4130.89743562, 4040.12820472, 4077.43589709, 4132.82051255, 4143.33333313,12.0
4125.12820485, 4128.97435870, 4033.71794824, 4031.53846106, 4115.25640998, 4083.33333299, 4071.41025607, 4064.23076882, 4066.41025600, 4131.02564075, 4039.35897395, 4070.38461504, 4128.97435870, 4147.43589723,12.0
4124.87179460, 4124.35897408, 4030.51282003, 4023.58974311, 4115.51282024, 4074.87179453, 4066.28205087, 4056.79487138, 4052.05128164, 4130.89743562, 4035.25640977, 4061.28205087, 4132.05128178, 4148.33333313,12.0
4122.69230742, 4131.28205101, 4043.46153805, 4038.58974318, 4117.30769203, 4089.35897402, 4080.38461504, 4077.17948684, 4080.25640991, 4130.89743562, 4042.30769189, 4083.46153812, 4134.87179460, 4144.23076903,12.0
4122.69230742, 4140.89743569, 4053.71794830, 4056.66666625, 4115.12820485, 4099.87179453, 4089.48717914, 4096.28205094, 4106.41025614, 4130.89743562, 4053.97435856, 4106.66666639, 4132.82051255, 4144.10256390,12.0
4125.51282024, 4130.12820485, 4038.46153805, 4038.33333292, 4115.38461511, 4079.99999966, 4070.76923043, 4077.82051248, 4081.41025607, 4130.89743562, 4048.46153805, 4084.48717914, 4130.38461511, 4145.64102544,12.0
4122.43589716, 4118.58974332, 4029.10256362, 4017.56410208, 4116.53846126, 4072.05128171, 4066.15384574, 4062.82051241, 4060.51282010, 4131.02564075, 4038.46153805, 4060.51282010, 4131.15384588, 4146.15384595,12.0
4121.53846126, 4129.35897408, 4051.66666625, 4042.69230728, 4115.76923050, 4094.74358940, 4094.87179453, 4094.10256376, 4091.66666632, 4130.89743562, 4046.53846113, 4085.76923043, 4132.17948691, 4147.05128185,12.0
4121.79487152, 4137.30769210, 4060.89743548, 4061.79487138, 4117.05128178, 4093.58974325, 4096.28205094, 4116.66666639, 4110.25640998, 4130.89743562, 4054.87179446, 4103.84615357, 4130.51282024, 4146.15384595,12.0
4124.74358947, 4131.41025614, 4047.30769189, 4047.17948677, 4116.15384588, 4074.61538427, 4077.82051248, 4102.17948684, 4096.66666632, 4131.02564075, 4049.87179446, 4087.05128171, 4132.17948691, 4144.87179467,12.0
4124.99999973, 4133.46153819, 4052.17948677, 4052.82051241, 4115.51282024, 4089.10256376, 4097.43589709, 4110.38461511, 4108.07692280, 4130.89743562, 4049.10256369, 4086.15384581, 4133.46153819, 4143.58974339,12.0
4118.33333306, 4133.58974332, 4055.51282010, 4065.64102523, 4115.89743562, 4099.10256376, 4107.82051255, 4125.89743562, 4113.20512793, 4130.89743562, 4052.82051241, 4092.94871761, 4132.30769203, 4146.02564082,12.0
4121.02564075, 4119.35897408, 4038.58974318, 4039.48717907, 4115.51282024, 4071.53846119, 4069.35897395, 4093.20512786, 4073.71794837, 4130.89743562, 4046.28205087, 4074.23076889, 4132.05128178, 4150.38461518,12.0
4123.20512793, 4119.10256383, 4039.99999959, 4035.12820465, 4115.25640998, 4062.56410215, 4054.74358933, 4069.74358940, 4059.61538420, 4130.89743562, 4042.94871754, 4070.89743555, 4131.41025614, 4148.46153826,12.0
4121.79487152, 4149.61538441, 4073.33333299, 4092.17948684, 4113.84615357, 4097.82051248, 4099.10256376, 4105.76923050, 4105.25640998, 4131.02564075, 4061.15384574, 4118.46153819, 4131.66666639, 4142.94871774,12.0
4123.07692280, 4172.94871781, 4093.97435863, 4125.89743562, 4116.02564075, 4128.46153819, 4129.99999973, 4134.48717921, 4141.28205108, 4130.89743562, 4077.43589709, 4157.43589723, 4131.41025614, 4142.43589723,12.0
4117.82051255, 4159.87179467, 4081.79487145, 4100.25640991, 4118.71794844, 4120.89743562, 4111.92307665, 4115.64102537, 4124.35897408, 4130.89743562, 4070.51282017, 4138.97435877, 4130.25640998, 4145.51282031,12.0
4118.33333306, 4139.35897415, 4064.87179446, 4077.17948684, 4115.12820485, 4096.79487145, 4089.23076889, 4090.12820478, 4096.02564068, 4131.02564075, 4060.89743548, 4105.38461511, 4131.15384588, 4145.25641005,12.0
4123.33333306, 4135.12820485, 4060.25640984, 4073.33333299, 4114.61538434, 4085.38461504, 4089.87179453, 4092.69230735, 4097.05128171, 4130.89743562, 4063.07692266, 4095.64102530, 4130.38461511, 4143.07692287,12.0
4121.41025614, 4133.84615357, 4060.12820472, 4068.07692266, 4116.41025614, 4086.15384581, 4095.12820478, 4110.38461511, 4114.35897408, 4131.02564075, 4064.10256369, 4096.53846119, 4127.69230742, 4144.35897415,12.0
4120.12820485, 4135.89743569, 4061.15384574, 4071.15384581, 4116.28205101, 4094.87179453, 4098.84615350, 4120.76923050, 4119.10256383, 4130.89743562, 4062.82051241, 4098.33333299, 4129.35897408, 4143.46153826,12.0
4120.12820485, 4147.17948697, 4066.92307651, 4091.28205094, 4115.64102537, 4109.35897408, 4117.56410229, 4135.64102544, 4126.92307665, 4130.89743562, 4068.07692266, 4107.94871767, 4132.30769203, 4140.76923056,12.0
4122.30769203, 4147.17948697, 4065.89743548, 4091.66666632, 4115.89743562, 4109.61538434, 4123.84615357, 4137.30769210, 4138.58974339, 4131.02564075, 4071.15384581, 4106.66666639, 4131.28205101, 4142.30769210,12.0
4122.82051255, 4126.41025614, 4055.51282010, 4057.94871754, 4118.84615357, 4098.84615350, 4097.94871761, 4115.51282024, 4120.64102537, 4130.89743562, 4064.48717907, 4087.17948684, 4127.82051255, 4144.99999980,12.0
4121.28205101, 4117.94871767, 4055.76923036, 4043.71794830, 4119.10256383, 4101.41025607, 4094.10256376, 4120.51282024, 4106.41025614, 4130.89743562, 4066.28205087, 4086.28205094, 4128.58974332, 4147.56410236,12.0
4120.89743562, 4135.12820485, 4068.07692266, 4065.89743548, 4117.69230742, 4112.17948691, 4124.99999973, 4151.66666646, 4136.28205108, 4130.89743562, 4076.53846119, 4107.43589716, 4131.79487152, 4146.02564082,12.0
4121.79487152, 4141.15384595, 4069.61538420, 4068.07692266, 4120.64102537, 4103.97435870, 4117.82051255, 4138.71794851, 4141.02564082, 4130.89743562, 4071.66666632, 4102.43589709, 4129.23076896, 4142.82051262,12.0
4124.61538434, 4130.64102537, 4059.74358933, 4053.58974318, 4120.64102537, 4088.97435863, 4084.74358940, 4102.17948684, 4104.48717921, 4131.02564075, 4062.30769189, 4082.17948684, 4129.35897408, 4146.41025621,12.0
4122.94871767, 4128.58974332, 4060.64102523, 4062.30769189, 4116.28205101, 4084.99999966, 4089.48717914, 4103.33333306, 4098.84615350, 4130.89743562, 4065.25640984, 4086.15384581, 4130.89743562, 4149.10256390,12.0
4122.69230742, 4131.15384588, 4066.79487138, 4067.05128164, 4114.48717921, 4083.97435863, 4104.10256383, 4102.94871767, 4108.58974332, 4130.89743562, 4070.38461504, 4092.82051248, 4127.43589716, 4144.74358954,12.0
4121.15384588, 4128.20512793, 4064.35897395, 4056.66666625, 4115.51282024, 4084.23076889, 4096.15384581, 4075.12820478, 4092.82051248, 4131.02564075, 4071.53846119, 4085.12820478, 4128.58974332, 4142.82051262,12.0
4117.30769203, 4124.74358947, 4058.84615343, 4059.87179446, 4116.66666639, 4079.87179453, 4085.25640991, 4056.66666625, 4078.20512786, 4130.89743562, 4071.28205094, 4079.48717914, 4130.76923050, 4145.51282031,12.0
4120.64102537, 4131.28205101, 4066.02564061, 4078.58974325, 4115.12820485, 4082.94871761, 4095.64102530, 4067.82051241, 4083.71794837, 4130.89743562, 4074.74358940, 4091.15384581, 4129.10256383, 4146.41025621,12.0
4120.64102537, 4133.33333306, 4069.23076882, 4075.89743555, 4114.10256383, 4089.23076889, 4106.28205101, 4091.79487145, 4082.82051248, 4130.89743562, 4074.35897402, 4097.05128171, 4128.58974332, 4147.43589723,12.0
4120.25640998, 4119.35897408, 4054.10256369, 4044.23076882, 4116.79487152, 4075.64102530, 4088.71794837, 4101.66666632, 4067.56410215, 4130.89743562, 4063.20512779, 4072.69230735, 4132.82051255, 4148.07692287,12.0
4123.58974332, 4114.87179460, 4053.33333292, 4040.38461497, 4118.84615357, 4068.84615343, 4081.41025607, 4104.87179460, 4078.20512786, 4131.02564075, 4060.38461497, 4065.51282010, 4133.58974332, 4144.10256390,12.0
4117.43589716, 4126.41025614, 4071.28205094, 4068.71794830, 4116.92307665, 4083.71794837, 4098.33333299, 4116.66666639, 4114.35897408, 4130.89743562, 4071.79487145, 4094.87179453, 4127.43589716, 4143.58974339,12.0
4116.79487152, 4131.92307665, 4075.25640991, 4076.28205094, 4112.30769203, 4088.46153812, 4104.35897408, 4128.58974332, 4132.17948691, 4130.89743562, 4079.87179453, 4106.28205101, 4128.84615357, 4146.66666646,12.0
4123.46153819, 4126.66666639, 4066.92307651, 4060.38461497, 4113.33333306, 4076.02564068, 4094.35897402, 4124.48717921, 4119.99999973, 4131.02564075, 4076.66666632, 4087.43589709, 4132.43589716, 4143.07692287,12.0
4121.53846126, 4129.23076896, 4076.28205094, 4070.76923043, 4118.84615357, 4082.17948684, 4103.33333306, 4123.07692280, 4119.61538434, 4130.89743562, 4078.58974325, 4096.53846119, 4130.38461511, 4142.17948697,12.0
4120.25640998, 4141.28205108, 4093.71794837, 4099.61538427, 4116.28205101, 4103.20512793, 4126.02564075, 4130.38461511, 4132.43589716, 4131.02564075, 4089.87179453, 4129.61538434, 4129.87179460, 4149.74358954,12.0
4120.89743562, 4146.53846133, 4096.53846119, 4107.30769203, 4114.87179460, 4113.46153819, 4136.79487159, 4134.10256383, 4137.17948697, 4130.89743562, 4094.74358940, 4139.74358954, 4129.10256383, 4149.23076903,12.0
4118.84615357, 4143.97435877, 4095.89743555, 4101.02564068, 4119.87179460, 4108.33333306, 4133.46153819, 4129.74358947, 4141.92307672, 4130.89743562, 4094.61538427, 4137.30769210, 4129.61538434, 4142.43589723,12.0
4121.02564075, 4138.07692287, 4093.58974325, 4088.33333299, 4120.76923050, 4090.64102530, 4116.15384588, 4110.89743562, 4126.28205101, 4131.02564075, 4093.20512786, 4133.97435870, 4135.51282031, 4144.10256390,12.0
4126.02564075, 4138.46153826, 4088.71794837, 4082.30769196, 4116.02564075, 4087.43589709, 4107.56410229, 4105.51282024, 4100.12820478, 4130.89743562, 4089.99999966, 4127.17948691, 4135.51282031, 4145.38461518,12.0
4126.53846126, 4137.56410236, 4083.97435863, 4084.35897402, 4112.69230742, 4092.56410222, 4105.89743562, 4109.61538434, 4092.30769196, 4130.89743562, 4085.89743555, 4116.28205101, 4129.35897408, 4142.30769210,12.0
4120.38461511, 4126.28205101, 4079.74358940, 4073.84615350, 4116.28205101, 4076.66666632, 4096.79487145, 4097.43589709, 4093.07692273, 4130.89743562, 4082.05128171, 4106.53846126, 4129.23076896, 4141.66666646,12.0
4120.25640998, 4120.89743562, 4075.89743555, 4061.53846113, 4117.17948691, 4065.89743548, 4089.48717914, 4087.30769196, 4089.74358940, 4130.89743562, 4081.92307658, 4102.69230742, 4133.20512793, 4146.15384595,12.0
4123.20512793, 4124.23076896, 4072.94871761, 4066.92307651, 4113.33333306, 4080.12820478, 4090.25640991, 4094.10256376, 4084.48717914, 4131.02564075, 4081.02564068, 4099.61538427, 4132.05128178, 4149.10256390,12.0
4119.61538434, 4125.64102537, 4074.23076889, 4072.17948684, 4115.25640998, 4086.79487145, 4101.79487145, 4111.15384588, 4092.17948684, 4130.89743562, 4080.25640991, 4102.17948684, 4128.20512793, 4148.58974339,12.0
4118.84615357, 4124.87179460, 4078.20512786, 4068.33333292, 4118.58974332, 4080.51282017, 4106.28205101, 4120.12820485, 4108.97435870, 4130.89743562, 4083.71794837, 4108.97435870, 4130.25640998, 4146.92307672,12.0
4117.82051255, 4128.84615357, 4086.41025607, 4077.05128171, 4118.33333306, 4083.58974325, 4103.46153819, 4121.15384588, 4121.79487152, 4131.02564075, 4088.20512786, 4114.99999973, 4130.64102537, 4143.20512800,12.0
4116.02564075, 4135.12820485, 4090.38461504, 4088.97435863, 4115.76923050, 4089.48717914, 4112.69230742, 4128.97435870, 4125.76923050, 4130.89743562, 4087.43589709, 4117.69230742, 4128.84615357, 4145.25641005,12.0
4117.69230742, 4126.28205101, 4079.35897402, 4072.69230735, 4116.28205101, 4083.84615350, 4117.17948691, 4128.97435870, 4115.25640998, 4130.89743562, 4079.61538427, 4103.97435870, 4133.07692280, 4151.15384595,12.0
4119.10256383, 4110.38461511, 4071.02564068, 4051.92307651, 4120.38461511, 4077.56410222, 4105.12820485, 4117.69230742, 4102.69230742, 4130.89743562, 4075.12820478, 4086.66666632, 4134.35897408, 4149.99999980,12.0
4121.66666639, 4116.41025614, 4076.41025607, 4061.53846113, 4116.92307665, 4086.66666632, 4103.33333306, 4122.94871767, 4110.76923050, 4130.89743562, 4079.99999966, 4093.46153812, 4132.43589716, 4144.99999980,12.0
4118.84615357, 4129.48717921, 4079.35897402, 4078.33333299, 4113.46153819, 4094.23076889, 4112.69230742, 4128.84615357, 4115.76923050, 4131.02564075, 4080.12820478, 4103.20512793, 4131.66666639, 4142.30769210,12.0
4116.79487152, 4118.97435870, 4071.92307658, 4069.87179453, 4118.97435870, 4081.02564068, 4103.33333306, 4112.56410229, 4096.15384581, 4130.89743562, 4071.02564068, 4090.76923043, 4131.66666639, 4143.33333313,12.0
4119.23076896, 4106.79487152, 4067.30769189, 4052.69230728, 4120.12820485, 4066.28205087, 4087.69230735, 4100.89743555, 4083.20512786, 4130.89743562, 4071.15384581, 4080.25640991, 4131.28205101, 4142.69230749,12.0
4118.71794844, 4114.61538434, 4067.43589702, 4060.25640984, 4118.33333306, 4071.02564068, 4084.99999966, 4103.07692280, 4083.58974325, 4131.02564075, 4076.92307658, 4084.87179453, 4128.58974332, 4143.84615364,12.0
4122.30769203, 4110.64102537, 4059.10256369, 4052.05128164, 4119.48717921, 4076.15384581, 4080.12820478, 4094.99999966, 4069.23076882, 4130.89743562, 4070.12820478, 4073.20512786, 4129.48717921, 4146.41025621,12.0
4124.23076896, 4104.74358947, 4062.56410215, 4039.87179446, 4118.84615357, 4081.53846119, 4094.35897402, 4099.48717914, 4077.94871761, 4131.02564075, 4067.17948677, 4072.17948684, 4132.05128178, 4143.97435877,12.0
4121.41025614, 4132.17948691, 4092.05128171, 4091.41025607, 4116.02564075, 4104.35897408, 4129.10256383, 4130.38461511, 4119.87179460, 4130.89743562, 4084.87179453, 4120.89743562, 4132.05128178, 4143.20512800,12.0
4123.20512793, 4156.41025621, 4109.99999973, 4145.64102544, 4114.48717921, 4117.69230742, 4134.87179460, 4136.53846133, 4130.12820485, 4130.89743562, 4094.87179453, 4155.38461518, 4132.69230742, 4148.07692287,12.0
4123.33333306, 4147.30769210, 4097.69230735, 4131.02564075, 4116.53846126, 4103.58974332, 4113.46153819, 4116.15384588, 4108.84615357, 4131.02564075, 4079.23076889, 4132.56410229, 4133.07692280, 4150.25641005,12.0
4122.69230742, 4139.23076903, 4089.35897402, 4114.74358947, 4118.07692280, 4091.28205094, 4103.97435870, 4109.74358947, 4096.28205094, 4130.89743562, 4065.12820472, 4109.99999973, 4132.69230742, 4147.05128185,12.0
4122.43589716, 4149.48717928, 4097.43589709, 4142.94871774, 4119.23076896, 4098.84615350, 4111.53846126, 4119.61538434, 4099.10256376, 4130.89743562, 4068.20512779, 4123.58974332, 4132.05128178, 4143.84615364,12.0
4122.30769203, 4147.05128185, 4091.53846119, 4141.53846133, 4119.10256383, 4098.46153812, 4108.20512793, 4114.87179460, 4098.71794837, 4130.89743562, 4068.33333292, 4120.76923050, 4131.66666639, 4143.97435877,12.0
4124.10256383, 4134.99999973, 4079.61538427, 4118.71794844, 4114.61538434, 4084.61538427, 4093.71794837, 4094.48717914, 4087.82051248, 4130.89743562, 4063.46153805, 4100.89743555, 4133.84615357, 4144.74358954,12.0
4121.02564075, 4137.82051262, 4088.20512786, 4133.46153819, 4114.61538434, 4091.79487145, 4098.97435863, 4096.66666632, 4090.76923043, 4131.02564075, 4067.30769189, 4108.46153819, 4132.94871767, 4144.23076903,12.0
4118.58974332, 4145.12820492, 4093.33333299, 4133.46153819, 4119.74358947, 4106.53846126, 4116.41025614, 4116.41025614, 4101.15384581, 4130.89743562, 4066.15384574, 4112.82051255, 4131.41025614, 4143.33333313,12.0
4118.58974332, 4134.99999973, 4081.41025607, 4108.97435870, 4119.48717921, 4092.82051248, 4106.92307665, 4116.02564075, 4097.05128171, 4130.89743562, 4060.76923036, 4093.20512786, 4133.33333306, 4142.94871774,12.0
4116.66666639, 4118.20512793, 4076.92307658, 4106.15384588, 4115.89743562, 4076.41025607, 4092.17948684, 4106.92307665, 4093.84615350, 4131.02564075, 4072.05128171, 4092.30769196, 4135.25640998, 4144.61538441,12.0
4119.48717921, 4124.99999973, 4086.79487145, 4110.25640998, 4115.64102537, 4086.79487145, 4102.30769196, 4111.53846126, 4103.07692280, 4130.89743562, 4091.79487145, 4115.25640998, 4134.99999973, 4146.02564082,12.0
4120.64102537, 4132.43589716, 4089.35897402, 4082.82051248, 4117.43589716, 4093.97435863, 4106.15384588, 4115.76923050, 4110.25640998, 4130.89743562, 4095.12820478, 4117.17948691, 4128.46153819, 4146.02564082,12.0
4120.76923050, 4110.89743562, 4081.66666632, 4053.07692266, 4115.25640998, 4082.56410222, 4098.58974325, 4113.84615357, 4106.79487152, 4130.89743562, 4095.76923043, 4105.51282024, 4127.43589716, 4145.51282031,12.0
4121.41025614, 4094.48717914, 4078.20512786, 4052.30769189, 4114.10256383, 4079.35897402, 4103.07692280, 4114.35897408, 4095.38461504, 4130.64102537, 4109.10256383, 4106.92307665, 4133.46153819, 4144.87179467,12.0
4120.25640998, 4106.53846126, 4079.87179453, 4050.64102523, 4119.10256383, 4085.89743555, 4108.97435870, 4121.02564075, 4091.15384581, 4130.76923050, 4115.64102537, 4110.89743562, 4130.25640998, 4145.76923056,12.0
4121.92307665, 4106.28205101, 4077.94871761, 4028.20512772, 4116.79487152, 4081.28205094, 4098.97435863, 4121.92307665, 4098.58974325, 4131.28205101, 4112.17948691, 4105.12820485, 4127.17948691, 4145.25641005,12.0
4121.66666639, 4082.94871761, 4064.74358933, 4005.12820465, 4113.71794844, 4071.41025607, 4085.89743555, 4108.84615357, 4093.20512786, 4130.64102537, 4108.58974332, 4083.97435863, 4131.02564075, 4143.20512800,12.0
4121.66666639, 4084.23076889, 4059.23076882, 4012.43589695, 4119.48717921, 4077.56410222, 4089.74358940, 4102.43589709, 4087.05128171, 4130.64102537, 4106.02564075, 4070.89743555, 4131.79487152, 4145.25641005,12.0
4123.97435870, 4100.51282017, 4069.10256369, 4033.97435849, 4119.99999973, 4086.15384581, 4102.05128171, 4104.23076896, 4098.58974325, 4134.35897408, 4103.58974332, 4080.76923043, 4128.58974332, 4145.25641005,12.0
4121.79487152, 4093.07692273, 4074.10256376, 4027.17948670, 4116.66666639, 4072.82051248, 4096.28205094, 4091.02564068, 4088.71794837, 4137.05128185, 4107.05128178, 4089.35897402, 4128.07692280, 4143.07692287,12.0
4121.66666639, 4086.02564068, 4074.10256376, 4025.89743541, 4117.94871767, 4064.87179446, 4088.84615350, 4081.79487145, 4073.97435863, 4132.69230742, 4113.46153819, 4087.94871761, 4131.53846126, 4146.28205108,12.0
4123.97435870, 4095.25640991, 4075.12820478, 4041.28205087, 4118.97435870, 4081.92307658, 4103.07692280, 4104.10256383, 4096.53846119, 4128.84615357, 4113.20512793, 4090.25640991, 4132.69230742, 4147.05128185,12.0
4120.38461511, 4095.64102530, 4073.97435863, 4037.94871754, 4113.20512793, 4089.35897402, 4107.82051255, 4116.92307665, 4115.12820485, 4131.28205101, 4112.56410229, 4089.35897402, 4130.25640998, 4144.48717928,12.0
4121.92307665, 4088.97435863, 4075.76923043, 4036.79487131, 4112.69230742, 4081.15384581, 4103.84615357, 4108.97435870, 4091.92307658, 4132.05128178, 4107.17948691, 4086.15384581, 4128.58974332, 4144.74358954,12.0
4123.33333306, 4085.89743555, 4076.53846119, 4039.35897395, 4118.33333306, 4075.76923043, 4108.71794844, 4111.15384588, 4066.41025600, 4130.25640998, 4098.20512786, 4088.58974325, 4128.97435870, 4145.76923056,12.0
4118.97435870, 4081.02564068, 4068.07692266, 4024.99999952, 4114.74358947, 4066.28205087, 4097.17948684, 4101.92307658, 4064.61538420, 4131.28205101, 4095.25640991, 4080.12820478, 4132.56410229, 4144.99999980,12.0
4121.02564075, 4079.61538427, 4063.46153805, 4022.30769183, 4114.10256383, 4057.17948677, 4079.74358940, 4084.61538427, 4067.05128164, 4132.17948691, 4086.02564068, 4063.71794830, 4131.02564075, 4143.97435877,12.0
4119.23076896, 4085.25640991, 4067.17948677, 4044.10256369, 4119.10256383, 4069.87179453, 4093.20512786, 4096.66666632, 4072.30769196, 4130.51282024, 4078.71794837, 4061.15384574, 4128.84615357, 4144.99999980,12.0
4122.43589716, 4090.76923043, 4071.41025607, 4051.79487138, 4117.94871767, 4084.48717914, 4108.58974332, 4111.02564075, 4078.71794837, 4129.74358947, 4088.33333299, 4067.82051241, 4130.64102537, 4143.33333313,12.0
4123.71794844, 4091.92307658, 4076.66666632, 4048.07692266, 4117.17948691, 4077.17948684, 4099.23076889, 4103.20512793, 4076.53846119, 4130.76923050, 4094.48717914, 4076.41025607, 4129.61538434, 4142.69230749,12.0
4115.89743562, 4092.30769196, 4078.71794837, 4054.61538420, 4118.20512793, 4066.02564061, 4088.58974325, 4094.87179453, 4078.33333299, 4130.64102537, 4088.46153812, 4085.12820478, 4132.30769203, 4145.51282031,12.0
4123.97435870, 4090.76923043, 4079.74358940, 4052.69230728, 4118.20512793, 4064.35897395, 4082.43589709, 4089.10256376, 4081.41025607, 4129.23076896, 4086.92307658, 4082.30769196, 4129.99999973, 4143.97435877,12.0
4121.53846126, 4084.35897402, 4081.53846119, 4051.28205087, 4115.64102537, 4070.89743555, 4087.05128171, 4091.53846119, 4075.76923043, 4129.87179460, 4090.89743555, 4079.35897402, 4128.46153819, 4143.84615364,12.0
4117.69230742, 4093.07692273, 4088.84615350, 4068.33333292, 4115.76923050, 4085.12820478, 4107.30769203, 4107.69230742, 4078.97435863, 4131.02564075, 4090.38461504, 4093.84615350, 4133.20512793, 4144.61538441,12.0
4125.38461511, 4105.25640998, 4094.61538427, 4082.05128171, 4118.07692280, 4082.43589709, 4106.02564075, 4107.30769203, 4086.41025607, 4130.89743562, 4086.92307658, 4099.74358940, 4129.99999973, 4143.97435877,12.0
4114.99999973, 4097.69230735, 4087.94871761, 4082.30769196, 4114.23076896, 4062.82051241, 4080.64102530, 4091.28205094, 4077.94871761, 4130.89743562, 4084.99999966, 4091.53846119, 4132.43589716, 4145.12820492,12.0
4118.71794844, 4100.89743555, 4091.15384581, 4084.74358940, 4118.33333306, 4063.71794830, 4076.28205094, 4092.05128171, 4073.33333299, 4131.02564075, 4088.71794837, 4101.02564068, 4133.71794844, 4143.20512800,12.0
4124.10256383, 4110.51282024, 4096.53846119, 4086.79487145, 4122.43589716, 4070.25640991, 4084.61538427, 4094.10256376, 4076.15384581, 4130.89743562, 4089.87179453, 4105.64102537, 4131.41025614, 4145.12820492,12.0
4116.92307665, 4106.28205101, 4092.05128171, 4087.05128171, 4116.92307665, 4069.10256369, 4086.15384581, 4085.76923043, 4072.94871761, 4131.02564075, 4084.23076889, 4092.30769196, 4133.20512793, 4147.30769210,12.0
4123.84615357, 4107.17948691, 4093.84615350, 4093.97435863, 4118.71794844, 4081.28205094, 4092.82051248, 4090.38461504, 4076.92307658, 4130.89743562, 4087.17948684, 4091.79487145, 4128.71794844, 4144.10256390,12.0
4120.12820485, 4115.64102537, 4093.97435863, 4100.64102530, 4118.58974332, 4085.89743555, 4093.07692273, 4098.58974325, 4084.10256376, 4130.89743562, 4095.25640991, 4097.43589709, 4131.92307665, 4146.15384595,12.0
4124.23076896, 4117.69230742, 4092.82051248, 4098.20512786, 4116.66666639, 4077.94871761, 4091.41025607, 4093.07692273, 4079.23076889, 4131.02564075, 4090.51282017, 4091.79487145, 4134.48717921, 4147.43589723,12.0
4126.79487152, 4106.53846126, 4087.69230735, 4083.71794837, 4118.58974332, 4075.51282017, 4092.69230735, 4089.23076889, 4069.48717907, 4130.89743562, 4083.71794837, 4081.15384581, 4128.84615357, 4146.28205108,12.0
4117.05128178, 4097.05128171, 4076.41025607, 4070.38461504, 4116.92307665, 4067.30769189, 4078.33333299, 4088.84615350, 4062.94871754, 4130.89743562, 4086.41025607, 4072.94871761, 4131.66666639, 4145.89743569,12.0
4123.58974332, 4099.35897402, 4072.82051248, 4067.43589702, 4119.23076896, 4052.94871754, 4064.61538420, 4081.41025607, 4058.58974318, 4130.89743562, 4077.17948684, 4062.82051241, 4131.79487152, 4144.48717928,12.0
4116.28205101, 4104.74358947, 4078.20512786, 4075.89743555, 4118.58974332, 4056.41025600, 4075.38461504, 4082.43589709, 4059.61538420, 4130.89743562, 4071.92307658, 4068.46153805, 4133.07692280, 4147.17948697,12.0
4116.53846126, 4109.74358947, 4084.35897402, 4080.25640991, 4114.23076896, 4065.89743548, 4079.61538427, 4084.35897402, 4063.20512779, 4131.02564075, 4083.46153812, 4082.82051248, 4132.43589716, 4147.17948697,12.0
4123.20512793, 4105.51282024, 4077.17948684, 4069.61538420, 4115.25640998, 4057.94871754, 4064.23076882, 4070.38461504, 4055.76923036, 4130.89743562, 4084.10256376, 4068.71794830, 4127.43589716, 4144.87179467,12.0
4114.10256383, 4099.74358940, 4071.92307658, 4069.99999966, 4117.43589716, 4053.71794830, 4065.89743548, 4063.46153805, 4046.28205087, 4130.89743562, 4081.41025607, 4057.05128164, 4131.92307665, 4145.76923056,12.0
4120.38461511, 4114.74358947, 4081.66666632, 4081.02564068, 4120.25640998, 4066.41025600, 4084.87179453, 4073.97435863, 4048.97435856, 4131.02564075, 4084.61538427, 4069.61538420, 4131.66666639, 4144.10256390,12.0
4120.12820485, 4133.58974332, 4077.69230735, 4068.20512779, 4118.84615357, 4062.82051241, 4077.56410222, 4075.76923043, 4053.71794830, 4130.89743562, 4081.15384581, 4068.71794830, 4130.38461511, 4144.23076903,12.0
4115.89743562, 4134.87179460, 4063.20512779, 4043.20512779, 4116.53846126, 4033.71794824, 4042.69230728, 4051.15384574, 4035.89743541, 4131.02564075, 4077.94871761, 4047.30769189, 4134.23076896, 4144.99999980,12.0
4117.69230742, 4132.82051255, 4059.61538420, 4049.48717907, 4119.74358947, 4023.84615336, 4025.38461490, 4031.15384567, 4011.02564054, 4130.89743562, 4082.56410222, 4037.82051241, 4132.05128178, 4143.97435877,12.0
4115.89743562, 4134.35897408, 4054.87179446, 4054.10256369, 4118.84615357, 4029.61538413, 4022.43589695, 4027.69230721, 4002.82051227, 4130.89743562, 4081.92307658, 4031.79487131, 4131.66666639, 4145.12820492,12.0
4122.43589716, 4128.07692280, 4046.66666625, 4024.23076875, 4117.56410229, 4013.07692259, 4002.56410201, 4012.05128157, 3994.10256355, 4131.02564075, 4072.56410222, 4011.79487131, 4130.64102537, 4144.35897415,12.0
4122.30769203, 4115.51282024, 4040.25640984, 3980.25640970, 4118.97435870, 3992.30769176, 3981.79487124, 3987.69230714, 3972.30769176, 4130.89743562, 4069.48717907, 3999.48717894, 4128.07692280, 4143.20512800,12.0
4121.15384588, 4113.33333306, 4030.25640977, 3921.15384546, 4120.12820485, 3988.33333278, 3976.79487124, 3973.97435842, 3951.28205066, 4130.89743562, 4062.94871754, 3987.94871740, 4127.05128178, 4146.28205108,12.0
4124.35897408, 4114.10256383, 4023.46153798, 3866.92307609, 4121.53846126, 3987.94871740, 3972.43589688, 3965.12820451, 3937.05128136, 4131.02564075, 4047.05128164, 3969.10256348, 4125.76923050, 4149.10256390,12.0
4121.92307665, 4111.92307665, 4028.84615336, 3861.02564020, 4118.84615357, 3991.02564047, 3972.30769176, 3959.87179425, 3927.43589674, 4130.89743562, 4041.66666625, 3971.53846099, 4128.97435870, 4146.02564082,12.0
4123.97435870, 4110.12820485, 4030.12820465, 3870.38461455, 4117.43589716, 3996.41025586, 3982.17948663, 3962.43589681, 3925.64102495, 4131.02564075, 4041.02564061, 3978.33333278, 4129.35897408, 4141.92307672,12.0
4123.20512793, 4101.79487145, 4017.17948670, 3849.99999917, 4118.84615357, 3989.10256355, 3982.69230714, 3965.51281989, 3928.58974290, 4130.89743562, 4038.58974318, 3963.33333271, 4124.48717921, 4144.87179467,12.0
4121.92307665, 4104.99999973, 4012.94871747, 3846.92307609, 4116.79487152, 3975.64102509, 3968.58974297, 3963.46153784, 3926.15384546, 4130.89743562, 4044.48717907, 3953.97435835, 4126.66666639, 4146.92307672,12.0
4122.94871767, 4101.53846119, 4017.43589695, 3863.07692225, 4115.64102537, 3967.43589681, 3957.05128143, 3960.76923015, 3924.74358905, 4131.02564075, 4048.20512779, 3959.10256348, 4131.53846126, 4144.10256390,12.0
4122.69230742, 4061.92307651, 4013.33333285, 3850.89743507, 4117.30769203, 3965.64102502, 3961.92307630, 3967.56410194, 3935.76923008, 4130.89743562, 4042.17948677, 3955.64102502, 4129.74358947, 4145.51282031,12.0
4122.82051255, 4022.05128157, 4006.53846106, 3837.94871705, 4118.33333306, 3968.58974297, 3969.48717887, 3966.66666605, 3933.20512751, 4130.89743562, 4035.51282003, 3943.97435835, 4126.79487152, 4147.69230749,12.0
4122.82051255, 4022.05128157, 4006.53846106, 3837.94871705, 4118.33333306, 3968.58974297, 3969.48717887, 3966.66666605, 3933.20512751, 4130.89743562, 4035.51282003, 3943.97435835, 4126.79487152, 4147.69230749,12.0
4118.07692280, 4016.92307644, 4004.87179439, 3844.35897353, 4117.05128178, 3963.71794810, 3956.79487117, 3950.51281989, 3914.10256341, 4130.89743562, 4032.30769183, 3940.89743528, 4129.35897408, 4145.64102544,12.0
4119.10256383, 4033.46153798, 4003.07692252, 3840.76922994, 4115.64102537, 3949.61538399, 3938.58974297, 3938.20512751, 3912.43589674, 4130.89743562, 4028.46153798, 3937.94871726, 4131.02564075, 4144.10256390,12.0
4119.35897408, 4061.28205087, 4002.43589688, 3835.64102474, 4118.33333306, 3953.58974297, 3944.74358912, 3941.28205066, 3926.15384546, 4131.02564075, 4027.30769183, 3932.05128136, 4127.43589716, 4143.84615364,12.0
4115.89743562, 4089.74358940, 4005.76923029, 3840.89743507, 4120.38461511, 3969.23076861, 3960.64102502, 3951.53846092, 3931.53846085, 4130.89743562, 4031.02564054, 3941.79487117, 4127.30769203, 4144.23076903,12.0
4117.43589716, 4086.66666632, 4005.51282003, 3823.20512731, 4114.87179460, 3966.92307630, 3957.56410194, 3947.94871733, 3920.89743521, 4130.89743562, 4031.79487131, 3948.20512758, 4131.15384588, 4145.12820492,12.0
4115.25640998, 4072.56410222, 4001.92307637, 3796.53846057, 4112.17948691, 3957.69230707, 3952.43589681, 3943.33333271, 3913.33333264, 4131.02564075, 4026.28205080, 3936.92307623, 4130.64102537, 4145.89743569,12.0
4119.99999973, 4078.20512786, 4003.46153791, 3794.61538365, 4116.92307665, 3963.58974297, 3958.20512758, 3953.20512758, 3924.23076854, 4130.89743562, 4024.48717900, 3935.51281982, 4128.33333306, 4144.23076903,12.0
4121.53846126, 4079.74358940, 4005.89743541, 3796.53846057, 4117.56410229, 3972.17948663, 3961.28205066, 3960.51281989, 3940.51281989, 4131.02564075, 4031.15384567, 3948.71794810, 4128.20512793, 4142.56410236,12.0
4116.92307665, 4072.30769196, 4002.43589688, 3787.30769134, 4114.61538434, 3964.99999938, 3953.97435835, 3952.30769169, 3932.05128136, 4130.89743562, 4032.05128157, 3942.17948656, 4127.30769203, 4144.87179467,12.0
4122.17948691, 4075.89743555, 3999.74358919, 3787.05128108, 4113.58974332, 3963.71794810, 3956.41025579, 3949.23076861, 3918.71794803, 4130.89743562, 4025.25640977, 3931.15384546, 4128.71794844, 4146.28205108,12.0
4122.30769203, 4082.30769196, 4002.30769176, 3798.20512724, 4113.58974332, 3977.56410201, 3973.97435842, 3962.56410194, 3932.69230700, 4131.02564075, 4028.20512772, 3944.23076861, 4129.10256383, 4144.87179467,12.0
4122.30769203, 4076.92307658, 4003.33333278, 3798.46153749, 4114.74358947, 3981.53846099, 3977.69230714, 3969.99999938, 3945.51281989, 4130.89743562, 4034.61538413, 3952.17948656, 4125.89743562, 4145.12820492,12.0
4122.30769203, 4069.87179453, 3999.61538406, 3789.48717852, 4116.53846126, 3969.99999938, 3965.76923015, 3963.71794810, 3942.17948656, 4130.89743562, 4031.15384567, 3942.56410194, 4126.53846126, 4146.02564082,12.0
4119.61538434, 4070.51282017, 3997.56410201, 3791.66666570, 4118.46153819, 3968.33333271, 3966.53846092, 3957.69230707, 3938.33333264, 4131.02564075, 4026.79487131, 3940.38461476, 4128.33333306, 4146.28205108,12.0
4122.30769203, 4074.10256376, 4001.92307637, 3805.76922980, 4115.89743562, 3978.58974304, 3975.25640970, 3958.07692246, 3940.38461476, 4130.89743562, 4032.69230721, 3950.12820451, 4127.30769203, 4147.69230749,12.0
4119.74358947, 4078.84615350, 4009.74358926, 3815.64102474, 4113.46153819, 3985.38461483, 3979.99999945, 3967.43589681, 3951.15384553, 4131.02564075, 4040.64102523, 3963.58974297, 4127.43589716, 4147.82051262,12.0
4121.02564075, 4085.64102530, 4017.17948670, 3820.76922987, 4115.64102537, 3997.30769176, 3994.35897381, 3979.87179432, 3966.28205066, 4130.89743562, 4043.07692266, 3973.84615329, 4129.23076896, 4146.15384595,12.0
4123.84615357, 4085.12820478, 4016.79487131, 3824.61538372, 4115.76923050, 4001.15384560, 3996.66666611, 3977.94871740, 3967.43589681, 4130.89743562, 4041.92307651, 3971.79487124, 4129.23076896, 4144.99999980,12.0
4117.56410229, 4077.94871761, 4008.97435849, 3824.48717859, 4113.71794844, 3983.20512765, 3972.82051227, 3967.43589681, 3955.38461476, 4131.02564075, 4042.05128164, 3962.43589681, 4128.07692280, 4145.25641005,12.0
4118.33333306, 4076.28205094, 4006.79487131, 3825.51281961, 4111.92307665, 3977.69230714, 3965.89743528, 3965.25640963, 3951.02564040, 4130.76923050, 4041.66666625, 3961.66666605, 4127.56410229, 4144.99999980,12.0
4117.94871767, 4076.79487145, 4011.15384567, 3830.25640936, 4114.23076896, 3988.46153791, 3984.23076868, 3971.79487124, 3956.92307630, 4130.64102537, 4040.64102523, 3968.07692246, 4127.56410229, 4144.10256390,12.0
4117.94871767, 4076.53846119, 4014.87179439, 3836.41025551, 4117.82051255, 3993.71794817, 3994.35897381, 3983.20512765, 3968.07692246, 4131.53846126, 4046.28205087, 3973.71794817, 4126.66666639, 4145.76923056,12.0
4124.99999973, 4073.84615350, 4011.66666618, 3835.76922987, 4116.28205101, 3995.51281996, 3991.53846099, 3986.02564047, 3971.79487124, 4130.25640998, 4049.74358933, 3970.38461476, 4125.76923050, 4147.30769210,12.0
4120.89743562, 4074.10256376, 4009.87179439, 3838.71794782, 4114.99999973, 4005.12820465, 3999.74358919, 3986.92307637, 3971.66666611, 4130.25640998, 4046.15384574, 3967.56410194, 4127.17948691, 4146.15384595,12.0
4117.56410229, 4080.89743555, 4014.61538413, 3851.15384532, 4115.76923050, 4014.48717900, 4012.30769183, 3996.66666611, 3976.41025586, 4134.23076896, 4049.35897395, 3977.43589688, 4129.48717921, 4144.99999980,12.0
4118.84615357, 4078.33333299, 4012.69230721, 3847.56410173, 4116.02564075, 4007.30769183, 4005.25640977, 3987.69230714, 3968.20512758, 4134.48717921, 4052.94871754, 3977.94871740, 4128.71794844, 4145.12820492,12.0
4119.23076896, 4072.30769196, 4009.61538413, 3838.58974269, 4116.53846126, 3995.64102509, 3988.07692252, 3961.66666605, 3951.66666605, 4132.05128178, 4047.05128164, 3965.38461476, 4126.02564075, 4143.46153826,12.0
4122.30769203, 4081.79487145, 4015.12820465, 3851.92307609, 4117.05128178, 3999.23076868, 3985.25640970, 3961.15384553, 3958.71794810, 4133.46153819, 4045.76923036, 3968.58974297, 4125.25640998, 4142.30769210,12.0
4118.58974332, 4089.35897402, 4017.56410208, 3865.38461455, 4116.15384588, 4006.53846106, 3996.15384560, 3984.74358919, 3983.33333278, 4135.76923056, 4053.46153805, 3981.53846099, 4126.66666639, 4144.23076903,12.0
4118.58974332, 4091.15384581, 4020.76923029, 3870.25640943, 4115.38461511, 4018.84615336, 4016.79487131, 4011.41025593, 4009.74358926, 4133.84615357, 4059.10256369, 3992.05128150, 4129.48717921, 4145.38461518,12.0
4122.17948691, 4093.71794837, 4027.43589695, 3878.20512744, 4115.51282024, 4034.74358926, 4034.61538413, 4028.33333285, 4027.56410208, 4132.43589716, 4059.99999959, 3995.38461483, 4129.35897408, 4143.97435877,12.0
4120.38461511, 4082.05128171, 4017.94871747, 3871.53846071, 4113.33333306, 4026.79487131, 4023.97435849, 4016.53846106, 4010.12820465, 4133.97435870, 4051.92307651, 3974.48717894, 4125.76923050, 4142.94871774,12.0
4122.05128178, 4071.79487145, 4009.10256362, 3863.33333250, 4111.66666639, 4008.46153798, 4005.51282003, 3992.94871740, 3984.10256355, 4134.23076896, 4043.33333292, 3959.74358912, 4124.23076896, 4145.51282031,12.0
4122.94871767, 4087.94871761, 4024.74358926, 3885.76923001, 4115.51282024, 4021.53846106, 4021.15384567, 3999.99999945, 3994.61538406, 4134.35897408, 4051.66666625, 3987.43589688, 4126.41025614, 4148.46153826,12.0
4124.23076896, 4102.17948684, 4037.69230728, 3905.89743521, 4113.97435870, 4035.51282003, 4040.38461497, 4013.71794824, 4005.64102516, 4134.10256383, 4061.02564061, 4009.99999952, 4129.61538434, 4149.10256390,12.0
4125.51282024, 4088.71794837, 4031.92307644, 3895.51281975, 4110.38461511, 4021.41025593, 4029.74358926, 4009.74358926, 3993.58974304, 4134.23076896, 4056.28205087, 4003.58974304, 4127.17948691, 4147.69230749,12.0
4118.58974332, 4078.84615350, 4027.82051234, 3887.82051206, 4110.51282024, 4017.30769183, 4020.89743541, 4014.23076875, 3997.05128150, 4134.74358947, 4054.99999959, 4004.99999952, 4125.51282024, 4144.99999980,12.0
4117.82051255, 4090.51282017, 4031.28205080, 3903.20512744, 4109.87179460, 4038.20512779, 4037.30769189, 4021.66666618, 4012.69230721, 4133.97435870, 4062.69230728, 4011.15384567, 4129.74358947, 4145.64102544,12.0
4119.23076896, 4095.89743555, 4032.56410208, 3916.53846085, 4111.53846126, 4046.79487138, 4048.07692266, 4018.97435849, 4012.82051234, 4133.84615357, 4063.07692266, 4006.28205080, 4128.84615357, 4146.53846133,12.0
4119.61538434, 4089.87179453, 4030.51282003, 3915.89743521, 4113.84615357, 4032.17948670, 4030.89743541, 4012.05128157, 4006.15384567, 4136.28205108, 4058.20512779, 4000.51281996, 4125.12820485, 4144.87179467,12.0
4120.64102537, 4088.84615350, 4028.71794824, 3918.33333264, 4113.58974332, 4028.07692259, 4017.82051234, 4006.92307644, 4005.12820465, 4134.61538434, 4059.74358933, 3999.99999945, 4127.82051255, 4145.12820492,12.0
4116.92307665, 4092.30769196, 4030.51282003, 3926.66666598, 4114.74358947, 4039.10256369, 4030.76923029, 4010.12820465, 4005.12820465, 4131.28205101, 4061.92307651, 4002.17948663, 4127.69230742, 4148.58974339,12.0
4122.69230742, 4097.05128171, 4034.87179439, 3936.41025572, 4115.89743562, 4046.53846113, 4045.51282010, 4019.35897388, 4011.92307644, 4133.33333306, 4063.46153805, 4008.84615336, 4123.97435870, 4148.46153826,12.0
4122.56410229, 4101.28205094, 4035.12820465, 3948.71794810, 4113.33333306, 4052.56410215, 4049.74358933, 4028.20512772, 4024.99999952, 4135.38461518, 4069.61538420, 4015.76923029, 4126.92307665, 4145.25641005,12.0
4117.30769203, 4099.87179453, 4031.02564054, 3947.43589681, 4111.28205101, 4052.17948677, 4047.05128164, 4017.82051234, 4016.66666618, 4134.10256383, 4068.46153805, 4009.48717900, 4129.61538434, 4147.43589723,12.0
4123.07692280, 4097.43589709, 4032.30769183, 3939.61538399, 4112.56410229, 4048.46153805, 4046.92307651, 3998.46153791, 3995.51281996, 4133.84615357, 4061.53846113, 4003.97435842, 4127.17948691, 4145.64102544,12.0
4122.69230742, 4099.87179453, 4039.99999959, 3946.41025579, 4115.25640998, 4056.02564061, 4055.64102523, 4009.61538413, 4005.38461490, 4134.87179460, 4062.30769189, 4017.17948670, 4126.92307665, 4141.92307672,12.0
4121.79487152, 4102.30769196, 4044.87179446, 3959.10256348, 4115.25640998, 4068.46153805, 4069.35897395, 4035.25640977, 4030.38461490, 4133.58974332, 4070.25640991, 4030.51282003, 4129.23076896, 4145.89743569,12.0
4122.17948691, 4096.53846119, 4042.69230728, 3959.48717887, 4113.46153819, 4066.66666625, 4069.23076882, 4030.89743541, 4027.17948670, 4131.66666639, 4071.92307658, 4024.48717900, 4128.97435870, 4146.41025621,12.0
4120.76923050, 4097.56410222, 4042.17948677, 3964.10256348, 4113.84615357, 4056.53846113, 4054.48717907, 4018.58974311, 4022.56410208, 4129.87179460, 4068.46153805, 4021.66666618, 4126.79487152, 4143.71794851,12.0
4123.97435870, 4108.71794844, 4043.20512779, 3976.53846099, 4113.20512793, 4051.28205087, 4039.99999959, 4021.92307644, 4035.25640977, 4128.84615357, 4069.10256369, 4027.05128157, 4127.05128178, 4145.51282031,12.0
4123.71794844, 4110.12820485, 4039.35897395, 3979.23076868, 4114.61538434, 4054.99999959, 4039.10256369, 4026.15384567, 4034.74358926, 4128.97435870, 4070.64102530, 4025.38461490, 4127.17948691, 4146.53846133,12.0
4124.23076896, 4106.53846126, 4038.84615343, 3979.35897381, 4117.05128178, 4063.84615343, 4048.84615343, 4029.74358926, 4025.89743541, 4129.23076896, 4072.82051248, 4027.82051234, 4126.53846126, 4144.23076903,12.0
4123.97435870, 4101.79487145, 4036.41025593, 3971.41025586, 4115.25640998, 4058.71794830, 4042.17948677, 4023.71794824, 4017.69230721, 4130.12820485, 4069.87179453, 4023.71794824, 4127.30769203, 4145.12820492,12.0
4122.30769203, 4092.94871761, 4029.48717900, 3958.46153784, 4112.30769203, 4048.58974318, 4036.79487131, 4017.17948670, 4012.30769183, 4130.38461511, 4064.48717907, 4013.71794824, 4129.23076896, 4146.41025621,12.0
4123.97435870, 4090.64102530, 4031.53846106, 3961.41025579, 4111.02564075, 4056.66666625, 4055.38461497, 4031.02564054, 4030.12820465, 4129.99999973, 4066.53846113, 4022.56410208, 4130.25640998, 4145.25641005,12.0
4118.58974332, 4097.69230735, 4037.94871754, 3972.82051227, 4113.46153819, 4072.94871761, 4077.56410222, 4044.87179446, 4051.79487138, 4130.25640998, 4071.02564068, 4035.76923029, 4128.07692280, 4146.02564082,12.0
4118.97435870, 4112.30769203, 4047.30769189, 3987.82051227, 4116.02564075, 4091.41025607, 4095.38461504, 4048.33333292, 4053.71794830, 4130.25640998, 4074.87179453, 4048.33333292, 4126.79487152, 4145.12820492,12.0
4123.97435870, 4122.30769203, 4060.38461497, 4002.43589688, 4113.71794844, 4110.89743562, 4111.92307665, 4059.10256369, 4059.74358933, 4130.25640998, 4078.71794837, 4066.41025600, 4127.43589716, 4142.43589723,12.0
4118.46153819, 4121.79487152, 4064.48717907, 4005.89743541, 4114.23076896, 4121.02564075, 4118.46153819, 4072.82051248, 4075.64102530, 4130.25640998, 4081.66666632, 4077.05128171, 4127.82051255, 4145.12820492,12.0
4118.58974332, 4123.20512793, 4065.12820472, 4009.48717900, 4117.94871767, 4122.69230742, 4112.30769203, 4072.69230735, 4087.17948684, 4130.25640998, 4084.99999966, 4082.30769196, 4128.20512793, 4148.33333313,12.0
4118.84615357, 4123.20512793, 4064.35897395, 4014.87179439, 4116.66666639, 4117.30769203, 4100.76923043, 4062.94871754, 4091.28205094, 4130.25640998, 4087.82051248, 4083.71794837, 4126.92307665, 4146.79487159,12.0
4118.97435870, 4116.41025614, 4054.74358933, 4007.17948670, 4113.07692280, 4107.05128178, 4089.48717914, 4058.58974318, 4086.92307658, 4130.25640998, 4087.94871761, 4071.66666632, 4127.17948691, 4144.87179467,12.0
4125.25640998, 4117.17948691, 4053.46153805, 4006.41025593, 4113.71794844, 4103.58974332, 4091.66666632, 4064.99999959, 4087.69230735, 4130.25640998, 4088.20512786, 4068.33333292, 4128.84615357, 4143.71794851,12.0
4123.58974332, 4117.82051255, 4058.97435856, 4013.84615336, 4114.35897408, 4103.97435870, 4093.33333299, 4071.92307658, 4093.07692273, 4130.25640998, 4087.05128171, 4076.15384581, 4127.17948691, 4145.25641005,12.0
4122.30769203, 4107.56410229, 4053.71794830, 4002.56410201, 4111.41025614, 4097.43589709, 4083.84615350, 4068.71794830, 4084.74358940, 4130.25640998, 4081.66666632, 4068.20512779, 4126.53846126, 4146.79487159,12.0
4124.23076896, 4103.33333306, 4048.84615343, 3991.66666611, 4112.30769203, 4093.07692273, 4089.35897402, 4065.76923036, 4078.71794837, 4130.25640998, 4081.66666632, 4063.71794830, 4127.69230742, 4144.10256390,12.0
4125.25640998, 4114.23076896, 4061.15384574, 4006.53846106, 4116.92307665, 4103.46153819, 4110.64102537, 4074.35897402, 4096.53846119, 4130.25640998, 4090.25640991, 4089.10256376, 4129.48717921, 4141.92307672,12.0
4126.41025614, 4123.20512793, 4076.28205094, 4024.10256362, 4115.64102537, 4117.17948691, 4123.58974332, 4081.02564068, 4106.15384588, 4130.25640998, 4096.92307658, 4113.58974332, 4129.87179460, 4143.07692287,12.0
4121.41025614, 4125.64102537, 4075.12820478, 4025.12820465, 4110.38461511, 4121.15384588, 4126.02564075, 4080.51282017, 4094.74358940, 4130.25640998, 4095.25640991, 4108.46153819, 4129.23076896, 4144.23076903,12.0
4121.02564075, 4124.35897408, 4065.38461497, 4019.61538413, 4109.99999973, 4121.28205101, 4126.28205101, 4076.15384581, 4083.58974325, 4130.25640998, 4088.46153812, 4090.89743555, 4128.33333306, 4143.71794851,12.0
4125.12820485, 4119.87179460, 4062.30769189, 4024.48717900, 4114.61538434, 4123.84615357, 4121.53846126, 4074.48717914, 4085.51282017, 4130.25640998, 4083.84615350, 4091.02564068, 4127.94871767, 4143.71794851,12.0
4125.76923050, 4125.51282024, 4070.25640991, 4040.51282010, 4113.97435870, 4121.79487152, 4111.79487152, 4076.28205094, 4100.25640991, 4130.25640998, 4090.12820478, 4107.94871767, 4129.35897408, 4146.15384595,12.0
4126.53846126, 4134.48717921, 4075.76923043, 4048.20512779, 4110.64102537, 4114.74358947, 4103.33333306, 4073.97435863, 4109.10256383, 4130.12820485, 4098.97435863, 4117.17948691, 4129.61538434, 4145.38461518,12.0
4122.56410229, 4134.74358947, 4074.99999966, 4050.51282010, 4112.43589716, 4115.12820485, 4104.35897408, 4078.20512786, 4107.56410229, 4129.74358947, 4095.76923043, 4115.64102537, 4128.20512793, 4142.94871774,12.0
4123.07692280, 4138.58974339, 4081.41025607, 4062.30769189, 4114.35897408, 4122.43589716, 4111.66666639, 4085.38461504, 4111.53846126, 4130.38461511, 4093.20512786, 4121.79487152, 4128.20512793, 4145.89743569,12.0
4123.07692280, 4143.33333313, 4089.74358940, 4071.53846119, 4114.35897408, 4123.97435870, 4112.17948691, 4085.51282017, 4117.30769203, 4130.12820485, 4100.76923043, 4136.28205108, 4128.07692280, 4147.56410236,12.0
4117.43589716, 4138.58974339, 4088.71794837, 4068.97435856, 4114.35897408, 4120.76923050, 4112.43589716, 4081.92307658, 4111.53846126, 4129.35897408, 4102.30769196, 4136.28205108, 4127.05128178, 4143.46153826,12.0
4123.58974332, 4135.25640998, 4086.15384581, 4069.35897395, 4112.56410229, 4124.61538434, 4120.12820485, 4077.17948684, 4102.17948684, 4132.17948691, 4094.87179453, 4126.53846126, 4127.56410229, 4143.20512800,12.0
4123.07692280, 4134.87179460, 4084.10256376, 4068.07692266, 4112.94871767, 4126.53846126, 4119.74358947, 4074.48717914, 4097.94871761, 4135.25640998, 4089.61538427, 4124.99999973, 4126.53846126, 4147.05128185,12.0
4118.71794844, 4132.82051255, 4082.43589709, 4063.84615343, 4116.41025614, 4124.61538434, 4113.46153819, 4079.35897402, 4097.43589709, 4135.25640998, 4090.12820478, 4128.20512793, 4122.43589716, 4145.12820492,12.0
4122.69230742, 4135.51282031, 4084.61538427, 4069.35897395, 4117.69230742, 4128.33333306, 4119.61538434, 4087.69230735, 4103.46153819, 4134.74358947, 4092.30769196, 4127.56410229, 4122.69230742, 4142.43589723,12.0
4118.97435870, 4135.89743569, 4082.69230735, 4065.89743548, 4113.84615357, 4128.33333306, 4124.74358947, 4084.61538427, 4106.02564075, 4134.23076896, 4091.66666632, 4121.02564075, 4124.10256383, 4143.58974339,12.0
4119.99999973, 4131.92307665, 4078.46153812, 4050.51282010, 4111.28205101, 4125.64102537, 4118.33333306, 4074.74358940, 4100.25640991, 4133.84615357, 4089.74358940, 4115.25640998, 4125.64102537, 4143.07692287,12.0
4122.56410229, 4140.76923056, 4089.35897402, 4058.97435856, 4115.25640998, 4138.33333313, 4128.20512793, 4084.74358940, 4110.38461511, 4135.25640998, 4097.56410222, 4128.84615357, 4124.99999973, 4143.20512800,12.0
4121.79487152, 4155.89743569, 4102.94871767, 4077.69230735, 4115.64102537, 4151.66666646, 4144.87179467, 4107.05128178, 4131.28205101, 4135.89743569, 4106.79487152, 4152.82051262, 4123.20512793, 4145.12820492,12.0
4123.07692280, 4148.97435877, 4091.79487145, 4064.23076882, 4111.41025614, 4135.76923056, 4127.94871767, 4093.58974325, 4123.20512793, 4134.35897408, 4101.66666632, 4142.30769210, 4126.53846126, 4145.76923056,12.0
4123.20512793, 4130.25640998, 4075.12820478, 4042.82051241, 4114.48717921, 4112.69230742, 4097.17948684, 4063.07692266, 4097.05128171, 4134.23076896, 4093.07692273, 4111.66666639, 4128.46153819, 4146.79487159,12.0
4127.94871767, 4136.53846133, 4085.12820478, 4057.05128164, 4116.66666639, 4119.87179460, 4101.41025607, 4068.71794830, 4101.92307658, 4134.74358947, 4098.33333299, 4122.69230742, 4125.64102537, 4148.58974339,12.0
4126.02564075, 4158.20512800, 4105.51282024, 4086.02564068, 4113.97435870, 4145.38461518, 4135.25640998, 4096.92307658, 4134.61538434, 4134.48717921, 4110.12820485, 4162.05128185, 4125.51282024, 4147.94871774,12.0
4122.94871767, 4159.61538441, 4102.94871767, 4088.58974325, 4114.61538434, 4151.28205108, 4142.17948697, 4102.05128171, 4143.07692287, 4134.48717921, 4111.53846126, 4163.20512800, 4127.56410229, 4148.58974339,12.0
4126.15384588, 4140.64102544, 4086.79487145, 4065.25640984, 4115.89743562, 4129.99999973, 4111.79487152, 4080.25640991, 4115.25640998, 4134.48717921, 4103.84615357, 4131.66666639, 4126.02564075, 4147.43589723,12.0
4124.10256383, 4139.35897415, 4086.02564068, 4061.66666625, 4115.89743562, 4122.94871767, 4105.12820485, 4074.99999966, 4104.61538434, 4134.48717921, 4102.56410229, 4128.84615357, 4123.71794844, 4144.23076903,12.0
4123.84615357, 4152.82051262, 4095.76923043, 4081.02564068, 4115.25640998, 4142.30769210, 4133.71794844, 4087.94871761, 4119.87179460, 4134.48717921, 4107.30769203, 4146.41025621, 4124.99999973, 4147.05128185,12.0
4123.46153819, 4148.07692287, 4094.87179453, 4081.66666632, 4113.20512793, 4147.17948697, 4138.84615364, 4085.38461504, 4120.51282024, 4134.48717921, 4106.53846126, 4142.82051262, 4126.28205101, 4148.33333313,12.0
4121.53846126, 4140.51282031, 4088.20512786, 4070.25640991, 4114.35897408, 4133.20512793, 4120.76923050, 4079.10256376, 4111.02564075, 4134.48717921, 4103.07692280, 4129.23076896, 4126.41025614, 4145.89743569,12.0
4123.97435870, 4144.10256390, 4088.97435863, 4070.51282017, 4117.82051255, 4134.35897408, 4122.56410229, 4090.25640991, 4118.33333306, 4134.48717921, 4102.56410229, 4125.89743562, 4127.17948691, 4145.64102544,12.0
4119.61538434, 4138.58974339, 4090.25640991, 4071.92307658, 4118.20512793, 4139.87179467, 4130.25640998, 4102.30769196, 4128.33333306, 4134.48717921, 4099.74358940, 4123.07692280, 4126.53846126, 4144.48717928,12.0
4119.99999973, 4137.43589723, 4093.33333299, 4077.30769196, 4113.71794844, 4140.51282031, 4132.17948691, 4102.69230742, 4127.94871767, 4134.48717921, 4099.87179453, 4128.33333306, 4125.25640998, 4143.71794851,12.0
4123.07692280, 4146.41025621, 4096.66666632, 4083.58974325, 4113.07692280, 4148.33333313, 4140.64102544, 4098.07692273, 4122.56410229, 4134.48717921, 4103.84615357, 4140.12820492, 4126.02564075, 4145.76923056,12.0
4120.12820485, 4140.76923056, 4093.71794837, 4077.82051248, 4118.84615357, 4149.48717928, 4140.51282031, 4086.79487145, 4112.69230742, 4134.48717921, 4102.82051255, 4136.79487159, 4125.76923050, 4145.64102544,12.0
4123.84615357, 4133.46153819, 4091.41025607, 4071.02564068, 4118.71794844, 4135.64102544, 4124.10256383, 4074.74358940, 4106.15384588, 4134.48717921, 4099.61538427, 4128.07692280, 4124.61538434, 4142.30769210,12.0
4120.89743562, 4135.89743569, 4093.46153812, 4071.15384581, 4115.51282024, 4129.61538434, 4115.38461511, 4076.92307658, 4110.38461511, 4134.48717921, 4101.41025607, 4132.43589716, 4125.64102537, 4142.69230749,12.0
4118.46153819, 4137.17948697, 4096.66666632, 4076.15384581, 4117.43589716, 4138.07692287, 4124.48717921, 4084.99999966, 4116.79487152, 4134.48717921, 4104.74358947, 4142.43589723, 4128.84615357, 4145.38461518,12.0
4122.82051255, 4141.92307672, 4098.33333299, 4090.76923043, 4118.33333306, 4144.10256390, 4135.51282031, 4094.23076889, 4128.20512793, 4134.48717921, 4107.56410229, 4151.66666646, 4128.46153819, 4144.74358954,12.0
4122.17948691, 4148.07692287, 4099.74358940, 4098.58974325, 4117.69230742, 4146.41025621, 4140.51282031, 4109.74358947, 4142.05128185, 4134.48717921, 4109.99999973, 4161.66666646, 4123.07692280, 4143.84615364,12.0
4123.58974332, 4146.53846133, 4100.76923043, 4095.25640991, 4118.33333306, 4144.23076903, 4136.79487159, 4110.51282024, 4143.84615364, 4134.48717921, 4112.17948691, 4163.84615364, 4121.92307665, 4143.58974339,12.0
4123.33333306, 4146.66666646, 4101.66666632, 4102.69230742, 4118.07692280, 4142.43589723, 4134.99999973, 4097.43589709, 4133.33333306, 4134.48717921, 4112.69230742, 4157.94871774, 4125.38461511, 4143.58974339,12.0
4124.48717921, 4156.41025621, 4103.97435870, 4117.56410229, 4115.12820485, 4153.58974339, 4146.15384595, 4098.33333299, 4123.97435870, 4134.48717921, 4111.53846126, 4159.35897415, 4126.92307665, 4146.15384595,12.0
4124.74358947, 4155.76923056, 4105.25640998, 4117.82051255, 4114.61538434, 4157.05128185, 4152.94871774, 4100.64102530, 4119.48717921, 4134.48717921, 4111.53846126, 4163.71794851, 4124.99999973, 4147.17948697,12.0
4122.56410229, 4153.33333313, 4108.84615357, 4119.61538434, 4117.94871767, 4154.23076903, 4155.64102544, 4094.74358940, 4122.43589716, 4134.48717921, 4116.28205101, 4168.33333320, 4122.56410229, 4145.38461518,12.0
4128.33333306, 4158.33333313, 4112.43589716, 4133.07692280, 4117.94871767, 4161.15384595, 4156.28205108, 4091.53846119, 4124.35897408, 4134.48717921, 4118.71794844, 4171.66666653, 4126.28205101, 4144.74358954,12.0
4127.17948691, 4146.28205108, 4100.51282017, 4125.38461511, 4116.02564075, 4153.46153826, 4137.69230749, 4083.07692273, 4111.53846126, 4134.48717921, 4110.12820485, 4156.02564082, 4129.10256383, 4146.15384595,12.0
4121.28205101, 4131.79487152, 4088.07692273, 4104.35897408, 4117.43589716, 4136.92307672, 4121.02564075, 4072.94871761, 4102.94871767, 4134.48717921, 4103.97435870, 4135.76923056, 4125.89743562, 4145.25641005,12.0
4123.84615357, 4142.94871774, 4097.94871761, 4115.25640998, 4116.66666639, 4147.94871774, 4131.79487152, 4084.87179453, 4119.35897408, 4134.48717921, 4111.15384588, 4146.02564082, 4124.87179460, 4142.69230749,12.0
4123.20512793, 4150.64102544, 4106.53846126, 4134.48717921, 4115.38461511, 4156.15384595, 4139.99999980, 4102.17948684, 4127.69230742, 4134.48717921, 4114.48717921, 4157.94871774, 4127.05128178, 4142.94871774,12.0
4124.74358947, 4137.17948697, 4097.56410222, 4123.33333306, 4117.43589716, 4142.30769210, 4128.71794844, 4094.87179453, 4109.23076896, 4134.48717921, 4106.28205101, 4140.89743569, 4127.17948691, 4144.23076903,12.0
4124.48717921, 4131.53846126, 4091.53846119, 4114.10256383, 4119.87179460, 4148.58974339, 4132.05128178, 4089.35897402, 4106.02564075, 4134.48717921, 4102.30769196, 4128.71794844, 4124.23076896, 4143.33333313,12.0
4120.89743562, 4140.89743569, 4094.99999966, 4127.05128178, 4119.35897408, 4162.05128185, 4149.61538441, 4099.10256376, 4119.87179460, 4134.48717921, 4107.05128178, 4135.64102544, 4124.23076896, 4142.69230749,12.0
4123.97435870, 4144.35897415, 4098.84615350, 4134.61538434, 4116.15384588, 4154.61538441, 4154.74358954, 4095.76923043, 4114.87179460, 4134.48717921, 4110.51282024, 4143.46153826, 4126.15384588, 4144.48717928,12.0
4119.61538434, 4140.64102544, 4101.79487145, 4131.53846126, 4116.53846126, 4151.79487159, 4149.61538441, 4086.02564068, 4105.76923050, 4134.48717921, 4110.25640998, 4148.33333313, 4125.38461511, 4147.43589723,12.0
4117.69230742, 4141.92307672, 4103.84615357, 4133.07692280, 4118.71794844, 4159.10256390, 4147.30769210, 4088.46153812, 4117.82051255, 4134.48717921, 4109.23076896, 4147.43589723, 4125.12820485, 4146.41025621,12.0
4120.12820485, 4146.41025621, 4105.89743562, 4139.23076903, 4116.41025614, 4157.30769210, 4146.41025621, 4099.99999966, 4137.30769210, 4134.48717921, 4111.66666639, 4151.41025621, 4125.76923050, 4141.66666646,12.0
4119.99999973, 4147.30769210, 4114.10256383, 4142.94871774, 4113.46153819, 4151.53846133, 4141.28205108, 4110.25640998, 4147.05128185, 4134.48717921, 4115.89743562, 4164.99999980, 4124.35897408, 4142.82051262,12.0
4125.64102537, 4149.10256390, 4120.76923050, 4144.10256390, 4116.53846126, 4152.94871774, 4139.48717928, 4111.15384588, 4142.94871774, 4134.48717921, 4117.69230742, 4167.43589723, 4123.58974332, 4147.69230749,12.0
4124.48717921, 4149.74358954, 4115.89743562, 4142.56410236, 4121.53846126, 4148.58974339, 4135.76923056, 4100.64102530, 4128.84615357, 4134.48717921, 4111.28205101, 4154.48717928, 4124.99999973, 4146.28205108,12.0
4122.94871767, 4144.99999980, 4109.99999973, 4138.33333313, 4118.46153819, 4141.28205108, 4122.56410229, 4094.74358940, 4123.20512793, 4134.48717921, 4104.35897408, 4147.30769210, 4127.30769203, 4143.33333313,12.0
4126.02564075, 4138.58974339, 4111.92307665, 4132.82051255, 4114.10256383, 4142.17948697, 4122.30769203, 4104.87179460, 4125.89743562, 4134.48717921, 4107.94871767, 4149.10256390, 4126.53846126, 4145.51282031,12.0
4125.25640998, 4135.51282031, 4111.53846126, 4129.99999973, 4116.66666639, 4151.02564082, 4143.33333313, 4118.97435870, 4128.07692280, 4134.48717921, 4111.53846126, 4149.23076903, 4125.51282024, 4147.94871774,12.0
4126.53846126, 4141.79487159, 4107.30769203, 4136.02564082, 4119.48717921, 4158.84615364, 4158.71794851, 4123.07692280, 4130.76923050, 4134.48717921, 4105.25640998, 4145.38461518, 4128.07692280, 4146.28205108,12.0
4125.89743562, 4147.05128185, 4105.64102537, 4142.82051262, 4119.35897408, 4158.58974339, 4156.79487159, 4118.07692280, 4129.10256383, 4134.48717921, 4098.84615350, 4136.66666646, 4126.02564075, 4145.38461518,12.0
4126.28205101, 4146.53846133, 4109.35897408, 4146.28205108, 4118.46153819, 4155.89743569, 4154.48717928, 4111.53846126, 4121.53846126, 4134.48717921, 4102.56410229, 4137.05128185, 4121.41025614, 4147.69230749,12.0
4125.64102537, 4144.23076903, 4115.25640998, 4147.69230749, 4119.23076896, 4154.10256390, 4154.10256390, 4107.43589716, 4121.66666639, 4134.48717921, 4105.89743562, 4147.94871774, 4124.61538434, 4147.69230749,12.0
4119.10256383, 4142.82051262, 4117.05128178, 4151.66666646, 4119.35897408, 4151.15384595, 4147.43589723, 4109.74358947, 4132.05128178, 4134.48717921, 4102.17948684, 4153.58974339, 4128.58974332, 4145.12820492,12.0
4123.20512793, 4148.71794851, 4120.25640998, 4159.10256390, 4118.07692280, 4147.17948697, 4136.92307672, 4112.94871767, 4137.30769210, 4134.48717921, 4103.20512793, 4161.53846133, 4126.02564075, 4145.25641005,12.0
4123.71794844, 4151.53846133, 4123.97435870, 4157.56410236, 4119.48717921, 4148.58974339, 4137.94871774, 4114.87179460, 4138.84615364, 4134.48717921, 4107.69230742, 4169.74358961, 4124.48717921, 4147.05128185,12.0
4118.84615357, 4139.23076903, 4118.84615357, 4144.99999980, 4119.48717921, 4144.61538441, 4137.56410236, 4113.58974332, 4136.92307672, 4134.48717921, 4106.79487152, 4158.33333313, 4126.79487152, 4146.41025621,12.0
4123.07692280, 4135.51282031, 4118.58974332, 4148.20512800, 4118.97435870, 4143.20512800, 4133.07692280, 4109.23076896, 4137.17948697, 4134.48717921, 4106.92307665, 4154.99999980, 4124.74358947, 4143.84615364,12.0
4121.41025614, 4149.35897415, 4127.05128178, 4167.30769210, 4120.89743562, 4156.15384595, 4148.20512800, 4114.87179460, 4145.76923056, 4134.48717921, 4113.97435870, 4176.66666653, 4122.30769203, 4143.97435877,12.0
4124.61538434, 4156.15384595, 4130.51282024, 4165.25641005, 4117.82051255, 4157.43589723, 4159.10256390, 4118.07692280, 4144.99999980, 4134.48717921, 4116.53846126, 4178.20512807, 4124.61538434, 4145.64102544,12.0
4126.79487152, 4143.46153826, 4120.64102537, 4146.92307672, 4114.23076896, 4145.25641005, 4143.71794851, 4109.87179460, 4135.25640998, 4134.48717921, 4109.35897408, 4150.12820492, 4125.64102537, 4144.61538441,12.0
4121.53846126, 4131.66666639, 4112.56410229, 4148.58974339, 4118.84615357, 4144.23076903, 4135.76923056, 4109.35897408, 4133.71794844, 4134.48717921, 4104.48717921, 4141.02564082, 4125.89743562, 4144.61538441,12.0
4124.87179460, 4137.94871774, 4118.97435870, 4161.41025621, 4120.38461511, 4155.76923056, 4152.94871774, 4120.76923050, 4142.05128185, 4134.48717921, 4110.38461511, 4158.71794851, 4128.84615357, 4146.02564082,12.0
4123.97435870, 4149.35897415, 4129.74358947, 4168.20512807, 4116.66666639, 4161.15384595, 4162.56410236, 4130.51282024, 4148.71794851, 4134.48717921, 4116.53846126, 4171.92307679, 4128.97435870, 4144.87179467,12.0
4121.92307665, 4147.82051262, 4130.51282024, 4168.46153833, 4116.66666639, 4151.41025621, 4147.69230749, 4126.02564075, 4143.33333313, 4134.48717921, 4111.15384588, 4164.61538441, 4124.99999973, 4143.46153826,12.0
4121.66666639, 4143.84615364, 4125.12820485, 4165.76923056, 4119.23076896, 4144.23076903, 4137.17948697, 4113.20512793, 4130.76923050, 4134.48717921, 4106.92307665, 4156.66666646, 4122.82051255, 4142.30769210,12.0
4122.82051255, 4152.17948697, 4126.53846126, 4167.69230749, 4118.46153819, 4146.53846133, 4141.02564082, 4108.84615357, 4129.23076896, 4134.48717921, 4114.35897408, 4166.92307672, 4124.74358947, 4143.07692287,12.0
4126.41025614, 4151.02564082, 4129.23076896, 4169.61538448, 4117.82051255, 4139.74358954, 4134.87179460, 4102.05128171, 4128.33333306, 4134.48717921, 4116.15384588, 4169.48717935, 4127.56410229, 4144.74358954,12.0
4123.46153819, 4134.48717921, 4120.76923050, 4159.10256390, 4121.15384588, 4118.84615357, 4111.28205101, 4085.64102530, 4111.41025614, 4134.48717921, 4104.10256383, 4149.87179467, 4127.17948691, 4143.84615364,12.0
4123.97435870, 4133.46153819, 4118.97435870, 4155.38461518, 4119.87179460, 4115.38461511, 4103.97435870, 4088.07692273, 4112.56410229, 4134.48717921, 4101.41025607, 4149.87179467, 4125.12820485, 4144.48717928,12.0
4126.92307665, 4139.48717928, 4127.56410229, 4166.41025621, 4117.05128178, 4126.41025614, 4119.99999973, 4110.51282024, 4135.25640998, 4134.48717921, 4111.66666639, 4169.61538448, 4125.89743562, 4146.66666646,12.0
4123.46153819, 4137.05128185, 4130.25640998, 4167.30769210, 4118.71794844, 4133.33333306, 4135.51282031, 4129.48717921, 4146.53846133, 4134.48717921, 4114.48717921, 4168.07692287, 4126.66666639, 4146.53846133,12.0
4123.33333306, 4136.28205108, 4126.53846126, 4160.64102544, 4118.46153819, 4140.76923056, 4142.17948697, 4133.20512793, 4146.15384595, 4134.48717921, 4109.10256383, 4158.97435877, 4125.25640998, 4143.97435877,12.0
4121.28205101, 4138.84615364, 4128.46153819, 4164.35897415, 4118.33333306, 4144.48717928, 4144.61538441, 4127.30769203, 4149.10256390, 4134.48717921, 4109.48717921, 4167.82051262, 4124.99999973, 4143.07692287,12.0
4119.74358947, 4135.51282031, 4127.30769203, 4164.99999980, 4120.38461511, 4138.84615364, 4136.53846133, 4116.15384588, 4139.35897415, 4134.48717921, 4113.84615357, 4164.74358954, 4126.92307665, 4145.64102544,12.0
4120.51282024, 4129.99999973, 4117.56410229, 4156.79487159, 4119.87179460, 4135.51282031, 4123.46153819, 4107.56410229, 4121.15384588, 4134.48717921, 4106.28205101, 4147.30769210, 4126.79487152, 4147.56410236,12.0
4115.25640998, 4137.05128185, 4122.43589716, 4164.87179467, 4119.35897408, 4142.56410236, 4123.71794844, 4113.84615357, 4129.74358947, 4134.48717921, 4103.46153819, 4155.64102544, 4125.12820485, 4146.53846133,12.0
4118.46153819, 4145.64102544, 4133.84615357, 4178.84615371, 4121.41025614, 4142.30769210, 4122.30769203, 4112.82051255, 4138.33333313, 4134.48717921, 4111.66666639, 4169.74358961, 4125.12820485, 4145.51282031,12.0
4120.76923050, 4134.99999973, 4124.99999973, 4168.20512807, 4121.15384588, 4122.69230742, 4103.20512793, 4093.84615350, 4113.07692280, 4134.48717921, 4107.43589716, 4151.28205108, 4123.71794844, 4146.15384595,12.0
4119.61538434, 4129.61538434, 4121.15384588, 4161.28205108, 4119.48717921, 4114.74358947, 4101.79487145, 4090.38461504, 4103.58974332, 4134.48717921, 4101.66666632, 4143.58974339, 4123.97435870, 4144.23076903,12.0
4122.94871767, 4143.97435877, 4133.71794844, 4175.64102551, 4119.99999973, 4129.61538434, 4122.94871767, 4106.02564075, 4129.61538434, 4134.48717921, 4109.74358947, 4166.28205108, 4127.94871767, 4143.33333313,12.0
4120.64102537, 4146.15384595, 4131.66666639, 4178.20512807, 4120.38461511, 4133.33333306, 4128.07692280, 4106.66666639, 4136.41025621, 4134.48717921, 4112.43589716, 4171.41025628, 4128.20512793, 4145.51282031,12.0
4124.74358947, 4137.56410236, 4124.10256383, 4170.76923063, 4119.10256383, 4128.20512793, 4122.69230742, 4096.66666632, 4118.71794844, 4134.48717921, 4103.07692280, 4154.10256390, 4124.48717921, 4143.84615364,12.0
4125.25640998, 4139.61538441, 4132.43589716, 4172.43589730, 4119.35897408, 4139.99999980, 4128.71794844, 4105.76923050, 4124.23076896, 4134.48717921, 4101.15384581, 4150.64102544, 4124.48717921, 4142.05128185,12.0
4119.87179460, 4141.28205108, 4132.69230742, 4172.69230756, 4120.51282024, 4151.28205108, 4136.79487159, 4115.76923050, 4139.23076903, 4134.48717921, 4106.79487152, 4156.79487159, 4128.07692280, 4144.35897415,12.0
4122.05128178, 4136.28205108, 4124.48717921, 4169.23076910, 4120.38461511, 4145.25641005, 4132.82051255, 4108.07692280, 4138.58974339, 4134.48717921, 4107.05128178, 4154.23076903, 4128.58974332, 4146.66666646,12.0
4121.02564075, 4135.89743569, 4130.51282024, 4168.33333320, 4121.15384588, 4138.71794851, 4123.58974332, 4106.79487152, 4133.84615357, 4134.48717921, 4103.84615357, 4153.07692287, 4126.79487152, 4145.38461518,12.0
4124.74358947, 4146.41025621, 4146.02564082, 4173.71794858, 4120.51282024, 4146.28205108, 4130.12820485, 4124.99999973, 4140.38461518, 4134.48717921, 4107.05128178, 4169.48717935, 4128.71794844, 4143.84615364,12.0
4128.46153819, 4148.84615364, 4148.46153826, 4181.28205115, 4120.38461511, 4146.15384595, 4133.20512793, 4126.02564075, 4140.76923056, 4134.48717921, 4112.69230742, 4178.33333320, 4129.35897408, 4144.99999980,12.0
4124.10256383, 4133.84615357, 4138.07692287, 4170.76923063, 4122.05128178, 4128.97435870, 4112.43589716, 4104.87179460, 4121.15384588, 4134.48717921, 4104.35897408, 4154.48717928, 4126.92307665, 4146.79487159,12.0
4124.87179460, 4131.02564075, 4137.43589723, 4160.51282031, 4120.51282024, 4126.15384588, 4101.79487145, 4105.25640998, 4120.25640998, 4134.48717921, 4098.20512786, 4143.20512800, 4128.07692280, 4147.30769210,12.0
4122.82051255, 4141.79487159, 4142.94871774, 4170.25641012, 4121.02564075, 4133.84615357, 4112.56410229, 4118.84615357, 4135.64102544, 4134.48717921, 4107.82051255, 4163.84615364, 4130.51282024, 4145.64102544,12.0
4122.17948691, 4144.61538441, 4146.92307672, 4184.35897422, 4121.41025614, 4134.99999973, 4118.84615357, 4113.71794844, 4132.17948691, 4134.48717921, 4114.99999973, 4171.79487166, 4129.99999973, 4143.07692287,12.0
4123.33333306, 4137.43589723, 4146.79487159, 4183.33333320, 4118.71794844, 4140.51282031, 4121.41025614, 4103.58974332, 4123.84615357, 4134.48717921, 4110.12820485, 4157.30769210, 4128.58974332, 4143.33333313,12.0
4119.10256383, 4131.41025614, 4136.15384595, 4168.71794858, 4119.35897408, 4148.84615364, 4128.33333306, 4102.30769196, 4122.05128178, 4134.48717921, 4103.46153819, 4144.23076903, 4126.79487152, 4146.53846133,12.0
4122.30769203, 4132.56410229, 4131.41025614, 4160.89743569, 4121.79487152, 4145.76923056, 4126.53846126, 4095.38461504, 4118.97435870, 4134.48717921, 4105.12820485, 4144.35897415, 4125.64102537, 4144.35897415,12.0
4121.41025614, 4135.12820485, 4142.82051262, 4168.33333320, 4120.89743562, 4134.61538434, 4114.23076896, 4089.99999966, 4122.94871767, 4134.48717921, 4110.89743562, 4154.99999980, 4125.38461511, 4141.28205108,12.0
4118.71794844, 4135.64102544, 4148.84615364, 4172.56410243, 4118.97435870, 4123.58974332, 4104.99999973, 4099.35897402, 4130.25640998, 4134.48717921, 4109.61538434, 4160.12820492, 4124.10256383, 4143.58974339,12.0
4119.61538434, 4138.33333313, 4146.02564082, 4171.66666653, 4119.48717921, 4131.28205101, 4124.35897408, 4119.99999973, 4134.61538434, 4134.48717921, 4107.43589716, 4159.99999980, 4124.23076896, 4144.23076903,12.0
4118.20512793, 4150.12820492, 4155.12820492, 4191.15384602, 4121.15384588, 4163.58974339, 4165.76923056, 4151.92307672, 4155.12820492, 4134.48717921, 4115.12820485, 4177.56410243, 4126.28205101, 4142.94871774,12.0
4122.05128178, 4152.56410236, 4159.48717928, 4197.43589730, 4121.92307665, 4168.71794858, 4167.94871774, 4157.05128185, 4160.12820492, 4134.48717921, 4115.64102537, 4182.94871781, 4126.41025614, 4144.87179467,12.0
4120.76923050, 4137.30769210, 4142.30769210, 4167.82051262, 4121.02564075, 4135.76923056, 4127.56410229, 4128.07692280, 4128.20512793, 4134.48717921, 4103.20512793, 4153.58974339, 4124.35897408, 4145.25641005,12.0
4120.12820485, 4131.66666639, 4138.71794851, 4158.58974339, 4121.41025614, 4128.84615357, 4115.12820485, 4117.43589716, 4116.79487152, 4134.48717921, 4102.30769196, 4144.61538441, 4125.51282024, 4144.99999980,12.0
4124.48717921, 4139.61538441, 4157.43589723, 4179.61538448, 4123.20512793, 4149.87179467, 4134.35897408, 4129.10256383, 4136.53846133, 4134.48717921, 4110.64102537, 4166.28205108, 4127.56410229, 4147.05128185,12.0
4121.66666639, 4144.48717928, 4160.12820492, 4188.58974345, 4122.56410229, 4150.12820492, 4130.64102537, 4132.94871767, 4147.05128185, 4134.48717921, 4110.38461511, 4172.17948704, 4123.84615357, 4147.17948697,12.0
4122.82051255, 4141.02564082, 4147.43589723, 4176.92307679, 4120.38461511, 4134.61538434, 4107.17948691, 4123.84615357, 4139.23076903, 4134.48717921, 4107.05128178, 4157.56410236, 4123.20512793, 4144.87179467,12.0
4123.71794844, 4134.87179460, 4147.82051262, 4167.43589723, 4120.38461511, 4131.28205101, 4102.43589709, 4113.97435870, 4132.05128178, 4134.48717921, 4106.79487152, 4153.46153826, 4126.79487152, 4144.10256390,12.0
4122.69230742, 4134.48717921, 4154.99999980, 4169.48717935, 4120.89743562, 4137.56410236, 4107.56410229, 4109.23076896, 4132.94871767, 4134.48717921, 4107.30769203, 4161.66666646, 4126.79487152, 4145.25641005,12.0
4124.35897408, 4135.64102544, 4149.48717928, 4173.84615371, 4118.84615357, 4137.43589723, 4104.74358947, 4103.46153819, 4129.23076896, 4134.48717921, 4104.48717921, 4160.25641005, 4125.12820485, 4145.12820492,12.0
4120.38461511, 4133.20512793, 4142.05128185, 4171.15384602, 4120.64102537, 4133.71794844, 4110.25640998, 4104.99999973, 4121.92307665, 4134.48717921, 4101.79487145, 4150.89743569, 4125.25640998, 4143.84615364,12.0
4121.02564075, 4134.35897408, 4145.38461518, 4164.87179467, 4122.30769203, 4137.30769210, 4123.84615357, 4111.28205101, 4122.82051255, 4134.48717921, 4104.23076896, 4151.41025621, 4128.20512793, 4144.10256390,12.0
4120.76923050, 4132.94871767, 4146.28205108, 4159.87179467, 4121.02564075, 4133.71794844, 4121.28205101, 4103.58974332, 4115.12820485, 4134.48717921, 4102.17948684, 4152.30769210, 4128.46153819, 4145.51282031,12.0
4115.25640998, 4130.38461511, 4147.30769210, 4162.82051262, 4119.35897408, 4131.41025614, 4119.35897408, 4101.02564068, 4104.87179460, 4134.48717921, 4100.38461504, 4150.51282031, 4125.76923050, 4147.17948697,12.0
4119.99999973, 4141.41025621, 4156.41025621, 4173.58974345, 4117.43589716, 4144.99999980, 4132.82051255, 4117.30769203, 4122.17948691, 4134.48717921, 4109.23076896, 4164.48717928, 4126.53846126, 4146.02564082,12.0
4119.35897408, 4148.84615364, 4160.89743569, 4179.87179474, 4119.61538434, 4154.10256390, 4139.48717928, 4127.17948691, 4144.10256390, 4134.61538434, 4113.71794844, 4179.61538448, 4127.43589716, 4145.25641005,12.0
4118.33333306, 4146.02564082, 4162.05128185, 4186.28205115, 4121.53846126, 4157.82051262, 4140.12820492, 4133.07692280, 4149.99999980, 4134.87179460, 4110.12820485, 4178.97435884, 4126.02564075, 4145.64102544,12.0
4121.41025614, 4142.43589723, 4163.07692287, 4190.12820499, 4121.15384588, 4163.97435877, 4142.05128185, 4147.69230749, 4156.79487159, 4134.10256383, 4110.89743562, 4174.48717935, 4125.51282024, 4144.74358954,12.0
4117.30769203, 4133.33333306, 4153.84615364, 4173.07692294, 4120.25640998, 4148.84615364, 4123.33333306, 4143.46153826, 4152.43589723, 4134.74358947, 4108.71794844, 4165.51282031, 4126.79487152, 4144.74358954,12.0
4117.56410229, 4128.46153819, 4148.84615364, 4157.56410236, 4120.51282024, 4128.97435870, 4102.17948684, 4124.48717921, 4136.41025621, 4134.87179460, 4102.05128171, 4158.58974339, 4127.17948691, 4144.48717928,12.0
4118.58974332, 4134.74358947, 4153.33333313, 4163.07692287, 4124.48717921, 4131.15384588, 4101.41025607, 4118.33333306, 4128.97435870, 4131.79487152, 4103.20512793, 4160.25641005, 4127.17948691, 4142.82051262,12.0
4123.33333306, 4134.23076896, 4149.10256390, 4165.64102544, 4125.12820485, 4130.64102537, 4098.46153812, 4113.58974332, 4124.61538434, 4128.84615357, 4105.89743562, 4154.35897415, 4129.10256383, 4144.10256390,12.0
4125.76923050, 4122.56410229, 4144.61538441, 4159.48717928, 4121.02564075, 4118.84615357, 4087.43589709, 4106.92307665, 4118.20512793, 4128.33333306, 4103.20512793, 4144.99999980, 4129.10256383, 4143.84615364,12.0
4119.61538434, 4118.84615357, 4147.56410236, 4156.15384595, 4121.15384588, 4115.89743562, 4086.92307658, 4105.76923050, 4116.28205101, 4131.53846126, 4104.35897408, 4144.10256390, 4126.02564075, 4142.05128185,12.0
4121.79487152, 4126.53846126, 4150.38461518, 4159.48717928, 4124.10256383, 4126.28205101, 4100.89743555, 4100.38461504, 4113.20512793, 4134.99999973, 4107.94871767, 4147.56410236, 4125.51282024, 4143.97435877,12.0
4122.56410229, 4137.30769210, 4153.84615364, 4175.38461525, 4121.79487152, 4144.35897415, 4123.71794844, 4103.58974332, 4119.74358947, 4136.41025621, 4108.46153819, 4151.66666646, 4126.66666639, 4146.28205108,12.0
4122.82051255, 4141.41025621, 4155.38461518, 4179.35897422, 4118.71794844, 4149.61538441, 4131.28205101, 4116.66666639, 4126.15384588, 4135.64102544, 4103.84615357, 4149.10256390, 4126.79487152, 4147.30769210,12.0
4123.58974332, 4130.25640998, 4145.51282031, 4158.33333313, 4119.87179460, 4133.58974332, 4109.61538434, 4107.94871767, 4106.53846126, 4132.43589716, 4098.20512786, 4134.10256383, 4127.05128178, 4146.92307672,12.0
4118.46153819, 4125.25640998, 4136.92307672, 4149.35897415, 4123.46153819, 4124.74358947, 4094.74358940, 4091.53846119, 4091.41025607, 4129.99999973, 4097.17948684, 4128.07692280, 4126.66666639, 4146.79487159,12.0
4120.89743562, 4139.23076903, 4150.89743569, 4167.94871774, 4121.66666639, 4138.46153826, 4107.30769203, 4099.61538427, 4108.84615357, 4129.99999973, 4101.15384581, 4147.69230749, 4124.87179460, 4147.17948697,12.0
4121.41025614, 4145.38461518, 4166.28205108, 4180.12820499, 4118.07692280, 4147.05128185, 4120.89743562, 4117.17948691, 4129.23076896, 4131.15384588, 4105.89743562, 4167.56410236, 4123.71794844, 4145.38461518,12.0
4118.84615357, 4139.61538441, 4161.92307672, 4174.23076910, 4119.99999973, 4142.17948697, 4124.74358947, 4125.25640998, 4128.97435870, 4130.12820485, 4108.97435870, 4167.69230749, 4125.64102537, 4143.58974339,12.0
4121.53846126, 4134.74358947, 4151.92307672, 4165.76923056, 4120.51282024, 4139.23076903, 4121.41025614, 4121.02564075, 4119.99999973, 4130.12820485, 4108.07692280, 4157.30769210, 4127.94871767, 4144.23076903,12.0
4115.25640998, 4127.56410229, 4152.30769210, 4157.69230749, 4120.25640998, 4134.35897408, 4109.35897408, 4109.61538434, 4109.23076896, 4131.28205101, 4101.15384581, 4148.71794851, 4128.20512793, 4145.51282031,12.0
4116.02564075, 4126.15384588, 4159.48717928, 4160.38461518, 4120.89743562, 4126.41025614, 4099.35897402, 4106.79487152, 4107.05128178, 4130.89743562, 4101.28205094, 4154.48717928, 4128.20512793, 4144.61538441,12.0
4121.41025614, 4134.99999973, 4164.48717928, 4176.02564089, 4120.89743562, 4127.43589716, 4104.35897408, 4118.58974332, 4127.05128178, 4130.76923050, 4113.46153819, 4173.20512807, 4128.97435870, 4144.74358954,12.0
4117.69230742, 4144.35897415, 4168.58974345, 4187.43589730, 4120.76923050, 4134.35897408, 4112.69230742, 4127.05128178, 4141.15384595, 4131.02564075, 4118.58974332, 4185.12820499, 4127.43589716, 4146.15384595,12.0
4116.79487152, 4147.43589723, 4168.97435884, 4189.23076910, 4121.28205101, 4132.56410229, 4105.25640998, 4118.33333306, 4129.99999973, 4131.02564075, 4112.05128178, 4178.07692294, 4125.64102537, 4142.43589723,12.0
4115.25640998, 4133.20512793, 4156.92307672, 4171.28205115, 4121.53846126, 4120.89743562, 4088.20512786, 4104.35897408, 4112.69230742, 4130.89743562, 4103.97435870, 4157.94871774, 4125.76923050, 4141.02564082,12.0
4119.48717921, 4117.17948691, 4144.74358954, 4142.94871774, 4120.51282024, 4116.53846126, 4083.84615350, 4100.51282017, 4107.43589716, 4131.02564075, 4100.38461504, 4141.92307672, 4126.53846126, 4146.02564082,12.0
4123.97435870, 4120.76923050, 4144.10256390, 4139.87179467, 4120.76923050, 4123.84615357, 4090.38461504, 4099.74358940, 4107.17948691, 4130.89743562, 4100.64102530, 4139.99999980, 4127.82051255, 4146.79487159,12.0
4120.12820485, 4130.89743562, 4149.61538441, 4166.53846133, 4121.92307665, 4131.53846126, 4096.66666632, 4104.48717921, 4107.17948691, 4130.89743562, 4104.61538434, 4149.23076903, 4129.23076896, 4143.71794851,12.0
4121.53846126, 4133.20512793, 4155.12820492, 4180.38461525, 4121.92307665, 4131.28205101, 4100.51282017, 4110.38461511, 4112.17948691, 4131.02564075, 4106.15384588, 4155.64102544, 4128.84615357, 4145.76923056,12.0
4122.17948691, 4130.51282024, 4153.46153826, 4166.79487159, 4121.66666639, 4130.51282024, 4109.74358947, 4111.53846126, 4118.71794844, 4130.89743562, 4103.97435870, 4151.28205108, 4127.69230742, 4147.82051262,12.0
4122.94871767, 4131.15384588, 4149.87179467, 4159.10256390, 4122.05128178, 4140.12820492, 4124.99999973, 4122.30769203, 4128.97435870, 4130.89743562, 4105.25640998, 4150.89743569, 4130.38461511, 4146.41025621,12.0
4122.56410229, 4135.12820485, 4154.10256390, 4167.82051262, 4123.33333306, 4144.61538441, 4131.02564075, 4136.79487159, 4138.97435877, 4130.89743562, 4107.69230742, 4161.15384595, 4129.99999973, 4144.35897415,12.0
4118.97435870, 4134.99999973, 4158.84615364, 4170.12820499, 4123.71794844, 4132.69230742, 4118.20512793, 4135.38461518, 4141.28205108, 4130.89743562, 4103.97435870, 4166.79487159, 4124.23076896, 4144.23076903,12.0
4123.58974332, 4128.46153819, 4155.12820492, 4161.66666646, 4121.53846126, 4127.30769203, 4106.66666639, 4124.99999973, 4140.12820492, 4131.02564075, 4102.56410229, 4160.38461518, 4123.46153819, 4144.48717928,12.0
4121.02564075, 4119.87179460, 4142.94871774, 4152.69230749, 4123.33333306, 4132.69230742, 4107.82051255, 4118.07692280, 4128.46153819, 4130.89743562, 4104.48717921, 4147.05128185, 4127.82051255, 4144.10256390,12.0
4116.66666639, 4119.10256383, 4137.17948697, 4149.74358954, 4124.61538434, 4127.69230742, 4100.89743555, 4106.53846126, 4107.69230742, 4130.89743562, 4099.10256376, 4133.46153819, 4130.38461511, 4144.99999980,12.0
4121.66666639, 4119.99999973, 4140.12820492, 4147.94871774, 4121.15384588, 4118.97435870, 4090.38461504, 4096.92307658, 4099.87179453, 4131.02564075, 4094.99999966, 4131.92307665, 4129.10256383, 4146.53846133,12.0
4118.58974332, 4119.99999973, 4144.74358954, 4150.89743569, 4122.30769203, 4123.71794844, 4098.84615350, 4103.58974332, 4109.23076896, 4130.89743562, 4099.23076889, 4144.35897415, 4124.87179460, 4145.51282031,12.0
4118.20512793, 4121.92307665, 4145.25641005, 4158.84615364, 4124.23076896, 4126.41025614, 4105.12820485, 4101.92307658, 4102.94871767, 4131.02564075, 4102.56410229, 4148.33333313, 4123.71794844, 4143.46153826,12.0
4119.35897408, 4118.71794844, 4141.66666646, 4157.17948697, 4122.82051255, 4116.15384588, 4094.74358940, 4092.05128171, 4083.33333299, 4130.89743562, 4101.66666632, 4143.71794851, 4126.53846126, 4143.97435877,12.0
4117.43589716, 4113.97435870, 4143.97435877, 4146.66666646, 4121.79487152, 4106.41025614, 4090.12820478, 4101.66666632, 4086.53846119, 4130.89743562, 4098.84615350, 4142.69230749, 4127.43589716, 4144.35897415,12.0
4118.84615357, 4118.20512793, 4146.41025621, 4145.64102544, 4121.02564075, 4110.76923050, 4102.17948684, 4121.53846126, 4105.38461511, 4131.02564075, 4096.92307658, 4143.33333313, 4126.53846126, 4142.69230749,12.0
4117.05128178, 4122.82051255, 4143.84615364, 4153.58974339, 4122.30769203, 4122.30769203, 4113.46153819, 4126.28205101, 4107.17948691, 4131.41025614, 4097.82051248, 4145.25641005, 4126.28205101, 4143.84615364,12.0
4120.25640998, 4117.82051255, 4140.51282031, 4150.89743569, 4123.33333306, 4118.84615357, 4109.87179460, 4113.20512793, 4089.23076889, 4130.89743562, 4097.94871761, 4142.43589723, 4127.56410229, 4146.92307672,12.0
4118.97435870, 4115.51282024, 4141.02564082, 4142.94871774, 4120.89743562, 4110.51282024, 4105.64102537, 4111.02564075, 4091.41025607, 4129.99999973, 4097.17948684, 4140.76923056, 4128.71794844, 4145.51282031,12.0
4117.82051255, 4125.51282024, 4149.99999980, 4154.61538441, 4120.25640998, 4123.58974332, 4114.48717921, 4129.87179460, 4120.76923050, 4131.79487152, 4102.05128171, 4156.28205108, 4127.43589716, 4143.84615364,12.0
4124.48717921, 4125.38461511, 4148.33333313, 4159.35897415, 4122.05128178, 4127.43589716, 4106.92307665, 4119.99999973, 4113.58974332, 4130.38461511, 4101.53846119, 4155.64102544, 4125.38461511, 4146.02564082,12.0
4122.43589716, 4112.69230742, 4136.28205108, 4144.99999980, 4122.43589716, 4106.53846126, 4081.02564068, 4092.43589709, 4080.76923043, 4122.05128178, 4090.89743555, 4135.76923056, 4124.48717921, 4146.53846133,12.0
4122.30769203, 4117.69230742, 4145.25641005, 4150.76923056, 4120.76923050, 4106.28205101, 4081.28205094, 4101.79487145, 4092.30769196, 4123.20512793, 4095.12820478, 4147.94871774, 4127.17948691, 4145.38461518,12.0
4122.17948691, 4124.48717921, 4158.58974339, 4162.43589723, 4120.25640998, 4117.82051255, 4092.17948684, 4112.30769203, 4108.97435870, 4135.12820485, 4103.58974332, 4164.99999980, 4128.71794844, 4144.87179467,12.0
4118.71794844, 4114.87179460, 4147.43589723, 4152.43589723, 4122.17948691, 4103.84615357, 4079.35897402, 4093.07692273, 4085.76923043, 4137.17948697, 4096.15384581, 4150.51282031, 4126.15384588, 4144.74358954,12.0
4122.69230742, 4119.10256383, 4140.76923056, 4150.38461518, 4124.48717921, 4094.35897402, 4070.76923043, 4087.56410222, 4074.74358940, 4131.79487152, 4093.20512786, 4144.99999980, 4126.15384588, 4144.10256390,12.0
4120.89743562, 4129.99999973, 4146.66666646, 4162.56410236, 4123.07692280, 4103.20512793, 4079.48717914, 4102.43589709, 4089.99999966, 4132.94871767, 4099.61538427, 4154.74358954, 4126.41025614, 4144.35897415,12.0
4118.46153819, 4122.05128178, 4140.38461518, 4158.58974339, 4118.97435870, 4100.38461504, 4082.17948684, 4095.89743555, 4082.43589709, 4135.12820485, 4098.07692273, 4147.56410236, 4124.99999973, 4144.99999980,12.0
4119.23076896, 4113.71794844, 4135.51282031, 4148.20512800, 4120.64102537, 4096.28205094, 4085.12820478, 4086.02564068, 4066.53846113, 4134.10256383, 4094.23076889, 4137.94871774, 4127.30769203, 4143.07692287,12.0
4116.66666639, 4115.76923050, 4141.02564082, 4149.23076903, 4126.02564075, 4108.71794844, 4101.41025607, 4102.05128171, 4081.79487145, 4134.48717921, 4097.17948684, 4145.12820492, 4129.35897408, 4144.23076903,12.0
4122.17948691, 4120.89743562, 4145.64102544, 4155.51282031, 4124.99999973, 4115.64102537, 4111.53846126, 4121.28205101, 4105.64102537, 4134.48717921, 4099.61538427, 4154.74358954, 4127.30769203, 4147.69230749,12.0
4119.61538434, 4127.43589716, 4145.89743569, 4162.30769210, 4120.12820485, 4108.33333306, 4105.25640998, 4130.51282024, 4106.92307665, 4134.23076896, 4099.87179453, 4160.76923056, 4123.84615357, 4147.94871774,12.0
4112.56410229, 4125.64102537, 4139.99999980, 4155.76923056, 4120.25640998, 4100.12820478, 4091.79487145, 4126.79487152, 4088.97435863, 4134.99999973, 4097.17948684, 4151.92307672, 4124.35897408, 4145.89743569,12.0
4118.46153819, 4115.38461511, 4138.33333313, 4145.76923056, 4126.15384588, 4100.25640991, 4089.74358940, 4122.30769203, 4084.87179453, 4135.38461518, 4095.25640991, 4141.53846133, 4127.30769203, 4145.89743569,12.0
4119.35897408, 4112.43589716, 4142.69230749, 4143.84615364, 4128.33333306, 4105.89743562, 4102.69230742, 4129.87179460, 4100.12820478, 4134.74358947, 4098.33333299, 4148.84615364, 4127.17948691, 4147.69230749,12.0
4116.66666639, 4113.58974332, 4140.89743569, 4143.58974339, 4122.94871767, 4107.94871767, 4107.69230742, 4130.76923050, 4101.92307658, 4134.35897408, 4099.48717914, 4156.28205108, 4126.41025614, 4146.79487159,12.0
4116.02564075, 4116.66666639, 4138.84615364, 4153.20512800, 4120.76923050, 4109.74358947, 4104.35897408, 4124.87179460, 4097.94871761, 4134.61538434, 4100.64102530, 4160.51282031, 4127.05128178, 4143.33333313,12.0
4118.33333306, 4128.84615357, 4149.48717928, 4169.10256397, 4124.10256383, 4113.20512793, 4103.46153819, 4132.82051255, 4112.94871767, 4134.61538434, 4106.92307665, 4169.87179474, 4129.10256383, 4144.48717928,12.0
4120.76923050, 4130.38461511, 4153.58974339, 4167.56410236, 4124.99999973, 4106.53846126, 4089.23076889, 4124.61538434, 4113.84615357, 4134.35897408, 4105.76923050, 4165.38461518, 4128.58974332, 4147.82051262,12.0
4117.56410229, 4120.12820485, 4140.76923056, 4154.99999980, 4123.97435870, 4091.28205094, 4066.28205087, 4091.53846119, 4087.30769196, 4134.48717921, 4099.10256376, 4147.82051262, 4126.53846126, 4147.17948697,12.0
4122.56410229, 4121.66666639, 4140.25641005, 4157.82051262, 4122.82051255, 4088.97435863, 4064.48717907, 4086.66666632, 4079.23076889, 4134.48717921, 4102.43589709, 4149.74358954, 4127.17948691, 4143.97435877,12.0
4122.94871767, 4125.38461511, 4149.74358954, 4162.94871774, 4123.58974332, 4093.07692273, 4072.56410222, 4101.79487145, 4085.12820478, 4134.48717921, 4104.74358947, 4159.35897415, 4128.46153819, 4142.69230749,12.0
4117.82051255, 4121.41025614, 4145.76923056, 4158.84615364, 4124.35897408, 4086.66666632, 4069.23076882, 4097.82051248, 4074.61538427, 4134.48717921, 4098.71794837, 4156.66666646, 4129.23076896, 4144.99999980,12.0
4121.28205101, 4117.05128178, 4138.07692287, 4152.30769210, 4121.41025614, 4081.92307658, 4066.66666625, 4090.25640991, 4064.87179446, 4134.48717921, 4098.07692273, 4152.82051262, 4127.56410229, 4146.41025621,12.0
4120.12820485, 4114.99999973, 4137.69230749, 4150.25641005, 4120.76923050, 4091.53846119, 4079.61538427, 4105.38461511, 4079.35897402, 4134.48717921, 4099.74358940, 4149.74358954, 4125.51282024, 4145.25641005,12.0
4119.35897408, 4120.89743562, 4140.89743569, 4157.05128185, 4122.17948691, 4107.17948691, 4097.30769196, 4124.87179460, 4103.58974332, 4134.48717921, 4098.07692273, 4152.17948697, 4128.46153819, 4144.87179467,12.0
4119.35897408, 4125.38461511, 4142.43589723, 4159.61538441, 4120.89743562, 4108.84615357, 4098.58974325, 4121.02564075, 4106.02564075, 4134.48717921, 4099.10256376, 4155.76923056, 4130.25640998, 4145.89743569,12.0
4117.43589716, 4116.79487152, 4137.94871774, 4147.30769210, 4120.76923050, 4094.87179453, 4079.87179453, 4104.99999973, 4081.92307658, 4134.48717921, 4098.20512786, 4143.07692287, 4125.89743562, 4147.69230749,12.0
4121.28205101, 4111.92307665, 4133.20512793, 4139.35897415, 4121.02564075, 4086.79487145, 4069.23076882, 4099.99999966, 4072.05128171, 4134.48717921, 4095.64102530, 4130.76923050, 4123.58974332, 4148.07692287,12.0
4116.79487152, 4115.64102537, 4136.41025621, 4145.12820492, 4120.64102537, 4096.15384581, 4085.12820478, 4107.82051255, 4089.87179453, 4134.48717921, 4096.41025607, 4134.74358947, 4126.41025614, 4145.38461518,12.0
4115.64102537, 4118.20512793, 4142.05128185, 4153.20512800, 4122.94871767, 4107.43589716, 4096.15384581, 4110.12820485, 4098.58974325, 4134.48717921, 4100.38461504, 4143.84615364, 4129.10256383, 4142.56410236,12.0
4119.35897408, 4116.66666639, 4139.48717928, 4153.20512800, 4124.35897408, 4098.84615350, 4076.53846119, 4103.71794844, 4090.38461504, 4134.61538434, 4102.05128171, 4147.69230749, 4128.84615357, 4143.46153826,12.0
4115.76923050, 4110.12820485, 4135.38461518, 4145.64102544, 4122.30769203, 4085.51282017, 4062.43589702, 4100.89743555, 4087.17948684, 4135.25640998, 4099.99999966, 4145.51282031, 4126.28205101, 4146.41025621,12.0
4121.53846126, 4109.48717921, 4137.43589723, 4145.64102544, 4121.79487152, 4095.38461504, 4079.10256376, 4102.82051255, 4089.87179453, 4133.97435870, 4102.43589709, 4143.46153826, 4125.64102537, 4145.76923056,12.0
4122.56410229, 4113.84615357, 4132.94871767, 4148.71794851, 4125.12820485, 4105.51282024, 4087.82051248, 4102.05128171, 4087.05128171, 4133.97435870, 4102.05128171, 4137.56410236, 4126.53846126, 4143.58974339,12.0
4118.84615357, 4113.33333306, 4124.74358947, 4144.99999980, 4124.23076896, 4097.30769196, 4074.61538427, 4101.28205094, 4077.82051248, 4136.92307672, 4094.35897402, 4127.56410229, 4126.02564075, 4144.87179467,12.0
4120.76923050, 4109.48717921, 4124.23076896, 4144.87179467, 4119.87179460, 4085.51282017, 4071.28205094, 4099.35897402, 4068.33333292, 4130.89743562, 4090.89743555, 4124.87179460, 4125.64102537, 4147.17948697,12.0
4119.23076896, 4110.12820485, 4127.69230742, 4147.17948697, 4121.92307665, 4084.35897402, 4077.05128171, 4096.53846119, 4064.48717907, 4123.58974332, 4094.87179453, 4132.56410229, 4126.02564075, 4148.46153826,12.0
4121.15384588, 4116.15384588, 4129.74358947, 4149.23076903, 4124.48717921, 4096.53846119, 4078.07692273, 4098.71794837, 4068.97435856, 4129.61538434, 4095.89743555, 4139.23076903, 4127.94871767, 4147.43589723,12.0
4120.51282024, 4113.58974332, 4128.07692280, 4149.61538441, 4122.94871767, 4101.66666632, 4075.25640991, 4098.58974325, 4076.15384581, 4134.10256383, 4095.76923043, 4138.07692287, 4128.71794844, 4144.23076903,12.0
4119.35897408, 4104.35897408, 4127.69230742, 4145.64102544, 4121.79487152, 4090.38461504, 4072.30769196, 4094.35897402, 4078.58974325, 4128.33333306, 4100.64102530, 4137.94871774, 4126.53846126, 4144.74358954,12.0
4121.79487152, 4109.23076896, 4134.99999973, 4146.28205108, 4121.41025614, 4093.84615350, 4081.66666632, 4100.89743555, 4082.82051248, 4127.82051255, 4103.58974332, 4147.94871774, 4125.12820485, 4144.87179467,12.0
4118.71794844, 4120.12820485, 4137.05128185, 4153.84615364, 4122.94871767, 4106.02564075, 4090.89743555, 4111.02564075, 4085.51282017, 4131.02564075, 4101.66666632, 4155.76923056, 4126.28205101, 4143.71794851,12.0
4121.66666639, 4113.97435870, 4129.74358947, 4148.07692287, 4124.23076896, 4094.99999966, 4079.74358940, 4102.05128171, 4073.46153812, 4127.43589716, 4096.53846119, 4145.64102544, 4128.07692280, 4145.12820492,12.0
4120.12820485, 4109.99999973, 4131.53846126, 4139.87179467, 4122.17948691, 4090.25640991, 4078.20512786, 4099.48717914, 4071.66666632, 4125.25640998, 4096.15384581, 4141.15384595, 4125.76923050, 4145.12820492,12.0
4113.84615357, 4126.66666639, 4141.28205108, 4155.25641005, 4119.87179460, 4109.74358947, 4101.41025607, 4121.28205101, 4089.99999966, 4128.71794844, 4100.64102530, 4155.64102544, 4125.51282024, 4143.46153826,12.0
4116.92307665, 4131.53846126, 4141.15384595, 4162.94871774, 4122.30769203, 4117.17948691, 4109.10256383, 4124.23076896, 4092.43589709, 4126.92307665, 4099.10256376, 4159.61538441, 4129.10256383, 4145.38461518,12.0
4116.79487152, 4118.97435870, 4135.38461518, 4153.33333313, 4125.64102537, 4109.74358947, 4094.99999966, 4110.12820485, 4081.28205094, 4123.33333306, 4092.94871761, 4147.05128185, 4129.74358947, 4146.53846133,12.0
4119.48717921, 4119.87179460, 4137.82051262, 4155.51282031, 4123.46153819, 4107.82051255, 4091.79487145, 4114.87179460, 4086.02564068, 4129.87179460, 4094.87179453, 4142.43589723, 4128.71794844, 4144.87179467,12.0
4119.61538434, 4121.66666639, 4138.33333313, 4156.02564082, 4120.12820485, 4107.17948691, 4096.02564068, 4121.41025614, 4093.58974325, 4132.30769203, 4101.15384581, 4150.51282031, 4128.46153819, 4145.64102544,12.0
4113.71794844, 4111.28205101, 4132.69230742, 4141.79487159, 4121.92307665, 4097.30769196, 4081.15384581, 4107.82051255, 4083.33333299, 4123.71794844, 4099.87179453, 4148.58974339, 4128.71794844, 4145.64102544,12.0
4119.35897408, 4108.84615357, 4133.58974332, 4139.35897415, 4122.17948691, 4086.28205094, 4060.89743548, 4094.48717914, 4075.25640991, 4125.76923050, 4095.64102530, 4138.97435877, 4127.30769203, 4142.30769210,12.0
4119.10256383, 4111.92307665, 4134.35897408, 4148.97435877, 4121.28205101, 4087.30769196, 4067.05128164, 4100.89743555, 4082.05128171, 4137.05128185, 4096.41025607, 4141.41025621, 4126.28205101, 4142.94871774,12.0
4116.66666639, 4107.30769203, 4130.64102537, 4146.15384595, 4123.20512793, 4094.48717914, 4078.84615350, 4107.05128178, 4086.02564068, 4136.53846133, 4100.25640991, 4146.53846133, 4128.84615357, 4146.41025621,12.0
4119.99999973, 4102.17948684, 4135.89743569, 4142.56410236, 4125.12820485, 4095.76923043, 4074.35897402, 4104.48717921, 4085.89743555, 4132.05128178, 4101.53846119, 4147.69230749, 4129.35897408, 4144.48717928,12.0
4120.12820485, 4107.05128178, 4144.48717928, 4148.07692287, 4124.87179460, 4097.43589709, 4080.89743555, 4112.69230742, 4093.84615350, 4134.99999973, 4103.71794844, 4154.87179467, 4128.46153819, 4142.30769210,12.0
4123.33333306, 4114.35897408, 4140.12820492, 4151.02564082, 4124.23076896, 4104.48717921, 4096.92307658, 4122.94871767, 4100.38461504, 4135.89743569, 4105.25640998, 4153.71794851, 4130.64102537, 4144.74358954,12.0
4122.69230742, 4112.94871767, 4133.71794844, 4147.17948697, 4126.79487152, 4099.99999966, 4091.02564068, 4115.38461511, 4091.41025607, 4135.38461518, 4099.74358940, 4141.28205108, 4130.25640998, 4145.64102544,12.0
4121.79487152, 4111.53846126, 4134.23076896, 4142.30769210, 4126.66666639, 4090.38461504, 4079.61538427, 4104.35897408, 4078.07692273, 4134.87179460, 4093.97435863, 4134.35897408, 4127.30769203, 4145.12820492,12.0
4121.53846126, 4114.10256383, 4128.58974332, 4142.56410236, 4122.56410229, 4095.38461504, 4088.33333299, 4110.12820485, 4079.10256376, 4134.10256383, 4094.99999966, 4131.15384588, 4128.33333306, 4144.87179467,12.0
4118.97435870, 4114.23076896, 4125.12820485, 4149.35897415, 4122.43589716, 4103.20512793, 4096.66666632, 4120.25640998, 4091.66666632, 4134.74358947, 4095.76923043, 4126.79487152, 4129.23076896, 4146.28205108,12.0
4124.35897408, 4115.25640998, 4135.89743569, 4158.58974339, 4122.94871767, 4102.43589709, 4090.76923043, 4114.99999973, 4095.38461504, 4134.48717921, 4096.15384581, 4138.33333313, 4127.94871767, 4147.05128185,12.0
4123.71794844, 4114.10256383, 4141.41025621, 4154.10256390, 4121.41025614, 4093.46153812, 4078.97435863, 4101.66666632, 4080.89743555, 4134.87179460, 4100.12820478, 4150.89743569, 4127.94871767, 4144.87179467,12.0
4118.07692280, 4106.66666639, 4135.64102544, 4139.10256390, 4121.79487152, 4082.43589709, 4071.79487145, 4098.71794837, 4068.07692266, 4135.12820485, 4098.97435863, 4141.92307672, 4128.97435870, 4145.64102544,12.0
4119.99999973, 4108.46153819, 4137.56410236, 4136.53846133, 4123.71794844, 4086.66666632, 4079.23076889, 4116.02564075, 4082.56410222, 4133.33333306, 4092.30769196, 4139.23076903, 4130.89743562, 4147.17948697,12.0
4117.56410229, 4122.43589716, 4149.99999980, 4151.66666646, 4124.10256383, 4104.99999973, 4097.05128171, 4140.38461518, 4112.05128178, 4136.02564082, 4098.58974325, 4163.97435877, 4128.71794844, 4144.99999980,12.0
4117.56410229, 4125.12820485, 4154.74358954, 4158.33333313, 4122.17948691, 4099.87179453, 4091.92307658, 4130.51282024, 4105.64102537, 4135.64102544, 4110.51282024, 4176.28205115, 4122.05128178, 4143.33333313,12.0
4118.33333306, 4114.48717921, 4145.64102544, 4147.82051262, 4121.53846126, 4079.10256376, 4074.35897402, 4103.07692280, 4076.66666632, 4124.35897408, 4106.53846126, 4156.79487159, 4122.05128178, 4144.87179467,12.0
4115.64102537, 4114.23076896, 4142.94871774, 4145.89743569, 4123.33333306, 4095.25640991, 4093.20512786, 4114.61538434, 4087.69230735, 4124.99999973, 4101.66666632, 4152.82051262, 4126.79487152, 4143.20512800,12.0
4119.87179460, 4115.12820485, 4146.79487159, 4146.92307672, 4123.97435870, 4119.61538434, 4114.74358947, 4129.48717921, 4108.07692280, 4131.28205101, 4103.46153819, 4162.17948697, 4127.56410229, 4142.17948697,12.0
4118.33333306, 4101.53846119, 4137.43589723, 4136.02564082, 4124.87179460, 4106.02564075, 4093.20512786, 4109.23076896, 4090.76923043, 4124.48717921, 4102.05128171, 4143.33333313, 4126.02564075, 4147.05128185,12.0
4117.69230742, 4099.10256376, 4131.79487152, 4135.12820485, 4124.99999973, 4091.66666632, 4077.30769196, 4103.58974332, 4085.12820478, 4124.35897408, 4104.48717921, 4135.38461518, 4125.25640998, 4147.82051262,12.0
4119.35897408, 4108.58974332, 4140.76923056, 4145.64102544, 4122.69230742, 4100.76923043, 4092.94871761, 4126.15384588, 4112.94871767, 4137.56410236, 4109.61538434, 4157.05128185, 4125.76923050, 4144.10256390,12.0
4118.71794844, 4109.61538434, 4143.97435877, 4145.76923056, 4121.41025614, 4103.07692280, 4098.20512786, 4130.51282024, 4121.41025614, 4138.07692287, 4107.30769203, 4162.05128185, 4127.82051255, 4144.23076903,12.0
4123.84615357, 4113.71794844, 4142.43589723, 4145.89743569, 4123.46153819, 4100.25640991, 4091.79487145, 4121.66666639, 4108.84615357, 4130.51282024, 4103.33333306, 4150.64102544, 4129.74358947, 4146.79487159,12.0
4121.92307665, 4119.48717921, 4142.43589723, 4150.51282031, 4126.02564075, 4100.76923043, 4093.33333299, 4123.71794844, 4101.66666632, 4136.02564082, 4103.84615357, 4150.25641005, 4126.79487152, 4145.76923056,12.0
4121.15384588, 4116.15384588, 4142.17948697, 4152.94871774, 4123.97435870, 4097.17948684, 4091.92307658, 4123.97435870, 4101.15384581, 4137.43589723, 4105.64102537, 4155.64102544, 4125.25640998, 4143.97435877,12.0
4121.53846126, 4114.74358947, 4143.33333313, 4158.71794851, 4122.43589716, 4096.66666632, 4090.89743555, 4117.05128178, 4102.30769196, 4123.97435870, 4108.07692280, 4159.99999980, 4128.46153819, 4144.35897415,12.0
4118.84615357, 4117.17948691, 4140.25641005, 4156.79487159, 4123.46153819, 4092.94871761, 4087.05128171, 4110.38461511, 4092.17948684, 4119.87179460, 4103.33333306, 4151.41025621, 4128.84615357, 4144.99999980,12.0
4123.58974332, 4112.69230742, 4132.82051255, 4150.12820492, 4121.79487152, 4087.30769196, 4079.48717914, 4105.76923050, 4081.15384581, 4132.43589716, 4096.28205094, 4129.74358947, 4127.69230742, 4145.51282031,12.0
4119.35897408, 4103.58974332, 4123.97435870, 4147.56410236, 4123.97435870, 4087.94871761, 4078.71794837, 4101.28205094, 4078.46153812, 4135.38461518, 4095.64102530, 4118.71794844, 4126.66666639, 4145.76923056,12.0
4115.51282024, 4102.94871767, 4118.20512793, 4141.28205108, 4126.92307665, 4086.02564068, 4076.66666632, 4094.10256376, 4069.35897395, 4127.69230742, 4091.92307658, 4116.53846126, 4127.69230742, 4145.25641005,12.0
4115.51282024, 4102.94871767, 4118.20512793, 4141.28205108, 4126.92307665, 4086.02564068, 4076.66666632, 4094.10256376, 4069.35897395, 4127.69230742, 4091.92307658, 4116.53846126, 4127.69230742, 4145.25641005,12.0
4118.46153819, 4105.89743562, 4117.94871767, 4136.79487159, 4123.58974332, 4090.64102530, 4077.82051248, 4090.38461504, 4061.79487138, 4132.69230742, 4086.15384581, 4109.48717921, 4128.84615357, 4142.94871774,12.0
4117.05128178, 4101.15384581, 4117.30769203, 4135.12820485, 4121.28205101, 4097.30769196, 4078.97435863, 4089.23076889, 4062.30769189, 4137.69230749, 4087.05128171, 4104.35897408, 4126.79487152, 4143.07692287,12.0
4120.25640998, 4099.35897402, 4117.43589716, 4132.30769203, 4123.46153819, 4088.97435863, 4069.87179453, 4081.15384581, 4058.71794830, 4133.71794844, 4089.87179453, 4108.20512793, 4126.15384588, 4145.38461518,12.0
4118.33333306, 4105.76923050, 4124.99999973, 4139.99999980, 4125.12820485, 4083.97435863, 4067.05128164, 4082.94871761, 4061.02564061, 4135.64102544, 4088.97435863, 4121.15384588, 4127.05128178, 4144.99999980,12.0
4114.23076896, 4109.10256383, 4126.79487152, 4143.84615364, 4123.58974332, 4084.61538427, 4070.51282017, 4091.79487145, 4066.28205087, 4139.10256390, 4089.10256376, 4122.56410229, 4127.82051255, 4144.74358954,12.0
4118.58974332, 4101.66666632, 4115.89743562, 4130.25640998, 4122.82051255, 4076.66666632, 4066.15384574, 4083.97435863, 4058.20512779, 4137.56410236, 4086.41025607, 4106.02564075, 4128.33333306, 4144.87179467,12.0
4118.20512793, 4101.66666632, 4116.92307665, 4137.17948697, 4126.92307665, 4088.33333299, 4077.56410222, 4087.30769196, 4065.25640984, 4137.43589723, 4086.53846119, 4109.35897408, 4126.41025614, 4143.97435877,12.0
4119.87179460, 4112.82051255, 4127.56410229, 4154.74358954, 4127.94871767, 4109.23076896, 4098.33333299, 4103.46153819, 4083.20512786, 4137.94871774, 4092.94871761, 4129.99999973, 4124.87179460, 4143.58974339,12.0
4118.20512793, 4107.43589716, 4121.92307665, 4141.53846133, 4122.43589716, 4097.94871761, 4088.07692273, 4098.07692273, 4078.33333299, 4137.56410236, 4092.82051248, 4123.97435870, 4126.53846126, 4142.56410236,12.0
4117.17948691, 4099.10256376, 4118.58974332, 4127.69230742, 4121.02564075, 4085.38461504, 4073.33333299, 4091.53846119, 4070.25640991, 4137.56410236, 4087.69230735, 4113.58974332, 4128.58974332, 4144.23076903,12.0
4122.94871767, 4107.69230742, 4131.92307665, 4144.10256390, 4125.51282024, 4097.05128171, 4082.43589709, 4099.87179453, 4075.51282017, 4137.56410236, 4090.25640991, 4128.46153819, 4128.46153819, 4145.89743569,12.0
4120.12820485, 4116.02564075, 4137.94871774, 4152.30769210, 4125.25640998, 4106.66666639, 4095.25640991, 4109.10256383, 4083.07692273, 4137.56410236, 4096.92307658, 4138.84615364, 4126.66666639, 4146.66666646,12.0
4121.79487152, 4110.89743562, 4132.30769203, 4136.66666646, 4121.66666639, 4101.15384581, 4090.64102530, 4109.10256383, 4086.28205094, 4137.56410236, 4097.56410222, 4128.97435870, 4125.25640998, 4147.43589723,12.0
4125.64102537, 4105.51282024, 4128.33333306, 4136.53846133, 4125.12820485, 4095.25640991, 4078.07692273, 4103.97435870, 4084.61538427, 4137.56410236, 4096.79487145, 4122.17948691, 4126.15384588, 4145.76923056,12.0
4123.58974332, 4106.28205101, 4124.99999973, 4149.23076903, 4129.74358947, 4096.02564068, 4077.56410222, 4101.02564068, 4079.23076889, 4137.56410236, 4095.25640991, 4119.48717921, 4127.17948691, 4145.12820492,12.0
4124.61538434, 4104.99999973, 4120.38461511, 4146.02564082, 4123.97435870, 4097.05128171, 4084.35897402, 4100.12820478, 4074.74358940, 4137.56410236, 4092.30769196, 4112.82051255, 4126.92307665, 4147.30769210,12.0
4121.15384588, 4101.53846119, 4118.71794844, 4140.38461518, 4121.41025614, 4096.53846119, 4089.35897402, 4100.64102530, 4077.05128171, 4137.56410236, 4092.05128171, 4113.97435870, 4127.56410229, 4148.07692287,12.0
4119.99999973, 4101.92307658, 4120.64102537, 4142.82051262, 4124.48717921, 4098.84615350, 4092.94871761, 4102.56410229, 4079.10256376, 4137.56410236, 4091.02564068, 4123.97435870, 4130.51282024, 4146.92307672,12.0
4119.99999973, 4106.66666639, 4123.46153819, 4142.05128185, 4123.20512793, 4098.84615350, 4090.89743555, 4101.41025607, 4075.25640991, 4137.56410236, 4091.53846119, 4129.35897408, 4130.38461511, 4145.89743569,12.0
4115.64102537, 4113.33333306, 4126.79487152, 4147.94871774, 4122.43589716, 4093.20512786, 4085.64102530, 4101.79487145, 4075.76923043, 4137.56410236, 4095.89743555, 4130.89743562, 4127.05128178, 4144.61538441,12.0
4120.12820485, 4120.76923050, 4130.38461511, 4160.38461518, 4123.97435870, 4099.61538427, 4095.38461504, 4111.15384588, 4088.46153812, 4137.56410236, 4097.56410222, 4133.97435870, 4126.15384588, 4142.94871774,12.0
4121.66666639, 4121.79487152, 4130.89743562, 4156.79487159, 4124.74358947, 4109.48717921, 4104.48717921, 4118.33333306, 4097.56410222, 4137.56410236, 4091.41025607, 4134.48717921, 4127.05128178, 4143.20512800,12.0
4119.23076896, 4120.51282024, 4131.92307665, 4156.02564082, 4124.99999973, 4107.69230742, 4093.58974325, 4111.66666639, 4096.28205094, 4137.56410236, 4091.15384581, 4138.20512800, 4128.84615357, 4144.23076903,12.0
4118.33333306, 4121.79487152, 4133.46153819, 4162.82051262, 4124.87179460, 4106.02564075, 4089.61538427, 4107.69230742, 4097.30769196, 4137.56410236, 4097.69230735, 4140.89743569, 4131.02564075, 4145.12820492,12.0
4112.94871767, 4116.28205101, 4126.15384588, 4149.87179467, 4123.71794844, 4103.97435870, 4090.76923043, 4113.33333306, 4097.17948684, 4137.56410236, 4095.25640991, 4129.48717921, 4128.71794844, 4145.64102544,12.0
4116.02564075, 4109.48717921, 4118.33333306, 4136.28205108, 4122.30769203, 4098.07692273, 4085.76923043, 4116.66666639, 4091.15384581, 4137.56410236, 4089.35897402, 4119.48717921, 4125.12820485, 4145.38461518,12.0
4117.82051255, 4106.28205101, 4120.64102537, 4138.46153826, 4123.46153819, 4095.89743555, 4086.15384581, 4112.94871767, 4083.46153812, 4137.56410236, 4087.94871761, 4118.71794844, 4124.99999973, 4145.38461518,12.0
4117.82051255, 4112.43589716, 4124.74358947, 4144.48717928, 4124.48717921, 4105.76923050, 4094.99999966, 4113.58974332, 4083.71794837, 4137.56410236, 4089.35897402, 4121.02564075, 4126.53846126, 4145.38461518,12.0
4122.05128178, 4121.66666639, 4125.76923050, 4149.61538441, 4122.69230742, 4111.02564075, 4097.30769196, 4115.89743562, 4089.99999966, 4137.56410236, 4092.17948684, 4124.23076896, 4126.66666639, 4143.97435877,12.0
4120.76923050, 4119.99999973, 4126.28205101, 4151.92307672, 4122.43589716, 4103.71794844, 4093.33333299, 4110.89743562, 4088.33333299, 4137.56410236, 4093.07692273, 4126.15384588, 4127.30769203, 4143.58974339,12.0
4124.99999973, 4115.12820485, 4126.15384588, 4147.69230749, 4123.71794844, 4101.92307658, 4091.66666632, 4102.69230742, 4084.48717914, 4137.56410236, 4092.43589709, 4124.35897408, 4130.12820485, 4144.74358954,12.0
4123.33333306, 4112.56410229, 4124.99999973, 4139.99999980, 4122.17948691, 4105.12820485, 4092.05128171, 4102.69230742, 4088.58974325, 4137.56410236, 4090.25640991, 4123.71794844, 4129.61538434, 4144.87179467,12.0
4118.46153819, 4108.97435870, 4120.12820485, 4133.84615357, 4122.05128178, 4101.53846119, 4091.92307658, 4108.71794844, 4090.25640991, 4137.56410236, 4088.46153812, 4117.17948691, 4127.30769203, 4144.10256390,12.0
4121.02564075, 4106.28205101, 4114.48717921, 4132.43589716, 4124.87179460, 4100.12820478, 4092.69230735, 4108.33333306, 4088.46153812, 4137.56410236, 4088.84615350, 4107.94871767, 4127.56410229, 4144.48717928,12.0
4118.71794844, 4106.53846126, 4115.12820485, 4134.99999973, 4125.25640998, 4104.61538434, 4095.51282017, 4104.61538434, 4089.10256376, 4137.56410236, 4088.97435863, 4111.15384588, 4128.07692280, 4146.15384595,12.0
4121.53846126, 4105.51282024, 4116.92307665, 4134.35897408, 4123.97435870, 4097.69230735, 4089.87179453, 4097.56410222, 4079.23076889, 4137.56410236, 4088.71794837, 4112.30769203, 4129.48717921, 4146.15384595,12.0
4123.46153819, 4103.58974332, 4111.02564075, 4130.25640998, 4125.12820485, 4087.17948684, 4079.10256376, 4093.84615350, 4069.87179453, 4137.56410236, 4087.43589709, 4103.07692280, 4128.97435870, 4143.46153826,12.0
4118.71794844, 4103.84615357, 4111.53846126, 4131.79487152, 4126.53846126, 4095.38461504, 4086.92307658, 4103.58974332, 4081.28205094, 4137.56410236, 4089.10256376, 4104.35897408, 4127.43589716, 4144.74358954,12.0
4119.35897408, 4107.56410229, 4122.17948691, 4136.66666646, 4124.10256383, 4108.33333306, 4102.17948684, 4109.23076896, 4086.41025607, 4137.56410236, 4090.76923043, 4112.69230742, 4127.43589716, 4147.94871774,12.0
4116.53846126, 4109.35897408, 4121.28205101, 4137.30769210, 4122.30769203, 4104.74358947, 4098.33333299, 4103.58974332, 4073.07692273, 4137.56410236, 4088.07692273, 4109.10256383, 4128.20512793, 4146.02564082,12.0
4117.69230742, 4107.94871767, 4114.99999973, 4139.74358954, 4122.69230742, 4096.28205094, 4086.66666632, 4095.38461504, 4067.43589702, 4137.56410236, 4087.69230735, 4103.58974332, 4127.30769203, 4144.35897415,12.0
4118.97435870, 4110.64102537, 4117.43589716, 4144.61538441, 4122.43589716, 4098.84615350, 4089.23076889, 4095.76923043, 4078.58974325, 4137.56410236, 4089.87179453, 4112.05128178, 4126.53846126, 4145.64102544,12.0
4112.30769203, 4113.20512793, 4118.84615357, 4141.92307672, 4122.30769203, 4100.25640991, 4094.35897402, 4105.89743562, 4088.58974325, 4137.56410236, 4091.41025607, 4117.30769203, 4127.17948691, 4144.99999980,12.0
4117.17948691, 4112.82051255, 4116.53846126, 4135.25640998, 4122.43589716, 4097.69230735, 4093.33333299, 4108.46153819, 4091.79487145, 4137.56410236, 4092.82051248, 4112.43589716, 4128.33333306, 4143.33333313,12.0
4120.12820485, 4108.20512793, 4113.58974332, 4133.84615357, 4123.46153819, 4093.07692273, 4089.99999966, 4098.46153812, 4090.25640991, 4137.56410236, 4092.05128171, 4109.61538434, 4127.43589716, 4144.48717928,12.0
4120.51282024, 4105.25640998, 4116.28205101, 4141.79487159, 4124.35897408, 4093.07692273, 4088.33333299, 4095.89743555, 4089.87179453, 4137.56410236, 4089.61538427, 4118.84615357, 4126.66666639, 4146.92307672,12.0
4123.07692280, 4112.43589716, 4124.74358947, 4150.64102544, 4123.84615357, 4101.53846119, 4096.92307658, 4106.15384588, 4094.99999966, 4137.56410236, 4093.07692273, 4133.33333306, 4128.46153819, 4145.64102544,12.0
4119.48717921, 4117.05128178, 4126.79487152, 4150.64102544, 4122.30769203, 4106.41025614, 4109.74358947, 4111.28205101, 4095.89743555, 4137.56410236, 4097.17948684, 4133.97435870, 4129.10256383, 4143.07692287,12.0
4120.51282024, 4111.02564075, 4122.17948691, 4144.99999980, 4120.38461511, 4100.89743555, 4105.64102537, 4107.82051255, 4093.84615350, 4137.56410236, 4094.99999966, 4126.79487152, 4129.48717921, 4143.58974339,12.0
4120.25640998, 4102.17948684, 4117.56410229, 4139.35897415, 4122.69230742, 4089.35897402, 4085.76923043, 4104.99999973, 4092.82051248, 4137.56410236, 4094.61538427, 4120.64102537, 4128.33333306, 4144.87179467,12.0
4121.66666639, 4104.23076896, 4116.79487152, 4140.12820492, 4124.48717921, 4084.74358940, 4074.87179453, 4104.74358947, 4091.15384581, 4137.56410236, 4095.89743555, 4117.94871767, 4126.92307665, 4145.89743569,12.0
4124.61538434, 4107.56410229, 4116.15384588, 4145.64102544, 4121.15384588, 4090.64102530, 4077.82051248, 4102.94871767, 4091.28205094, 4137.56410236, 4092.69230735, 4121.15384588, 4128.58974332, 4146.53846133,12.0
4119.10256383, 4105.76923050, 4111.92307665, 4141.66666646, 4122.05128178, 4094.61538427, 4083.33333299, 4099.48717914, 4090.25640991, 4137.56410236, 4089.74358940, 4116.66666639, 4126.92307665, 4146.53846133,12.0
4120.51282024, 4108.46153819, 4110.51282024, 4136.02564082, 4125.64102537, 4099.61538427, 4091.92307658, 4093.71794837, 4081.92307658, 4137.56410236, 4092.56410222, 4107.69230742, 4124.99999973, 4145.64102544,12.0
4120.89743562, 4107.56410229, 4113.58974332, 4142.30769210, 4123.33333306, 4107.69230742, 4095.89743555, 4087.82051248, 4076.15384581, 4137.56410236, 4093.97435863, 4112.94871767, 4127.43589716, 4144.48717928,12.0
4116.15384588, 4102.69230742, 4114.35897408, 4139.35897415, 4119.10256383, 4098.71794837, 4081.66666632, 4083.20512786, 4079.74358940, 4137.56410236, 4090.25640991, 4118.33333306, 4129.10256383, 4145.12820492,12.0
4118.20512793, 4104.87179460, 4113.20512793, 4129.74358947, 4121.53846126, 4083.07692273, 4069.74358940, 4082.94871761, 4084.87179453, 4137.56410236, 4088.84615350, 4111.79487152, 4128.58974332, 4145.25641005,12.0
4116.02564075, 4111.28205101, 4113.84615357, 4138.97435877, 4125.89743562, 4094.48717914, 4087.56410222, 4102.82051255, 4097.56410222, 4137.56410236, 4092.05128171, 4115.12820485, 4128.46153819, 4144.61538441,12.0
4117.05128178, 4108.20512793, 4113.20512793, 4143.97435877, 4122.82051255, 4103.58974332, 4102.94871767, 4124.48717921, 4108.33333306, 4137.56410236, 4093.97435863, 4118.97435870, 4127.82051255, 4145.76923056,12.0
4119.23076896, 4101.41025607, 4111.02564075, 4131.15384588, 4119.74358947, 4086.66666632, 4092.56410222, 4122.05128178, 4108.20512793, 4137.56410236, 4096.53846119, 4111.79487152, 4125.89743562, 4147.82051262,12.0
4115.89743562, 4107.43589716, 4112.69230742, 4132.82051255, 4123.33333306, 4080.25640991, 4087.82051248, 4115.38461511, 4108.97435870, 4137.56410236, 4097.56410222, 4116.92307665, 4125.76923050, 4147.30769210,12.0
4117.56410229, 4116.28205101, 4115.76923050, 4145.76923056, 4123.97435870, 4088.84615350, 4094.23076889, 4114.87179460, 4104.23076896, 4137.56410236, 4096.92307658, 4126.28205101, 4129.23076896, 4144.99999980,12.0
4114.23076896, 4113.84615357, 4116.28205101, 4145.25641005, 4122.82051255, 4086.41025607, 4092.56410222, 4112.82051255, 4092.56410222, 4137.56410236, 4097.56410222, 4120.25640998, 4130.89743562, 4144.61538441,12.0
4116.15384588, 4109.48717921, 4115.38461511, 4139.74358954, 4123.84615357, 4084.35897402, 4088.97435863, 4109.35897408, 4088.46153812, 4137.56410236, 4095.89743555, 4111.79487152, 4128.71794844, 4145.76923056,12.0
4121.66666639, 4107.94871767, 4113.20512793, 4138.84615364, 4124.23076896, 4089.48717914, 4086.79487145, 4097.17948684, 4085.76923043, 4137.56410236, 4089.87179453, 4108.20512793, 4126.79487152, 4146.92307672,12.0
4117.43589716, 4106.53846126, 4111.02564075, 4133.97435870, 4122.05128178, 4088.84615350, 4083.71794837, 4085.76923043, 4075.25640991, 4137.56410236, 4084.87179453, 4104.61538434, 4127.43589716, 4146.02564082,12.0
4119.87179460, 4103.97435870, 4109.74358947, 4121.28205101, 4121.28205101, 4087.82051248, 4084.87179453, 4089.99999966, 4075.25640991, 4137.56410236, 4083.20512786, 4101.66666632, 4127.69230742, 4143.46153826,12.0
4122.94871767, 4103.58974332, 4109.87179460, 4122.17948691, 4125.64102537, 4090.76923043, 4089.61538427, 4107.30769203, 4096.92307658, 4137.56410236, 4084.35897402, 4107.94871767, 4127.05128178, 4143.58974339,12.0
4121.92307665, 4111.66666639, 4116.41025614, 4142.82051262, 4126.41025614, 4093.71794837, 4092.17948684, 4127.30769203, 4121.28205101, 4137.56410236, 4092.05128171, 4125.38461511, 4128.58974332, 4146.28205108,12.0
4120.51282024, 4113.33333306, 4118.84615357, 4145.89743569, 4123.33333306, 4095.25640991, 4093.20512786, 4140.25641005, 4128.84615357, 4137.56410236, 4099.48717914, 4129.74358947, 4130.25640998, 4146.92307672,12.0
4118.20512793, 4103.33333306, 4109.61538434, 4130.51282024, 4124.48717921, 4093.84615350, 4100.51282017, 4144.87179467, 4123.97435870, 4137.56410236, 4097.17948684, 4115.51282024, 4131.15384588, 4146.28205108,12.0
4120.64102537, 4107.82051255, 4112.30769203, 4139.23076903, 4123.46153819, 4099.10256376, 4110.38461511, 4144.61538441, 4125.89743562, 4137.56410236, 4098.71794837, 4118.97435870, 4131.02564075, 4145.38461518,12.0
4119.35897408, 4115.25640998, 4123.33333306, 4153.71794851, 4121.15384588, 4102.69230742, 4104.35897408, 4136.53846133, 4122.43589716, 4137.56410236, 4103.71794844, 4135.51282031, 4125.76923050, 4144.61538441,12.0
4119.10256383, 4109.10256383, 4119.23076896, 4140.89743569, 4123.58974332, 4096.41025607, 4091.53846119, 4119.10256383, 4100.38461504, 4137.56410236, 4098.97435863, 4126.02564075, 4123.71794844, 4146.53846133,12.0
4121.15384588, 4106.41025614, 4111.02564075, 4128.07692280, 4124.99999973, 4094.23076889, 4092.05128171, 4105.38461511, 4086.92307658, 4137.56410236, 4091.66666632, 4101.66666632, 4128.07692280, 4146.79487159,12.0
4118.20512793, 4106.53846126, 4109.23076896, 4133.33333306, 4125.89743562, 4092.43589709, 4095.51282017, 4125.12820485, 4110.12820485, 4137.56410236, 4092.43589709, 4092.94871761, 4127.69230742, 4145.51282031,12.0
4120.76923050, 4097.94871761, 4112.17948691, 4125.64102537, 4122.30769203, 4076.15384581, 4074.99999966, 4118.84615357, 4108.07692280, 4137.56410236, 4092.56410222, 4095.12820478, 4127.43589716, 4144.48717928,12.0
4118.33333306, 4094.10256376, 4108.84615357, 4122.05128178, 4122.82051255, 4080.64102530, 4076.28205094, 4111.02564075, 4095.89743555, 4137.56410236, 4090.12820478, 4090.76923043, 4125.64102537, 4144.87179467,12.0
4120.51282024, 4102.56410229, 4109.48717921, 4131.66666639, 4123.97435870, 4099.87179453, 4089.48717914, 4105.64102537, 4089.61538427, 4137.56410236, 4088.71794837, 4092.17948684, 4125.64102537, 4146.28205108,12.0
4120.89743562, 4109.23076896, 4114.48717921, 4141.92307672, 4119.87179460, 4103.71794844, 4090.25640991, 4103.20512793, 4087.69230735, 4137.56410236, 4091.79487145, 4102.82051255, 4127.43589716, 4146.79487159,12.0
4123.58974332, 4106.41025614, 4113.46153819, 4138.20512800, 4119.99999973, 4089.61538427, 4076.28205094, 4090.76923043, 4071.79487145, 4137.56410236, 4091.92307658, 4099.61538427, 4126.15384588, 4145.89743569,12.0
4122.69230742, 4102.17948684, 4108.84615357, 4129.61538434, 4126.15384588, 4078.97435863, 4061.92307651, 4074.23076889, 4055.89743548, 4137.56410236, 4087.05128171, 4084.74358940, 4124.74358947, 4146.28205108,12.0
4118.71794844, 4099.74358940, 4110.25640998, 4129.87179460, 4126.66666639, 4078.07692273, 4062.56410215, 4079.23076889, 4061.66666625, 4137.56410236, 4086.41025607, 4084.87179453, 4128.58974332, 4147.94871774,12.0
4122.43589716, 4103.33333306, 4113.71794844, 4139.10256390, 4124.61538434, 4088.07692273, 4079.99999966, 4099.99999966, 4076.92307658, 4137.56410236, 4088.58974325, 4096.66666632, 4131.41025614, 4147.05128185,12.0
4120.25640998, 4106.79487152, 4112.43589716, 4139.35897415, 4128.33333306, 4097.17948684, 4092.43589709, 4109.99999973, 4083.20512786, 4137.56410236, 4088.97435863, 4096.15384581, 4129.35897408, 4145.12820492,12.0
4119.35897408, 4104.35897408, 4111.15384588, 4129.10256383, 4128.58974332, 4092.43589709, 4088.58974325, 4104.23076896, 4083.58974325, 4137.56410236, 4087.94871761, 4085.38461504, 4128.84615357, 4145.38461518,12.0
4122.17948691, 4101.92307658, 4111.53846126, 4129.99999973, 4122.43589716, 4089.99999966, 4088.20512786, 4107.69230742, 4091.28205094, 4137.56410236, 4085.76923043, 4082.17948684, 4130.12820485, 4145.51282031,12.0
4116.15384588, 4102.17948684, 4108.84615357, 4137.82051262, 4121.28205101, 4094.99999966, 4092.69230735, 4121.41025614, 4100.38461504, 4137.56410236, 4088.07692273, 4089.10256376, 4128.58974332, 4144.35897415,12.0
4117.94871767, 4100.38461504, 4106.66666639, 4133.84615357, 4125.51282024, 4094.87179453, 4088.97435863, 4113.71794844, 4096.28205094, 4137.56410236, 4091.41025607, 4093.58974325, 4126.79487152, 4143.20512800,12.0
4119.61538434, 4097.94871761, 4107.43589716, 4128.20512793, 4127.69230742, 4096.02564068, 4093.71794837, 4099.74358940, 4089.48717914, 4137.56410236, 4088.71794837, 4090.38461504, 4126.79487152, 4144.87179467,12.0
4117.94871767, 4098.84615350, 4109.23076896, 4133.84615357, 4125.38461511, 4098.84615350, 4101.53846119, 4101.28205094, 4086.53846119, 4137.56410236, 4087.69230735, 4086.79487145, 4127.69230742, 4148.46153826,12.0
4121.02564075, 4099.87179453, 4111.02564075, 4137.82051262, 4121.79487152, 4090.64102530, 4086.92307658, 4090.51282017, 4074.99999966, 4137.56410236, 4090.12820478, 4087.43589709, 4128.71794844, 4146.41025621,12.0
4118.46153819, 4101.79487145, 4111.28205101, 4136.02564082, 4123.33333306, 4086.28205094, 4077.05128171, 4079.48717914, 4064.35897395, 4137.56410236, 4089.61538427, 4090.12820478, 4126.92307665, 4142.56410236,12.0
4119.99999973, 4108.58974332, 4115.25640998, 4144.87179467, 4125.12820485, 4101.02564068, 4093.46153812, 4099.10256376, 4074.48717914, 4137.56410236, 4090.25640991, 4094.99999966, 4125.51282024, 4143.71794851,12.0
4120.89743562, 4107.43589716, 4116.41025614, 4149.35897415, 4124.48717921, 4104.74358947, 4096.66666632, 4111.53846126, 4084.87179453, 4137.56410236, 4090.76923043, 4096.41025607, 4126.92307665, 4145.38461518,12.0
4119.61538434, 4100.64102530, 4107.94871767, 4138.46153826, 4124.99999973, 4089.23076889, 4078.58974325, 4096.02564068, 4074.99999966, 4137.56410236, 4087.05128171, 4091.53846119, 4127.94871767, 4143.71794851,12.0
4122.05128178, 4102.69230742, 4108.58974332, 4139.35897415, 4124.99999973, 4084.48717914, 4078.84615350, 4093.97435863, 4070.64102530, 4137.56410236, 4091.92307658, 4093.97435863, 4127.17948691, 4144.35897415,12.0
4119.74358947, 4109.23076896, 4118.58974332, 4154.74358954, 4124.23076896, 4095.38461504, 4094.48717914, 4112.17948691, 4086.92307658, 4137.56410236, 4101.02564068, 4106.79487152, 4126.92307665, 4145.76923056,12.0
4123.97435870, 4106.02564075, 4118.46153819, 4152.69230749, 4122.17948691, 4098.46153812, 4091.92307658, 4108.46153819, 4089.99999966, 4137.56410236, 4095.89743555, 4106.53846126, 4129.74358947, 4144.10256390,12.0
4124.10256383, 4099.48717914, 4113.33333306, 4139.87179467, 4122.94871767, 4093.20512786, 4085.25640991, 4087.30769196, 4075.76923043, 4137.56410236, 4086.66666632, 4097.56410222, 4129.35897408, 4144.61538441,12.0
4119.23076896, 4107.69230742, 4120.89743562, 4148.58974339, 4125.51282024, 4102.30769196, 4101.79487145, 4095.89743555, 4087.82051248, 4137.56410236, 4090.25640991, 4108.20512793, 4127.56410229, 4147.69230749,12.0
4125.12820485, 4113.84615357, 4123.33333306, 4158.07692287, 4124.23076896, 4113.84615357, 4115.76923050, 4114.99999973, 4106.02564075, 4137.56410236, 4098.58974325, 4114.61538434, 4128.71794844, 4146.92307672,12.0
4124.23076896, 4100.64102530, 4106.41025614, 4140.25641005, 4123.46153819, 4102.56410229, 4101.66666632, 4108.20512793, 4089.87179453, 4137.56410236, 4094.23076889, 4090.76923043, 4129.10256383, 4144.87179467,12.0
4121.41025614, 4099.87179453, 4099.35897402, 4135.76923056, 4124.35897408, 4092.82051248, 4091.41025607, 4104.35897408, 4080.51282017, 4137.56410236, 4087.82051248, 4082.56410222, 4128.33333306, 4144.99999980,12.0
4120.38461511, 4113.58974332, 4112.82051255, 4160.25641005, 4124.23076896, 4095.12820478, 4093.07692273, 4113.46153819, 4093.58974325, 4137.56410236, 4094.23076889, 4105.76923050, 4128.46153819, 4144.61538441,12.0
4117.94871767, 4113.71794844, 4119.48717921, 4165.51282031, 4125.25640998, 4088.07692273, 4081.66666632, 4102.82051255, 4084.99999966, 4137.56410236, 4098.33333299, 4114.61538434, 4127.82051255, 4144.48717928,12.0
4120.51282024, 4111.79487152, 4119.10256383, 4155.89743569, 4126.28205101, 4087.69230735, 4078.20512786, 4088.46153812, 4069.99999966, 4137.56410236, 4096.28205094, 4107.82051255, 4126.92307665, 4145.12820492,12.0
4113.97435870, 4112.56410229, 4117.05128178, 4156.15384595, 4124.48717921, 4096.53846119, 4092.30769196, 4097.43589709, 4075.76923043, 4137.56410236, 4096.66666632, 4105.89743562, 4126.66666639, 4145.38461518,12.0
