AF3,F7,F3,FC5,T7,P7,O1,O2,P8,T8,FC6,F4,F8,AF4,Label
4120.51282024, 4510.12820569, 4153.33333313, 4221.53846147, 4114.23076896, 4305.51282066, 4306.66666681, 4297.05128212, 4348.07692329, 4136.15384595, 4268.20512828, 4158.58974339, 4211.28205122, 4144.74358954,12.0
4123.97435870, 4519.10256466, 4143.71794851, 4215.89743583, 4115.12820485, 4293.71794879, 4286.79487187, 4286.66666674, 4326.15384630, 4136.15384595, 4255.00000000, 4141.02564082, 4207.05128199, 4145.89743569,12.0
4118.97435870, 4528.84615441, 4151.15384595, 4231.41025634, 4114.61538434, 4283.97435905, 4303.20512835, 4294.10256418, 4330.76923091, 4136.15384595, 4269.74358982, 4151.02564082, 4203.46153840, 4147.69230749,12.0
4126.15384588, 4555.25641089, 4169.23076910, 4240.38461539, 4116.66666639, 4291.53846161, 4332.30769252, 4306.02564117, 4356.15384637, 4136.15384595, 4294.87179495, 4176.02564089, 4211.41025634, 4148.84615364,12.0
4122.69230742, 4562.17948788, 4158.33333313, 4224.48717942, 4119.74358947, 4289.48717956, 4300.12820527, 4284.23076930, 4336.66666688, 4136.15384595, 4276.53846161, 4156.92307672, 4208.58974352, 4146.66666646,12.0
4117.43589716, 4543.20512883, 4143.97435877, 4228.07692301, 4117.43589716, 4280.89743597, 4260.51282052, 4253.97435898, 4302.30769245, 4136.15384595, 4253.71794872, 4134.10256383, 4196.15384602, 4144.74358954,12.0
4122.17948691, 4550.64102627, 4153.46153826, 4211.15384609, 4117.17948691, 4296.92307700, 4292.56410264, 4269.61538469, 4315.38461553, 4136.15384595, 4257.30769231, 4147.69230749, 4199.74358961, 4145.38461518,12.0
4117.43589716, 4562.30769301, 4153.58974339, 4177.94871781, 4117.05128178, 4307.30769245, 4310.00000014, 4286.28205136, 4327.82051296, 4136.15384595, 4248.58974359, 4143.46153826, 4195.25641012, 4146.02564082,12.0
4122.17948691, 4566.92307762, 4147.69230749, 4204.23076917, 4117.05128178, 4292.69230777, 4273.97435905, 4260.25641026, 4305.76923091, 4136.15384595, 4237.94871795, 4128.97435870, 4177.82051269, 4145.51282031,12.0
4122.56410229, 4593.07692378, 4162.05128185, 4242.30769231, 4119.74358947, 4300.51282066, 4288.07692315, 4264.61538462, 4314.74358989, 4136.15384595, 4249.35897436, 4148.46153826, 4191.79487166, 4143.97435877,12.0
4119.48717921, 4615.64102641, 4169.87179474, 4236.28205129, 4118.46153819, 4321.66666681, 4326.41025655, 4297.17948725, 4345.00000021, 4136.15384595, 4248.07692308, 4160.12820492, 4207.05128199, 4144.48717928,12.0
4123.58974332, 4614.23077000, 4157.05128185, 4242.30769231, 4118.84615357, 4305.89743604, 4304.74358989, 4281.28205136, 4328.71794886, 4136.15384595, 4227.43589737, 4139.48717928, 4190.38461525, 4145.38461518,12.0
4120.89743562, 4608.07692385, 4148.58974339, 4264.61538462, 4119.74358947, 4276.53846161, 4275.00000007, 4255.51282052, 4301.66666681, 4136.15384595, 4216.66666660, 4126.28205101, 4181.92307679, 4145.25641005,12.0
4123.71794844, 4626.53846231, 4147.17948697, 4269.61538469, 4115.76923050, 4294.10256418, 4288.97435905, 4270.12820520, 4316.28205142, 4136.15384595, 4212.05128199, 4127.05128178, 4187.82051269, 4144.99999980,12.0
4127.56410229, 4659.10256494, 4149.61538441, 4285.12820520, 4114.87179460, 4328.46153860, 4313.84615399, 4290.38461546, 4339.48717970, 4136.15384595, 4201.41025634, 4129.10256383, 4184.23076910, 4143.71794851,12.0
4128.58974332, 4656.66666750, 4143.58974339, 4292.56410264, 4117.94871767, 4312.17948732, 4298.71794879, 4275.38461546, 4324.35897450, 4136.15384595, 4188.71794858, 4114.35897408, 4170.38461525, 4145.51282031,12.0
4125.64102537, 4629.61538545, 4128.58974332, 4282.69230777, 4119.10256383, 4282.82051289, 4268.07692315, 4251.41025641, 4296.53846161, 4136.15384595, 4176.15384602, 4094.10256376, 4165.12820492, 4147.69230749,12.0
4120.51282024, 4636.28205212, 4131.66666639, 4291.66666674, 4118.84615357, 4295.12820520, 4280.64102571, 4260.51282052, 4299.48717963, 4136.15384595, 4152.69230749, 4101.66666632, 4172.56410243, 4147.94871774,12.0
4121.79487152, 4647.69230853, 4136.53846133, 4293.58974366, 4116.92307665, 4303.33333348, 4296.02564110, 4261.28205129, 4304.48717963, 4136.15384595, 4123.46153819, 4104.23076896, 4168.71794858, 4148.33333313,12.0
4118.33333306, 4631.15384699, 4129.61538434, 4284.35897443, 4116.02564075, 4288.46153853, 4276.92307700, 4238.07692308, 4284.74358982, 4136.15384595, 4118.71794844, 4091.92307658, 4158.71794851, 4146.79487159,12.0
4118.46153819, 4636.02564186, 4136.41025621, 4292.43589751, 4117.05128178, 4294.23076930, 4278.46153853, 4243.58974359, 4277.43589751, 4136.15384595, 4136.28205108, 4108.07692280, 4170.64102551, 4145.25641005,12.0
4121.02564075, 4640.25641109, 4139.10256390, 4290.25641033, 4118.97435870, 4291.66666674, 4285.12820520, 4253.07692308, 4280.89743597, 4136.15384595, 4139.23076903, 4113.58974332, 4174.61538448, 4145.76923056,12.0
4120.25640998, 4613.58974436, 4118.46153819, 4262.43589744, 4120.89743562, 4269.10256418, 4263.58974359, 4233.97435898, 4264.61538462, 4136.15384595, 4124.61538434, 4080.38461504, 4154.23076903, 4146.15384595,12.0
4123.46153819, 4590.38461608, 4114.61538434, 4248.58974359, 4118.58974332, 4266.41025641, 4253.58974359, 4229.23076917, 4252.94871795, 4136.15384595, 4124.74358947, 4073.71794837, 4153.58974339, 4145.51282031,12.0
4121.79487152, 4566.66666737, 4120.12820485, 4243.46153847, 4119.23076896, 4255.51282052, 4243.71794872, 4232.05128199, 4253.33333334, 4136.15384595, 4139.35897415, 4081.02564068, 4158.33333313, 4143.58974339,12.0
4122.30769203, 4551.15384678, 4112.82051255, 4240.25641026, 4122.43589716, 4238.58974359, 4222.56410250, 4219.74358968, 4253.46153847, 4136.15384595, 4151.02564082, 4068.07692266, 4152.69230749, 4143.20512800,12.0
4124.74358947, 4569.23076993, 4120.76923050, 4258.07692308, 4120.12820485, 4252.56410257, 4230.25641019, 4218.33333327, 4259.61538462, 4136.15384595, 4159.10256390, 4079.10256376, 4167.82051262, 4144.23076903,12.0
4125.38461511, 4573.20512890, 4130.89743562, 4264.23076923, 4119.10256383, 4262.94871795, 4244.35897436, 4223.20512814, 4257.30769231, 4136.15384595, 4161.41025621, 4094.74358940, 4174.35897422, 4145.25641005,12.0
4125.25640998, 4545.64102627, 4121.28205101, 4248.58974359, 4118.71794844, 4250.89743590, 4234.61538462, 4218.46153840, 4250.89743590, 4136.15384595, 4163.71794851, 4079.48717914, 4155.38461518, 4146.15384595,12.0
4118.07692280, 4535.12820576, 4119.99999973, 4251.92307693, 4120.38461511, 4254.61538462, 4237.94871795, 4226.66666660, 4263.58974359, 4136.15384595, 4165.38461518, 4075.25640991, 4153.20512800, 4147.30769210,12.0
4123.20512793, 4535.12820576, 4129.87179460, 4268.07692315, 4125.25640998, 4269.61538469, 4253.33333334, 4240.38461539, 4273.07692315, 4136.15384595, 4160.64102544, 4092.69230735, 4162.17948697, 4149.35897415,12.0
4123.58974332, 4515.25641082, 4126.92307665, 4264.48717949, 4122.82051255, 4256.92307693, 4238.84615385, 4225.51282045, 4263.84615385, 4136.15384595, 4156.79487159, 4091.53846119, 4157.56410236, 4146.92307672,12.0
4119.10256383, 4500.89743646, 4128.46153819, 4263.33333334, 4120.89743562, 4247.69230770, 4228.07692301, 4217.94871788, 4264.61538462, 4136.15384595, 4161.28205108, 4087.56410222, 4162.17948697, 4145.76923056,12.0
4124.99999973, 4484.74359023, 4136.02564082, 4278.46153853, 4118.46153819, 4262.17948718, 4243.84615385, 4230.76923070, 4268.58974366, 4136.15384595, 4163.84615364, 4101.15384581, 4171.41025628, 4146.28205108,12.0
4117.43589716, 4439.87179529, 4130.51282024, 4282.94871802, 4117.94871767, 4264.74358975, 4248.46153847, 4226.92307686, 4265.38461539, 4136.15384595, 4160.64102544, 4107.17948691, 4167.69230749, 4141.41025621,12.0
4125.12820485, 4394.74359003, 4130.38461511, 4273.71794879, 4124.87179460, 4262.17948718, 4243.84615385, 4224.23076917, 4268.97435905, 4136.15384595, 4161.15384595, 4102.43589709, 4167.30769210, 4143.84615364,12.0
4125.51282024, 4376.28205156, 4136.92307672, 4273.07692315, 4120.25640998, 4267.56410264, 4251.66666667, 4235.00000000, 4277.43589751, 4136.15384595, 4166.28205108, 4109.61538434, 4169.74358961, 4142.43589723,12.0
4116.79487152, 4362.56410278, 4137.17948697, 4284.87179495, 4119.35897408, 4275.64102571, 4265.38461539, 4245.00000000, 4286.15384623, 4136.15384595, 4179.99999986, 4122.69230742, 4166.79487159, 4144.48717928,12.0
4129.99999973, 4325.51282066, 4133.97435870, 4285.12820520, 4124.74358947, 4283.97435905, 4270.25641033, 4249.35897436, 4290.51282059, 4136.15384595, 4193.33333320, 4122.56410229, 4169.23076910, 4148.20512800,12.0
4120.25640998, 4286.92307700, 4133.33333306, 4280.38461546, 4121.15384588, 4280.25641033, 4257.17948718, 4238.97435898, 4281.15384623, 4136.15384595, 4189.48717935, 4125.12820485, 4171.79487166, 4138.46153826,12.0
4125.12820485, 4273.71794879, 4137.69230749, 4292.94871802, 4122.30769203, 4271.92307700, 4245.00000000, 4229.10256404, 4263.58974359, 4136.15384595, 4183.84615371, 4134.35897408, 4163.58974339, 4148.46153826,12.0
4129.99999973, 4265.76923077, 4130.89743562, 4308.71794886, 4121.28205101, 4269.61538469, 4247.30769231, 4230.76923070, 4257.05128206, 4136.15384595, 4179.23076910, 4128.33333306, 4149.35897415, 4150.38461518,12.0
4117.69230742, 4244.87179488, 4124.74358947, 4304.35897450, 4119.99999973, 4271.53846161, 4252.69230770, 4236.53846154, 4264.48717949, 4136.15384595, 4165.51282031, 4115.64102537, 4148.20512800, 4144.48717928,12.0
4131.53846126, 4223.84615378, 4130.12820485, 4297.05128212, 4122.05128178, 4278.71794879, 4251.41025641, 4240.12820513, 4260.38461539, 4136.15384595, 4159.61538441, 4119.35897408, 4159.74358954, 4149.48717928,12.0
4122.56410229, 4216.15384609, 4127.56410229, 4296.92307700, 4118.84615357, 4282.56410264, 4252.56410257, 4236.02564103, 4244.87179488, 4136.15384595, 4152.69230749, 4129.61538434, 4154.10256390, 4141.41025621,12.0
4122.56410229, 4216.02564096, 4124.87179460, 4283.07692315, 4121.41025614, 4292.94871802, 4270.25641033, 4248.71794872, 4257.43589744, 4136.53846133, 4138.84615364, 4125.76923050, 4144.10256390, 4149.87179467,12.0
4127.30769203, 4202.05128199, 4130.89743562, 4283.33333341, 4121.92307665, 4304.61538476, 4281.92307700, 4267.94871802, 4281.92307700, 4136.41025621, 4154.48717928, 4135.89743569, 4165.51282031, 4150.12820492,12.0
4114.48717921, 4164.35897415, 4145.25641005, 4315.76923091, 4123.20512793, 4298.58974366, 4273.46153853, 4258.84615385, 4273.97435905, 4135.12820485, 4198.07692294, 4174.74358961, 4198.07692294, 4143.71794851,12.0
4129.61538434, 4131.79487152, 4166.15384595, 4333.33333355, 4125.64102537, 4299.74358989, 4273.33333341, 4255.76923077, 4263.20512821, 4137.56410236, 4227.05128199, 4207.94871788, 4212.17948711, 4151.53846133,12.0
4120.25640998, 4131.15384588, 4188.58974345, 4327.82051296, 4121.28205101, 4317.69230784, 4289.48717956, 4274.35897443, 4280.12820520, 4136.28205108, 4243.97435898, 4232.43589737, 4221.41025634, 4139.48717928,12.0
4118.97435870, 4133.71794844, 4222.05128199, 4338.07692329, 4124.87179460, 4335.00000021, 4306.41025655, 4290.38461546, 4298.71794879, 4130.25640998, 4275.12820520, 4272.05128212, 4238.84615385, 4143.20512800,12.0
4129.74358947, 4105.64102537, 4230.38461532, 4343.84615406, 4124.23076896, 4335.25641047, 4303.07692322, 4286.66666674, 4290.38461546, 4128.71794844, 4287.69230777, 4291.66666674, 4235.64102564, 4147.05128185,12.0
4112.94871767, 4066.28205087, 4201.79487173, 4315.76923091, 4122.17948691, 4318.07692322, 4282.30769238, 4266.41025641, 4268.97435905, 4134.74358947, 4267.82051289, 4261.79487180, 4218.20512814, 4138.46153826,12.0
4127.17948691, 4048.84615343, 4187.30769217, 4295.89743597, 4125.51282024, 4315.00000014, 4281.66666674, 4263.84615385, 4268.58974366, 4138.97435877, 4256.41025641, 4231.92307686, 4218.58974352, 4150.25641005,12.0
4125.76923050, 4041.66666625, 4181.41025628, 4289.23076930, 4116.53846126, 4319.10256425, 4288.07692315, 4266.28205129, 4278.71794879, 4127.56410229, 4248.20512821, 4222.56410250, 4219.23076917, 4144.48717928,12.0
4123.97435870, 4029.61538413, 4172.05128192, 4276.02564110, 4117.05128178, 4312.82051296, 4277.94871802, 4257.43589744, 4272.69230777, 4123.33333306, 4242.30769231, 4213.97435891, 4211.53846147, 4144.87179467,12.0
4134.48717921, 4029.99999952, 4172.05128192, 4272.94871802, 4122.17948691, 4312.69230784, 4277.43589751, 4264.23076923, 4271.41025648, 4133.46153819, 4251.66666667, 4214.48717942, 4213.84615378, 4150.38461518,12.0
4114.48717921, 4046.02564061, 4181.53846140, 4276.53846161, 4121.15384588, 4312.56410271, 4279.35897443, 4268.33333341, 4279.23076930, 4131.53846126, 4262.82051282, 4224.87179481, 4219.35897429, 4140.38461518,12.0
4127.56410229, 4060.64102523, 4190.89743576, 4278.46153853, 4124.35897408, 4316.66666681, 4281.15384623, 4272.30769238, 4282.30769238, 4127.69230742, 4271.92307700, 4233.07692301, 4225.25641019, 4147.69230749,12.0
4126.79487152, 4062.82051241, 4188.71794858, 4282.05128212, 4118.33333306, 4322.82051296, 4293.58974366, 4283.58974366, 4292.94871802, 4129.61538434, 4280.64102571, 4236.15384616, 4229.10256404, 4143.84615364,12.0
4119.10256383, 4058.97435856, 4185.38461525, 4272.56410264, 4120.89743562, 4317.43589758, 4301.79487194, 4281.53846161, 4296.53846161, 4130.89743562, 4281.02564110, 4228.20512814, 4224.99999993, 4142.82051262,12.0
4134.10256383, 4066.41025600, 4188.07692294, 4264.23076923, 4126.15384588, 4320.12820527, 4302.69230784, 4281.66666674, 4281.53846161, 4131.28205101, 4279.74358982, 4223.33333327, 4226.28205122, 4148.84615364,12.0
4120.89743562, 4082.05128171, 4191.15384602, 4274.61538469, 4120.76923050, 4323.71794886, 4299.10256418, 4278.71794879, 4274.74358982, 4128.58974332, 4279.74358982, 4229.10256404, 4232.05128199, 4142.69230749,12.0
4130.64102537, 4090.64102530, 4197.05128192, 4280.38461546, 4123.33333306, 4323.20512835, 4302.69230784, 4275.51282059, 4284.35897443, 4128.33333306, 4276.92307700, 4232.69230763, 4229.35897429, 4150.38461518,12.0
4129.10256383, 4094.10256376, 4198.20512807, 4278.71794879, 4121.41025614, 4326.66666681, 4305.51282066, 4282.82051289, 4294.61538469, 4131.02564075, 4281.53846161, 4237.82051282, 4233.07692301, 4147.05128185,12.0
4118.07692280, 4093.20512786, 4188.84615371, 4273.07692315, 4122.30769203, 4315.00000014, 4285.12820520, 4279.74358982, 4285.25641033, 4129.99999973, 4280.38461546, 4227.69230763, 4234.10256411, 4143.20512800,12.0
4133.58974332, 4085.76923043, 4176.15384602, 4257.94871795, 4125.51282024, 4294.10256418, 4265.25641026, 4265.25641026, 4263.20512821, 4126.66666639, 4262.56410257, 4201.15384609, 4217.17948711, 4148.33333313,12.0
4125.25640998, 4090.51282017, 4180.64102551, 4257.17948718, 4121.28205101, 4291.66666674, 4266.02564103, 4257.82051282, 4265.64102564, 4126.79487152, 4266.53846154, 4207.56410250, 4217.30769224, 4142.43589723,12.0
4128.20512793, 4112.56410229, 4198.71794858, 4278.07692315, 4123.33333306, 4308.71794886, 4275.25641033, 4271.02564110, 4287.82051289, 4130.38461511, 4289.48717956, 4234.61538462, 4239.74358975, 4146.28205108,12.0
4127.56410229, 4117.82051255, 4195.38461525, 4285.38461546, 4120.76923050, 4304.61538476, 4269.61538469, 4267.56410264, 4282.05128212, 4130.64102537, 4285.89743597, 4226.92307686, 4233.20512814, 4143.71794851,12.0
4119.48717921, 4095.76923043, 4182.94871781, 4248.07692308, 4121.53846126, 4287.05128212, 4261.92307693, 4250.89743590, 4265.38461539, 4128.58974332, 4270.51282059, 4203.33333327, 4215.38461532, 4143.33333313,12.0
4131.92307665, 4087.30769196, 4184.48717935, 4215.51282045, 4126.53846126, 4295.64102571, 4269.10256418, 4258.84615385, 4273.46153853, 4130.25640998, 4276.15384623, 4204.23076917, 4225.12820506, 4150.89743569,12.0
4125.38461511, 4110.89743562, 4189.10256397, 4253.71794872, 4123.20512793, 4297.82051289, 4262.94871795, 4252.05128206, 4273.97435905, 4129.74358947, 4282.05128212, 4213.20512814, 4231.41025634, 4143.84615364,12.0
4132.30769203, 4135.51282031, 4200.25641012, 4312.56410271, 4125.25640998, 4297.05128212, 4259.61538462, 4248.20512821, 4273.97435905, 4127.82051255, 4276.92307700, 4216.53846147, 4227.17948711, 4148.20512800,12.0
4130.51282024, 4152.56410236, 4209.35897429, 4337.17948739, 4123.97435870, 4316.53846168, 4277.94871802, 4273.97435905, 4297.17948725, 4129.61538434, 4274.10256418, 4225.64102558, 4234.61538462, 4147.05128185,12.0
4120.25640998, 4165.12820492, 4204.35897429, 4356.66666688, 4123.58974332, 4318.84615399, 4278.58974366, 4268.46153853, 4293.71794879, 4130.76923050, 4260.89743590, 4222.56410250, 4231.28205122, 4143.84615364,12.0
4138.46153826, 4158.97435877, 4189.10256397, 4370.38461567, 4122.94871767, 4306.53846168, 4264.48717949, 4250.64102564, 4261.53846154, 4130.38461511, 4234.61538462, 4194.87179474, 4204.87179481, 4150.38461518,12.0
4113.84615357, 4142.69230749, 4169.48717935, 4349.74358996, 4114.61538434, 4298.71794879, 4260.00000000, 4252.17948718, 4256.02564103, 4131.66666639, 4212.82051275, 4169.99999986, 4187.94871781, 4139.35897415,12.0
4119.74358947, 4131.28205101, 4164.23076903, 4325.25641040, 4128.58974332, 4293.97435905, 4254.48717949, 4248.58974359, 4262.43589744, 4132.94871767, 4204.35897429, 4157.05128185, 4190.51282038, 4149.87179467,12.0
4138.97435877, 4125.12820485, 4161.53846133, 4324.74358989, 4130.76923050, 4287.69230777, 4241.41025641, 4236.53846154, 4244.48717949, 4131.41025614, 4198.07692294, 4149.10256390, 4183.97435884, 4154.61538441,12.0
4103.20512793, 4132.56410229, 4162.17948697, 4333.58974380, 4116.66666639, 4277.56410264, 4232.30769224, 4225.89743583, 4238.58974359, 4129.10256383, 4196.92307679, 4157.17948697, 4179.74358961, 4139.23076903,12.0
4129.10256383, 4141.92307672, 4175.89743576, 4332.82051303, 4125.64102537, 4284.87179495, 4242.17948718, 4237.30769231, 4254.48717949, 4128.84615357, 4209.48717942, 4170.89743576, 4194.10256397, 4153.07692287,12.0
4132.69230742, 4132.43589716, 4169.99999986, 4320.89743604, 4120.25640998, 4283.71794879, 4238.58974359, 4235.00000000, 4250.25641026, 4129.61538434, 4213.58974352, 4164.48717928, 4199.61538448, 4149.10256390,12.0
4114.87179460, 4122.94871767, 4160.89743569, 4317.82051296, 4118.20512793, 4261.92307693, 4213.58974352, 4203.58974352, 4224.99999993, 4131.02564075, 4198.58974345, 4152.05128185, 4189.61538448, 4140.64102544,12.0
4136.66666646, 4110.89743562, 4154.61538441, 4304.48717963, 4125.38461511, 4255.89743590, 4206.28205122, 4196.79487166, 4205.76923070, 4129.35897408, 4192.82051269, 4140.51282031, 4177.43589730, 4147.43589723,12.0
4122.43589716, 4093.20512786, 4144.35897415, 4282.82051289, 4119.99999973, 4252.05128206, 4209.99999993, 4200.38461525, 4201.53846147, 4127.30769203, 4223.71794865, 4132.69230742, 4172.17948704, 4144.87179467,12.0
4128.58974332, 4089.48717914, 4145.76923056, 4281.79487187, 4126.79487152, 4253.33333334, 4217.05128199, 4202.43589737, 4202.82051275, 4129.10256383, 4242.94871795, 4128.97435870, 4171.66666653, 4150.12820492,12.0
4126.79487152, 4083.33333299, 4133.84615357, 4267.30769238, 4125.51282024, 4257.82051282, 4223.71794865, 4204.61538455, 4198.46153833, 4129.74358947, 4201.92307686, 4109.99999973, 4159.99999980, 4146.28205108,12.0
4115.76923050, 4072.82051248, 4126.79487152, 4242.82051282, 4123.84615357, 4253.33333334, 4221.41025634, 4204.48717942, 4202.43589737, 4129.74358947, 4182.94871781, 4099.10256376, 4155.12820492, 4144.48717928,12.0
4128.20512793, 4068.33333292, 4142.43589723, 4243.07692308, 4126.79487152, 4251.53846154, 4219.74358968, 4217.17948711, 4219.87179481, 4129.23076896, 4223.07692301, 4118.71794844, 4173.46153833, 4147.56410236,12.0
4119.35897408, 4067.82051241, 4157.82051262, 4246.02564103, 4123.07692280, 4247.43589744, 4218.33333327, 4222.82051275, 4231.02564096, 4128.20512793, 4256.66666667, 4147.30769210, 4196.92307679, 4143.20512800,12.0
4124.23076896, 4071.79487145, 4170.12820499, 4229.35897429, 4126.79487152, 4252.30769231, 4223.33333327, 4223.84615378, 4240.00000000, 4129.61538434, 4280.51282059, 4167.43589723, 4213.07692301, 4147.56410236,12.0
4123.71794844, 4057.56410215, 4167.17948697, 4198.07692294, 4124.35897408, 4248.20512821, 4216.28205122, 4216.02564096, 4242.43589744, 4130.64102537, 4300.38461553, 4167.56410236, 4216.41025634, 4147.05128185,12.0
4121.53846126, 4026.92307644, 4153.71794851, 4161.92307672, 4124.23076896, 4227.17948711, 4196.53846140, 4201.28205122, 4228.84615378, 4130.89743562, 4292.17948725, 4147.56410236, 4208.84615378, 4146.66666646,12.0
4127.30769203, 4016.02564054, 4147.94871774, 4141.79487159, 4126.02564075, 4223.58974352, 4197.56410243, 4204.23076917, 4221.41025634, 4131.28205101, 4283.07692315, 4137.94871774, 4209.10256404, 4144.87179467,12.0
4123.71794844, 4022.56410208, 4148.71794851, 4144.35897415, 4122.56410229, 4228.07692301, 4202.43589737, 4204.74358968, 4227.30769224, 4130.51282024, 4291.41025648, 4144.10256390, 4216.15384609, 4144.74358954,12.0
4125.64102537, 4021.79487131, 4152.69230749, 4147.56410236, 4122.56410229, 4227.43589737, 4199.23076910, 4205.64102558, 4231.41025634, 4129.61538434, 4289.10256418, 4146.79487159, 4214.87179481, 4153.46153826,12.0
4119.48717921, 4020.64102516, 4158.71794851, 4152.43589723, 4122.43589716, 4227.17948711, 4199.48717935, 4211.28205122, 4236.15384616, 4130.25640998, 4283.71794879, 4153.58974339, 4214.48717942, 4145.64102544,12.0
4120.38461511, 4023.97435849, 4161.79487159, 4158.33333313, 4126.41025614, 4225.25641019, 4197.30769217, 4211.92307686, 4239.87179488, 4129.35897408, 4284.87179495, 4157.30769210, 4217.56410250, 4143.33333313,12.0
4119.99999973, 4029.74358926, 4158.20512800, 4158.97435877, 4123.84615357, 4223.20512814, 4198.71794858, 4211.79487173, 4234.74358975, 4128.07692280, 4278.33333341, 4152.17948697, 4214.61538455, 4148.97435877,12.0
4119.99999973, 4047.94871754, 4167.05128185, 4171.15384602, 4123.33333306, 4230.25641019, 4208.71794865, 4208.33333327, 4235.89743590, 4130.25640998, 4280.00000007, 4159.23076903, 4214.87179481, 4144.48717928,12.0
4124.48717921, 4057.69230728, 4177.30769217, 4183.46153833, 4130.38461511, 4238.07692308, 4210.76923070, 4204.23076917, 4235.12820513, 4132.43589716, 4289.10256418, 4169.74358961, 4223.46153840, 4147.94871774,12.0
4116.15384588, 4057.56410215, 4174.48717935, 4188.71794858, 4125.25640998, 4235.76923077, 4205.12820506, 4201.66666660, 4225.76923070, 4131.41025614, 4285.25641033, 4169.23076910, 4224.87179481, 4144.61538441,12.0
4124.48717921, 4065.38461497, 4178.20512807, 4193.46153833, 4124.74358947, 4238.07692308, 4212.69230763, 4203.58974352, 4229.10256404, 4132.56410229, 4278.58974366, 4165.25641005, 4220.51282045, 4142.05128185,12.0
4125.64102537, 4073.71794837, 4182.43589730, 4198.97435884, 4126.15384588, 4244.61538462, 4224.10256404, 4213.20512814, 4237.82051282, 4133.33333306, 4280.51282059, 4167.69230749, 4226.02564096, 4148.46153826,12.0
4118.84615357, 4081.15384581, 4184.61538448, 4209.61538455, 4123.46153819, 4243.71794872, 4220.12820506, 4215.12820506, 4233.71794865, 4130.51282024, 4275.38461546, 4174.99999986, 4229.99999993, 4143.84615364,12.0
4125.89743562, 4085.51282017, 4190.12820499, 4215.89743583, 4123.84615357, 4247.94871795, 4220.38461532, 4215.38461532, 4226.53846147, 4129.74358947, 4270.51282059, 4176.28205115, 4228.07692301, 4146.79487159,12.0
4124.35897408, 4093.20512786, 4192.69230756, 4223.58974352, 4119.99999973, 4260.89743590, 4232.82051275, 4222.17948711, 4236.28205129, 4128.46153819, 4278.97435905, 4177.30769217, 4231.92307686, 4147.94871774,12.0
4128.71794844, 4107.56410229, 4197.82051269, 4241.53846154, 4123.07692280, 4266.02564103, 4236.41025641, 4228.07692301, 4247.30769231, 4126.92307665, 4278.71794879, 4185.51282038, 4236.41025641, 4143.97435877,12.0
4120.76923050, 4110.89743562, 4199.99999986, 4245.64102564, 4123.20512793, 4254.23076923, 4218.71794865, 4223.46153840, 4241.41025641, 4130.12820485, 4270.64102571, 4184.10256397, 4233.71794865, 4145.38461518,12.0
4128.71794844, 4106.79487152, 4197.69230756, 4235.89743590, 4124.74358947, 4242.43589744, 4199.74358961, 4210.51282045, 4235.25641026, 4133.20512793, 4268.46153853, 4173.58974345, 4228.33333327, 4146.15384595,12.0
4135.64102544, 4118.58974332, 4201.02564096, 4253.33333334, 4126.79487152, 4253.71794872, 4212.05128199, 4220.25641019, 4243.97435898, 4132.05128178, 4273.46153853, 4183.07692294, 4231.66666660, 4147.94871774,12.0
4108.71794844, 4142.43589723, 4216.15384609, 4286.79487187, 4120.25640998, 4266.15384616, 4228.33333327, 4227.05128199, 4254.61538462, 4131.53846126, 4279.87179495, 4208.20512814, 4240.64102564, 4144.87179467,12.0
4132.94871767, 4148.07692287, 4225.51282045, 4289.48717956, 4126.15384588, 4268.84615392, 4226.15384609, 4216.66666660, 4246.02564103, 4129.99999973, 4279.10256418, 4212.56410250, 4243.20512821, 4148.58974339,12.0
4129.35897408, 4132.69230742, 4212.30769224, 4270.64102571, 4125.25640998, 4265.00000000, 4221.79487173, 4223.46153840, 4240.38461539, 4128.07692280, 4274.61538469, 4198.97435884, 4239.23076923, 4146.41025621,12.0
4116.66666639, 4123.58974332, 4207.30769224, 4266.28205129, 4124.87179460, 4250.38461539, 4213.58974352, 4218.46153840, 4240.64102564, 4130.12820485, 4270.38461546, 4191.28205115, 4231.53846147, 4142.30769210,12.0
4124.23076896, 4130.38461511, 4213.58974352, 4277.17948725, 4127.82051255, 4246.79487180, 4208.84615378, 4200.76923063, 4226.79487173, 4130.89743562, 4265.25641026, 4193.97435884, 4225.76923070, 4141.41025621,12.0
4114.23076896, 4138.46153826, 4215.12820506, 4286.28205136, 4125.25640998, 4249.23076923, 4212.56410250, 4199.48717935, 4223.71794865, 4130.12820485, 4260.89743590, 4200.76923063, 4229.35897429, 4144.74358954,12.0
4143.71794851, 4143.07692287, 4222.17948711, 4291.66666674, 4132.17948691, 4258.58974359, 4226.92307686, 4222.94871788, 4243.71794872, 4130.38461511, 4264.61538462, 4203.58974352, 4239.74358975, 4155.25641005,12.0
4110.12820485, 4149.23076903, 4218.33333327, 4298.33333341, 4121.66666639, 4260.25641026, 4226.79487173, 4225.25641019, 4248.71794872, 4128.71794844, 4265.38461539, 4202.17948711, 4234.74358975, 4139.48717928,12.0
4116.66666639, 4151.79487159, 4218.84615378, 4298.20512828, 4122.17948691, 4252.30769231, 4211.53846147, 4200.38461525, 4230.38461532, 4126.79487152, 4256.79487180, 4200.64102551, 4225.76923070, 4145.89743569,12.0
4153.58974339, 4147.82051262, 4220.76923070, 4289.74358982, 4127.94871767, 4263.46153847, 4217.82051275, 4215.64102558, 4229.74358968, 4127.56410229, 4251.28205129, 4198.71794858, 4231.28205122, 4157.05128185,12.0
4088.97435863, 4150.12820492, 4209.61538455, 4292.05128212, 4114.48717921, 4253.46153847, 4212.69230763, 4218.07692301, 4240.76923077, 4127.69230742, 4252.82051282, 4195.76923063, 4234.10256411, 4134.87179460,12.0
4137.69230749, 4156.41025621, 4218.33333327, 4299.74358989, 4132.05128178, 4245.76923077, 4207.94871788, 4206.28205122, 4239.48717949, 4128.84615357, 4251.02564103, 4193.84615371, 4226.92307686, 4154.87179467,12.0
4142.43589723, 4154.99999980, 4218.58974352, 4297.69230777, 4128.07692280, 4263.97435898, 4229.23076917, 4233.71794865, 4243.58974359, 4129.48717921, 4242.69230770, 4198.46153833, 4226.41025634, 4151.41025621,12.0
4083.58974325, 4152.69230749, 4214.35897429, 4295.25641033, 4111.92307665, 4252.82051282, 4224.23076917, 4229.35897429, 4246.53846154, 4128.58974332, 4248.20512821, 4201.66666660, 4235.00000000, 4133.33333306,12.0
4150.89743569, 4153.07692287, 4229.61538455, 4298.84615392, 4132.05128178, 4251.02564103, 4220.12820506, 4222.43589737, 4247.17948718, 4134.48717921, 4265.89743590, 4205.64102558, 4243.58974359, 4158.07692287,12.0
4126.66666639, 4155.76923056, 4227.56410250, 4305.89743604, 4124.99999973, 4264.87179488, 4233.58974352, 4235.64102564, 4250.25641026, 4135.38461518, 4267.05128212, 4215.51282045, 4243.97435898, 4143.71794851,12.0
4118.07692280, 4160.12820492, 4227.69230763, 4303.71794886, 4122.82051255, 4256.02564103, 4224.23076917, 4218.84615378, 4239.61538462, 4128.07692280, 4256.66666667, 4211.28205122, 4238.20512821, 4148.33333313,12.0
4142.30769210, 4151.66666646, 4223.46153840, 4287.17948725, 4128.71794844, 4242.17948718, 4205.25641019, 4205.64102558, 4222.43589737, 4128.84615357, 4246.79487180, 4196.02564089, 4228.46153840, 4156.02564082,12.0
4106.41025614, 4143.20512800, 4213.07692301, 4279.87179495, 4121.66666639, 4230.76923070, 4196.02564089, 4202.05128199, 4222.30769224, 4131.92307665, 4241.41025641, 4197.82051269, 4226.28205122, 4136.15384595,12.0
4144.23076903, 4149.48717928, 4221.28205122, 4288.58974366, 4130.89743562, 4236.53846154, 4204.10256404, 4208.71794865, 4234.87179488, 4128.84615357, 4245.25641026, 4203.46153840, 4233.84615385, 4152.30769210,12.0
4123.84615357, 4149.61538441, 4217.30769224, 4292.94871802, 4122.69230742, 4235.89743590, 4205.25641019, 4212.43589737, 4235.38461539, 4128.58974332, 4243.58974359, 4196.92307679, 4232.82051275, 4143.58974339,12.0
4118.46153819, 4147.05128185, 4217.82051275, 4297.30769238, 4122.94871767, 4227.56410250, 4199.87179474, 4205.38461532, 4228.71794865, 4131.02564075, 4239.48717949, 4198.33333320, 4231.41025634, 4142.43589723,12.0
4139.48717928, 4153.97435877, 4222.05128199, 4304.87179501, 4130.51282024, 4241.79487180, 4217.82051275, 4223.97435891, 4235.25641026, 4129.23076896, 4240.76923077, 4205.12820506, 4233.58974352, 4149.48717928,12.0
4104.10256383, 4152.43589723, 4213.07692301, 4296.92307700, 4122.05128178, 4241.92307693, 4222.94871788, 4225.64102558, 4239.23076923, 4127.69230742, 4243.07692308, 4197.05128192, 4228.46153840, 4140.38461518,12.0
4130.12820485, 4142.56410236, 4214.23076917, 4282.30769238, 4127.30769203, 4235.76923077, 4217.69230763, 4216.66666660, 4233.84615385, 4129.74358947, 4247.69230770, 4189.74358961, 4228.97435891, 4153.58974339,12.0
4122.69230742, 4148.46153826, 4214.99999993, 4283.71794879, 4124.99999973, 4243.33333334, 4230.64102558, 4230.76923070, 4235.64102564, 4128.07692280, 4247.30769231, 4196.15384602, 4230.51282045, 4144.87179467,12.0
4119.61538434, 4160.51282031, 4218.33333327, 4287.56410264, 4123.71794844, 4241.28205129, 4235.25641026, 4226.79487173, 4232.56410250, 4131.79487152, 4242.05128206, 4198.97435884, 4227.17948711, 4144.61538441,12.0
4137.30769210, 4157.05128185, 4224.23076917, 4278.97435905, 4129.23076896, 4234.48717949, 4228.58974352, 4216.66666660, 4221.02564096, 4138.46153826, 4245.89743590, 4196.92307679, 4230.25641019, 4151.15384595,12.0
4115.12820485, 4156.53846133, 4223.33333327, 4283.20512828, 4122.94871767, 4228.58974352, 4222.94871788, 4215.12820506, 4220.76923070, 4131.92307665, 4251.79487180, 4202.94871788, 4234.23076923, 4140.76923056,12.0
4137.30769210, 4158.71794851, 4218.07692301, 4289.35897443, 4123.71794844, 4227.17948711, 4219.99999993, 4210.12820506, 4220.51282045, 4132.43589716, 4240.25641026, 4196.92307679, 4224.48717942, 4148.97435877,12.0
4132.82051255, 4149.35897415, 4209.87179481, 4281.66666674, 4123.58974332, 4230.38461532, 4221.92307686, 4208.46153840, 4215.89743583, 4138.84615364, 4230.38461532, 4186.28205115, 4219.99999993, 4145.12820492,12.0
4123.71794844, 4157.05128185, 4219.35897429, 4295.51282059, 4122.43589716, 4237.82051282, 4233.97435898, 4220.64102558, 4232.30769224, 4133.07692280, 4249.74358975, 4207.05128199, 4238.97435898, 4144.23076903,12.0
4136.92307672, 4173.46153833, 4225.51282045, 4312.82051296, 4126.02564075, 4248.97435898, 4248.71794872, 4238.97435898, 4252.05128206, 4128.07692280, 4265.25641026, 4220.89743583, 4248.58974359, 4152.05128185,12.0
4119.61538434, 4158.07692287, 4202.30769224, 4292.56410264, 4124.87179460, 4238.07692308, 4235.51282052, 4224.35897429, 4232.56410250, 4129.74358947, 4247.82051282, 4193.33333320, 4231.02564096, 4144.74358954,12.0
4128.71794844, 4146.66666646, 4197.94871781, 4276.66666674, 4127.69230742, 4224.99999993, 4219.61538455, 4207.05128199, 4211.92307686, 4135.25640998, 4238.97435898, 4179.48717935, 4224.87179481, 4148.07692287,12.0
4125.64102537, 4160.64102544, 4210.25641019, 4289.74358982, 4124.48717921, 4232.17948711, 4228.33333327, 4221.92307686, 4225.51282045, 4135.64102544, 4250.38461539, 4198.46153833, 4236.02564103, 4147.56410236,12.0
4118.71794844, 4165.89743569, 4210.12820506, 4292.69230777, 4122.05128178, 4235.89743590, 4233.97435898, 4227.82051275, 4236.53846154, 4132.82051255, 4252.82051282, 4205.76923070, 4236.66666667, 4144.99999980,12.0
4129.23076896, 4159.61538441, 4205.38461532, 4283.07692315, 4127.69230742, 4229.99999993, 4229.48717942, 4219.23076917, 4229.10256404, 4135.64102544, 4245.64102564, 4195.76923063, 4230.89743583, 4146.66666646,12.0
4119.23076896, 4154.35897415, 4196.53846140, 4277.43589751, 4126.28205101, 4219.35897429, 4226.02564096, 4212.05128199, 4222.30769224, 4136.15384595, 4234.48717949, 4184.10256397, 4226.41025634, 4142.05128185,12.0
4124.61538434, 4158.33333313, 4197.94871781, 4282.30769238, 4127.94871767, 4221.28205122, 4231.79487173, 4219.74358968, 4228.84615378, 4134.10256383, 4235.76923077, 4185.64102551, 4227.94871788, 4145.12820492,12.0
4122.30769203, 4169.87179474, 4208.46153840, 4294.61538469, 4128.07692280, 4231.02564096, 4243.07692308, 4237.56410257, 4237.82051282, 4134.35897408, 4248.46153847, 4199.87179474, 4234.23076923, 4144.74358954,12.0
4121.53846126, 4168.33333320, 4203.33333327, 4292.30769238, 4123.71794844, 4228.20512814, 4240.64102564, 4231.92307686, 4234.74358975, 4134.74358947, 4247.56410257, 4196.79487166, 4231.92307686, 4143.71794851,12.0
4131.66666639, 4156.02564082, 4188.46153833, 4279.35897443, 4124.74358947, 4223.07692301, 4231.41025634, 4217.82051275, 4228.97435891, 4134.48717921, 4238.84615385, 4177.17948704, 4226.79487173, 4148.71794851,12.0
4123.46153819, 4162.17948697, 4193.46153833, 4282.56410264, 4125.38461511, 4226.79487173, 4232.56410250, 4224.99999993, 4232.56410250, 4134.48717921, 4243.97435898, 4181.15384602, 4229.99999993, 4144.99999980,12.0
4127.56410229, 4171.66666653, 4206.15384609, 4291.66666674, 4127.43589716, 4228.97435891, 4229.35897429, 4229.35897429, 4241.79487180, 4134.48717921, 4251.15384616, 4198.84615371, 4235.00000000, 4143.20512800,12.0
4128.33333306, 4163.97435877, 4200.89743576, 4290.12820520, 4129.10256383, 4227.30769224, 4221.02564096, 4226.15384609, 4249.74358975, 4134.48717921, 4245.12820513, 4198.07692294, 4237.43589744, 4144.87179467,12.0
4126.53846126, 4167.17948697, 4202.43589737, 4290.38461546, 4127.17948691, 4233.58974352, 4225.51282045, 4228.71794865, 4250.12820513, 4134.48717921, 4245.64102564, 4198.84615371, 4245.51282052, 4144.99999980,12.0
4129.23076896, 4169.48717935, 4211.28205122, 4285.51282059, 4127.05128178, 4233.71794865, 4229.87179481, 4225.51282045, 4240.12820513, 4134.48717921, 4255.76923077, 4207.82051275, 4249.74358975, 4146.41025621,12.0
4120.76923050, 4153.33333313, 4201.02564096, 4273.58974366, 4126.66666639, 4222.69230763, 4222.82051275, 4211.66666660, 4223.07692301, 4134.48717921, 4247.82051282, 4198.33333320, 4237.69230770, 4144.10256390,12.0
4127.43589716, 4148.33333313, 4193.46153833, 4276.66666674, 4126.53846126, 4218.97435891, 4217.30769224, 4200.12820499, 4213.20512814, 4134.48717921, 4235.51282052, 4187.94871781, 4228.58974352, 4145.51282031,12.0
4125.64102537, 4158.20512800, 4206.41025634, 4287.56410264, 4126.41025614, 4222.94871788, 4224.48717942, 4205.51282045, 4224.10256404, 4134.48717921, 4247.69230770, 4207.56410250, 4241.02564103, 4147.43589723,12.0
4123.33333306, 4160.51282031, 4215.51282045, 4287.69230777, 4127.05128178, 4218.33333327, 4227.82051275, 4212.05128199, 4235.00000000, 4134.48717921, 4261.92307693, 4224.35897429, 4252.17948718, 4144.87179467,12.0
4129.99999973, 4151.53846133, 4204.23076917, 4276.92307700, 4130.76923050, 4212.43589737, 4218.84615378, 4205.51282045, 4221.53846147, 4134.48717921, 4251.53846154, 4203.84615378, 4241.66666667, 4145.51282031,12.0
4119.23076896, 4146.15384595, 4189.48717935, 4269.10256418, 4130.25640998, 4216.92307686, 4211.53846147, 4197.17948704, 4200.12820499, 4134.48717921, 4233.71794865, 4179.99999986, 4225.38461532, 4145.12820492,12.0
4124.10256383, 4144.48717928, 4187.94871781, 4264.48717949, 4127.30769203, 4217.94871788, 4214.61538455, 4194.48717935, 4197.30769217, 4134.48717921, 4227.05128199, 4178.20512807, 4223.07692301, 4144.23076903,12.0
4127.56410229, 4146.79487159, 4199.10256397, 4264.74358975, 4126.53846126, 4221.15384609, 4228.58974352, 4214.61538455, 4222.30769224, 4134.48717921, 4237.05128206, 4194.99999986, 4235.89743590, 4145.25641005,12.0
4121.79487152, 4161.02564082, 4215.51282045, 4282.56410264, 4126.02564075, 4233.20512814, 4240.76923077, 4238.58974359, 4249.87179488, 4134.48717921, 4258.20512821, 4223.71794865, 4253.84615385, 4144.99999980,12.0
4128.20512793, 4159.61538441, 4214.35897429, 4281.79487187, 4126.66666639, 4227.17948711, 4230.38461532, 4226.53846147, 4237.82051282, 4134.48717921, 4256.53846154, 4222.69230763, 4253.07692308, 4145.12820492,12.0
4127.82051255, 4140.64102544, 4199.35897422, 4262.69230770, 4126.28205101, 4203.71794865, 4208.07692301, 4201.79487173, 4207.69230763, 4134.48717921, 4233.58974352, 4194.23076910, 4235.51282052, 4144.87179467,12.0
4129.48717921, 4146.28205108, 4199.87179474, 4277.82051289, 4126.15384588, 4197.82051269, 4202.69230763, 4194.99999986, 4200.89743576, 4134.48717921, 4230.64102558, 4192.56410243, 4230.12820506, 4144.61538441,12.0
4127.17948691, 4153.46153826, 4198.71794858, 4293.20512828, 4128.33333306, 4199.61538448, 4197.30769217, 4186.28205115, 4195.25641012, 4134.48717921, 4235.51282052, 4198.58974345, 4231.02564096, 4146.53846133,12.0
4126.41025614, 4134.99999973, 4189.48717935, 4277.56410264, 4127.56410229, 4194.48717935, 4183.58974345, 4176.79487166, 4182.94871781, 4134.48717921, 4231.15384609, 4188.58974345, 4227.05128199, 4147.82051262,12.0
4132.82051255, 4130.76923050, 4193.58974345, 4277.05128212, 4126.28205101, 4196.28205115, 4186.79487166, 4179.99999986, 4188.07692294, 4134.48717921, 4231.41025634, 4191.41025628, 4227.43589737, 4146.53846133,12.0
4126.79487152, 4143.97435877, 4202.30769224, 4284.35897443, 4128.71794844, 4211.66666660, 4217.30769224, 4200.25641012, 4212.94871788, 4134.48717921, 4237.43589744, 4204.35897429, 4232.43589737, 4146.79487159,12.0
4126.02564075, 4136.66666646, 4197.94871781, 4271.15384623, 4127.94871767, 4225.64102558, 4237.56410257, 4217.05128199, 4226.28205122, 4134.48717921, 4235.89743590, 4198.07692294, 4230.51282045, 4146.79487159,12.0
4127.17948691, 4085.76923043, 4156.53846133, 4230.64102558, 4127.69230742, 4178.46153833, 4171.53846140, 4164.87179467, 4168.33333320, 4134.48717921, 4202.69230763, 4139.99999980, 4193.84615371, 4143.58974339,12.0
4124.48717921, 4053.33333292, 4129.23076896, 4202.56410250, 4128.20512793, 4129.35897408, 4109.23076896, 4113.33333306, 4120.25640998, 4134.48717921, 4177.82051269, 4099.10256376, 4165.64102544, 4144.61538441,12.0
4126.79487152, 4112.30769203, 4181.53846140, 4256.28205129, 4127.56410229, 4188.84615371, 4183.84615371, 4179.35897422, 4198.71794858, 4134.48717921, 4222.82051275, 4174.10256397, 4209.48717942, 4144.61538441,12.0
4122.05128178, 4173.97435884, 4230.38461532, 4327.82051296, 4129.10256383, 4251.41025641, 4266.28205129, 4254.61538462, 4273.58974366, 4134.48717921, 4265.51282052, 4248.33333334, 4252.17948718, 4143.46153826,12.0
4127.43589716, 4143.58974339, 4200.38461525, 4304.23076937, 4127.94871767, 4205.89743583, 4218.71794865, 4212.05128199, 4219.74358968, 4134.48717921, 4236.02564103, 4200.38461525, 4224.35897429, 4145.51282031,12.0
4132.17948691, 4103.84615357, 4174.48717935, 4255.51282052, 4126.79487152, 4167.05128185, 4172.17948704, 4166.92307672, 4171.79487166, 4134.48717921, 4214.87179481, 4158.71794851, 4203.71794865, 4143.97435877,12.0
4124.99999973, 4109.10256383, 4189.74358961, 4260.76923077, 4127.05128178, 4186.41025628, 4195.64102551, 4186.41025628, 4193.33333320, 4134.48717921, 4232.82051275, 4181.53846140, 4217.17948711, 4144.10256390,12.0
4135.12820485, 4101.53846119, 4184.87179474, 4258.58974359, 4127.17948691, 4182.17948704, 4193.84615371, 4178.07692294, 4186.92307679, 4134.48717921, 4226.41025634, 4173.07692294, 4209.10256404, 4146.02564082,12.0
4131.66666639, 4088.97435863, 4172.43589730, 4241.79487180, 4130.25640998, 4175.38461525, 4183.58974345, 4164.23076903, 4167.82051262, 4134.48717921, 4209.48717942, 4153.07692287, 4195.51282038, 4145.76923056,12.0
4125.51282024, 4096.79487145, 4184.48717935, 4252.05128206, 4132.30769203, 4189.35897422, 4194.87179474, 4180.25641012, 4179.61538448, 4134.48717921, 4213.33333327, 4169.48717935, 4201.92307686, 4147.69230749,12.0
4133.33333306, 4098.46153812, 4195.64102551, 4261.92307693, 4129.87179460, 4190.12820499, 4195.12820499, 4180.51282038, 4191.41025628, 4134.48717921, 4219.74358968, 4183.97435884, 4208.07692301, 4147.69230749,12.0
4118.97435870, 4096.66666632, 4193.84615371, 4259.23076923, 4125.64102537, 4185.38461525, 4189.61538448, 4165.76923056, 4190.64102551, 4134.61538434, 4218.20512814, 4182.69230756, 4207.94871788, 4144.87179467,12.0
4124.10256383, 4099.87179453, 4192.05128192, 4261.92307693, 4128.97435870, 4187.43589730, 4186.92307679, 4157.30769210, 4177.17948704, 4134.35897408, 4211.15384609, 4177.94871781, 4201.02564096, 4145.89743569,12.0
4129.35897408, 4098.58974325, 4197.82051269, 4270.38461546, 4132.17948691, 4190.12820499, 4186.15384602, 4157.05128185, 4167.69230749, 4134.48717921, 4208.97435891, 4181.28205115, 4200.38461525, 4147.05128185,12.0
4120.64102537, 4097.69230735, 4207.56410250, 4275.89743597, 4130.38461511, 4190.12820499, 4188.71794858, 4159.35897415, 4177.17948704, 4134.99999973, 4217.43589737, 4193.46153833, 4210.38461532, 4144.99999980,12.0
4134.23076896, 4102.17948684, 4211.41025634, 4279.35897443, 4130.89743562, 4198.33333320, 4197.30769217, 4169.48717935, 4186.15384602, 4133.97435870, 4218.58974352, 4193.97435884, 4210.51282045, 4145.25641005,12.0
4122.82051255, 4096.28205094, 4200.12820499, 4275.25641033, 4127.94871767, 4200.12820499, 4200.12820499, 4169.61538448, 4173.33333320, 4134.23076896, 4206.41025634, 4179.10256397, 4199.87179474, 4141.41025621,12.0
4123.46153819, 4090.89743555, 4197.05128192, 4274.61538469, 4128.07692280, 4191.66666653, 4193.97435884, 4153.07692287, 4160.89743569, 4135.64102544, 4202.94871788, 4175.76923063, 4198.07692294, 4142.17948697,12.0
4137.30769210, 4095.51282017, 4202.56410250, 4277.30769238, 4131.66666639, 4189.99999986, 4186.66666653, 4147.30769210, 4156.53846133, 4135.76923056, 4207.05128199, 4179.99999986, 4200.51282038, 4147.30769210,12.0
4123.46153819, 4088.33333299, 4194.48717935, 4262.56410257, 4126.53846126, 4183.20512807, 4173.07692294, 4147.69230749, 4148.97435877, 4134.74358947, 4203.71794865, 4169.23076910, 4197.69230756, 4143.84615364,12.0
4130.12820485, 4084.10256376, 4195.64102551, 4256.79487180, 4125.38461511, 4172.30769217, 4166.53846133, 4148.33333313, 4155.25641005, 4130.89743562, 4198.97435884, 4165.64102544, 4198.46153833, 4143.33333313,12.0
4128.84615357, 4097.94871761, 4204.10256404, 4275.00000007, 4129.23076896, 4171.53846140, 4173.71794858, 4159.35897415, 4172.17948704, 4128.97435870, 4201.28205122, 4180.38461525, 4203.71794865, 4144.23076903,12.0
4129.35897408, 4102.17948684, 4202.56410250, 4281.15384623, 4129.61538434, 4175.12820499, 4177.43589730, 4165.25641005, 4178.07692294, 4132.69230742, 4206.79487173, 4183.33333320, 4206.79487173, 4143.84615364,12.0
4139.61538441, 4100.76923043, 4203.20512814, 4275.76923084, 4129.48717921, 4184.48717935, 4183.71794858, 4171.15384602, 4187.30769217, 4136.79487159, 4212.05128199, 4183.33333320, 4217.17948711, 4146.28205108,12.0
4127.82051255, 4103.07692280, 4198.84615371, 4272.69230777, 4127.94871767, 4186.28205115, 4183.20512807, 4171.79487166, 4189.48717935, 4136.02564082, 4220.51282045, 4186.02564089, 4220.64102558, 4147.17948697,12.0
4131.92307665, 4088.84615350, 4182.05128192, 4258.46153847, 4127.30769203, 4171.53846140, 4164.87179467, 4150.76923056, 4163.33333313, 4132.69230742, 4220.12820506, 4165.64102544, 4204.99999993, 4148.07692287,12.0
4128.33333306, 4074.10256376, 4169.23076910, 4248.20512821, 4128.07692280, 4169.48717935, 4166.28205108, 4143.97435877, 4150.64102544, 4131.79487152, 4208.71794865, 4146.02564082, 4194.74358961, 4143.97435877,12.0
4123.46153819, 4079.10256376, 4170.51282038, 4252.82051282, 4129.10256383, 4186.28205115, 4186.02564089, 4154.99999980, 4163.20512800, 4133.58974332, 4201.53846147, 4152.30769210, 4200.38461525, 4144.48717928,12.0
4128.07692280, 4079.10256376, 4170.51282038, 4252.94871795, 4131.41025614, 4183.97435884, 4181.92307679, 4149.61538441, 4159.10256390, 4135.38461518, 4199.99999986, 4155.51282031, 4200.76923063, 4150.76923056,12.0
4122.69230742, 4072.43589709, 4168.20512807, 4249.48717949, 4130.38461511, 4171.02564089, 4176.28205115, 4145.76923056, 4155.51282031, 4135.64102544, 4199.87179474, 4153.07692287, 4198.84615371, 4149.48717928,12.0
4129.23076896, 4069.61538420, 4166.92307672, 4244.48717949, 4127.56410229, 4171.02564089, 4181.92307679, 4152.69230749, 4166.92307672, 4132.82051255, 4197.82051269, 4153.46153826, 4199.35897422, 4143.07692287,12.0
4128.46153819, 4070.38461504, 4163.84615364, 4249.87179488, 4128.07692280, 4168.97435884, 4171.79487166, 4154.87179467, 4169.61538448, 4131.41025614, 4197.05128192, 4157.05128185, 4200.76923063, 4144.10256390,12.0
4129.61538434, 4080.64102530, 4170.89743576, 4269.35897443, 4128.46153819, 4160.76923056, 4159.35897415, 4156.15384595, 4175.51282038, 4134.10256383, 4201.53846147, 4170.64102551, 4209.48717942, 4147.30769210,12.0
4132.94871767, 4084.99999966, 4174.74358961, 4269.61538469, 4127.05128178, 4156.92307672, 4158.46153826, 4155.51282031, 4181.79487166, 4134.48717921, 4203.84615378, 4173.07692294, 4211.02564096, 4144.87179467,12.0
4130.89743562, 4080.89743555, 4168.20512807, 4258.46153847, 4126.41025614, 4156.92307672, 4155.76923056, 4149.10256390, 4168.07692287, 4131.28205101, 4197.17948704, 4158.33333313, 4199.74358961, 4146.66666646,12.0
4137.43589723, 4080.38461504, 4163.97435877, 4264.48717949, 4128.33333306, 4156.15384595, 4155.64102544, 4144.87179467, 4160.12820492, 4132.82051255, 4187.56410243, 4155.38461518, 4196.66666653, 4145.64102544,12.0
4133.46153819, 4072.05128171, 4156.41025621, 4262.30769231, 4130.64102537, 4156.02564082, 4162.94871774, 4150.25641005, 4169.61538448, 4135.64102544, 4184.10256397, 4155.89743569, 4200.51282038, 4143.07692287,12.0
4135.64102544, 4065.38461497, 4149.48717928, 4250.00000000, 4128.84615357, 4163.97435877, 4167.17948697, 4156.41025621, 4173.58974345, 4134.10256383, 4188.07692294, 4149.35897415, 4197.69230756, 4146.79487159,12.0
4133.84615357, 4069.10256369, 4148.97435877, 4255.38461539, 4128.33333306, 4168.46153833, 4167.05128185, 4151.92307672, 4170.38461525, 4134.10256383, 4186.92307679, 4147.43589723, 4195.25641012, 4145.51282031,12.0
4126.41025614, 4064.35897395, 4152.43589723, 4261.15384616, 4128.33333306, 4167.56410236, 4170.12820499, 4146.28205108, 4167.30769210, 4134.23076896, 4182.43589730, 4153.84615364, 4199.48717935, 4147.30769210,12.0
4131.92307665, 4054.10256369, 4156.41025621, 4252.30769231, 4125.76923050, 4168.33333320, 4177.17948704, 4148.46153826, 4172.17948704, 4132.69230742, 4192.05128192, 4164.61538441, 4202.43589737, 4148.97435877,12.0
4124.87179460, 4061.15384574, 4160.64102544, 4253.84615385, 4126.79487152, 4169.74358961, 4181.15384602, 4155.51282031, 4185.38461525, 4133.46153819, 4199.99999986, 4172.69230756, 4203.84615378, 4145.25641005,12.0
4125.89743562, 4069.99999966, 4158.07692287, 4266.92307700, 4128.97435870, 4171.92307679, 4179.61538448, 4154.74358954, 4182.17948704, 4133.84615357, 4189.99999986, 4171.66666653, 4203.46153840, 4145.12820492,12.0
4128.97435870, 4062.43589702, 4148.46153826, 4263.84615385, 4128.07692280, 4170.64102551, 4176.15384602, 4147.94871774, 4167.69230749, 4132.56410229, 4182.56410243, 4169.23076910, 4201.41025634, 4145.89743569,12.0
4121.02564075, 4061.79487138, 4144.35897415, 4254.74358975, 4128.46153819, 4168.20512807, 4173.58974345, 4150.12820492, 4169.61538448, 4133.84615357, 4186.02564089, 4163.97435877, 4199.35897422, 4146.28205108,12.0
4128.97435870, 4074.99999966, 4148.07692287, 4261.79487180, 4128.97435870, 4172.05128192, 4177.30769217, 4157.17948697, 4179.35897422, 4135.76923056, 4185.76923063, 4158.33333313, 4199.10256397, 4145.38461518,12.0
4127.56410229, 4077.17948684, 4150.64102544, 4263.71794872, 4128.58974332, 4169.35897422, 4176.41025628, 4151.41025621, 4173.33333320, 4133.71794844, 4182.43589730, 4161.92307672, 4200.76923063, 4143.97435877,12.0
4124.61538434, 4075.89743555, 4152.17948697, 4260.89743590, 4129.10256383, 4160.38461518, 4163.46153826, 4143.46153826, 4167.69230749, 4130.25640998, 4184.74358961, 4169.61538448, 4201.15384609, 4147.05128185,12.0
4131.02564075, 4089.74358940, 4156.92307672, 4273.71794879, 4129.61538434, 4159.99999980, 4156.28205108, 4146.15384595, 4177.17948704, 4129.23076896, 4190.76923063, 4176.28205115, 4204.10256404, 4147.30769210,12.0
4127.30769203, 4093.33333299, 4155.51282031, 4274.35897443, 4130.12820485, 4159.48717928, 4160.64102544, 4147.17948697, 4175.51282038, 4131.66666639, 4189.35897422, 4173.07692294, 4203.97435891, 4143.97435877,12.0
4132.56410229, 4078.84615350, 4146.79487159, 4254.35897436, 4128.46153819, 4153.46153826, 4163.46153826, 4137.30769210, 4159.61538441, 4134.48717921, 4181.02564089, 4157.56410236, 4195.89743576, 4144.74358954,12.0
4132.05128178, 4081.02564068, 4149.35897415, 4249.48717949, 4128.20512793, 4158.58974339, 4173.20512807, 4137.05128185, 4170.25641012, 4134.35897408, 4186.28205115, 4162.69230749, 4198.97435884, 4147.82051262,12.0
4126.79487152, 4089.99999966, 4154.48717928, 4258.20512821, 4130.38461511, 4166.79487159, 4182.82051269, 4153.33333313, 4189.35897422, 4135.89743569, 4194.99999986, 4177.82051269, 4209.35897429, 4148.20512800,12.0
4132.05128178, 4079.74358940, 4143.20512800, 4251.79487180, 4129.87179460, 4155.64102544, 4167.56410236, 4146.28205108, 4172.17948704, 4134.74358947, 4184.23076910, 4160.38461518, 4198.20512807, 4145.64102544,12.0
4126.02564075, 4076.79487145, 4135.64102544, 4245.25641026, 4129.74358947, 4146.15384595, 4152.56410236, 4132.30769203, 4161.79487159, 4129.10256383, 4177.69230756, 4148.97435877, 4187.56410243, 4145.38461518,12.0
4127.17948691, 4089.61538427, 4147.05128185, 4248.58974359, 4130.12820485, 4154.35897415, 4159.61538441, 4142.17948697, 4184.99999986, 4130.25640998, 4188.33333320, 4172.30769217, 4201.66666660, 4146.53846133,12.0
4127.30769203, 4091.15384581, 4149.99999980, 4250.00000000, 4128.71794844, 4158.07692287, 4166.41025621, 4143.20512800, 4188.46153833, 4136.92307672, 4190.64102551, 4179.61538448, 4207.82051275, 4145.64102544,12.0
4117.56410229, 4090.51282017, 4141.28205108, 4251.15384616, 4127.94871767, 4152.69230749, 4164.35897415, 4129.10256383, 4171.15384602, 4135.76923056, 4183.20512807, 4165.64102544, 4197.43589730, 4146.53846133,12.0
4123.20512793, 4096.53846119, 4142.43589723, 4256.02564103, 4128.33333306, 4156.02564082, 4163.58974339, 4126.28205101, 4173.33333320, 4132.94871767, 4185.38461525, 4166.66666646, 4197.17948704, 4147.43589723,12.0
4120.76923050, 4092.30769196, 4145.76923056, 4256.28205129, 4129.35897408, 4160.51282031, 4165.89743569, 4134.74358947, 4183.97435884, 4135.38461518, 4190.89743576, 4172.17948704, 4203.07692301, 4145.64102544,12.0
4121.15384588, 4084.87179453, 4142.17948697, 4250.51282052, 4130.76923050, 4159.35897415, 4166.02564082, 4133.46153819, 4184.87179474, 4135.76923056, 4189.48717935, 4167.05128185, 4201.53846147, 4145.76923056,12.0
4127.69230742, 4094.48717914, 4140.89743569, 4256.28205129, 4131.28205101, 4162.69230749, 4168.71794858, 4126.66666639, 4178.58974345, 4134.99999973, 4185.25641012, 4165.25641005, 4198.97435884, 4144.87179467,12.0
4119.61538434, 4103.58974332, 4144.48717928, 4263.46153847, 4128.84615357, 4162.43589723, 4171.41025628, 4122.56410229, 4171.15384602, 4135.76923056, 4183.33333320, 4169.87179474, 4198.33333320, 4142.56410236,12.0
4127.43589716, 4097.30769196, 4151.15384595, 4252.43589744, 4128.46153819, 4156.66666646, 4167.43589723, 4118.07692280, 4176.15384602, 4135.38461518, 4185.76923063, 4177.56410243, 4198.97435884, 4145.25641005,12.0
4129.61538434, 4097.17948684, 4152.82051262, 4252.94871795, 4129.87179460, 4157.30769210, 4162.43589723, 4121.15384588, 4185.89743576, 4135.51282031, 4187.17948704, 4185.12820499, 4199.87179474, 4146.92307672,12.0
4123.20512793, 4108.71794844, 4153.33333313, 4269.87179495, 4129.10256383, 4161.02564082, 4161.41025621, 4123.97435870, 4182.69230756, 4135.51282031, 4184.99999986, 4187.56410243, 4201.02564096, 4144.35897415,12.0
4130.89743562, 4104.87179460, 4149.61538441, 4260.38461539, 4130.25640998, 4162.30769210, 4165.12820492, 4118.33333306, 4174.23076910, 4135.51282031, 4184.10256397, 4180.12820499, 4198.33333320, 4145.51282031,12.0
4119.61538434, 4088.46153812, 4135.64102544, 4239.23076923, 4130.51282024, 4160.38461518, 4168.33333320, 4113.07692280, 4172.17948704, 4135.51282031, 4180.38461525, 4168.33333320, 4188.33333320, 4146.53846133,12.0
4120.38461511, 4091.02564068, 4135.25640998, 4248.84615385, 4129.74358947, 4161.66666646, 4169.87179474, 4111.41025614, 4169.74358961, 4135.51282031, 4173.46153833, 4167.69230749, 4183.33333320, 4146.66666646,12.0
4124.35897408, 4100.64102530, 4143.33333313, 4258.71794872, 4130.38461511, 4159.74358954, 4166.15384595, 4111.66666639, 4167.05128185, 4135.51282031, 4171.02564089, 4172.56410243, 4187.05128192, 4148.46153826,12.0
4114.23076896, 4092.05128171, 4137.82051262, 4243.07692308, 4129.48717921, 4152.30769210, 4154.99999980, 4105.76923050, 4166.79487159, 4135.51282031, 4170.12820499, 4165.38461518, 4185.51282038, 4147.56410236,12.0
4126.66666639, 4078.84615350, 4132.82051255, 4226.02564096, 4131.41025614, 4155.89743569, 4154.74358954, 4099.74358940, 4164.10256390, 4135.51282031, 4165.25641005, 4153.20512800, 4179.61538448, 4147.56410236,12.0
4124.61538434, 4080.64102530, 4140.38461518, 4228.46153840, 4132.17948691, 4165.76923056, 4169.87179474, 4108.97435870, 4167.43589723, 4135.51282031, 4170.25641012, 4156.15384595, 4182.30769217, 4147.94871774,12.0
4126.41025614, 4096.02564068, 4149.35897415, 4248.20512821, 4130.51282024, 4163.58974339, 4175.25641012, 4116.66666639, 4177.56410243, 4135.51282031, 4183.46153833, 4170.64102551, 4191.66666653, 4148.84615364,12.0
4133.33333306, 4099.99999966, 4152.05128185, 4259.35897436, 4132.69230742, 4161.92307672, 4167.82051262, 4121.02564075, 4187.69230756, 4135.51282031, 4186.53846140, 4179.48717935, 4199.35897422, 4146.53846133,12.0
4120.38461511, 4092.30769196, 4156.41025621, 4251.92307693, 4130.38461511, 4169.35897422, 4169.48717935, 4132.82051255, 4196.15384602, 4135.51282031, 4184.99999986, 4182.30769217, 4202.82051275, 4142.43589723,12.0
4126.79487152, 4094.74358940, 4164.23076903, 4243.84615385, 4127.94871767, 4167.43589723, 4174.74358961, 4137.82051262, 4202.17948711, 4135.51282031, 4184.35897422, 4189.23076910, 4203.97435891, 4142.94871774,12.0
4128.97435870, 4102.56410229, 4168.84615371, 4250.51282052, 4131.02564075, 4164.61538441, 4176.02564089, 4136.15384595, 4206.41025634, 4135.51282031, 4183.71794858, 4201.15384609, 4205.89743583, 4143.84615364,12.0
4129.23076896, 4111.15384588, 4170.64102551, 4264.10256411, 4130.64102537, 4173.71794858, 4177.69230756, 4132.69230742, 4201.79487173, 4135.51282031, 4185.51282038, 4204.74358968, 4204.10256404, 4144.87179467,12.0
4133.20512793, 4123.58974332, 4170.76923063, 4267.17948725, 4128.58974332, 4183.33333320, 4184.35897422, 4133.97435870, 4198.71794858, 4135.51282031, 4183.84615371, 4200.38461525, 4200.51282038, 4146.79487159,12.0
4130.64102537, 4131.79487152, 4170.12820499, 4265.38461539, 4129.23076896, 4186.53846140, 4193.58974345, 4141.02564082, 4204.48717942, 4135.51282031, 4174.48717935, 4196.53846140, 4200.76923063, 4147.69230749,12.0
4135.89743569, 4127.30769203, 4165.89743569, 4267.56410264, 4131.53846126, 4186.28205115, 4190.12820499, 4134.99999973, 4200.51282038, 4135.51282031, 4167.17948697, 4190.89743576, 4196.92307679, 4147.05128185,12.0
4125.51282024, 4111.53846126, 4157.05128185, 4261.92307693, 4130.76923050, 4176.66666653, 4174.48717935, 4120.89743562, 4186.66666653, 4135.51282031, 4168.97435884, 4180.64102551, 4188.20512807, 4144.99999980,12.0
4125.89743562, 4103.07692280, 4151.66666646, 4250.51282052, 4126.92307665, 4165.51282031, 4165.51282031, 4115.25640998, 4181.15384602, 4135.51282031, 4170.51282038, 4172.69230756, 4186.92307679, 4146.02564082,12.0
4133.46153819, 4104.10256383, 4148.07692287, 4244.48717949, 4127.69230742, 4164.10256390, 4165.76923056, 4118.46153819, 4184.48717935, 4135.51282031, 4167.56410236, 4171.15384602, 4189.35897422, 4147.30769210,12.0
4121.15384588, 4097.43589709, 4141.79487159, 4236.15384616, 4131.66666639, 4161.28205108, 4163.58974339, 4121.41025614, 4183.84615371, 4135.51282031, 4162.94871774, 4168.07692287, 4187.05128192, 4146.41025621,12.0
4124.23076896, 4082.43589709, 4137.82051262, 4222.69230763, 4131.02564075, 4158.58974339, 4163.58974339, 4117.17948691, 4177.94871781, 4135.51282031, 4157.94871774, 4159.74358954, 4184.99999986, 4144.48717928,12.0
4120.64102537, 4077.69230735, 4133.20512793, 4207.05128199, 4125.25640998, 4160.38461518, 4171.41025628, 4113.97435870, 4174.74358961, 4135.51282031, 4153.46153826, 4149.87179467, 4183.46153833, 4144.87179467,12.0
4118.46153819, 4087.05128171, 4136.28205108, 4202.30769224, 4127.43589716, 4161.66666646, 4172.30769217, 4118.84615357, 4178.84615371, 4135.51282031, 4152.94871774, 4151.66666646, 4181.66666653, 4147.43589723,12.0
4128.33333306, 4096.02564068, 4147.05128185, 4214.48717942, 4134.10256383, 4160.76923056, 4162.30769210, 4121.79487152, 4183.46153833, 4135.51282031, 4157.05128185, 4162.69230749, 4184.61538448, 4146.53846133,12.0
4119.99999973, 4101.02564068, 4145.38461518, 4214.48717942, 4131.66666639, 4155.25641005, 4159.74358954, 4119.23076896, 4179.48717935, 4135.51282031, 4154.23076903, 4161.79487159, 4180.12820499, 4142.94871774,12.0
4125.25640998, 4109.87179460, 4141.92307672, 4204.87179481, 4133.20512793, 4160.38461518, 4177.05128192, 4125.38461511, 4179.87179474, 4135.51282031, 4149.10256390, 4156.92307672, 4169.35897422, 4143.97435877,12.0
4129.23076896, 4129.87179460, 4152.43589723, 4221.79487173, 4139.74358954, 4177.17948704, 4186.41025628, 4133.46153819, 4184.99999986, 4135.51282031, 4150.25641005, 4164.23076903, 4172.94871781, 4143.07692287,12.0
4125.12820485, 4143.97435877, 4161.66666646, 4240.64102564, 4133.84615357, 4178.07692294, 4169.99999986, 4124.74358947, 4179.10256397, 4135.51282031, 4150.76923056, 4179.10256397, 4187.94871781, 4139.61538441,12.0
4132.17948691, 4130.25640998, 4152.56410236, 4220.64102558, 4127.69230742, 4155.25641005, 4147.56410236, 4107.94871767, 4163.58974339, 4135.51282031, 4148.07692287, 4172.17948704, 4183.07692294, 4142.43589723,12.0
4129.23076896, 4117.94871767, 4137.69230749, 4205.38461532, 4131.53846126, 4143.07692287, 4140.12820492, 4105.89743562, 4153.97435877, 4135.51282031, 4147.30769210, 4150.12820492, 4168.20512807, 4147.30769210,12.0
4133.07692280, 4130.25640998, 4142.30769210, 4222.05128199, 4131.66666639, 4151.41025621, 4142.82051262, 4112.43589716, 4156.15384595, 4135.51282031, 4152.94871774, 4156.66666646, 4177.17948704, 4147.43589723,12.0
4130.12820485, 4133.07692280, 4145.64102544, 4223.20512814, 4128.33333306, 4147.94871774, 4137.69230749, 4107.30769203, 4157.17948697, 4135.51282031, 4152.17948697, 4168.84615371, 4185.51282038, 4145.64102544,12.0
4124.99999973, 4112.94871767, 4130.64102537, 4198.71794858, 4128.33333306, 4133.97435870, 4127.94871767, 4094.87179453, 4151.66666646, 4135.51282031, 4138.71794851, 4148.97435877, 4169.61538448, 4146.79487159,12.0
4133.46153819, 4108.71794844, 4125.76923050, 4193.20512807, 4127.94871767, 4139.99999980, 4138.20512800, 4097.56410222, 4153.46153826, 4135.51282031, 4136.15384595, 4139.99999980, 4162.56410236, 4146.02564082,12.0
4123.71794844, 4118.84615357, 4134.10256383, 4200.76923063, 4129.23076896, 4151.15384595, 4156.15384595, 4113.71794844, 4161.41025621, 4135.51282031, 4147.43589723, 4161.92307672, 4174.48717935, 4143.71794851,12.0
4125.25640998, 4115.12820485, 4136.41025621, 4194.87179474, 4130.64102537, 4141.02564082, 4146.79487159, 4110.64102537, 4159.87179467, 4135.51282031, 4147.69230749, 4169.35897422, 4176.41025628, 4144.87179467,12.0
4129.23076896, 4111.15384588, 4130.25640998, 4189.99999986, 4130.38461511, 4133.97435870, 4132.43589716, 4094.99999966, 4146.15384595, 4135.51282031, 4135.38461518, 4158.46153826, 4165.25641005, 4144.61538441,12.0
4124.23076896, 4117.05128178, 4131.41025614, 4194.61538448, 4129.61538434, 4144.61538441, 4145.25641005, 4096.92307658, 4143.07692287, 4135.51282031, 4132.82051255, 4160.64102544, 4163.84615364, 4145.89743569,12.0
4131.41025614, 4134.10256383, 4148.58974339, 4208.20512814, 4130.12820485, 4155.38461518, 4161.02564082, 4109.35897408, 4158.20512800, 4135.51282031, 4140.25641005, 4184.61538448, 4178.33333320, 4146.15384595,12.0
4122.69230742, 4158.07692287, 4159.74358954, 4224.48717942, 4131.53846126, 4156.79487159, 4160.51282031, 4115.25640998, 4164.87179467, 4135.51282031, 4143.71794851, 4203.07692301, 4185.89743576, 4144.35897415,12.0
4122.17948691, 4164.99999980, 4151.15384595, 4227.17948711, 4131.15384588, 4151.15384595, 4152.94871774, 4106.41025614, 4154.10256390, 4135.51282031, 4139.61538441, 4189.61538448, 4174.74358961, 4143.97435877,12.0
4132.30769203, 4157.05128185, 4143.07692287, 4219.35897429, 4130.89743562, 4144.23076903, 4146.15384595, 4098.20512786, 4151.66666646, 4135.51282031, 4134.35897408, 4175.51282038, 4168.46153833, 4144.23076903,12.0
4129.35897408, 4151.15384595, 4146.28205108, 4215.76923070, 4129.35897408, 4144.10256390, 4143.71794851, 4103.07692280, 4158.71794851, 4135.51282031, 4136.28205108, 4182.69230756, 4174.87179474, 4146.92307672,12.0
4131.28205101, 4150.38461518, 4146.15384595, 4221.53846147, 4128.33333306, 4140.89743569, 4140.51282031, 4100.89743555, 4157.43589723, 4135.51282031, 4138.58974339, 4181.15384602, 4173.71794858, 4146.53846133,12.0
4126.92307665, 4154.10256390, 4142.94871774, 4224.35897429, 4129.87179460, 4131.79487152, 4136.66666646, 4096.15384581, 4158.58974339, 4135.51282031, 4135.12820485, 4173.84615371, 4169.35897422, 4143.20512800,12.0
4129.87179460, 4157.82051262, 4148.97435877, 4221.41025634, 4128.84615357, 4140.76923056, 4144.23076903, 4111.92307665, 4175.89743576, 4135.51282031, 4135.25640998, 4187.17948704, 4173.97435884, 4145.12820492,12.0
4133.71794844, 4137.94871774, 4143.84615364, 4207.94871788, 4128.46153819, 4149.99999980, 4155.64102544, 4118.20512793, 4182.82051269, 4135.51282031, 4140.76923056, 4188.20512807, 4175.64102551, 4148.20512800,12.0
4124.35897408, 4106.02564075, 4123.46153819, 4183.46153833, 4131.15384588, 4136.66666646, 4154.10256390, 4104.61538434, 4169.48717935, 4135.51282031, 4135.25640998, 4161.79487159, 4170.12820499, 4146.28205108,12.0
4128.20512793, 4096.28205094, 4118.97435870, 4167.69230749, 4131.02564075, 4127.56410229, 4145.64102544, 4107.30769203, 4166.53846133, 4135.51282031, 4125.25640998, 4153.84615364, 4167.94871774, 4143.46153826,12.0
4124.99999973, 4105.64102537, 4132.30769203, 4175.89743576, 4128.20512793, 4139.35897415, 4152.69230749, 4127.43589716, 4187.94871781, 4135.51282031, 4133.07692280, 4172.56410243, 4176.79487166, 4143.97435877,12.0
4124.10256383, 4120.25640998, 4139.35897415, 4188.58974345, 4129.61538434, 4154.48717928, 4169.23076910, 4134.48717921, 4197.94871781, 4135.51282031, 4138.71794851, 4180.12820499, 4185.89743576, 4145.64102544,12.0
4128.07692280, 4126.79487152, 4134.35897408, 4183.33333320, 4132.94871767, 4156.02564082, 4172.82051269, 4127.43589716, 4182.82051269, 4135.51282031, 4127.17948691, 4170.89743576, 4182.30769217, 4144.87179467,12.0
4122.30769203, 4136.79487159, 4142.56410236, 4186.53846140, 4131.92307665, 4158.33333313, 4176.15384602, 4137.94871774, 4190.89743576, 4135.51282031, 4129.35897408, 4181.92307679, 4182.82051269, 4144.61538441,12.0
4131.53846126, 4159.99999980, 4161.79487159, 4208.71794865, 4127.82051255, 4166.28205108, 4186.66666653, 4149.10256390, 4215.12820506, 4135.51282031, 4139.61538441, 4204.35897429, 4190.51282038, 4143.07692287,12.0
4127.94871767, 4158.97435877, 4157.30769210, 4205.12820506, 4127.43589716, 4158.46153826, 4177.17948704, 4131.66666639, 4205.25641019, 4135.51282031, 4127.43589716, 4196.66666653, 4182.82051269, 4142.43589723,12.0
4122.56410229, 4134.99999973, 4140.12820492, 4179.61538448, 4130.89743562, 4141.92307672, 4160.38461518, 4120.76923050, 4186.41025628, 4135.51282031, 4116.41025614, 4175.51282038, 4167.30769210, 4145.89743569,12.0
4130.76923050, 4128.33333306, 4140.38461518, 4173.97435884, 4131.66666639, 4141.66666646, 4159.61538441, 4130.76923050, 4199.74358961, 4135.51282031, 4128.33333306, 4175.38461525, 4171.53846140, 4145.64102544,12.0
4124.87179460, 4132.69230742, 4148.71794851, 4177.30769217, 4129.10256383, 4144.61538441, 4154.10256390, 4126.41025614, 4206.66666660, 4135.51282031, 4137.17948697, 4187.56410243, 4185.25641012, 4145.25641005,12.0
4127.69230742, 4131.79487152, 4148.58974339, 4173.20512807, 4127.94871767, 4135.12820485, 4142.82051262, 4108.20512793, 4186.53846140, 4135.51282031, 4136.15384595, 4189.23076910, 4183.71794858, 4147.30769210,12.0
4126.15384588, 4132.82051255, 4137.56410236, 4170.51282038, 4128.84615357, 4128.20512793, 4143.84615364, 4108.20512793, 4179.99999986, 4135.51282031, 4129.48717921, 4171.53846140, 4173.20512807, 4145.64102544,12.0
4122.05128178, 4132.69230742, 4125.12820485, 4170.12820499, 4127.17948691, 4132.69230742, 4149.61538441, 4116.41025614, 4186.02564089, 4135.51282031, 4120.76923050, 4152.05128185, 4166.02564082, 4147.05128185,12.0
4133.33333306, 4140.12820492, 4132.43589716, 4183.84615371, 4126.28205101, 4143.58974339, 4158.33333313, 4115.12820485, 4185.89743576, 4135.51282031, 4126.28205101, 4163.46153826, 4168.97435884, 4149.10256390,12.0
4123.97435870, 4161.28205108, 4153.84615364, 4201.79487173, 4128.97435870, 4148.84615364, 4170.89743576, 4115.76923050, 4186.41025628, 4135.51282031, 4136.66666646, 4194.74358961, 4181.41025628, 4146.15384595,12.0
4122.43589716, 4171.02564089, 4161.28205108, 4196.28205115, 4131.53846126, 4139.87179467, 4163.20512800, 4109.74358947, 4181.66666653, 4135.51282031, 4136.53846133, 4203.97435891, 4188.58974345, 4146.02564082,12.0
4127.94871767, 4168.58974345, 4156.92307672, 4196.41025628, 4129.48717921, 4134.23076896, 4147.43589723, 4101.28205094, 4173.84615371, 4135.51282031, 4130.64102537, 4198.97435884, 4182.94871781, 4147.82051262,12.0
4116.66666639, 4172.05128192, 4158.46153826, 4212.43589737, 4126.53846126, 4148.84615364, 4158.58974339, 4108.33333306, 4177.69230756, 4135.51282031, 4125.89743562, 4200.12820499, 4178.58974345, 4147.69230749,12.0
4123.07692280, 4163.07692287, 4147.69230749, 4190.64102551, 4136.53846133, 4148.97435877, 4160.76923056, 4107.82051255, 4174.10256397, 4135.51282031, 4119.87179460, 4182.30769217, 4173.20512807, 4147.56410236,12.0
4121.79487152, 4140.25641005, 4122.05128178, 4157.17948697, 4141.02564082, 4123.20512793, 4129.61538434, 4090.51282017, 4153.20512800, 4135.51282031, 4110.12820485, 4144.99999980, 4157.43589723, 4145.64102544,12.0
4121.92307665, 4146.28205108, 4125.25640998, 4177.17948704, 4131.02564075, 4119.35897408, 4123.07692280, 4086.41025607, 4155.89743569, 4135.51282031, 4111.02564075, 4147.05128185, 4155.12820492, 4145.38461518,12.0
4131.15384588, 4168.46153833, 4146.02564082, 4200.38461525, 4126.79487152, 4136.02564082, 4146.92307672, 4102.43589709, 4175.51282038, 4135.51282031, 4120.12820485, 4179.35897422, 4169.87179474, 4146.15384595,12.0
4122.43589716, 4168.71794858, 4146.15384595, 4188.33333320, 4128.84615357, 4136.66666646, 4148.20512800, 4111.15384588, 4180.38461525, 4135.51282031, 4126.28205101, 4184.99999986, 4175.89743576, 4143.46153826,12.0
4129.23076896, 4164.74358954, 4138.97435877, 4184.99999986, 4135.51282031, 4132.94871767, 4139.10256390, 4103.20512793, 4177.05128192, 4135.51282031, 4126.15384588, 4175.76923063, 4174.10256397, 4143.58974339,12.0
4130.89743562, 4167.30769210, 4138.84615364, 4190.25641012, 4140.64102544, 4134.35897408, 4146.53846133, 4097.94871761, 4175.25641012, 4135.51282031, 4119.61538434, 4176.79487166, 4170.89743576, 4146.53846133,12.0
4128.07692280, 4172.05128192, 4150.12820492, 4189.10256397, 4133.46153819, 4141.53846133, 4161.53846133, 4109.23076896, 4187.17948704, 4135.51282031, 4122.30769203, 4190.12820499, 4176.02564089, 4145.38461518,12.0
4134.48717921, 4180.12820499, 4160.51282031, 4193.97435884, 4124.99999973, 4155.64102544, 4175.12820499, 4127.69230742, 4206.66666660, 4135.51282031, 4132.56410229, 4202.82051275, 4184.87179474, 4143.71794851,12.0
4128.46153819, 4185.89743576, 4155.64102544, 4202.05128199, 4128.20512793, 4159.61538441, 4173.97435884, 4135.38461518, 4209.61538455, 4135.51282031, 4130.25640998, 4200.38461525, 4180.51282038, 4144.87179467,12.0
4132.82051255, 4179.35897422, 4147.69230749, 4199.35897422, 4131.15384588, 4145.64102544, 4154.35897415, 4122.94871767, 4194.74358961, 4135.51282031, 4116.66666639, 4183.84615371, 4164.35897415, 4145.64102544,12.0
4129.35897408, 4165.25641005, 4140.12820492, 4183.33333320, 4130.12820485, 4139.23076903, 4151.66666646, 4107.05128178, 4179.61538448, 4135.51282031, 4107.56410229, 4168.97435884, 4155.38461518, 4144.35897415,12.0
4123.71794844, 4160.51282031, 4133.71794844, 4174.23076910, 4129.48717921, 4147.17948697, 4158.20512800, 4096.15384581, 4166.02564082, 4135.51282031, 4102.56410229, 4165.25641005, 4153.71794851, 4144.99999980,12.0
4129.23076896, 4163.84615364, 4134.74358947, 4178.46153833, 4126.41025614, 4143.07692287, 4141.41025621, 4088.46153812, 4158.46153826, 4135.51282031, 4099.23076889, 4165.38461518, 4151.79487159, 4144.87179467,12.0
4119.23076896, 4166.66666646, 4143.71794851, 4182.94871781, 4126.79487152, 4128.71794844, 4129.87179460, 4097.17948684, 4170.89743576, 4135.51282031, 4103.71794844, 4175.25641012, 4156.79487159, 4143.71794851,12.0
4123.97435870, 4172.69230756, 4160.25641005, 4189.35897422, 4128.84615357, 4132.69230742, 4143.46153826, 4115.51282024, 4188.71794858, 4135.51282031, 4112.56410229, 4197.30769217, 4168.58974345, 4146.79487159,12.0
4128.84615357, 4184.35897422, 4177.30769217, 4202.69230763, 4128.97435870, 4150.51282031, 4160.51282031, 4128.71794844, 4203.33333327, 4135.51282031, 4121.92307665, 4220.38461532, 4183.97435884, 4146.28205108,12.0
4123.46153819, 4173.58974345, 4173.58974345, 4194.23076910, 4130.25640998, 4142.69230749, 4153.84615364, 4126.15384588, 4203.71794865, 4135.51282031, 4125.64102537, 4220.76923070, 4186.28205115, 4142.17948697,12.0
4129.35897408, 4148.97435877, 4158.33333313, 4167.69230749, 4134.35897408, 4125.64102537, 4145.12820492, 4119.48717921, 4196.66666653, 4135.51282031, 4124.35897408, 4202.56410250, 4176.02564089, 4142.30769210,12.0
4125.51282024, 4147.56410236, 4154.23076903, 4164.61538441, 4134.10256383, 4137.94871774, 4160.76923056, 4128.71794844, 4206.02564096, 4135.51282031, 4124.10256383, 4190.51282038, 4175.25641012, 4145.89743569,12.0
4130.51282024, 4144.87179467, 4142.56410236, 4170.12820499, 4129.61538434, 4148.07692287, 4164.61538441, 4123.71794844, 4203.20512814, 4135.51282031, 4114.10256383, 4169.74358961, 4168.46153833, 4147.82051262,12.0
4132.17948691, 4120.89743562, 4123.84615357, 4150.12820492, 4130.38461511, 4137.43589723, 4152.05128185, 4107.05128178, 4185.89743576, 4135.51282031, 4106.92307665, 4149.35897415, 4155.25641005, 4145.76923056,12.0
4125.38461511, 4111.02564075, 4119.87179460, 4128.58974332, 4132.43589716, 4126.92307665, 4148.97435877, 4106.66666639, 4181.02564089, 4135.51282031, 4106.92307665, 4145.76923056, 4152.43589723, 4145.12820492,12.0
4131.41025614, 4132.17948691, 4128.33333306, 4142.43589723, 4128.20512793, 4131.15384588, 4153.33333313, 4107.17948691, 4181.92307679, 4135.51282031, 4099.23076889, 4152.94871774, 4153.71794851, 4144.74358954,12.0
4125.64102537, 4153.20512800, 4141.15384595, 4168.84615371, 4125.89743562, 4147.43589723, 4155.25641005, 4106.15384588, 4183.84615371, 4135.51282031, 4100.12820478, 4170.51282038, 4158.84615364, 4146.28205108,12.0
4126.79487152, 4153.58974339, 4153.84615364, 4171.53846140, 4130.25640998, 4153.71794851, 4154.48717928, 4114.87179460, 4190.89743576, 4135.51282031, 4109.87179460, 4186.15384602, 4168.58974345, 4150.38461518,12.0
4128.46153819, 4157.43589723, 4161.79487159, 4172.94871781, 4129.74358947, 4147.05128185, 4157.69230749, 4126.02564075, 4199.23076910, 4135.51282031, 4113.20512793, 4190.64102551, 4172.82051269, 4147.05128185,12.0
4119.61538434, 4168.20512807, 4167.17948697, 4181.79487166, 4126.53846126, 4148.84615364, 4165.64102544, 4138.33333313, 4211.15384609, 4135.51282031, 4118.71794844, 4199.35897422, 4173.20512807, 4143.07692287,12.0
4125.51282024, 4164.74358954, 4168.71794858, 4179.99999986, 4129.35897408, 4152.05128185, 4162.82051262, 4138.58974339, 4214.35897429, 4135.51282031, 4124.61538434, 4207.56410250, 4174.99999986, 4144.23076903,12.0
4125.12820485, 4153.97435877, 4163.20512800, 4173.20512807, 4132.30769203, 4138.97435877, 4143.20512800, 4121.79487152, 4203.20512814, 4135.51282031, 4120.64102537, 4199.23076910, 4170.12820499, 4146.79487159,12.0
4128.07692280, 4158.33333313, 4167.43589723, 4176.02564089, 4128.97435870, 4130.38461511, 4136.02564082, 4117.05128178, 4203.84615378, 4135.51282031, 4122.30769203, 4200.25641012, 4168.33333320, 4147.56410236,12.0
4129.48717921, 4166.92307672, 4177.82051269, 4185.38461525, 4126.92307665, 4135.51282031, 4142.30769210, 4116.79487152, 4204.87179481, 4135.51282031, 4127.17948691, 4212.17948711, 4173.46153833, 4145.51282031,12.0
4120.64102537, 4163.84615364, 4175.12820499, 4188.97435884, 4130.51282024, 4134.23076896, 4137.56410236, 4103.97435870, 4185.89743576, 4135.51282031, 4116.02564075, 4206.41025634, 4167.82051262, 4146.28205108,12.0
4133.07692280, 4159.48717928, 4167.94871774, 4175.76923063, 4131.02564075, 4127.82051255, 4131.66666639, 4098.46153812, 4180.12820499, 4135.51282031, 4107.05128178, 4197.82051269, 4157.56410236, 4146.53846133,12.0
4135.76923056, 4161.41025621, 4173.20512807, 4167.94871774, 4128.84615357, 4126.15384588, 4130.38461511, 4100.38461504, 4187.17948704, 4135.51282031, 4111.79487152, 4205.25641019, 4155.12820492, 4145.89743569,12.0
4129.23076896, 4165.12820492, 4183.07692294, 4183.07692294, 4128.58974332, 4127.82051255, 4128.33333306, 4091.41025607, 4174.99999986, 4135.51282031, 4109.23076896, 4208.97435891, 4155.89743569, 4147.94871774,12.0
4129.23076896, 4163.20512800, 4179.87179474, 4187.30769217, 4127.43589716, 4128.58974332, 4130.51282024, 4088.07692273, 4168.58974345, 4135.51282031, 4099.74358940, 4202.82051275, 4150.51282031, 4145.64102544,12.0
4122.82051255, 4166.28205108, 4174.48717935, 4180.51282038, 4127.30769203, 4128.20512793, 4139.23076903, 4102.43589709, 4180.12820499, 4135.64102544, 4099.99999966, 4202.30769224, 4143.20512800, 4145.51282031,12.0
4129.74358947, 4178.71794858, 4176.41025628, 4189.61538448, 4133.20512793, 4133.46153819, 4139.61538441, 4104.99999973, 4175.12820499, 4135.76923056, 4101.53846119, 4199.99999986, 4142.30769210, 4147.56410236,12.0
4123.58974332, 4167.56410236, 4166.92307672, 4180.51282038, 4136.28205108, 4126.92307665, 4124.61538434, 4088.97435863, 4157.30769210, 4134.87179460, 4088.71794837, 4179.87179474, 4134.74358947, 4146.15384595,12.0
4116.66666639, 4152.05128185, 4159.35897415, 4161.66666646, 4129.74358947, 4119.23076896, 4123.97435870, 4085.64102530, 4154.35897415, 4136.15384595, 4081.66666632, 4168.46153833, 4127.30769203, 4147.69230749,12.0
4130.38461511, 4154.23076903, 4164.10256390, 4153.84615364, 4126.28205101, 4125.89743562, 4132.56410229, 4093.84615350, 4156.79487159, 4136.02564082, 4084.61538427, 4175.25641012, 4129.48717921, 4147.69230749,12.0
4120.51282024, 4140.51282031, 4157.30769210, 4132.82051255, 4129.35897408, 4114.87179460, 4113.07692280, 4088.46153812, 4143.97435877, 4132.17948691, 4075.64102530, 4164.23076903, 4123.97435870, 4145.51282031,12.0
4118.20512793, 4128.97435870, 4152.82051262, 4119.87179460, 4129.87179460, 4099.61538427, 4094.35897402, 4077.94871761, 4137.69230749, 4131.28205101, 4072.69230735, 4155.51282031, 4119.23076896, 4145.89743569,12.0
4124.35897408, 4154.87179467, 4168.33333320, 4140.76923056, 4130.12820485, 4109.74358947, 4111.15384588, 4083.07692273, 4149.99999980, 4134.87179460, 4085.76923043, 4177.30769217, 4133.46153819, 4144.74358954,12.0
4119.48717921, 4182.05128192, 4184.74358961, 4158.84615364, 4130.38461511, 4121.92307665, 4122.17948691, 4093.97435863, 4158.07692287, 4135.25640998, 4092.05128171, 4197.17948704, 4144.74358954, 4144.10256390,12.0
4126.28205101, 4180.38461525, 4185.51282038, 4153.71794851, 4128.58974332, 4116.15384588, 4105.25640998, 4091.28205094, 4155.64102544, 4132.94871767, 4090.76923043, 4193.84615371, 4139.10256390, 4145.25641005,12.0
4124.10256383, 4179.61538448, 4177.69230756, 4152.05128185, 4126.53846126, 4113.46153819, 4099.99999966, 4087.43589709, 4154.99999980, 4133.07692280, 4091.79487145, 4184.35897422, 4139.35897415, 4145.25641005,12.0
4126.66666639, 4182.94871781, 4170.38461525, 4150.89743569, 4131.92307665, 4120.76923050, 4108.20512793, 4087.82051248, 4149.10256390, 4134.10256383, 4086.92307658, 4177.56410243, 4140.89743569, 4144.87179467,12.0
4128.71794844, 4169.35897422, 4161.28205108, 4136.15384595, 4137.56410236, 4115.38461511, 4103.71794844, 4080.51282017, 4131.66666639, 4134.23076896, 4076.92307658, 4165.51282031, 4130.38461511, 4145.76923056,12.0
4120.25640998, 4161.66666646, 4157.56410236, 4129.74358947, 4132.17948691, 4107.94871767, 4101.02564068, 4071.79487145, 4123.84615357, 4134.35897408, 4077.05128171, 4159.10256390, 4127.56410229, 4146.15384595,12.0
4132.05128178, 4166.66666646, 4158.71794851, 4132.69230742, 4132.56410229, 4112.43589716, 4103.71794844, 4069.74358940, 4131.15384588, 4134.10256383, 4079.35897402, 4160.64102544, 4133.33333306, 4146.28205108,12.0
4129.87179460, 4168.71794858, 4157.56410236, 4134.10256383, 4134.35897408, 4121.92307665, 4107.56410229, 4079.87179453, 4137.82051262, 4134.61538434, 4077.69230735, 4166.66666646, 4137.17948697, 4147.17948697,12.0
4124.48717921, 4172.94871781, 4161.02564082, 4138.97435877, 4126.66666639, 4129.99999973, 4120.64102537, 4090.12820478, 4139.10256390, 4134.48717921, 4076.92307658, 4172.94871781, 4136.41025621, 4147.05128185,12.0
4127.43589716, 4175.38461525, 4163.33333313, 4142.30769210, 4124.23076896, 4129.48717921, 4127.56410229, 4092.17948684, 4137.69230749, 4134.74358947, 4075.25640991, 4168.71794858, 4131.53846126, 4144.48717928,12.0
4116.53846126, 4174.61538448, 4159.48717928, 4138.97435877, 4132.17948691, 4123.71794844, 4120.76923050, 4094.48717914, 4138.58974339, 4136.53846133, 4074.48717914, 4167.43589723, 4130.12820485, 4143.33333313,12.0
4122.30769203, 4176.79487166, 4163.84615364, 4137.05128185, 4139.23076903, 4122.17948691, 4120.38461511, 4093.97435863, 4144.10256390, 4134.74358947, 4073.71794837, 4178.33333320, 4132.56410229, 4145.38461518,12.0
4123.07692280, 4183.33333320, 4175.51282038, 4139.10256390, 4132.43589716, 4126.28205101, 4127.05128178, 4099.99999966, 4155.25641005, 4131.02564075, 4080.25640991, 4194.74358961, 4143.20512800, 4147.17948697,12.0
4123.07692280, 4183.33333320, 4175.51282038, 4139.10256390, 4132.43589716, 4126.28205101, 4127.05128178, 4099.99999966, 4155.25641005, 4131.02564075, 4080.25640991, 4194.74358961, 4143.20512800, 4147.17948697,12.0
4119.61538434, 4186.92307679, 4178.33333320, 4142.17948697, 4125.25640998, 4126.15384588, 4119.35897408, 4108.20512793, 4159.99999980, 4132.30769203, 4087.43589709, 4200.76923063, 4152.30769210, 4147.82051262,12.0
4126.15384588, 4186.92307679, 4172.17948704, 4144.99999980, 4131.53846126, 4125.51282024, 4107.69230742, 4099.74358940, 4150.89743569, 4135.38461518, 4080.38461504, 4193.07692294, 4146.28205108, 4146.02564082,12.0
4121.15384588, 4183.58974345, 4162.05128185, 4140.38461518, 4135.25640998, 4128.46153819, 4106.53846126, 4089.10256376, 4141.41025621, 4134.99999973, 4072.17948684, 4182.17948704, 4135.12820485, 4144.74358954,12.0
4128.07692280, 4180.76923063, 4157.17948697, 4136.28205108, 4128.07692280, 4127.94871767, 4106.02564075, 4087.43589709, 4141.02564082, 4133.97435870, 4076.15384581, 4174.61538448, 4132.94871767, 4145.89743569,12.0
4128.33333306, 4180.38461525, 4155.51282031, 4141.53846133, 4123.71794844, 4118.46153819, 4097.17948684, 4079.99999966, 4135.12820485, 4134.10256383, 4076.41025607, 4169.23076910, 4131.28205101, 4146.66666646,12.0
4125.51282024, 4173.46153833, 4150.89743569, 4134.23076896, 4130.12820485, 4106.92307665, 4088.58974325, 4066.41025600, 4121.28205101, 4133.07692280, 4067.17948677, 4162.43589723, 4123.46153819, 4147.82051262,12.0
4133.33333306, 4177.05128192, 4155.51282031, 4134.35897408, 4138.97435877, 4112.82051255, 4096.79487145, 4069.87179453, 4120.64102537, 4133.07692280, 4067.43589702, 4171.15384602, 4123.07692280, 4146.28205108,12.0
4127.82051255, 4186.92307679, 4157.94871774, 4147.69230749, 4137.17948697, 4121.66666639, 4106.79487152, 4079.61538427, 4127.05128178, 4133.84615357, 4067.43589702, 4179.35897422, 4123.58974332, 4144.23076903,12.0
4131.66666639, 4184.35897422, 4156.15384595, 4142.05128185, 4127.94871767, 4123.07692280, 4111.02564075, 4081.66666632, 4132.82051255, 4132.94871767, 4064.74358933, 4177.69230756, 4125.76923050, 4146.15384595,12.0
4127.05128178, 4186.15384602, 4171.02564089, 4134.48717921, 4129.35897408, 4128.33333306, 4125.25640998, 4100.12820478, 4153.58974339, 4132.69230742, 4081.15384581, 4195.76923063, 4142.30769210, 4145.76923056,12.0
4119.48717921, 4188.33333320, 4180.64102551, 4139.35897415, 4132.05128178, 4128.71794844, 4130.51282024, 4118.20512793, 4166.41025621, 4135.64102544, 4092.17948684, 4207.43589737, 4149.61538441, 4144.87179467,12.0
4128.97435870, 4184.35897422, 4167.56410236, 4143.84615364, 4124.23076896, 4124.87179460, 4116.28205101, 4106.15384588, 4154.61538441, 4134.48717921, 4076.66666632, 4189.61538448, 4139.99999980, 4147.94871774,12.0
4120.64102537, 4188.20512807, 4162.82051262, 4148.20512800, 4123.97435870, 4131.66666639, 4117.94871767, 4103.46153819, 4157.17948697, 4132.69230742, 4072.69230735, 4183.84615371, 4138.20512800, 4148.07692287,12.0
4117.69230742, 4195.64102551, 4171.79487166, 4151.02564082, 4133.58974332, 4138.46153826, 4134.35897408, 4122.43589716, 4172.05128192, 4133.46153819, 4087.82051248, 4194.61538448, 4143.33333313, 4143.46153826,12.0
4121.79487152, 4197.17948704, 4168.20512807, 4149.61538441, 4135.64102544, 4130.25640998, 4126.53846126, 4118.33333306, 4164.61538441, 4132.94871767, 4084.35897402, 4188.58974345, 4141.02564082, 4142.30769210,12.0
4120.38461511, 4198.84615371, 4159.74358954, 4150.12820492, 4132.56410229, 4114.61538434, 4102.05128171, 4092.43589709, 4144.35897415, 4133.71794844, 4071.28205094, 4178.46153833, 4138.20512800, 4146.66666646,12.0
4127.05128178, 4194.61538448, 4157.17948697, 4144.48717928, 4134.74358947, 4108.20512793, 4095.38461504, 4081.79487145, 4133.07692280, 4133.58974332, 4071.53846119, 4177.69230756, 4134.61538434, 4146.28205108,12.0
4123.33333306, 4190.64102551, 4158.84615364, 4140.25641005, 4134.61538434, 4119.74358947, 4115.64102537, 4094.23076889, 4141.79487159, 4131.92307665, 4080.38461504, 4180.64102551, 4137.30769210, 4144.48717928,12.0
4127.43589716, 4203.97435891, 4171.41025628, 4151.02564082, 4133.07692280, 4132.05128178, 4133.20512793, 4108.58974332, 4159.61538441, 4129.99999973, 4085.25640991, 4193.07692294, 4149.48717928, 4147.69230749,12.0
4129.10256383, 4204.48717942, 4171.53846140, 4148.20512800, 4136.41025621, 4123.58974332, 4124.61538434, 4104.99999973, 4153.20512800, 4122.82051255, 4078.33333299, 4191.92307679, 4145.38461518, 4147.56410236,12.0
4120.12820485, 4184.61538448, 4154.61538441, 4126.92307665, 4136.66666646, 4114.10256383, 4116.79487152, 4101.28205094, 4140.76923056, 4123.58974332, 4069.87179453, 4172.17948704, 4131.41025614, 4145.51282031,12.0
4127.94871767, 4182.30769217, 4156.28205108, 4119.74358947, 4128.33333306, 4121.15384588, 4130.12820485, 4115.76923050, 4158.20512800, 4133.84615357, 4073.20512786, 4172.43589730, 4140.64102544, 4146.28205108,12.0
4122.43589716, 4199.99999986, 4172.30769217, 4133.46153819, 4126.53846126, 4128.84615357, 4142.94871774, 4127.69230742, 4172.69230756, 4134.99999973, 4081.79487145, 4194.99999986, 4156.79487159, 4147.56410236,12.0
4121.66666639, 4207.94871788, 4178.20512807, 4143.71794851, 4128.58974332, 4132.94871767, 4139.99999980, 4117.94871767, 4159.61538441, 4130.51282024, 4081.53846119, 4205.64102558, 4153.97435877, 4148.07692287,12.0
4131.53846126, 4192.94871781, 4170.25641012, 4129.48717921, 4125.12820485, 4135.76923056, 4135.51282031, 4109.10256383, 4151.53846133, 4133.46153819, 4077.94871761, 4192.43589730, 4149.99999980, 4146.41025621,12.0
4121.15384588, 4177.30769217, 4161.28205108, 4112.30769203, 4126.66666639, 4131.79487152, 4138.84615364, 4117.05128178, 4158.46153826, 4134.23076896, 4077.56410222, 4179.87179474, 4151.02564082, 4145.38461518,12.0
4120.89743562, 4187.05128192, 4168.84615371, 4125.76923050, 4128.33333306, 4133.71794844, 4139.61538441, 4122.43589716, 4169.87179474, 4132.82051255, 4084.87179453, 4193.46153833, 4153.20512800, 4145.12820492,12.0
4120.12820485, 4199.48717935, 4177.94871781, 4135.76923056, 4127.05128178, 4134.48717921, 4129.35897408, 4114.74358947, 4170.38461525, 4136.02564082, 4089.74358940, 4206.28205122, 4155.38461518, 4144.74358954,12.0
4119.35897408, 4186.02564089, 4168.46153833, 4115.89743562, 4127.43589716, 4118.71794844, 4115.38461511, 4105.64102537, 4150.89743569, 4135.12820485, 4081.15384581, 4189.74358961, 4145.51282031, 4146.53846133,12.0
4126.41025614, 4181.92307679, 4167.82051262, 4116.15384588, 4129.48717921, 4114.10256383, 4119.87179460, 4106.66666639, 4143.58974339, 4134.48717921, 4081.53846119, 4186.79487166, 4140.64102544, 4145.89743569,12.0
4118.71794844, 4197.94871781, 4183.71794858, 4135.25640998, 4130.51282024, 4127.05128178, 4133.46153819, 4114.35897408, 4158.46153826, 4136.53846133, 4090.76923043, 4208.84615378, 4155.89743569, 4143.97435877,12.0
4121.66666639, 4188.71794858, 4179.61538448, 4120.89743562, 4129.87179460, 4122.56410229, 4125.25640998, 4108.20512793, 4153.20512800, 4135.25640998, 4084.74358940, 4199.48717935, 4156.92307672, 4145.38461518,12.0
4122.94871767, 4171.41025628, 4164.87179467, 4103.71794844, 4131.02564075, 4112.05128178, 4113.33333306, 4096.66666632, 4136.79487159, 4134.99999973, 4074.87179453, 4178.33333320, 4140.51282031, 4146.02564082,12.0
4121.53846126, 4175.38461525, 4166.28205108, 4113.58974332, 4128.20512793, 4113.46153819, 4109.23076896, 4091.53846119, 4133.07692280, 4134.48717921, 4077.43589709, 4181.53846140, 4138.33333313, 4144.23076903,12.0
4129.10256383, 4172.56410243, 4162.30769210, 4110.51282024, 4126.53846126, 4099.35897402, 4089.87179453, 4076.53846119, 4122.56410229, 4134.35897408, 4073.97435863, 4173.33333320, 4136.53846133, 4144.10256390,12.0
4123.46153819, 4155.76923056, 4146.02564082, 4090.51282017, 4129.99999973, 4078.58974325, 4070.89743555, 4063.71794830, 4107.56410229, 4134.87179460, 4060.64102523, 4150.25641005, 4122.82051255, 4144.74358954,12.0
4128.58974332, 4151.28205108, 4139.10256390, 4089.48717914, 4129.61538434, 4081.79487145, 4079.48717914, 4065.25640984, 4105.64102537, 4134.35897408, 4056.28205087, 4142.43589723, 4118.20512793, 4144.35897415,12.0
4127.56410229, 4153.58974339, 4134.48717921, 4095.51282017, 4126.41025614, 4086.92307658, 4085.76923043, 4064.61538420, 4105.12820485, 4133.97435870, 4054.35897395, 4136.15384595, 4119.35897408, 4145.38461518,12.0
4119.23076896, 4159.61538441, 4138.84615364, 4102.56410229, 4128.33333306, 4083.20512786, 4074.74358940, 4062.43589702, 4105.64102537, 4135.38461518, 4055.64102523, 4139.74358954, 4120.89743562, 4147.30769210,12.0
4130.76923050, 4171.66666653, 4151.02564082, 4115.12820485, 4128.84615357, 4085.38461504, 4073.97435863, 4062.17948677, 4107.69230742, 4134.23076896, 4056.79487138, 4156.53846133, 4122.56410229, 4147.17948697,12.0
4121.53846126, 4165.76923056, 4142.69230749, 4106.02564075, 4124.48717921, 4080.12820478, 4077.05128171, 4060.64102523, 4098.20512786, 4130.12820485, 4048.84615343, 4146.41025621, 4116.15384588, 4145.76923056,12.0
4116.66666639, 4156.41025621, 4136.53846133, 4094.10256376, 4126.66666639, 4072.30769196, 4070.25640991, 4063.07692266, 4095.25640991, 4130.38461511, 4050.25640984, 4133.33333306, 4113.71794844, 4144.48717928,12.0
4122.30769203, 4163.33333313, 4146.92307672, 4102.82051255, 4128.07692280, 4074.74358940, 4065.64102523, 4069.61538420, 4111.41025614, 4135.25640998, 4059.35897395, 4148.07692287, 4124.74358947, 4142.94871774,12.0
4116.66666639, 4164.74358954, 4145.64102544, 4103.46153819, 4127.82051255, 4074.10256376, 4067.69230728, 4069.48717907, 4113.20512793, 4136.28205108, 4053.71794830, 4147.82051262, 4124.74358947, 4144.35897415,12.0
4124.61538434, 4164.61538441, 4144.23076903, 4102.17948684, 4137.69230749, 4068.46153805, 4071.02564068, 4065.38461497, 4102.05128171, 4129.87179460, 4047.56410215, 4136.66666646, 4116.41025614, 4146.79487159,12.0
4121.02564075, 4175.64102551, 4159.23076903, 4114.74358947, 4139.35897415, 4066.53846113, 4073.84615350, 4075.51282017, 4116.92307665, 4129.74358947, 4063.33333292, 4158.20512800, 4128.58974332, 4146.53846133,12.0
4118.58974332, 4186.15384602, 4166.79487159, 4121.41025614, 4130.38461511, 4069.61538420, 4079.74358940, 4084.35897402, 4135.12820485, 4137.43589723, 4075.12820478, 4178.58974345, 4142.56410236, 4146.15384595,12.0
4126.79487152, 4180.25641012, 4153.46153826, 4116.53846126, 4130.76923050, 4072.56410222, 4077.43589709, 4065.76923036, 4111.66666639, 4131.79487152, 4059.35897395, 4152.94871774, 4129.23076896, 4144.99999980,12.0
4122.43589716, 4169.35897422, 4142.69230749, 4111.79487152, 4132.69230742, 4071.66666632, 4065.25640984, 4050.12820472, 4089.61538427, 4124.23076896, 4044.23076882, 4131.02564075, 4114.23076896, 4146.79487159,12.0
4126.66666639, 4178.33333320, 4153.46153826, 4118.97435870, 4131.28205101, 4076.02564068, 4071.41025607, 4064.74358933, 4107.94871767, 4131.15384588, 4055.89743548, 4158.33333313, 4128.58974332, 4149.74358954,12.0
4124.23076896, 4189.35897422, 4163.58974339, 4124.35897408, 4133.58974332, 4081.02564068, 4089.48717914, 4079.87179453, 4121.28205101, 4136.66666646, 4066.53846113, 4178.07692294, 4139.35897415, 4146.79487159,12.0
4123.58974332, 4179.99999986, 4153.71794851, 4115.64102537, 4132.17948691, 4076.41025607, 4084.48717914, 4073.71794837, 4104.48717921, 4134.10256383, 4052.05128164, 4152.43589723, 4124.48717921, 4145.51282031,12.0
4131.66666639, 4162.30769210, 4140.64102544, 4101.15384581, 4124.61538434, 4070.51282017, 4069.10256369, 4068.97435856, 4099.48717914, 4131.02564075, 4046.02564061, 4136.66666646, 4116.53846126, 4149.74358954,12.0
4121.92307665, 4156.41025621, 4141.41025621, 4094.87179453, 4124.99999973, 4079.87179453, 4079.10256376, 4078.46153812, 4118.20512793, 4130.89743562, 4056.02564061, 4148.07692287, 4122.30769203, 4149.61538441,12.0
4124.10256383, 4161.66666646, 4150.51282031, 4099.23076889, 4136.28205108, 4095.25640991, 4098.84615350, 4087.94871761, 4127.17948691, 4133.58974332, 4058.20512779, 4152.94871774, 4128.71794844, 4144.87179467,12.0
4124.10256383, 4167.17948697, 4157.30769210, 4103.84615357, 4139.10256390, 4088.97435863, 4097.43589709, 4092.82051248, 4125.38461511, 4133.58974332, 4062.69230728, 4157.56410236, 4136.15384595, 4144.74358954,12.0
4117.56410229, 4175.51282038, 4164.61538441, 4112.05128178, 4132.30769203, 4078.97435863, 4090.76923043, 4096.15384581, 4133.20512793, 4129.99999973, 4071.66666632, 4174.23076910, 4144.48717928, 4148.07692287,12.0
4124.23076896, 4173.97435884, 4165.51282031, 4117.17948691, 4132.56410229, 4089.74358940, 4097.05128171, 4099.87179453, 4140.76923056, 4132.43589716, 4067.17948677, 4176.79487166, 4140.38461518, 4146.15384595,12.0
4118.58974332, 4165.76923056, 4156.02564082, 4110.76923050, 4134.61538434, 4102.05128171, 4103.84615357, 4105.51282024, 4136.02564082, 4137.94871774, 4055.25640984, 4161.15384595, 4130.38461511, 4142.05128185,12.0
4122.69230742, 4169.48717935, 4157.69230749, 4106.41025614, 4135.89743569, 4097.69230735, 4098.97435863, 4101.66666632, 4130.51282024, 4136.53846133, 4058.58974318, 4162.17948697, 4134.74358947, 4143.84615364,12.0
4125.51282024, 4175.64102551, 4164.99999980, 4107.69230742, 4136.53846133, 4083.07692273, 4082.82051248, 4086.28205094, 4121.79487152, 4133.46153819, 4062.69230728, 4172.30769217, 4136.41025621, 4148.33333313,12.0
4119.74358947, 4175.38461525, 4162.30769210, 4109.74358947, 4134.10256383, 4084.10256376, 4081.41025607, 4080.12820478, 4108.46153819, 4130.38461511, 4052.82051241, 4166.02564082, 4125.25640998, 4149.48717928,12.0
4128.58974332, 4173.84615371, 4160.25641005, 4109.99999973, 4133.71794844, 4101.02564068, 4098.71794837, 4086.66666632, 4108.46153819, 4128.46153819, 4045.89743548, 4160.64102544, 4121.92307665, 4146.92307672,12.0
4126.02564075, 4166.15384595, 4159.61538441, 4103.84615357, 4135.51282031, 4097.30769196, 4097.56410222, 4088.33333299, 4113.20512793, 4129.99999973, 4044.87179446, 4159.35897415, 4122.69230742, 4145.64102544,12.0
4128.84615357, 4148.07692287, 4152.82051262, 4083.33333299, 4128.71794844, 4074.10256376, 4075.51282017, 4078.84615350, 4104.10256383, 4131.66666639, 4038.20512779, 4145.64102544, 4110.25640998, 4146.92307672,12.0
4130.25640998, 4135.12820485, 4142.30769210, 4066.53846113, 4122.69230742, 4073.84615350, 4074.87179453, 4072.43589709, 4091.02564068, 4133.58974332, 4029.48717900, 4130.64102537, 4101.41025607, 4147.82051262,12.0
4123.33333306, 4131.15384588, 4139.74358954, 4066.41025600, 4128.20512793, 4086.28205094, 4088.58974325, 4078.84615350, 4094.99999966, 4136.15384595, 4030.38461490, 4130.25640998, 4107.82051255, 4149.23076903,12.0
4130.12820485, 4131.41025614, 4145.25641005, 4068.46153805, 4128.33333306, 4080.12820478, 4078.84615350, 4084.61538427, 4105.89743562, 4134.99999973, 4032.69230721, 4134.35897408, 4108.33333306, 4148.20512800,12.0
4122.30769203, 4138.07692287, 4146.53846133, 4075.51282017, 4126.79487152, 4071.41025607, 4069.10256369, 4086.02564068, 4104.74358947, 4130.89743562, 4028.46153798, 4136.41025621, 4106.02564075, 4146.02564082,12.0
4119.87179460, 4139.10256390, 4141.41025621, 4075.51282017, 4128.84615357, 4071.53846119, 4076.28205094, 4081.66666632, 4096.66666632, 4130.38461511, 4028.46153798, 4133.58974332, 4107.82051255, 4146.28205108,12.0
4125.12820485, 4130.64102537, 4133.97435870, 4057.17948677, 4127.43589716, 4064.74358933, 4067.56410215, 4064.74358933, 4087.05128171, 4134.74358947, 4027.43589695, 4119.48717921, 4105.38461511, 4146.02564082,12.0
4117.30769203, 4133.97435870, 4134.35897408, 4054.74358933, 4127.30769203, 4062.43589702, 4052.56410215, 4056.66666625, 4083.20512786, 4136.28205108, 4026.28205080, 4117.69230742, 4104.74358947, 4146.66666646,12.0
4121.79487152, 4143.33333313, 4140.51282031, 4067.94871754, 4126.53846126, 4069.23076882, 4055.25640984, 4061.66666625, 4087.17948684, 4134.23076896, 4032.43589695, 4127.82051255, 4108.58974332, 4146.53846133,12.0
4118.20512793, 4134.48717921, 4137.94871774, 4058.71794830, 4128.46153819, 4065.25640984, 4058.58974318, 4060.64102523, 4088.07692273, 4134.23076896, 4035.51282003, 4119.87179460, 4109.35897408, 4144.74358954,12.0
4117.43589716, 4128.33333306, 4130.76923050, 4048.97435856, 4128.84615357, 4062.05128164, 4052.94871754, 4059.61538420, 4080.51282017, 4133.97435870, 4029.99999952, 4105.25640998, 4105.89743562, 4147.05128185,12.0
4127.30769203, 4142.94871774, 4132.05128178, 4063.33333292, 4126.15384588, 4073.46153812, 4060.51282010, 4067.82051241, 4079.23076889, 4134.74358947, 4029.35897388, 4110.64102537, 4104.74358947, 4146.66666646,12.0
4122.69230742, 4144.61538441, 4137.56410236, 4062.30769189, 4128.46153819, 4073.46153812, 4072.56410222, 4076.41025607, 4086.02564068, 4137.30769210, 4034.23076875, 4121.53846126, 4109.35897408, 4145.12820492,12.0
4125.51282024, 4129.87179460, 4138.58974339, 4049.48717907, 4131.66666639, 4061.53846113, 4064.23076882, 4074.99999966, 4087.17948684, 4133.58974332, 4032.82051234, 4119.48717921, 4116.28205101, 4147.17948697,12.0
4125.12820485, 4137.17948697, 4137.05128185, 4063.84615343, 4129.35897408, 4063.20512779, 4060.51282010, 4076.92307658, 4088.97435863, 4130.38461511, 4034.35897388, 4119.23076896, 4122.05128178, 4147.43589723,12.0
4124.61538434, 4146.92307672, 4128.46153819, 4071.66666632, 4126.15384588, 4066.66666625, 4062.56410215, 4073.33333299, 4081.15384581, 4134.99999973, 4035.76923029, 4113.84615357, 4114.10256383, 4146.15384595,12.0
4128.58974332, 4140.25641005, 4123.46153819, 4064.61538420, 4125.89743562, 4060.89743548, 4051.66666625, 4056.53846113, 4070.25640991, 4133.33333306, 4031.02564054, 4107.30769203, 4105.38461511, 4146.02564082,12.0
4118.20512793, 4149.61538441, 4137.17948697, 4079.99999966, 4126.66666639, 4066.66666625, 4057.17948677, 4064.35897395, 4082.82051248, 4127.17948691, 4036.28205080, 4126.79487152, 4121.02564075, 4146.79487159,12.0
4123.58974332, 4166.02564082, 4151.53846133, 4097.43589709, 4127.05128178, 4077.82051248, 4079.48717914, 4088.07692273, 4100.51282017, 4130.64102537, 4048.07692266, 4149.35897415, 4136.66666646, 4147.82051262,12.0
4121.02564075, 4158.20512800, 4146.15384595, 4087.56410222, 4124.99999973, 4075.38461504, 4074.74358940, 4086.92307658, 4096.92307658, 4133.97435870, 4046.53846113, 4143.58974339, 4127.69230742, 4146.66666646,12.0
4111.66666639, 4142.56410236, 4134.87179460, 4077.17948684, 4126.28205101, 4068.07692266, 4050.25640984, 4068.46153805, 4081.92307658, 4132.05128178, 4035.64102516, 4127.56410229, 4117.69230742, 4143.97435877,12.0
4122.43589716, 4143.97435877, 4134.74358947, 4085.12820478, 4132.56410229, 4073.84615350, 4052.94871754, 4062.69230728, 4076.66666632, 4131.66666639, 4033.33333285, 4127.17948691, 4119.87179460, 4144.74358954,12.0
4117.56410229, 4147.69230749, 4140.76923056, 4089.61538427, 4131.28205101, 4083.58974325, 4074.87179453, 4078.07692273, 4085.38461504, 4133.20512793, 4040.89743548, 4138.71794851, 4124.10256383, 4147.43589723,12.0
4116.53846126, 4140.25641005, 4143.07692287, 4077.82051248, 4125.89743562, 4082.69230735, 4083.58974325, 4090.25640991, 4094.99999966, 4135.38461518, 4047.94871754, 4144.23076903, 4126.15384588, 4146.28205108,12.0
4120.89743562, 4138.07692287, 4135.76923056, 4072.56410222, 4128.97435870, 4078.84615350, 4081.28205094, 4084.35897402, 4089.87179453, 4135.25640998, 4042.17948677, 4136.53846133, 4122.30769203, 4144.87179467,12.0
4116.15384588, 4147.56410236, 4132.94871767, 4088.20512786, 4126.92307665, 4082.05128171, 4078.07692273, 4080.51282017, 4084.23076889, 4130.25640998, 4033.58974311, 4135.12820485, 4123.20512793, 4145.89743569,12.0
4123.20512793, 4153.33333313, 4140.38461518, 4094.10256376, 4122.17948691, 4083.71794837, 4075.51282017, 4086.28205094, 4097.56410222, 4130.38461511, 4039.35897395, 4144.48717928, 4134.10256383, 4146.28205108,12.0
4122.82051255, 4147.69230749, 4138.58974339, 4081.15384581, 4127.43589716, 4077.69230735, 4074.10256376, 4090.25640991, 4106.15384588, 4137.56410236, 4046.15384574, 4144.61538441, 4135.76923056, 4144.10256390,12.0
4126.53846126, 4152.56410236, 4135.38461518, 4089.61538427, 4127.43589716, 4081.41025607, 4079.99999966, 4095.25640991, 4103.46153819, 4136.15384595, 4045.12820472, 4141.92307672, 4132.56410229, 4145.51282031,12.0
4129.87179460, 4156.15384595, 4134.99999973, 4101.41025607, 4124.35897408, 4083.33333299, 4077.94871761, 4098.58974325, 4103.84615357, 4129.87179460, 4044.74358933, 4141.02564082, 4136.41025621, 4148.20512800,12.0
4122.05128178, 4138.58974339, 4127.82051255, 4084.35897402, 4127.30769203, 4074.10256376, 4067.43589702, 4093.20512786, 4105.12820485, 4129.99999973, 4046.92307651, 4137.30769210, 4137.30769210, 4147.94871774,12.0
4127.82051255, 4133.97435870, 4127.05128178, 4075.38461504, 4131.02564075, 4077.82051248, 4071.15384581, 4087.05128171, 4101.15384581, 4134.35897408, 4050.76923036, 4141.41025621, 4137.05128185, 4147.05128185,12.0
4121.92307665, 4150.76923056, 4132.69230742, 4094.10256376, 4130.38461511, 4083.58974325, 4078.84615350, 4085.25640991, 4096.79487145, 4136.66666646, 4049.61538420, 4148.07692287, 4138.58974339, 4145.12820492,12.0
4118.33333306, 4162.56410236, 4138.71794851, 4109.23076896, 4126.79487152, 4083.71794837, 4081.28205094, 4091.53846119, 4100.76923043, 4134.48717921, 4046.15384574, 4152.82051262, 4135.76923056, 4144.61538441,12.0
4123.71794844, 4158.84615364, 4143.58974339, 4102.69230742, 4126.02564075, 4095.64102530, 4093.33333299, 4100.51282017, 4105.89743562, 4133.97435870, 4051.92307651, 4162.94871774, 4136.92307672, 4146.92307672,12.0
4114.87179460, 4146.66666646, 4138.20512800, 4088.07692273, 4128.58974332, 4099.10256376, 4099.10256376, 4096.02564068, 4098.58974325, 4135.51282031, 4054.74358933, 4161.41025621, 4139.87179467, 4146.53846133,12.0
4121.53846126, 4135.51282031, 4127.56410229, 4080.76923043, 4129.10256383, 4076.15384581, 4076.66666632, 4080.64102530, 4080.76923043, 4134.48717921, 4044.87179446, 4141.28205108, 4133.97435870, 4144.87179467,12.0
4120.76923050, 4137.94871774, 4128.33333306, 4081.92307658, 4126.79487152, 4065.38461497, 4060.64102523, 4079.48717914, 4079.23076889, 4134.99999973, 4041.53846113, 4137.05128185, 4131.66666639, 4146.02564082,12.0
4116.15384588, 4155.64102544, 4139.35897415, 4093.46153812, 4127.05128178, 4085.51282017, 4073.97435863, 4090.51282017, 4097.30769196, 4134.99999973, 4047.94871754, 4153.84615364, 4137.17948697, 4146.41025621,12.0
4122.69230742, 4164.10256390, 4141.53846133, 4105.76923050, 4131.28205101, 4093.84615350, 4078.58974325, 4091.66666632, 4102.82051255, 4131.15384588, 4046.41025600, 4157.05128185, 4136.79487159, 4145.12820492,12.0
4116.92307665, 4158.07692287, 4139.87179467, 4103.84615357, 4131.79487152, 4089.48717914, 4079.99999966, 4097.30769196, 4108.71794844, 4129.87179460, 4047.30769189, 4154.23076903, 4139.48717928, 4145.76923056,12.0
4123.71794844, 4163.33333313, 4152.17948697, 4106.28205101, 4128.84615357, 4106.92307665, 4106.28205101, 4117.05128178, 4132.56410229, 4134.35897408, 4064.87179446, 4174.35897422, 4154.99999980, 4146.02564082,12.0
4125.38461511, 4176.02564089, 4158.20512800, 4124.10256383, 4128.20512793, 4119.35897408, 4119.23076896, 4124.74358947, 4143.33333313, 4135.89743569, 4070.38461504, 4188.58974345, 4161.15384595, 4144.61538441,12.0
4121.53846126, 4164.99999980, 4147.94871774, 4116.79487152, 4128.20512793, 4105.51282024, 4101.02564068, 4117.43589716, 4129.74358947, 4133.97435870, 4059.87179446, 4172.43589730, 4153.33333313, 4145.51282031,12.0
4130.12820485, 4144.99999980, 4140.76923056, 4088.84615350, 4128.46153819, 4096.41025607, 4091.53846119, 4111.02564075, 4117.69230742, 4135.25640998, 4056.92307651, 4156.53846133, 4152.30769210, 4146.79487159,12.0
4121.41025614, 4150.64102544, 4139.48717928, 4093.20512786, 4129.35897408, 4096.92307658, 4097.05128171, 4112.69230742, 4115.89743562, 4136.02564082, 4056.28205087, 4155.76923056, 4149.48717928, 4146.66666646,12.0
4120.25640998, 4162.30769210, 4135.76923056, 4113.46153819, 4128.84615357, 4091.28205094, 4090.76923043, 4112.17948691, 4112.56410229, 4134.48717921, 4049.35897395, 4155.76923056, 4138.58974339, 4146.53846133,12.0
4121.92307665, 4158.71794851, 4139.10256390, 4112.56410229, 4124.99999973, 4089.87179453, 4087.69230735, 4115.12820485, 4115.12820485, 4134.10256383, 4053.97435856, 4164.10256390, 4143.33333313, 4145.89743569,12.0
4118.97435870, 4151.66666646, 4145.76923056, 4101.92307658, 4124.10256383, 4099.48717914, 4101.15384581, 4116.92307665, 4118.07692280, 4135.25640998, 4060.64102523, 4169.10256397, 4151.28205108, 4145.89743569,12.0
4126.53846126, 4140.89743569, 4133.97435870, 4090.12820478, 4126.02564075, 4102.17948684, 4106.92307665, 4106.28205101, 4109.35897408, 4134.87179460, 4050.51282010, 4153.46153826, 4140.51282031, 4146.41025621,12.0
4114.99999973, 4134.61538434, 4122.82051255, 4084.74358940, 4124.48717921, 4102.82051255, 4107.94871767, 4108.33333306, 4112.30769203, 4131.66666639, 4046.53846113, 4146.53846133, 4135.25640998, 4146.15384595,12.0
4114.35897408, 4137.94871774, 4127.69230742, 4089.87179453, 4125.12820485, 4107.17948691, 4112.82051255, 4121.53846126, 4125.64102537, 4130.12820485, 4052.30769189, 4151.02564082, 4142.43589723, 4145.76923056,12.0
4123.58974332, 4127.56410229, 4123.07692280, 4081.15384581, 4127.69230742, 4102.30769196, 4104.99999973, 4118.20512793, 4122.05128178, 4130.51282024, 4044.74358933, 4139.48717928, 4136.53846133, 4144.35897415,12.0
4114.74358947, 4116.66666639, 4116.02564075, 4069.10256369, 4127.69230742, 4097.05128171, 4091.02564068, 4108.33333306, 4112.94871767, 4129.99999973, 4037.05128164, 4133.46153819, 4126.92307665, 4144.48717928,12.0
4119.35897408, 4128.58974332, 4121.66666639, 4077.30769196, 4125.25640998, 4100.25640991, 4092.30769196, 4102.30769196, 4109.35897408, 4129.61538434, 4037.94871754, 4138.46153826, 4126.53846126, 4145.51282031,12.0
4120.64102537, 4137.94871774, 4125.25640998, 4084.61538427, 4125.25640998, 4095.51282017, 4093.20512786, 4097.43589709, 4101.02564068, 4130.89743562, 4039.35897395, 4136.79487159, 4127.30769203, 4143.58974339,12.0
4120.76923050, 4139.87179467, 4131.66666639, 4087.05128171, 4128.58974332, 4087.43589709, 4086.02564068, 4102.94871767, 4104.35897408, 4130.51282024, 4046.53846113, 4144.35897415, 4136.28205108, 4144.35897415,12.0
4125.89743562, 4149.10256390, 4142.43589723, 4095.89743555, 4128.20512793, 4093.33333299, 4098.33333299, 4116.53846126, 4121.79487152, 4128.97435870, 4054.87179446, 4162.30769210, 4147.82051262, 4148.97435877,12.0
4121.28205101, 4146.02564082, 4138.46153826, 4098.20512786, 4123.58974332, 4096.79487145, 4109.99999973, 4112.56410229, 4114.99999973, 4129.87179460, 4052.05128164, 4165.38461518, 4145.51282031, 4146.41025621,12.0
4126.92307665, 4139.10256390, 4138.33333313, 4098.20512786, 4123.07692280, 4095.64102530, 4104.48717921, 4106.02564075, 4105.76923050, 4129.35897408, 4054.61538420, 4168.20512807, 4144.48717928, 4142.69230749,12.0
4123.84615357, 4153.07692287, 4152.43589723, 4107.43589716, 4127.05128178, 4108.58974332, 4111.66666639, 4126.15384588, 4132.30769203, 4129.23076896, 4071.15384581, 4186.15384602, 4157.82051262, 4146.79487159,12.0
4122.43589716, 4165.64102544, 4152.69230749, 4118.07692280, 4127.69230742, 4122.69230742, 4123.71794844, 4137.30769210, 4144.48717928, 4132.56410229, 4072.94871761, 4187.94871781, 4160.89743569, 4149.99999980,12.0
4127.94871767, 4148.71794851, 4130.38461511, 4108.71794844, 4125.76923050, 4114.23076896, 4111.28205101, 4112.43589716, 4113.58974332, 4133.07692280, 4052.56410215, 4157.05128185, 4138.84615364, 4145.38461518,12.0
4116.41025614, 4124.87179460, 4111.79487152, 4086.41025607, 4126.02564075, 4097.56410222, 4090.76923043, 4097.05128171, 4091.79487145, 4129.48717921, 4038.07692266, 4127.69230742, 4117.56410229, 4144.35897415,12.0
4121.15384588, 4134.23076896, 4119.61538434, 4088.20512786, 4127.82051255, 4099.87179453, 4093.58974325, 4109.35897408, 4101.53846119, 4129.10256383, 4044.87179446, 4136.02564082, 4123.58974332, 4147.43589723,12.0
4122.94871767, 4151.53846133, 4132.05128178, 4102.05128171, 4127.30769203, 4108.20512793, 4105.89743562, 4118.33333306, 4110.64102537, 4130.51282024, 4053.46153805, 4156.28205108, 4137.56410236, 4146.41025621,12.0
4115.12820485, 4145.51282031, 4128.71794844, 4097.56410222, 4123.84615357, 4104.99999973, 4107.43589716, 4109.48717921, 4099.10256376, 4128.97435870, 4045.76923036, 4149.74358954, 4130.76923050, 4145.12820492,12.0
4119.87179460, 4142.17948697, 4127.82051255, 4095.12820478, 4123.97435870, 4101.41025607, 4106.66666639, 4103.07692280, 4087.69230735, 4128.97435870, 4041.79487138, 4140.64102544, 4123.07692280, 4145.25641005,12.0
4115.25640998, 4150.64102544, 4136.28205108, 4102.05128171, 4127.56410229, 4102.94871767, 4109.61538434, 4112.94871767, 4095.64102530, 4130.76923050, 4051.41025600, 4149.35897415, 4134.74358947, 4143.84615364,12.0
4121.66666639, 4153.97435877, 4141.92307672, 4102.94871767, 4129.10256383, 4104.35897408, 4114.74358947, 4121.92307665, 4109.48717921, 4130.12820485, 4057.56410215, 4157.94871774, 4144.35897415, 4144.10256390,12.0
4124.10256383, 4149.23076903, 4136.02564082, 4102.05128171, 4126.28205101, 4106.41025614, 4117.69230742, 4122.17948691, 4111.02564075, 4130.12820485, 4055.64102523, 4151.92307672, 4139.61538441, 4146.41025621,12.0
4119.10256383, 4143.97435877, 4129.61538434, 4100.64102530, 4121.79487152, 4108.33333306, 4118.71794844, 4123.97435870, 4109.35897408, 4130.64102537, 4054.61538420, 4147.82051262, 4136.92307672, 4146.41025621,12.0
4130.25640998, 4152.30769210, 4142.69230749, 4105.76923050, 4121.92307665, 4117.82051255, 4129.61538434, 4136.53846133, 4129.23076896, 4129.35897408, 4064.23076882, 4168.46153833, 4146.28205108, 4143.97435877,12.0
4122.05128178, 4165.51282031, 4157.05128185, 4116.66666639, 4122.82051255, 4127.05128178, 4141.15384595, 4156.41025621, 4152.69230749, 4130.76923050, 4072.56410222, 4188.07692294, 4158.07692287, 4143.97435877,12.0
4121.02564075, 4159.74358954, 4149.87179467, 4116.28205101, 4123.58974332, 4119.61538434, 4131.92307665, 4158.46153826, 4148.84615364, 4131.66666639, 4066.28205087, 4179.23076910, 4156.02564082, 4146.28205108,12.0
4129.61538434, 4154.48717928, 4140.25641005, 4114.23076896, 4124.35897408, 4111.15384588, 4119.99999973, 4143.84615364, 4137.17948697, 4125.64102537, 4058.20512779, 4167.17948697, 4144.87179467, 4145.12820492,12.0
4121.53846126, 4162.82051262, 4139.87179467, 4117.17948691, 4122.17948691, 4114.48717921, 4123.46153819, 4135.51282031, 4136.28205108, 4128.46153819, 4056.28205087, 4163.58974339, 4138.33333313, 4143.84615364,12.0
4122.30769203, 4158.33333313, 4137.17948697, 4112.17948691, 4123.71794844, 4120.76923050, 4128.33333306, 4137.05128185, 4138.07692287, 4131.79487152, 4054.61538420, 4155.12820492, 4136.79487159, 4147.17948697,12.0
4118.07692280, 4148.97435877, 4133.97435870, 4104.87179460, 4124.10256383, 4130.38461511, 4134.48717921, 4146.41025621, 4142.56410236, 4127.17948691, 4053.97435856, 4155.76923056, 4137.56410236, 4148.33333313,12.0
4119.99999973, 4157.94871774, 4141.53846133, 4109.61538434, 4120.64102537, 4140.38461518, 4142.94871774, 4149.87179467, 4145.76923056, 4128.46153819, 4060.25640984, 4169.48717935, 4140.89743569, 4146.53846133,12.0
4123.33333306, 4163.71794851, 4143.97435877, 4120.64102537, 4122.05128178, 4132.94871767, 4133.07692280, 4132.30769203, 4131.15384588, 4130.89743562, 4058.33333292, 4167.17948697, 4137.94871774, 4145.64102544,12.0
4112.30769203, 4148.20512800, 4132.30769203, 4114.87179460, 4126.53846126, 4118.97435870, 4117.82051255, 4123.46153819, 4118.71794844, 4128.97435870, 4043.46153805, 4145.64102544, 4126.15384588, 4146.66666646,12.0
4118.84615357, 4143.20512800, 4129.35897408, 4101.66666632, 4126.02564075, 4126.28205101, 4125.12820485, 4141.15384595, 4133.33333306, 4128.71794844, 4039.87179446, 4142.17948697, 4126.53846126, 4146.66666646,12.0
4119.10256383, 4156.79487159, 4140.25641005, 4106.15384588, 4123.33333306, 4133.71794844, 4136.28205108, 4150.51282031, 4146.79487159, 4133.46153819, 4055.64102523, 4161.79487159, 4144.74358954, 4143.20512800,12.0
4117.69230742, 4156.41025621, 4145.51282031, 4109.87179460, 4125.38461511, 4123.07692280, 4125.12820485, 4138.07692287, 4139.48717928, 4133.46153819, 4065.12820472, 4170.64102551, 4150.64102544, 4141.79487159,12.0
4126.02564075, 4139.74358954, 4141.28205108, 4093.97435863, 4126.41025614, 4110.51282024, 4107.56410229, 4132.30769203, 4134.10256383, 4125.51282024, 4057.82051241, 4165.12820492, 4144.87179467, 4144.35897415,12.0
4124.35897408, 4134.99999973, 4136.92307672, 4084.99999966, 4123.71794844, 4109.74358947, 4111.79487152, 4139.74358954, 4137.82051262, 4125.76923050, 4055.12820472, 4160.38461518, 4145.38461518, 4146.79487159,12.0
4130.38461511, 4144.99999980, 4138.33333313, 4095.25640991, 4122.30769203, 4119.23076896, 4128.84615357, 4141.28205108, 4134.74358947, 4131.53846126, 4059.99999959, 4161.28205108, 4148.33333313, 4146.15384595,12.0
4124.61538434, 4161.92307672, 4145.76923056, 4112.56410229, 4123.46153819, 4128.07692280, 4133.97435870, 4144.48717928, 4136.15384595, 4128.33333306, 4067.05128164, 4173.71794858, 4151.28205108, 4144.87179467,12.0
4120.64102537, 4170.38461525, 4153.46153826, 4115.51282024, 4123.58974332, 4128.58974332, 4130.51282024, 4153.71794851, 4147.17948697, 4126.15384588, 4073.20512786, 4187.05128192, 4158.33333313, 4147.30769210,12.0
4128.46153819, 4158.71794851, 4142.82051262, 4100.38461504, 4124.48717921, 4114.35897408, 4117.43589716, 4142.43589723, 4135.12820485, 4134.87179460, 4064.10256369, 4169.87179474, 4154.10256390, 4147.17948697,12.0
4118.71794844, 4165.38461518, 4133.20512793, 4110.76923050, 4126.79487152, 4109.61538434, 4106.02564075, 4127.94871767, 4117.82051255, 4135.64102544, 4057.43589702, 4154.74358954, 4144.61538441, 4145.38461518,12.0
4123.07692280, 4194.87179474, 4155.12820492, 4146.02564082, 4125.12820485, 4132.43589716, 4119.48717921, 4143.33333313, 4136.53846133, 4129.48717921, 4074.23076889, 4183.07692294, 4157.94871774, 4147.69230749,12.0
4123.46153819, 4195.76923063, 4166.53846133, 4144.74358954, 4123.71794844, 4138.46153826, 4126.92307665, 4154.23076903, 4144.99999980, 4132.30769203, 4079.61538427, 4198.07692294, 4166.41025621, 4146.66666646,12.0
4114.87179460, 4176.92307679, 4146.41025621, 4118.07692280, 4124.74358947, 4114.74358947, 4107.30769203, 4134.23076896, 4114.48717921, 4132.82051255, 4058.20512779, 4169.35897422, 4143.84615364, 4141.79487159,12.0
4121.41025614, 4169.99999986, 4135.25640998, 4113.97435870, 4125.64102537, 4101.66666632, 4091.15384581, 4115.25640998, 4092.30769196, 4125.25640998, 4044.74358933, 4148.46153826, 4122.94871767, 4142.30769210,12.0
4116.28205101, 4170.64102551, 4146.15384595, 4125.51282024, 4125.51282024, 4112.69230742, 4103.84615357, 4126.02564075, 4103.46153819, 4124.74358947, 4056.92307651, 4166.66666646, 4134.87179460, 4146.92307672,12.0
4118.33333306, 4172.05128192, 4158.97435877, 4125.89743562, 4124.99999973, 4123.20512793, 4121.41025614, 4141.02564082, 4121.92307665, 4132.43589716, 4080.12820478, 4189.74358961, 4161.15384595, 4146.92307672,12.0
4122.56410229, 4167.17948697, 4150.12820492, 4118.84615357, 4123.84615357, 4114.87179460, 4106.79487152, 4122.82051255, 4108.20512793, 4135.89743569, 4076.15384581, 4174.61538448, 4154.48717928, 4142.30769210,12.0
4116.92307665, 4155.25641005, 4134.99999973, 4118.07692280, 4121.79487152, 4105.64102537, 4089.10256376, 4104.74358947, 4086.02564068, 4132.05128178, 4055.89743548, 4154.10256390, 4136.66666646, 4143.71794851,12.0
4116.92307665, 4155.25641005, 4134.99999973, 4118.07692280, 4121.79487152, 4105.64102537, 4089.10256376, 4104.74358947, 4086.02564068, 4132.05128178, 4055.89743548, 4154.10256390, 4136.66666646, 4143.71794851,12.0
4124.87179460, 4152.56410236, 4143.58974339, 4118.07692280, 4122.82051255, 4113.46153819, 4106.28205101, 4124.99999973, 4110.51282024, 4130.89743562, 4068.58974318, 4171.53846140, 4153.46153826, 4146.41025621,12.0
4123.58974332, 4161.41025621, 4158.33333313, 4114.10256383, 4125.12820485, 4124.23076896, 4125.51282024, 4148.33333313, 4147.56410236, 4133.20512793, 4091.28205094, 4192.30769217, 4173.07692294, 4144.48717928,12.0
4124.10256383, 4170.89743576, 4148.46153826, 4123.07692280, 4123.33333306, 4113.97435870, 4103.07692280, 4131.41025614, 4129.87179460, 4130.25640998, 4077.30769196, 4175.64102551, 4154.61538441, 4143.84615364,12.0
4127.30769203, 4170.89743576, 4131.53846126, 4130.76923050, 4124.10256383, 4099.35897402, 4081.41025607, 4109.87179460, 4098.20512786, 4125.25640998, 4056.28205087, 4151.15384595, 4134.10256383, 4145.64102544,12.0
4119.48717921, 4162.17948697, 4132.56410229, 4122.43589716, 4128.58974332, 4105.25640998, 4098.20512786, 4123.97435870, 4105.64102537, 4126.79487152, 4057.30769189, 4150.89743569, 4138.20512800, 4146.79487159,12.0
4125.38461511, 4157.82051262, 4138.71794851, 4116.79487152, 4127.69230742, 4110.38461511, 4109.10256383, 4137.82051262, 4115.25640998, 4132.43589716, 4062.17948677, 4159.87179467, 4139.99999980, 4146.66666646,12.0
4120.25640998, 4168.07692287, 4143.84615364, 4126.15384588, 4123.84615357, 4106.15384588, 4105.25640998, 4135.76923056, 4111.79487152, 4134.10256383, 4066.28205087, 4171.41025628, 4139.99999980, 4145.64102544,12.0
4117.30769203, 4188.20512807, 4154.74358954, 4145.38461518, 4124.87179460, 4117.05128178, 4112.82051255, 4134.99999973, 4116.79487152, 4131.02564075, 4071.02564068, 4186.02564089, 4143.58974339, 4146.15384595,12.0
4124.10256383, 4187.17948704, 4154.74358954, 4145.25641005, 4126.02564075, 4130.76923050, 4126.79487152, 4137.94871774, 4124.23076896, 4127.05128178, 4067.43589702, 4184.61538448, 4142.82051262, 4146.28205108,12.0
4114.99999973, 4163.20512800, 4140.51282031, 4123.07692280, 4122.17948691, 4122.94871767, 4127.05128178, 4134.99999973, 4115.25640998, 4125.89743562, 4057.94871754, 4165.12820492, 4136.79487159, 4143.46153826,12.0
4119.48717921, 4149.74358954, 4134.35897408, 4116.02564075, 4121.28205101, 4112.82051255, 4114.87179460, 4121.41025614, 4099.10256376, 4130.64102537, 4056.02564061, 4152.56410236, 4131.66666639, 4142.94871774,12.0
4118.20512793, 4146.66666646, 4137.30769210, 4117.30769203, 4129.99999973, 4113.97435870, 4110.25640998, 4121.41025614, 4104.61538434, 4135.38461518, 4066.53846113, 4158.33333313, 4140.51282031, 4143.71794851,12.0
4115.51282024, 4149.35897415, 4146.02564082, 4117.69230742, 4131.79487152, 4117.43589716, 4119.35897408, 4143.71794851, 4126.41025614, 4132.94871767, 4075.76923043, 4177.17948704, 4154.74358954, 4143.33333313,12.0
4124.99999973, 4162.94871774, 4159.48717928, 4128.20512793, 4124.48717921, 4126.02564075, 4131.28205101, 4161.79487159, 4144.23076903, 4132.94871767, 4082.56410222, 4196.41025628, 4161.02564082, 4143.84615364,12.0
4118.33333306, 4168.07692287, 4160.38461518, 4133.07692280, 4126.02564075, 4128.71794844, 4125.25640998, 4157.05128185, 4144.61538441, 4136.66666646, 4085.89743555, 4195.25641012, 4160.51282031, 4146.28205108,12.0
4122.05128178, 4161.53846133, 4148.97435877, 4125.25640998, 4131.02564075, 4123.07692280, 4111.41025614, 4141.41025621, 4128.97435870, 4135.64102544, 4076.28205094, 4177.56410243, 4152.17948697, 4147.30769210,12.0
4122.82051255, 4155.64102544, 4138.58974339, 4122.56410229, 4126.53846126, 4117.30769203, 4110.38461511, 4133.20512793, 4114.61538434, 4130.64102537, 4060.38461497, 4164.35897415, 4138.71794851, 4144.35897415,12.0
4118.58974332, 4147.56410236, 4135.38461518, 4119.87179460, 4123.58974332, 4109.23076896, 4109.74358947, 4129.99999973, 4109.61538434, 4130.38461511, 4059.35897395, 4158.46153826, 4135.76923056, 4143.71794851,12.0
4126.28205101, 4149.61538441, 4136.28205108, 4121.53846126, 4125.51282024, 4104.99999973, 4103.58974332, 4120.25640998, 4104.74358947, 4133.58974332, 4064.10256369, 4154.61538441, 4140.25641005, 4146.41025621,12.0
4119.48717921, 4153.84615364, 4133.97435870, 4122.56410229, 4124.23076896, 4108.71794844, 4101.92307658, 4114.87179460, 4098.84615350, 4132.69230742, 4054.48717907, 4152.94871774, 4130.38461511, 4147.94871774,12.0
4121.41025614, 4142.82051262, 4133.33333306, 4106.79487152, 4123.07692280, 4113.33333306, 4107.43589716, 4126.66666639, 4104.10256383, 4130.38461511, 4053.58974318, 4156.41025621, 4126.66666639, 4146.02564082,12.0
4121.15384588, 4139.99999980, 4134.35897408, 4106.41025614, 4124.61538434, 4111.53846126, 4110.76923050, 4131.79487152, 4107.43589716, 4131.53846126, 4060.25640984, 4156.79487159, 4135.51282031, 4144.74358954,12.0
4114.35897408, 4148.97435877, 4136.41025621, 4118.07692280, 4125.89743562, 4109.61538434, 4111.28205101, 4126.92307665, 4104.74358947, 4133.58974332, 4056.92307651, 4154.23076903, 4136.66666646, 4147.05128185,12.0
4122.43589716, 4144.87179467, 4142.94871774, 4105.89743562, 4126.53846126, 4114.99999973, 4118.84615357, 4136.92307672, 4119.74358947, 4128.71794844, 4060.12820472, 4163.46153826, 4139.35897415, 4146.66666646,12.0
4116.02564075, 4146.79487159, 4150.64102544, 4109.35897408, 4126.28205101, 4123.58974332, 4134.74358947, 4160.64102544, 4145.89743569, 4123.46153819, 4072.56410222, 4179.74358961, 4152.17948697, 4144.23076903,12.0
4116.15384588, 4159.74358954, 4149.23076903, 4133.33333306, 4127.17948691, 4129.23076896, 4142.82051262, 4162.82051262, 4147.30769210, 4128.20512793, 4070.38461504, 4176.53846140, 4154.61538441, 4145.25641005,12.0
4119.99999973, 4150.12820492, 4140.51282031, 4115.64102537, 4129.35897408, 4128.97435870, 4134.48717921, 4149.74358954, 4135.38461518, 4135.25640998, 4066.79487138, 4164.10256390, 4147.94871774, 4145.38461518,12.0
