AF3,F7,F3,FC5,T7,P7,O1,O2,P8,T8,FC6,F4,F8,AF4,Label
4153.20512800, 4166.79487159, 4164.35897415, 4127.82051255, 4121.66666639, 4165.12820492, 4138.46153826, 4137.94871774, 4141.15384595, 4129.99999973, 5170.51282246, 4189.74358961, 4126.66666639, 4142.05128185,12.0
4142.56410236, 4158.07692287, 4161.41025621, 4114.99999973, 4122.30769203, 4161.15384595, 4139.61538441, 4138.33333313, 4141.66666646, 4127.69230742, 5172.69230964, 4186.79487166, 4122.05128178, 4142.30769210,12.0
4151.41025621, 4162.05128185, 4166.79487159, 4138.20512800, 4123.71794844, 4178.20512807, 4159.10256390, 4141.92307672, 4146.92307672, 4127.30769203, 5186.02564304, 4197.43589730, 4126.15384588, 4143.33333313,12.0
4151.02564082, 4165.64102544, 4163.07692287, 4151.92307672, 4121.92307665, 4185.12820499, 4163.97435877, 4131.66666639, 4135.76923056, 4126.41025614, 5186.15384817, 4191.53846140, 4126.92307665, 4143.07692287,12.0
4157.69230749, 4170.38461525, 4160.51282031, 4139.10256390, 4119.35897408, 4181.41025628, 4156.66666646, 4138.58974339, 4140.51282031, 4126.79487152, 5179.61538656, 4179.23076910, 4126.79487152, 4144.48717928,12.0
4157.05128185, 4167.05128185, 4160.89743569, 4127.43589716, 4119.35897408, 4172.17948704, 4153.33333313, 4166.28205108, 4164.74358954, 4127.94871767, 5182.56410451, 4179.35897422, 4124.99999973, 4146.66666646,12.0
4149.61538441, 4153.97435877, 4155.64102544, 4124.35897408, 4120.76923050, 4161.28205108, 4151.79487159, 4177.43589730, 4168.97435884, 4128.71794844, 5184.10256605, 4179.61538448, 4124.99999973, 4148.97435877,12.0
4160.76923056, 4156.15384595, 4163.46153826, 4138.20512800, 4122.94871767, 4176.92307679, 4164.23076903, 4183.71794858, 4173.84615371, 4131.02564075, 5187.30769433, 4191.28205115, 4130.12820485, 4147.17948697,12.0
4152.94871774, 4155.64102544, 4166.66666646, 4138.33333313, 4121.15384588, 4180.64102551, 4159.74358954, 4184.23076910, 4174.74358961, 4129.35897408, 5188.20513022, 4196.02564089, 4126.66666639, 4146.02564082,12.0
4152.05128185, 4148.97435877, 4162.82051262, 4121.15384588, 4120.12820485, 4160.12820492, 4138.07692287, 4170.76923063, 4163.84615364, 4127.30769203, 5185.12820708, 4189.48717935, 4127.05128178, 4150.51282031,12.0
4155.51282031, 4157.94871774, 4171.41025628, 4139.23076903, 4122.43589716, 4166.53846133, 4144.23076903, 4172.05128192, 4173.97435884, 4131.02564075, 5188.97436099, 4202.69230763, 4128.46153819, 4149.10256390,12.0
4144.48717928, 4164.99999980, 4173.20512807, 4154.48717928, 4122.05128178, 4177.17948704, 4153.20512800, 4166.28205108, 4175.12820499, 4131.15384588, 5186.79487381, 4204.74358968, 4122.05128178, 4146.53846133,12.0
4153.46153826, 4153.84615364, 4161.92307672, 4127.94871767, 4122.94871767, 4164.48717928, 4142.69230749, 4143.20512800, 4148.46153826, 4126.92307665, 5178.84615580, 4181.28205115, 4125.64102537, 4145.51282031,12.0
4150.38461518, 4139.99999980, 4153.33333313, 4108.20512793, 4121.92307665, 4159.99999980, 4144.99999980, 4143.33333313, 4138.33333313, 4127.17948691, 5176.02564298, 4173.46153833, 4125.51282024, 4142.69230749,12.0
4148.97435877, 4139.23076903, 4153.33333313, 4116.92307665, 4118.71794844, 4173.33333320, 4165.25641005, 4151.15384595, 4144.35897415, 4129.74358947, 5173.84615580, 4180.38461525, 4119.99999973, 4145.64102544,12.0
4158.97435877, 4146.41025621, 4153.97435877, 4123.46153819, 4118.97435870, 4179.87179474, 4172.43589730, 4145.25641005, 4136.41025621, 4128.71794844, 5172.05128400, 4175.89743576, 4122.56410229, 4146.15384595,12.0
4149.74358954, 4145.89743569, 4150.51282031, 4117.82051255, 4119.48717921, 4176.79487166, 4159.10256390, 4142.69230749, 4133.71794844, 4128.33333306, 5173.97436092, 4167.05128185, 4123.07692280, 4143.97435877,12.0
4155.12820492, 4132.94871767, 4144.99999980, 4107.56410229, 4120.89743562, 4165.76923056, 4139.35897415, 4135.25640998, 4135.76923056, 4130.51282024, 5173.33333528, 4158.33333313, 4124.10256383, 4146.02564082,12.0
4155.51282031, 4128.20512793, 4138.97435877, 4100.64102530, 4121.79487152, 4153.46153826, 4132.05128178, 4128.46153819, 4132.69230742, 4129.23076896, 5170.00000195, 4151.92307672, 4124.23076896, 4145.25641005,12.0
4151.92307672, 4141.41025621, 4149.35897415, 4115.25640998, 4120.51282024, 4155.76923056, 4135.25640998, 4147.69230749, 4143.07692287, 4127.94871767, 5175.76923272, 4167.69230749, 4121.53846126, 4143.84615364,12.0
4160.76923056, 4150.51282031, 4167.69230749, 4133.97435870, 4121.92307665, 4161.92307672, 4139.99999980, 4170.89743576, 4160.76923056, 4128.97435870, 5187.69230971, 4191.15384602, 4122.94871767, 4144.10256390,12.0
4153.33333313, 4157.17948697, 4172.05128192, 4143.71794851, 4121.66666639, 4166.79487159, 4156.28205108, 4183.07692294, 4181.79487166, 4127.94871767, 5200.12820715, 4199.23076910, 4124.23076896, 4146.66666646,12.0
4161.28205108, 4164.74358954, 4166.66666646, 4144.35897415, 4120.76923050, 4162.82051262, 4153.07692287, 4181.41025628, 4186.53846140, 4126.79487152, 5202.56410458, 4190.64102551, 4126.53846126, 4150.51282031,12.0
4162.30769210, 4163.46153826, 4164.99999980, 4137.43589723, 4120.76923050, 4157.56410236, 4136.53846133, 4170.12820499, 4173.84615371, 4127.43589716, 5192.30769433, 4188.46153833, 4123.20512793, 4147.30769210,12.0
4152.94871774, 4166.66666646, 4175.12820499, 4147.82051262, 4122.17948691, 4169.61538448, 4147.17948697, 4170.25641012, 4176.02564089, 4127.94871767, 5197.17948920, 4206.53846147, 4122.30769203, 4145.76923056,12.0
4164.10256390, 4162.30769210, 4174.35897422, 4149.23076903, 4124.99999973, 4168.46153833, 4144.23076903, 4161.28205108, 4166.92307672, 4127.56410229, 5199.35897638, 4200.76923063, 4128.71794844, 4148.97435877,12.0
4155.76923056, 4145.76923056, 4158.58974339, 4129.61538434, 4122.43589716, 4152.69230749, 4126.79487152, 4148.84615364, 4150.51282031, 4127.82051255, 5184.35897631, 4174.10256397, 4124.61538434, 4148.71794851,12.0
4154.74358954, 4150.51282031, 4158.20512800, 4130.25640998, 4120.25640998, 4164.99999980, 4145.51282031, 4165.12820492, 4173.58974345, 4129.61538434, 5188.33333535, 4177.94871781, 4124.87179460, 4149.99999980,12.0
4158.97435877, 4155.64102544, 4158.20512800, 4138.84615364, 4121.92307665, 4170.76923063, 4154.74358954, 4173.58974345, 4181.79487166, 4129.99999973, 5196.41025843, 4181.41025628, 4128.58974332, 4148.20512800,12.0
4150.64102544, 4135.64102544, 4143.33333313, 4125.25640998, 4122.94871767, 4147.69230749, 4128.07692280, 4160.25641005, 4150.38461518, 4129.61538434, 5182.94871990, 4156.53846133, 4124.35897408, 4143.07692287,12.0
4157.30769210, 4130.51282024, 4145.12820492, 4113.33333306, 4122.30769203, 4152.94871774, 4132.43589716, 4163.20512800, 4155.12820492, 4128.46153819, 5172.05128400, 4153.20512800, 4123.84615357, 4141.66666646,12.0
4154.23076903, 4144.61538441, 4159.74358954, 4129.23076896, 4120.76923050, 4178.58974345, 4159.23076903, 4174.23076910, 4179.99999986, 4126.15384588, 5184.35897631, 4179.87179474, 4121.15384588, 4144.61538441,12.0
4159.61538441, 4149.74358954, 4160.51282031, 4143.71794851, 4123.46153819, 4171.28205115, 4149.10256390, 4165.38461518, 4163.20512800, 4126.53846126, 5199.35897638, 4182.17948704, 4123.07692280, 4147.56410236,12.0
4164.10256390, 4144.23076903, 4147.94871774, 4124.99999973, 4123.71794844, 4148.20512800, 4126.15384588, 4152.56410236, 4138.84615364, 4129.48717921, 5193.84615587, 4156.28205108, 4125.89743562, 4143.33333313,12.0
4154.87179467, 4119.99999973, 4128.33333306, 4084.87179453, 4120.12820485, 4133.07692280, 4107.43589716, 4132.69230742, 4123.71794844, 4130.25640998, 5174.35897631, 4129.35897408, 4120.38461511, 4141.92307672,12.0
4164.48717928, 4112.56410229, 4129.61538434, 4081.53846119, 4121.79487152, 4135.38461518, 4103.84615357, 4124.61538434, 4123.97435870, 4129.99999973, 5178.20513015, 4135.51282031, 4121.28205101, 4144.23076903,12.0
4160.64102544, 4140.38461518, 4154.23076903, 4126.53846126, 4122.30769203, 4159.10256390, 4135.51282031, 4157.94871774, 4159.23076903, 4128.07692280, 5203.58974561, 4172.94871781, 4124.10256383, 4143.07692287,12.0
4161.66666646, 4141.66666646, 4151.15384595, 4121.79487152, 4117.69230742, 4158.58974339, 4142.17948697, 4163.07692287, 4155.89743569, 4126.28205101, 5195.76923279, 4164.74358954, 4127.30769203, 4144.35897415,12.0
4166.15384595, 4114.10256383, 4124.10256383, 4076.28205094, 4118.84615357, 4140.38461518, 4121.66666639, 4135.76923056, 4123.33333306, 4126.92307665, 5170.89743785, 4123.84615357, 4127.17948691, 4145.89743569,12.0
4152.56410236, 4120.51282024, 4130.51282024, 4093.97435863, 4123.20512793, 4160.25641005, 4140.76923056, 4161.28205108, 4156.53846133, 4127.82051255, 5184.61538656, 4139.74358954, 4123.33333306, 4148.07692287,12.0
4162.82051262, 4146.66666646, 4159.23076903, 4136.28205108, 4122.82051255, 4182.05128192, 4163.71794851, 4195.76923063, 4196.41025628, 4127.94871767, 5206.41025843, 4179.61538448, 4127.69230742, 4150.12820492,12.0
4161.41025621, 4140.38461518, 4156.53846133, 4130.25640998, 4120.64102537, 4162.56410236, 4142.43589723, 4174.23076910, 4171.53846140, 4127.17948691, 5192.69230971, 4173.20512807, 4127.56410229, 4148.46153826,12.0
4157.43589723, 4130.38461511, 4145.12820492, 4111.92307665, 4121.02564075, 4142.30769210, 4120.12820485, 4145.76923056, 4142.43589723, 4128.46153819, 5179.23077118, 4152.43589723, 4125.64102537, 4148.33333313,12.0
4167.56410236, 4134.10256383, 4146.53846133, 4112.69230742, 4123.20512793, 4142.43589723, 4117.69230742, 4132.43589716, 4133.84615357, 4129.61538434, 5182.94871990, 4147.82051262, 4124.87179460, 4145.89743569,12.0
4157.43589723, 4134.61538434, 4146.79487159, 4121.15384588, 4123.07692280, 4151.15384595, 4123.84615357, 4132.56410229, 4134.74358947, 4127.05128178, 5181.92307887, 4154.10256390, 4118.97435870, 4144.61538441,12.0
4160.89743569, 4128.46153819, 4142.43589723, 4124.10256383, 4122.69230742, 4151.53846133, 4125.25640998, 4132.69230742, 4132.05128178, 4126.28205101, 5181.66666862, 4153.20512800, 4121.15384588, 4145.38461518,12.0
4159.74358954, 4124.99999973, 4134.61538434, 4118.97435870, 4125.12820485, 4138.84615364, 4115.76923050, 4117.56410229, 4114.23076896, 4130.38461511, 5176.92307887, 4137.69230749, 4124.23076896, 4142.43589723,12.0
4156.28205108, 4134.23076896, 4137.05128185, 4113.58974332, 4125.51282024, 4136.15384595, 4115.64102537, 4120.76923050, 4113.33333306, 4129.99999973, 5169.48718144, 4138.97435877, 4121.92307665, 4143.33333313,12.0
4168.46153833, 4137.05128185, 4148.20512800, 4118.97435870, 4121.66666639, 4144.61538441, 4120.25640998, 4134.74358947, 4129.61538434, 4124.48717921, 5172.56410451, 4155.12820492, 4121.15384588, 4144.61538441,12.0
4161.79487159, 4121.92307665, 4146.53846133, 4119.61538434, 4118.97435870, 4140.51282031, 4113.07692280, 4129.10256383, 4130.38461511, 4125.64102537, 5170.51282246, 4156.53846133, 4122.82051255, 4143.33333313,12.0
4167.56410236, 4121.28205101, 4144.23076903, 4116.41025614, 4123.33333306, 4139.99999980, 4118.07692280, 4125.38461511, 4126.28205101, 4131.66666639, 5165.64102759, 4149.99999980, 4128.71794844, 4142.69230749,12.0
4169.10256397, 4137.82051262, 4148.20512800, 4117.30769203, 4124.74358947, 4154.74358954, 4138.58974339, 4137.69230749, 4130.76923050, 4128.97435870, 5165.76923272, 4148.84615364, 4125.64102537, 4143.84615364,12.0
4161.15384595, 4138.20512800, 4145.25641005, 4117.43589716, 4120.89743562, 4158.46153826, 4144.23076903, 4143.71794851, 4129.48717921, 4124.35897408, 5156.28205323, 4149.10256390, 4121.92307665, 4148.58974339,12.0
4171.66666653, 4129.35897408, 4146.02564082, 4126.41025614, 4121.53846126, 4157.30769210, 4140.89743569, 4146.02564082, 4134.48717921, 4127.82051255, 5158.71795067, 4156.28205108, 4127.43589716, 4147.05128185,12.0
4161.41025621, 4115.51282024, 4139.23076903, 4123.46153819, 4122.05128178, 4146.53846133, 4138.20512800, 4148.71794851, 4134.87179460, 4129.48717921, 5375.38461775, 4142.30769210, 4119.99999973, 4142.05128185,12.0
4168.97435884, 4129.48717921, 4148.33333313, 4129.61538434, 4123.97435870, 4157.94871774, 4142.05128185, 4158.58974339, 4143.33333313, 4130.12820485, 5531.41025912, 4140.51282031, 4122.94871767, 4140.64102544,12.0
4158.07692287, 4145.51282031, 4158.71794851, 4140.64102544, 4122.05128178, 4162.30769210, 4147.94871774, 4158.20512800, 4139.87179467, 4127.94871767, 5575.38461817, 4157.30769210, 4123.20512793, 4140.64102544,12.0
4168.97435884, 4138.46153826, 4154.35897415, 4146.41025621, 4122.43589716, 4150.64102544, 4134.87179460, 4147.82051262, 4130.25640998, 4126.79487152, 5500.89743854, 4157.05128185, 4123.07692280, 4142.30769210,12.0
4168.97435884, 4122.56410229, 4144.61538441, 4143.84615364, 4122.43589716, 4139.74358954, 4112.17948691, 4138.46153826, 4131.02564075, 4126.66666639, 5436.41025892, 4142.17948697, 4120.76923050, 4142.56410236,12.0
4162.30769210, 4121.02564075, 4146.02564082, 4151.28205108, 4121.66666639, 4141.02564082, 4113.58974332, 4139.74358954, 4131.66666639, 4126.66666639, 5384.61538705, 4139.10256390, 4123.71794844, 4143.58974339,12.0
4178.07692294, 4105.76923050, 4133.71794844, 4136.79487159, 4125.12820485, 4120.89743562, 4092.69230735, 4115.38461511, 4091.02564068, 4127.17948691, 5392.82051526, 4110.64102537, 4123.33333306, 4142.30769210,12.0
4164.99999980, 4095.89743555, 4122.17948691, 4113.84615357, 4124.10256383, 4099.74358940, 4062.69230728, 4091.41025607, 4066.53846113, 4128.97435870, 5443.84615635, 4094.99999966, 4120.12820485, 4145.89743569,12.0
4169.35897422, 4157.43589723, 4175.89743576, 4182.43589730, 4123.97435870, 4158.20512800, 4132.94871767, 4157.56410236, 4143.97435877, 4131.28205101, 5508.46154111, 4179.23076910, 4126.15384588, 4149.61538441,12.0
4177.56410243, 4205.89743583, 4219.35897429, 4266.41025641, 4123.20512793, 4216.92307686, 4214.48717942, 4228.97435891, 4210.38461532, 4128.58974332, 6035.76923453, 4244.61538462, 4126.28205101, 4145.25641005,12.0
4163.20512800, 4162.56410236, 4178.33333320, 4233.20512814, 4118.84615357, 4167.82051262, 4153.33333313, 4170.38461525, 4150.12820492, 4127.30769203, 6897.43590307, 4185.89743576, 4126.92307665, 4144.99999980,12.0
4175.38461525, 4129.99999973, 4153.46153826, 4186.02564089, 4124.87179460, 4121.92307665, 4086.66666632, 4103.33333306, 4096.53846119, 4129.87179460, 7168.46154465, 4145.12820492, 4126.66666639, 4147.05128185,12.0
4168.07692287, 4155.76923056, 4178.33333320, 4213.84615378, 4124.99999973, 4158.46153826, 4134.61538434, 4150.25641005, 4144.99999980, 4130.25640998, 6857.82051831, 4189.99999986, 4123.33333306, 4147.56410236,12.0
4168.33333320, 4156.53846133, 4175.76923063, 4215.12820506, 4121.53846126, 4167.94871774, 4152.30769210, 4180.64102551, 4165.64102544, 4128.58974332, 6704.74359496, 4189.10256397, 4126.53846126, 4146.41025621,12.0
4178.33333320, 4132.56410229, 4153.46153826, 4185.51282038, 4126.28205101, 4133.58974332, 4104.23076896, 4136.92307672, 4116.28205101, 4126.92307665, 6683.07692822, 4142.82051262, 4122.56410229, 4141.79487159,12.0
4161.79487159, 4136.28205108, 4153.58974339, 4193.20512807, 4124.74358947, 4134.23076896, 4097.17948684, 4117.56410229, 4097.30769196, 4127.30769203, 6534.23077410, 4141.02564082, 4121.92307665, 4142.17948697,12.0
4176.79487166, 4153.33333313, 4171.15384602, 4213.46153840, 4124.99999973, 4162.56410236, 4137.05128185, 4145.89743569, 4131.41025614, 4125.89743562, 6450.51282517, 4167.05128185, 4124.35897408, 4143.33333313,12.0
4176.92307679, 4153.33333313, 4176.66666653, 4216.66666660, 4126.28205101, 4167.56410236, 4153.84615364, 4168.97435884, 4156.53846133, 4123.07692280, 6419.10256869, 4178.71794858, 4120.64102537, 4143.71794851,12.0
4170.76923063, 4132.82051255, 4157.17948697, 4198.46153833, 4126.53846126, 4138.97435877, 4114.48717921, 4138.07692287, 4123.20512793, 4125.38461511, 6342.30769676, 4147.82051262, 4124.48717921, 4143.71794851,12.0
4183.33333320, 4120.76923050, 4143.20512800, 4186.15384602, 4126.66666639, 4123.07692280, 4083.71794837, 4105.64102537, 4091.02564068, 4127.82051255, 6289.23077354, 4120.64102537, 4125.64102537, 4142.30769210,12.0
4175.12820499, 4153.07692287, 4170.76923063, 4218.84615378, 4120.25640998, 4153.58974339, 4122.82051255, 4154.48717928, 4142.30769210, 4126.53846126, 6268.84615816, 4171.02564089, 4125.64102537, 4145.64102544,12.0
4185.64102551, 4192.94871781, 4211.02564096, 4267.94871802, 4122.94871767, 4189.48717935, 4170.25641012, 4207.43589737, 4201.79487173, 4125.89743562, 6252.69231193, 4228.46153840, 4128.33333306, 4146.15384595,12.0
4182.17948704, 4173.71794858, 4198.84615371, 4258.84615385, 4128.07692280, 4176.28205115, 4155.25641005, 4178.58974345, 4179.48717935, 4129.23076896, 6202.30769641, 4207.30769224, 4125.12820485, 4146.02564082,12.0
4176.28205115, 4149.10256390, 4173.20512807, 4225.25641019, 4125.51282024, 4155.25641005, 4137.69230749, 4145.12820492, 4145.51282031, 4128.07692280, 6148.46154250, 4177.17948704, 4127.43589716, 4148.46153826,12.0
4189.48717935, 4165.76923056, 4180.25641012, 4229.87179481, 4126.66666639, 4166.41025621, 4156.41025621, 4158.97435877, 4151.53846133, 4124.61538434, 6111.41026037, 4185.64102551, 4126.92307665, 4146.41025621,12.0
4172.82051269, 4166.66666646, 4178.71794858, 4242.17948718, 4123.84615357, 4172.17948704, 4157.94871774, 4167.43589723, 4150.12820492, 4130.89743562, 6072.56410646, 4182.43589730, 4123.97435870, 4146.66666646,12.0
4177.43589730, 4145.12820492, 4163.46153826, 4225.51282045, 4122.56410229, 4153.46153826, 4132.56410229, 4143.33333313, 4123.07692280, 4135.38461518, 6022.56410632, 4153.46153826, 4124.48717921, 4147.17948697,12.0
4177.43589730, 4129.61538434, 4149.23076903, 4201.15384609, 4125.25640998, 4136.92307672, 4112.05128178, 4112.30769203, 4091.02564068, 4128.58974332, 5975.25641394, 4129.23076896, 4121.53846126, 4143.97435877,12.0
4169.99999986, 4141.02564082, 4156.15384595, 4214.61538455, 4124.23076896, 4151.66666646, 4122.17948691, 4120.89743562, 4098.20512786, 4124.23076896, 5960.25641387, 4144.23076903, 4127.30769203, 4143.97435877,12.0
4183.84615371, 4158.71794851, 4177.17948704, 4246.79487180, 4124.23076896, 4170.64102551, 4140.89743569, 4154.35897415, 4138.46153826, 4126.92307665, 5956.79487541, 4177.05128192, 4126.41025614, 4145.12820492,12.0
4168.07692287, 4152.17948697, 4175.38461525, 4247.05128206, 4121.41025614, 4160.51282031, 4133.84615357, 4153.33333313, 4140.38461518, 4131.92307665, 5930.12820868, 4177.94871781, 4119.61538434, 4145.51282031,12.0
4175.64102551, 4149.48717928, 4164.87179467, 4225.51282045, 4124.10256383, 4145.25641005, 4118.20512793, 4129.61538434, 4109.35897408, 4133.20512793, 5888.71795220, 4156.92307672, 4124.99999973, 4145.64102544,12.0
4185.76923063, 4162.05128185, 4170.38461525, 4233.07692301, 4127.56410229, 4156.53846133, 4129.10256383, 4138.97435877, 4119.87179460, 4130.51282024, 5860.89743931, 4161.66666646, 4126.28205101, 4143.71794851,12.0
4173.84615371, 4151.15384595, 4170.89743576, 4234.35897436, 4124.87179460, 4158.71794851, 4134.35897408, 4147.05128185, 4132.43589716, 4133.07692280, 5838.97436231, 4163.58974339, 4125.38461511, 4143.58974339,12.0
4189.35897422, 4119.48717921, 4151.02564082, 4194.87179474, 4125.76923050, 4125.25640998, 4094.10256376, 4113.33333306, 4090.51282017, 4133.20512793, 5800.89743917, 4127.56410229, 4124.10256383, 4142.30769210,12.0
4183.71794858, 4117.43589716, 4145.12820492, 4187.94871781, 4124.87179460, 4117.56410229, 4083.84615350, 4105.25640998, 4075.38461504, 4124.74358947, 5772.82051602, 4120.12820485, 4121.53846126, 4143.20512800,12.0
4185.12820499, 4143.97435877, 4169.74358961, 4217.56410250, 4125.25640998, 4145.38461518, 4127.43589716, 4136.41025621, 4115.89743562, 4123.20512793, 5762.69231089, 4155.51282031, 4123.84615357, 4146.28205108,12.0
4191.66666653, 4148.84615364, 4177.56410243, 4219.10256404, 4125.12820485, 4154.10256390, 4141.02564082, 4148.33333313, 4132.43589716, 4129.74358947, 5745.76923397, 4164.23076903, 4121.92307665, 4144.48717928,12.0
4179.10256397, 4132.94871767, 4161.66666646, 4210.12820506, 4122.05128178, 4146.66666646, 4118.97435870, 4134.87179460, 4113.58974332, 4127.82051255, 5724.61538775, 4144.48717928, 4122.30769203, 4144.99999980,12.0
4189.48717935, 4131.66666639, 4158.71794851, 4213.20512814, 4125.76923050, 4146.02564082, 4111.79487152, 4121.15384588, 4092.30769196, 4124.23076896, 5697.94872101, 4132.82051255, 4126.41025614, 4145.51282031,12.0
4178.71794858, 4132.30769203, 4154.48717928, 4189.87179474, 4124.99999973, 4137.30769210, 4112.43589716, 4111.15384588, 4074.48717914, 4131.79487152, 5657.30769530, 4119.10256383, 4125.25640998, 4143.84615364,12.0
4176.15384602, 4120.64102537, 4145.76923056, 4168.71794858, 4122.56410229, 4127.94871767, 4102.43589709, 4102.69230742, 4073.97435863, 4137.30769210, 5632.05128497, 4106.92307665, 4125.25640998, 4145.25641005,12.0
4186.28205115, 4106.15384588, 4141.92307672, 4172.05128192, 4124.74358947, 4120.12820485, 4091.28205094, 4098.07692273, 4082.43589709, 4131.41025614, 5621.79487472, 4104.74358947, 4124.74358947, 4147.05128185,12.0
4171.28205115, 4084.74358940, 4128.20512793, 4151.02564082, 4121.79487152, 4100.38461504, 4077.69230735, 4092.69230735, 4066.92307651, 4124.99999973, 5595.64102849, 4086.15384581, 4124.87179460, 4145.12820492,12.0
4181.28205115, 4075.25640991, 4124.61538434, 4121.53846126, 4123.07692280, 4098.46153812, 4073.84615350, 4083.20512786, 4044.48717907, 4126.92307665, 5569.74359253, 4071.41025607, 4126.15384588, 4140.76923056,12.0
4178.33333320, 4089.23076889, 4136.53846133, 4127.82051255, 4126.02564075, 4118.20512793, 4095.64102530, 4088.97435863, 4058.07692266, 4132.82051255, 5563.71795150, 4088.84615350, 4123.20512793, 4144.10256390,12.0
4174.10256397, 4097.30769196, 4143.33333313, 4151.41025621, 4126.92307665, 4123.20512793, 4104.48717921, 4109.35897408, 4093.58974325, 4132.30769203, 5556.92307971, 4105.12820485, 4126.53846126, 4148.71794851,12.0
4185.64102551, 4086.28205094, 4135.38461518, 4150.38461518, 4128.97435870, 4106.53846126, 4081.28205094, 4106.66666639, 4096.41025607, 4125.64102537, 5529.35897707, 4091.15384581, 4128.20512793, 4144.35897415,12.0
4174.74358961, 4082.94871761, 4129.87179460, 4145.38461518, 4124.48717921, 4095.25640991, 4064.87179446, 4086.41025607, 4076.66666632, 4123.33333306, 5505.76923341, 4081.41025607, 4122.94871767, 4142.05128185,12.0
4186.66666653, 4101.28205094, 4148.33333313, 4166.02564082, 4124.35897408, 4105.25640998, 4075.38461504, 4082.05128171, 4074.74358940, 4129.23076896, 5501.92307957, 4102.69230742, 4122.94871767, 4143.33333313,12.0
4187.82051269, 4112.05128178, 4163.20512800, 4185.38461525, 4125.25640998, 4118.97435870, 4093.58974325, 4095.64102530, 4090.89743555, 4130.89743562, 5493.33333598, 4124.48717921, 4123.33333306, 4142.82051262,12.0
4183.07692294, 4121.28205101, 4162.69230749, 4183.46153833, 4121.28205101, 4129.23076896, 4107.05128178, 4107.17948691, 4099.23076889, 4124.61538434, 5477.82051540, 4125.76923050, 4123.84615357, 4143.58974339,12.0
4198.46153833, 4119.74358947, 4154.99999980, 4165.89743569, 4122.69230742, 4129.35897408, 4108.97435870, 4103.97435870, 4078.58974325, 4122.43589716, 5461.41025899, 4107.43589716, 4123.33333306, 4143.97435877,12.0
4184.48717935, 4095.76923043, 4140.25641005, 4145.25641005, 4123.20512793, 4118.84615357, 4104.61538434, 4101.02564068, 4056.53846113, 4125.76923050, 5439.48718199, 4086.02564068, 4123.33333306, 4146.02564082,12.0
4187.17948704, 4096.15384581, 4143.46153826, 4146.15384595, 4125.12820485, 4126.66666639, 4116.28205101, 4113.46153819, 4076.28205094, 4127.94871767, 5424.74359225, 4089.48717914, 4124.61538434, 4147.05128185,12.0
4188.46153833, 4090.51282017, 4143.46153826, 4146.92307672, 4126.41025614, 4133.58974332, 4118.71794844, 4115.89743562, 4092.94871761, 4127.30769203, 5409.35897679, 4090.25640991, 4121.92307665, 4144.87179467,12.0
4177.56410243, 4056.15384574, 4118.46153819, 4111.79487152, 4124.61538434, 4109.61538434, 4084.74358940, 4090.38461504, 4052.43589702, 4125.38461511, 5377.05128442, 4059.61538420, 4124.61538434, 4146.02564082,12.0
4191.15384602, 4065.64102523, 4118.20512793, 4106.02564075, 4125.25640998, 4106.02564075, 4078.58974325, 4093.20512786, 4041.53846113, 4123.97435870, 5362.69231006, 4058.07692266, 4126.28205101, 4143.97435877,12.0
4179.74358961, 4111.66666639, 4153.20512800, 4165.64102544, 4123.07692280, 4137.94871774, 4119.61538434, 4141.79487159, 4110.64102537, 4130.12820485, 5387.43589987, 4114.35897408, 4124.48717921, 4141.41025621,12.0
4183.20512807, 4121.15384588, 4169.10256397, 4190.51282038, 4126.02564075, 4143.71794851, 4125.12820485, 4151.92307672, 4142.17948697, 4135.25640998, 5396.28205372, 4139.48717928, 4127.17948691, 4143.20512800,12.0
4188.33333320, 4111.15384588, 4158.33333313, 4168.07692287, 4128.71794844, 4131.41025614, 4103.97435870, 4122.69230742, 4112.30769203, 4128.97435870, 5374.87179724, 4121.79487152, 4124.35897408, 4142.82051262,12.0
4173.33333320, 4118.71794844, 4156.41025621, 4172.69230756, 4124.10256383, 4137.69230749, 4113.84615357, 4114.23076896, 4098.71794837, 4125.25640998, 5362.82051519, 4124.10256383, 4123.84615357, 4144.23076903,12.0
4187.69230756, 4111.79487152, 4156.15384595, 4180.76923063, 4125.64102537, 4131.02564075, 4112.43589716, 4107.56410229, 4088.46153812, 4127.43589716, 5349.87179724, 4121.15384588, 4128.84615357, 4146.53846133,12.0
4183.58974345, 4099.99999966, 4147.30769210, 4166.53846133, 4125.76923050, 4117.69230742, 4097.17948684, 4099.87179453, 4073.20512786, 4130.89743562, 5328.33333563, 4107.17948691, 4125.76923050, 4146.02564082,12.0
4187.43589730, 4119.99999973, 4157.05128185, 4174.23076910, 4123.07692280, 4135.12820485, 4120.51282024, 4122.05128178, 4090.76923043, 4137.30769210, 5320.89743819, 4123.33333306, 4124.87179460, 4144.35897415,12.0
4193.71794858, 4118.97435870, 4158.33333313, 4182.82051269, 4123.33333306, 4138.07692287, 4129.99999973, 4134.35897408, 4103.46153819, 4135.38461518, 5311.41025864, 4125.89743562, 4126.79487152, 4142.05128185,12.0
4180.25641012, 4086.41025607, 4132.05128178, 4149.99999980, 4124.10256383, 4107.94871767, 4086.53846119, 4107.82051255, 4076.92307658, 4124.23076896, 5285.64102787, 4085.76923043, 4124.99999973, 4142.82051262,12.0
4194.48717935, 4093.07692273, 4134.87179460, 4141.28205108, 4127.43589716, 4112.05128178, 4088.20512786, 4108.33333306, 4078.58974325, 4125.25640998, 5278.20513036, 4086.53846119, 4125.38461511, 4143.97435877,12.0
4184.48717935, 4127.69230742, 4167.17948697, 4189.61538448, 4124.74358947, 4146.28205108, 4142.56410236, 4154.99999980, 4125.51282024, 4129.48717921, 5292.82051505, 4143.46153826, 4125.51282024, 4145.38461518,12.0
4183.71794858, 4129.23076896, 4175.38461525, 4207.17948711, 4124.74358947, 4142.30769210, 4141.53846133, 4165.38461518, 4133.84615357, 4126.02564075, 5284.10256633, 4156.79487159, 4126.41025614, 4144.74358954,12.0
4196.79487166, 4109.23076896, 4155.25641005, 4172.17948704, 4129.10256383, 4116.53846126, 4100.89743555, 4124.74358947, 4097.94871761, 4127.82051255, 5261.53846370, 4121.28205101, 4124.74358947, 4142.82051262,12.0
4178.20512807, 4109.74358947, 4147.05128185, 4160.64102544, 4125.38461511, 4115.12820485, 4098.84615350, 4113.84615357, 4091.66666632, 4129.35897408, 5265.38461754, 4115.38461511, 4124.61538434, 4147.43589723,12.0
4186.02564089, 4127.69230742, 4166.79487159, 4184.74358961, 4127.43589716, 4132.30769203, 4124.48717921, 4148.58974339, 4123.84615357, 4125.25640998, 5273.71795088, 4144.35897415, 4128.20512793, 4149.61538441,12.0
4182.30769217, 4121.41025614, 4164.99999980, 4186.66666653, 4130.64102537, 4133.97435870, 4120.89743562, 4150.76923056, 4130.64102537, 4128.97435870, 5261.02564318, 4147.17948697, 4125.12820485, 4142.56410236,12.0
4177.69230756, 4108.84615357, 4148.97435877, 4171.66666653, 4127.94871767, 4125.38461511, 4105.89743562, 4118.58974332, 4108.33333306, 4136.92307672, 5246.92307901, 4131.28205101, 4123.84615357, 4141.02564082,12.0
4187.17948704, 4115.64102537, 4150.64102544, 4164.35897415, 4127.56410229, 4129.48717921, 4118.46153819, 4119.23076896, 4098.33333299, 4134.48717921, 5237.43589952, 4131.02564075, 4124.74358947, 4143.33333313,12.0
4172.69230756, 4118.07692280, 4151.15384595, 4164.23076903, 4126.92307665, 4141.53846133, 4131.28205101, 4137.30769210, 4098.58974325, 4130.38461511, 5231.41025850, 4131.66666639, 4122.94871767, 4142.56410236,12.0
4182.30769217, 4117.30769203, 4148.71794851, 4165.12820492, 4128.58974332, 4142.30769210, 4119.61538434, 4126.28205101, 4094.48717914, 4132.05128178, 5231.02564311, 4124.48717921, 4126.28205101, 4142.05128185,12.0
4181.53846140, 4121.79487152, 4146.28205108, 4162.69230749, 4127.56410229, 4127.43589716, 4102.82051255, 4111.53846126, 4094.87179453, 4132.56410229, 5224.74359183, 4116.15384588, 4126.53846126, 4142.69230749,12.0
4181.53846140, 4121.79487152, 4146.28205108, 4162.69230749, 4127.56410229, 4127.43589716, 4102.82051255, 4111.53846126, 4094.87179453, 4132.56410229, 5224.74359183, 4116.15384588, 4126.53846126, 4142.69230749,12.0
4178.46153833, 4118.20512793, 4144.35897415, 4162.05128185, 4126.28205101, 4116.66666639, 4094.48717914, 4116.15384588, 4092.17948684, 4133.97435870, 5217.69230971, 4111.53846126, 4123.84615357, 4145.25641005,12.0
4193.46153833, 4106.66666639, 4147.05128185, 4162.69230749, 4128.84615357, 4117.56410229, 4096.02564068, 4117.56410229, 4078.58974325, 4132.69230742, 5218.71795081, 4114.10256383, 4122.69230742, 4144.48717928,12.0
4181.92307679, 4121.15384588, 4151.53846133, 4164.23076903, 4126.28205101, 4117.43589716, 4106.66666639, 4113.33333306, 4079.74358940, 4133.84615357, 5223.46154055, 4125.64102537, 4122.82051255, 4143.58974339,12.0
4191.79487166, 4146.41025621, 4159.74358954, 4166.92307672, 4125.64102537, 4112.94871767, 4102.17948684, 4119.48717921, 4096.28205094, 4136.41025621, 5225.00000209, 4138.97435877, 4128.33333306, 4148.71794851,12.0
4193.46153833, 4121.92307665, 4155.76923056, 4166.41025621, 4126.28205101, 4105.25640998, 4085.89743555, 4129.35897408, 4093.97435863, 4134.61538434, 5220.89743799, 4135.76923056, 4127.30769203, 4150.76923056,12.0
4184.23076910, 4111.41025614, 4152.43589723, 4159.61538441, 4126.15384588, 4110.64102537, 4110.76923050, 4136.41025621, 4083.97435863, 4135.25640998, 5226.79487388, 4129.74358947, 4122.30769203, 4147.43589723,12.0
4197.69230756, 4144.87179467, 4159.61538441, 4153.20512800, 4126.66666639, 4128.71794844, 4144.10256390, 4141.41025621, 4091.02564068, 4135.38461518, 5239.23077132, 4135.12820485, 4126.79487152, 4142.69230749,12.0
4181.41025628, 4140.64102544, 4155.64102544, 4162.30769210, 4124.74358947, 4130.89743562, 4124.87179460, 4134.99999973, 4091.41025607, 4133.97435870, 5243.46154055, 4140.51282031, 4127.05128178, 4145.25641005,12.0
4186.53846140, 4113.58974332, 4152.94871774, 4180.76923063, 4125.76923050, 4119.10256383, 4095.76923043, 4114.74358947, 4074.87179453, 4134.61538434, 5247.17948927, 4138.71794851, 4124.61538434, 4149.74358954,12.0
4190.76923063, 4129.10256383, 4162.43589723, 4190.25641012, 4125.25640998, 4127.56410229, 4109.35897408, 4116.92307665, 4081.15384581, 4134.48717921, 5241.15384824, 4147.69230749, 4126.41025614, 4145.51282031,12.0
4173.46153833, 4151.66666646, 4166.66666646, 4188.84615371, 4125.64102537, 4146.28205108, 4128.58974332, 4138.58974339, 4105.76923050, 4134.35897408, 5252.69230985, 4159.23076903, 4125.64102537, 4143.33333313,12.0
4187.17948704, 4138.71794851, 4160.25641005, 4184.99999986, 4129.99999973, 4143.58974339, 4122.43589716, 4137.69230749, 4109.10256383, 4134.48717921, 5309.10256633, 4147.82051262, 4126.66666639, 4145.89743569,12.0
4177.94871781, 4110.25640998, 4146.66666646, 4169.99999986, 4126.79487152, 4126.28205101, 4112.82051255, 4125.89743562, 4095.38461504, 4134.48717921, 5326.15384845, 4126.92307665, 4125.64102537, 4143.07692287,12.0
4180.76923063, 4107.05128178, 4150.76923056, 4162.30769210, 4125.51282024, 4126.15384588, 4115.76923050, 4127.82051255, 4099.35897402, 4134.61538434, 5276.66666882, 4128.97435870, 4126.41025614, 4142.30769210,12.0
4189.99999986, 4120.89743562, 4163.07692287, 4169.99999986, 4128.84615357, 4129.23076896, 4111.66666639, 4131.15384588, 4116.41025614, 4134.87179460, 5246.66666876, 4144.35897415, 4127.94871767, 4144.10256390,12.0
4177.17948704, 4112.05128178, 4152.30769210, 4157.05128185, 4126.28205101, 4105.89743562, 4085.64102530, 4121.53846126, 4108.07692280, 4134.35897408, 5237.94872004, 4134.35897408, 4125.25640998, 4143.84615364,12.0
4193.84615371, 4083.97435863, 4133.07692280, 4137.30769210, 4124.87179460, 4087.94871761, 4069.48717907, 4104.23076896, 4080.25640991, 4134.61538434, 5197.05128407, 4105.25640998, 4127.69230742, 4144.10256390,12.0
4190.12820499, 4068.07692266, 4129.74358947, 4148.71794851, 4123.46153819, 4105.89743562, 4092.56410222, 4110.64102537, 4084.23076889, 4135.25640998, 5162.05128400, 4104.10256383, 4127.17948691, 4145.38461518,12.0
4190.12820499, 4083.20512786, 4146.92307672, 4173.58974345, 4124.87179460, 4127.82051255, 4114.87179460, 4136.28205108, 4114.10256383, 4133.07692280, 5169.48718144, 4130.89743562, 4125.89743562, 4146.92307672,12.0
4199.99999986, 4093.58974325, 4153.20512800, 4161.53846133, 4128.20512793, 4116.66666639, 4096.79487145, 4131.02564075, 4112.30769203, 4129.99999973, 5167.17948913, 4134.10256383, 4127.82051255, 4145.89743569,12.0
4183.20512807, 4069.35897395, 4129.99999973, 4129.61538434, 4125.64102537, 4091.28205094, 4063.58974318, 4089.99999966, 4069.87179453, 4129.99999973, 5124.48718137, 4101.02564068, 4124.48717921, 4144.74358954,12.0
4192.82051269, 4054.48717907, 4123.33333306, 4135.12820485, 4127.94871767, 4095.64102530, 4066.66666625, 4078.71794837, 4054.61538420, 4131.41025614, 5090.38461720, 4089.48717914, 4125.12820485, 4145.64102544,12.0
4187.30769217, 4065.38461497, 4133.97435870, 4146.79487159, 4126.79487152, 4115.51282024, 4090.51282017, 4106.28205101, 4080.38461504, 4130.25640998, 5088.46154027, 4108.33333306, 4126.79487152, 4145.12820492,12.0
4182.05128192, 4057.30769189, 4124.35897408, 4135.12820485, 4121.02564075, 4115.51282024, 4085.12820478, 4105.38461511, 4077.05128171, 4128.33333306, 5074.87179661, 4096.92307658, 4126.15384588, 4147.43589723,12.0
4193.33333320, 4041.02564061, 4114.35897408, 4134.48717921, 4122.17948691, 4106.02564075, 4070.64102530, 4085.38461504, 4056.79487138, 4132.17948691, 5054.10256577, 4081.02564068, 4126.41025614, 4147.82051262,12.0
4174.35897422, 4060.25640984, 4127.82051255, 4141.53846133, 4124.87179460, 4107.94871767, 4084.74358940, 4098.07692273, 4077.82051248, 4135.76923056, 5047.94871962, 4107.56410229, 4122.56410229, 4143.58974339,12.0
4184.48717935, 4073.84615350, 4142.69230749, 4137.69230749, 4127.56410229, 4117.30769203, 4095.64102530, 4113.71794844, 4095.38461504, 4133.07692280, 5039.10256577, 4130.64102537, 4123.46153819, 4143.58974339,12.0
4187.43589730, 4053.71794830, 4139.10256390, 4147.82051262, 4123.97435870, 4125.38461511, 4091.02564068, 4113.97435870, 4092.69230735, 4129.23076896, 5037.17948885, 4126.79487152, 4123.46153819, 4144.61538441,12.0
4177.56410243, 4050.51282010, 4141.28205108, 4170.38461525, 4122.69230742, 4135.64102544, 4101.28205094, 4128.20512793, 4113.97435870, 4129.23076896, 5045.64102731, 4131.53846126, 4119.48717921, 4144.99999980,12.0
4190.64102551, 4062.94871754, 4142.69230749, 4154.99999980, 4128.20512793, 4129.87179460, 4096.66666632, 4128.33333306, 4115.38461511, 4132.17948691, 5026.02564270, 4128.97435870, 4123.46153819, 4145.38461518,12.0
4183.58974345, 4063.20512779, 4131.53846126, 4132.82051255, 4126.79487152, 4115.76923050, 4077.05128171, 4111.15384588, 4087.82051248, 4130.38461511, 4996.79487340, 4114.74358947, 4124.35897408, 4144.23076903,12.0
4193.84615371, 4073.07692273, 4144.74358954, 4160.76923056, 4126.15384588, 4127.17948691, 4094.23076889, 4124.99999973, 4105.12820485, 4124.74358947, 5006.41025801, 4136.28205108, 4123.71794844, 4144.87179467,12.0
4191.79487166, 4070.89743555, 4153.97435877, 4183.46153833, 4126.66666639, 4136.15384595, 4112.69230742, 4142.69230749, 4133.58974332, 4125.64102537, 5018.33333494, 4153.71794851, 4125.64102537, 4146.02564082,12.0
4182.56410243, 4051.15384574, 4135.89743569, 4158.46153826, 4125.64102537, 4128.07692280, 4098.71794837, 4131.79487152, 4115.38461511, 4133.97435870, 4997.30769391, 4127.69230742, 4124.10256383, 4147.56410236,12.0
4200.25641012, 4055.38461497, 4131.02564075, 4136.15384595, 4127.94871767, 4129.35897408, 4095.64102530, 4122.43589716, 4094.87179453, 4140.12820492, 4973.20512974, 4111.79487152, 4124.87179460, 4145.38461518,12.0
4184.48717935, 4060.64102523, 4135.25640998, 4143.46153826, 4125.76923050, 4133.20512793, 4100.89743555, 4123.84615357, 4096.92307658, 4131.02564075, 4961.28205281, 4118.71794844, 4124.74358947, 4143.46153826,12.0
4188.33333320, 4048.07692266, 4130.76923050, 4140.89743569, 4122.56410229, 4122.43589716, 4082.30769196, 4111.15384588, 4085.25640991, 4122.05128178, 4951.28205275, 4115.38461511, 4124.99999973, 4148.20512800,12.0
4194.87179474, 4050.64102523, 4127.30769203, 4129.87179460, 4123.97435870, 4119.10256383, 4075.89743555, 4105.25640998, 4078.84615350, 4130.38461511, 4945.12820659, 4114.99999973, 4124.10256383, 4147.05128185,12.0
4176.41025628, 4067.05128164, 4131.41025614, 4134.23076896, 4126.53846126, 4127.56410229, 4088.97435863, 4116.79487152, 4091.92307658, 4133.20512793, 4942.94871941, 4125.25640998, 4123.33333306, 4142.82051262,12.0
4186.53846140, 4060.76923036, 4127.05128178, 4131.28205101, 4127.94871767, 4116.66666639, 4078.33333299, 4106.28205101, 4085.76923043, 4125.12820485, 4936.66666813, 4110.25640998, 4127.30769203, 4146.41025621,12.0
4181.28205115, 4052.05128164, 4120.38461511, 4125.89743562, 4124.10256383, 4105.38461511, 4068.20512779, 4101.92307658, 4084.74358940, 4127.94871767, 4932.94871941, 4102.30769196, 4126.92307665, 4149.48717928,12.0
4185.25641012, 4072.82051248, 4135.38461518, 4135.89743569, 4124.87179460, 4117.69230742, 4082.94871761, 4124.87179460, 4111.92307665, 4139.35897415, 4939.10256557, 4127.56410229, 4126.92307665, 4147.43589723,12.0
4190.64102551, 4073.84615350, 4135.76923056, 4134.87179460, 4127.17948691, 4117.43589716, 4077.82051248, 4121.28205101, 4108.58974332, 4139.87179467, 4937.43589890, 4124.87179460, 4124.74358947, 4142.30769210,12.0
4177.82051269, 4062.94871754, 4119.87179460, 4130.12820485, 4124.10256383, 4107.43589716, 4065.38461497, 4103.58974332, 4087.30769196, 4128.58974332, 4933.20512967, 4105.12820485, 4119.74358947, 4141.15384595,12.0
4191.28205115, 4083.46153812, 4131.92307665, 4143.20512800, 4126.53846126, 4123.58974332, 4086.02564068, 4118.71794844, 4102.82051255, 4124.99999973, 4939.48718095, 4121.28205101, 4125.25640998, 4143.97435877,12.0
4185.38461525, 4087.05128171, 4136.41025621, 4139.74358954, 4127.30769203, 4128.97435870, 4094.61538427, 4127.82051255, 4104.87179460, 4131.79487152, 4933.33333480, 4129.23076896, 4125.38461511, 4144.35897415,12.0
4187.82051269, 4063.58974318, 4118.20512793, 4115.12820485, 4125.76923050, 4108.07692280, 4069.87179453, 4104.74358947, 4072.56410222, 4134.87179460, 4919.23077062, 4101.92307658, 4120.38461511, 4142.94871774,12.0
4198.20512807, 4067.05128164, 4118.84615357, 4116.15384588, 4124.23076896, 4104.74358947, 4070.64102530, 4102.43589709, 4075.25640991, 4131.02564075, 4921.66666806, 4097.30769196, 4123.71794844, 4143.20512800,12.0
4184.35897422, 4085.51282017, 4124.61538434, 4126.92307665, 4122.94871767, 4116.66666639, 4092.69230735, 4123.33333306, 4100.12820478, 4131.92307665, 4925.89743736, 4112.94871767, 4124.87179460, 4147.82051262,12.0
4196.41025628, 4083.84615350, 4116.92307665, 4119.23076896, 4127.17948691, 4122.69230742, 4093.20512786, 4122.82051255, 4095.76923043, 4136.79487159, 4920.64102703, 4107.17948691, 4125.25640998, 4149.23076903,12.0
4190.38461525, 4076.02564068, 4113.33333306, 4114.87179460, 4124.99999973, 4125.89743562, 4087.43589709, 4114.23076896, 4091.28205094, 4133.97435870, 4916.79487319, 4102.56410229, 4126.92307665, 4145.64102544,12.0
4185.51282038, 4086.41025607, 4122.43589716, 4110.51282024, 4123.33333306, 4117.43589716, 4084.99999966, 4112.82051255, 4098.07692273, 4130.76923050, 4914.61538601, 4111.28205101, 4126.28205101, 4147.43589723,12.0
4199.23076910, 4089.87179453, 4125.38461511, 4097.69230735, 4126.41025614, 4101.66666632, 4074.48717914, 4109.48717921, 4092.56410222, 4132.94871767, 4917.17948857, 4113.71794844, 4123.07692280, 4148.07692287,12.0
4182.30769217, 4072.56410222, 4112.43589716, 4098.84615350, 4122.17948691, 4093.07692273, 4058.07692266, 4104.23076896, 4082.94871761, 4130.76923050, 4923.84615531, 4104.48717921, 4119.74358947, 4147.43589723,12.0
4189.23076910, 4072.30769196, 4107.82051255, 4107.17948691, 4122.56410229, 4090.25640991, 4054.35897395, 4101.66666632, 4081.28205094, 4126.53846126, 4924.48718095, 4097.30769196, 4126.02564075, 4149.10256390,12.0
4185.51282038, 4098.84615350, 4124.35897408, 4118.84615357, 4125.12820485, 4110.12820485, 4091.15384581, 4128.46153819, 4104.61538434, 4129.99999973, 4938.58974505, 4119.48717921, 4128.33333306, 4144.23076903,12.0
4174.74358961, 4122.69230742, 4146.02564082, 4137.17948697, 4122.30769203, 4139.87179467, 4129.23076896, 4161.53846133, 4133.71794844, 4135.51282031, 4969.87179640, 4151.28205108, 4124.35897408, 4142.56410236,12.0
4191.15384602, 4113.71794844, 4133.84615357, 4115.51282024, 4123.58974332, 4124.87179460, 4097.56410222, 4124.10256383, 4105.64102537, 4129.48717921, 4963.71795025, 4127.69230742, 4125.38461511, 4146.79487159,12.0
4176.92307679, 4090.38461504, 4107.05128178, 4076.15384581, 4126.28205101, 4099.48717914, 4063.58974318, 4075.25640991, 4061.41025600, 4125.64102537, 4939.35897582, 4089.10256376, 4123.71794844, 4146.02564082,12.0
4181.66666653, 4101.28205094, 4119.48717921, 4090.64102530, 4127.30769203, 4120.12820485, 4096.53846119, 4100.38461504, 4074.61538427, 4130.51282024, 4961.53846307, 4105.25640998, 4124.10256383, 4144.35897415,12.0
4187.05128192, 4112.05128178, 4127.05128178, 4108.58974332, 4124.23076896, 4126.15384588, 4106.15384588, 4124.10256383, 4091.53846119, 4129.74358947, 4991.28205288, 4119.99999973, 4124.61538434, 4145.76923056,12.0
4177.94871781, 4109.10256383, 4118.07692280, 4102.82051255, 4124.48717921, 4107.82051255, 4086.28205094, 4118.71794844, 4092.82051248, 4129.10256383, 5006.02564263, 4112.43589716, 4122.82051255, 4148.46153826,12.0
4191.66666653, 4121.41025614, 4133.07692280, 4119.35897408, 4130.51282024, 4124.74358947, 4111.92307665, 4140.12820492, 4122.69230742, 4130.25640998, 5048.84615552, 4128.07692280, 4126.02564075, 4145.89743569,12.0
4182.82051269, 4132.56410229, 4143.33333313, 4132.43589716, 4127.82051255, 4142.05128185, 4133.46153819, 4161.41025621, 4148.46153826, 4129.10256383, 5089.74359155, 4149.10256390, 4127.30769203, 4142.94871774,12.0
4190.25641012, 4129.23076896, 4134.74358947, 4115.89743562, 4123.71794844, 4126.92307665, 4107.69230742, 4146.53846133, 4134.99999973, 4129.10256383, 5081.66666841, 4142.30769210, 4127.43589716, 4146.15384595,12.0
4193.84615371, 4114.74358947, 4121.53846126, 4095.89743555, 4124.35897408, 4108.58974332, 4077.17948684, 4123.33333306, 4112.82051255, 4129.61538434, 5055.25641200, 4121.28205101, 4127.82051255, 4146.66666646,12.0
4179.87179474, 4116.92307665, 4120.12820485, 4093.46153812, 4125.89743562, 4110.64102537, 4076.28205094, 4122.56410229, 4111.79487152, 4126.92307665, 5046.02564270, 4118.97435870, 4126.15384588, 4145.89743569,12.0
4196.02564089, 4137.94871774, 4132.05128178, 4093.84615350, 4127.17948691, 4122.43589716, 4092.17948684, 4135.89743569, 4113.71794844, 4125.89743562, 5033.46154013, 4132.30769203, 4126.02564075, 4146.28205108,12.0
4184.87179474, 4138.33333313, 4131.66666639, 4091.92307658, 4125.76923050, 4126.02564075, 4105.38461511, 4133.46153819, 4103.20512793, 4128.33333306, 5010.38461699, 4135.76923056, 4124.74358947, 4146.15384595,12.0
4180.76923063, 4121.02564075, 4119.99999973, 4085.12820478, 4128.97435870, 4114.87179460, 4103.33333306, 4111.66666639, 4086.41025607, 4130.64102537, 4991.02564263, 4122.17948691, 4128.07692280, 4147.94871774,12.0
4187.05128192, 4123.71794844, 4117.82051255, 4072.05128171, 4127.69230742, 4115.38461511, 4102.56410229, 4109.35897408, 4086.41025607, 4133.33333306, 4980.00000153, 4117.30769203, 4129.74358947, 4146.79487159,12.0
4173.97435884, 4137.43589723, 4119.10256383, 4067.30769189, 4122.56410229, 4133.84615357, 4103.46153819, 4116.79487152, 4100.25640991, 4132.69230742, 4979.23077076, 4119.10256383, 4123.97435870, 4141.92307672,12.0
4191.28205115, 4127.82051255, 4114.87179460, 4060.38461497, 4125.38461511, 4136.28205108, 4096.66666632, 4109.10256383, 4107.82051255, 4131.41025614, 4975.25641179, 4110.89743562, 4127.05128178, 4143.71794851,12.0
4184.99999986, 4104.35897408, 4101.02564068, 4032.94871747, 4124.74358947, 4115.51282024, 4089.61538427, 4102.30769196, 4099.10256376, 4134.23076896, 4956.53846307, 4093.84615350, 4130.51282024, 4148.46153826,12.0
4178.97435884, 4099.10256376, 4092.30769196, 4012.43589695, 4123.97435870, 4096.28205094, 4072.30769196, 4096.79487145, 4082.30769196, 4135.76923056, 4951.15384762, 4081.92307658, 4129.10256383, 4147.43589723,12.0
4178.97435884, 4099.10256376, 4092.30769196, 4012.43589695, 4123.97435870, 4096.28205094, 4072.30769196, 4096.79487145, 4082.30769196, 4135.76923056, 4951.15384762, 4081.92307658, 4129.10256383, 4147.43589723,12.0
4190.25641012, 4116.41025614, 4110.64102537, 4033.97435849, 4125.89743562, 4104.35897408, 4071.15384581, 4111.02564075, 4107.17948691, 4132.43589716, 4971.66666820, 4109.23076896, 4129.23076896, 4141.53846133,12.0
4178.58974345, 4124.10256383, 4127.56410229, 4047.69230728, 4124.74358947, 4116.66666639, 4088.97435863, 4130.64102537, 4134.74358947, 4131.41025614, 4975.38461692, 4132.94871767, 4125.64102537, 4141.41025621,12.0
4189.74358961, 4109.99999973, 4115.76923050, 4023.07692259, 4126.41025614, 4106.15384588, 4081.28205094, 4110.89743562, 4102.17948684, 4137.17948697, 4953.46153992, 4105.89743562, 4125.51282024, 4146.66666646,12.0
4187.69230756, 4110.51282024, 4105.64102537, 4026.28205080, 4124.99999973, 4098.33333299, 4068.71794830, 4095.89743555, 4082.56410222, 4136.66666646, 4947.30769377, 4097.43589709, 4124.99999973, 4144.74358954,12.0
4185.51282038, 4122.94871767, 4114.99999973, 4045.64102523, 4124.99999973, 4102.69230742, 4074.87179453, 4111.41025614, 4100.64102530, 4126.15384588, 4950.89743736, 4120.64102537, 4123.46153819, 4143.71794851,12.0
4199.61538448, 4107.30769203, 4114.23076896, 4028.20512772, 4126.02564075, 4104.99999973, 4080.38461504, 4114.48717921, 4099.23076889, 4124.48717921, 4940.76923223, 4114.99999973, 4122.69230742, 4146.79487159,12.0
4185.25641012, 4092.82051248, 4100.89743555, 4004.35897388, 4120.89743562, 4097.56410222, 4073.71794837, 4104.61538434, 4083.07692273, 4133.46153819, 4900.89743729, 4094.23076889, 4117.56410229, 4148.07692287,12.0
4195.38461525, 4116.66666639, 4112.17948691, 4024.35897388, 4122.17948691, 4104.35897408, 4078.97435863, 4112.30769203, 4089.87179453, 4134.35897408, 4843.20512946, 4108.58974332, 4119.23076896, 4147.94871774,12.0
4193.07692294, 4129.23076896, 4128.84615357, 4059.74358933, 4123.71794844, 4122.82051255, 4099.48717914, 4134.61538434, 4112.56410229, 4130.76923050, 4811.53846272, 4137.43589723, 4121.66666639, 4144.74358954,12.0
4180.38461525, 4114.87179460, 4125.64102537, 4057.05128164, 4122.05128178, 4119.35897408, 4103.97435870, 4144.61538441, 4124.87179460, 4131.92307665, 4802.94871913, 4134.35897408, 4119.99999973, 4145.25641005,12.0
4196.28205115, 4111.53846126, 4117.05128178, 4039.48717907, 4125.76923050, 4105.38461511, 4087.69230735, 4130.64102537, 4118.84615357, 4132.30769203, 4788.46153958, 4115.76923050, 4121.28205101, 4146.79487159,12.0
4181.15384602, 4118.33333306, 4113.46153819, 4043.33333292, 4127.05128178, 4109.87179460, 4082.82051248, 4122.56410229, 4112.17948691, 4133.07692280, 4773.71794983, 4115.12820485, 4118.84615357, 4144.48717928,12.0
4182.94871781, 4126.41025614, 4121.79487152, 4051.41025600, 4127.69230742, 4122.17948691, 4096.41025607, 4128.07692280, 4116.02564075, 4137.82051262, 4778.58974471, 4128.97435870, 4119.99999973, 4145.25641005,12.0
4189.35897422, 4125.89743562, 4126.15384588, 4048.07692266, 4127.30769203, 4115.25640998, 4096.28205094, 4124.99999973, 4114.48717921, 4137.69230749, 4786.79487291, 4134.61538434, 4120.76923050, 4145.51282031,12.0
4176.41025628, 4114.99999973, 4121.53846126, 4051.41025600, 4124.48717921, 4105.25640998, 4088.07692273, 4121.02564075, 4104.99999973, 4133.33333306, 4778.07692419, 4133.20512793, 4117.30769203, 4143.20512800,12.0
4189.61538448, 4118.97435870, 4125.76923050, 4062.56410215, 4126.53846126, 4110.89743562, 4095.76923043, 4123.46153819, 4097.82051248, 4134.23076896, 4767.56410368, 4133.46153819, 4121.28205101, 4142.94871774,12.0
4180.51282038, 4128.71794844, 4131.92307665, 4066.41025600, 4125.64102537, 4124.74358947, 4116.79487152, 4127.94871767, 4100.25640991, 4133.07692280, 4766.92307804, 4136.28205108, 4122.56410229, 4143.58974339,12.0
4182.43589730, 4133.46153819, 4136.79487159, 4071.66666632, 4125.38461511, 4137.82051262, 4124.74358947, 4127.94871767, 4105.76923050, 4130.64102537, 4770.00000112, 4140.12820492, 4122.56410229, 4143.46153826,12.0
4193.97435884, 4129.35897408, 4127.56410229, 4062.56410215, 4127.17948691, 4121.02564075, 4097.69230735, 4111.79487152, 4089.87179453, 4131.92307665, 4759.35897547, 4128.84615357, 4126.02564075, 4143.07692287,12.0
4180.64102551, 4114.48717921, 4112.17948691, 4047.56410215, 4124.74358947, 4093.97435863, 4072.17948684, 4104.10256383, 4078.46153812, 4133.97435870, 4749.87179592, 4116.92307665, 4124.74358947, 4147.05128185,12.0
4195.12820499, 4117.17948691, 4124.48717921, 4059.48717907, 4125.51282024, 4105.89743562, 4093.97435863, 4131.02564075, 4102.56410229, 4134.10256383, 4751.92307797, 4130.38461511, 4124.87179460, 4149.10256390,12.0
4192.30769217, 4133.71794844, 4135.12820485, 4075.89743555, 4126.66666639, 4129.61538434, 4124.23076896, 4154.87179467, 4123.33333306, 4132.05128178, 4743.33333438, 4141.15384595, 4123.07692280, 4145.38461518,12.0
4185.64102551, 4133.07692280, 4124.10256383, 4066.66666625, 4124.87179460, 4122.82051255, 4116.02564075, 4143.07692287, 4112.56410229, 4131.02564075, 4735.00000105, 4131.66666639, 4123.07692280, 4146.28205108,12.0
4197.94871781, 4117.56410229, 4114.99999973, 4050.76923036, 4124.35897408, 4114.10256383, 4101.79487145, 4127.30769203, 4105.12820485, 4131.53846126, 4737.94871899, 4118.84615357, 4128.58974332, 4147.05128185,12.0
4184.61538448, 4113.20512793, 4110.64102537, 4052.30769189, 4123.71794844, 4126.41025614, 4110.51282024, 4134.87179460, 4120.76923050, 4130.89743562, 4735.25641130, 4115.51282024, 4126.41025614, 4143.46153826,12.0
4186.02564089, 4111.66666639, 4105.12820485, 4055.51282010, 4125.38461511, 4126.79487152, 4112.30769203, 4131.92307665, 4123.07692280, 4129.99999973, 4725.38461636, 4108.20512793, 4122.69230742, 4143.97435877,12.0
4179.10256397, 4103.33333306, 4099.35897402, 4047.94871754, 4122.43589716, 4118.33333306, 4103.84615357, 4112.17948691, 4104.87179460, 4130.76923050, 4721.79487277, 4098.20512786, 4122.43589716, 4146.15384595,12.0
4174.61538448, 4116.92307665, 4108.97435870, 4055.64102523, 4122.05128178, 4131.66666639, 4113.71794844, 4115.51282024, 4108.07692280, 4134.61538434, 4729.61538566, 4111.66666639, 4124.61538434, 4145.64102544,12.0
4188.97435884, 4125.51282024, 4116.41025614, 4065.89743548, 4127.82051255, 4133.20512793, 4111.53846126, 4124.87179460, 4117.56410229, 4134.74358947, 4728.71794976, 4121.15384588, 4126.53846126, 4145.25641005,12.0
4172.05128192, 4108.20512793, 4102.43589709, 4054.10256369, 4124.74358947, 4107.56410229, 4083.58974325, 4111.66666639, 4095.89743555, 4132.17948691, 4717.30769328, 4105.76923050, 4123.71794844, 4145.25641005,12.0
4178.97435884, 4113.07692280, 4106.92307665, 4058.46153805, 4122.82051255, 4106.02564075, 4078.33333299, 4100.64102530, 4083.33333299, 4134.10256383, 4720.00000098, 4110.64102537, 4124.35897408, 4144.87179467,12.0
4182.05128192, 4130.38461511, 4126.79487152, 4081.79487145, 4124.99999973, 4120.38461511, 4094.99999966, 4114.74358947, 4107.94871767, 4133.84615357, 4729.48718053, 4142.17948697, 4123.46153819, 4143.07692287,12.0
4175.12820499, 4129.10256383, 4125.25640998, 4074.99999966, 4123.20512793, 4106.53846126, 4092.17948684, 4118.97435870, 4116.66666639, 4131.15384588, 4726.15384720, 4145.25641005, 4122.56410229, 4145.64102544,12.0
4192.43589730, 4125.51282024, 4113.97435870, 4057.69230728, 4123.33333306, 4096.02564068, 4080.76923043, 4102.30769196, 4093.33333299, 4134.10256383, 4712.82051380, 4119.23076896, 4125.12820485, 4146.79487159,12.0
4179.10256397, 4126.79487152, 4114.99999973, 4068.84615343, 4123.84615357, 4117.17948691, 4097.82051248, 4117.94871767, 4096.66666632, 4131.02564075, 4710.12820610, 4124.23076896, 4120.51282024, 4143.46153826,12.0
4183.58974345, 4126.28205101, 4121.79487152, 4079.74358940, 4124.99999973, 4129.10256383, 4114.35897408, 4146.02564082, 4125.76923050, 4122.43589716, 4717.82051380, 4141.66666646, 4120.89743562, 4143.84615364,12.0
4190.89743576, 4119.61538434, 4111.41025614, 4068.58974318, 4121.79487152, 4116.41025614, 4108.33333306, 4133.46153819, 4128.07692280, 4127.69230742, 4715.38461636, 4127.56410229, 4124.48717921, 4143.84615364,12.0
4180.76923063, 4122.82051255, 4103.71794844, 4065.51282010, 4120.12820485, 4116.66666639, 4111.79487152, 4120.25640998, 4110.51282024, 4133.33333306, 4705.76923175, 4113.97435870, 4121.28205101, 4145.89743569,12.0
4194.87179474, 4136.28205108, 4116.28205101, 4083.58974325, 4127.05128178, 4134.35897408, 4127.69230742, 4134.48717921, 4114.87179460, 4126.92307665, 4705.51282149, 4129.48717921, 4121.02564075, 4146.92307672,12.0
4183.20512807, 4134.10256383, 4115.51282024, 4086.66666632, 4126.28205101, 4137.56410236, 4129.87179460, 4129.35897408, 4126.02564075, 4129.23076896, 4706.28205226, 4137.30769210, 4122.43589716, 4144.23076903,12.0
4182.82051269, 4134.48717921, 4112.43589716, 4078.46153812, 4122.94871767, 4133.07692280, 4129.48717921, 4117.69230742, 4126.79487152, 4136.66666646, 4709.87179585, 4131.15384588, 4124.23076896, 4145.25641005,12.0
4187.17948704, 4151.41025621, 4129.99999973, 4099.74358940, 4123.97435870, 4142.69230749, 4141.41025621, 4149.35897415, 4139.99999980, 4133.33333306, 4724.87179585, 4151.02564082, 4123.33333306, 4144.87179467,12.0
4170.76923063, 4151.66666646, 4132.30769203, 4113.07692280, 4123.46153819, 4138.71794851, 4130.76923050, 4168.71794858, 4145.64102544, 4131.92307665, 4719.48718046, 4156.92307672, 4120.64102537, 4144.10256390,12.0
4184.48717935, 4136.02564082, 4115.38461511, 4087.30769196, 4123.46153819, 4114.23076896, 4100.25640991, 4135.76923056, 4124.48717921, 4138.07692287, 4697.05128303, 4126.79487152, 4122.43589716, 4143.84615364,12.0
4178.46153833, 4135.51282031, 4109.10256383, 4072.82051248, 4122.56410229, 4106.53846126, 4097.56410222, 4121.53846126, 4119.87179460, 4136.15384595, 4695.64102662, 4118.20512793, 4122.56410229, 4143.71794851,12.0
4175.64102551, 4146.28205108, 4117.05128178, 4087.56410222, 4124.99999973, 4127.05128178, 4124.99999973, 4148.71794851, 4136.79487159, 4126.02564075, 4707.30769328, 4138.07692287, 4123.33333306, 4144.74358954,12.0
4186.66666653, 4141.79487159, 4115.25640998, 4089.61538427, 4127.30769203, 4132.82051255, 4127.17948691, 4153.46153826, 4140.12820492, 4126.53846126, 4709.23077021, 4141.02564082, 4122.56410229, 4141.41025621,12.0
4173.84615371, 4132.30769203, 4103.97435870, 4078.07692273, 4123.58974332, 4109.87179460, 4097.56410222, 4129.23076896, 4131.02564075, 4132.05128178, 4700.25641123, 4125.76923050, 4118.33333306, 4140.25641005,12.0
4184.48717935, 4140.76923056, 4110.12820485, 4081.15384581, 4123.20512793, 4109.61538434, 4102.17948684, 4120.76923050, 4117.30769203, 4126.79487152, 4693.20512911, 4129.87179460, 4122.69230742, 4143.71794851,12.0
4181.28205115, 4139.74358954, 4114.74358947, 4083.33333299, 4123.97435870, 4132.17948691, 4130.12820485, 4121.53846126, 4103.46153819, 4126.02564075, 4694.35897534, 4138.20512800, 4125.64102537, 4142.82051262,12.0
4178.20512807, 4127.30769203, 4104.87179460, 4075.51282017, 4123.97435870, 4136.66666646, 4126.15384588, 4119.74358947, 4108.84615357, 4137.94871774, 4690.89743680, 4126.53846126, 4123.97435870, 4142.69230749,12.0
4189.87179474, 4126.41025614, 4098.46153812, 4071.66666632, 4122.82051255, 4134.23076896, 4119.74358947, 4128.58974332, 4116.79487152, 4138.07692287, 4676.02564193, 4112.56410229, 4124.61538434, 4144.87179467,12.0
4178.58974345, 4132.56410229, 4105.38461511, 4080.89743555, 4118.71794844, 4142.05128185, 4137.56410236, 4141.41025621, 4117.82051255, 4133.07692280, 4678.71794963, 4122.17948691, 4122.94871767, 4146.02564082,12.0
4190.38461525, 4133.33333306, 4110.25640998, 4078.84615350, 4121.92307665, 4129.10256383, 4123.07692280, 4126.41025614, 4115.76923050, 4137.69230749, 4688.71794963, 4131.41025614, 4125.12820485, 4146.66666646,12.0
4187.05128192, 4122.30769203, 4094.87179453, 4054.74358933, 4123.33333306, 4095.89743555, 4083.58974325, 4094.10256376, 4098.07692273, 4136.02564082, 4675.12820604, 4113.71794844, 4125.89743562, 4145.25641005,12.0
4179.48717935, 4125.12820485, 4098.58974325, 4057.43589702, 4121.28205101, 4095.64102530, 4089.35897402, 4100.89743555, 4088.33333299, 4133.20512793, 4670.12820604, 4117.17948691, 4124.74358947, 4145.12820492,12.0
4193.97435884, 4136.41025621, 4119.61538434, 4086.15384581, 4122.69230742, 4118.84615357, 4122.17948691, 4138.97435877, 4117.43589716, 4137.94871774, 4685.64102655, 4142.94871774, 4126.66666639, 4143.71794851,12.0
4172.56410243, 4122.43589716, 4106.02564075, 4081.28205094, 4120.76923050, 4118.20512793, 4126.15384588, 4142.43589723, 4134.87179460, 4132.17948691, 4676.92307783, 4130.12820485, 4124.23076896, 4141.53846133,12.0
4175.76923063, 4119.61538434, 4094.87179453, 4066.66666625, 4123.97435870, 4115.51282024, 4116.92307665, 4118.07692280, 4114.61538434, 4123.84615357, 4658.07692391, 4108.20512793, 4126.92307665, 4144.74358954,12.0
4180.64102551, 4140.64102544, 4109.23076896, 4079.48717914, 4127.05128178, 4134.61538434, 4130.38461511, 4128.07692280, 4115.25640998, 4129.61538434, 4663.71794963, 4123.58974332, 4129.23076896, 4147.30769210,12.0
4165.51282031, 4144.48717928, 4113.71794844, 4080.38461504, 4123.97435870, 4154.48717928, 4154.74358954, 4148.46153826, 4135.38461518, 4133.58974332, 4672.30769321, 4134.48717921, 4124.87179460, 4144.99999980,12.0
4181.53846140, 4128.84615357, 4103.33333306, 4055.89743548, 4123.84615357, 4140.89743569, 4141.53846133, 4127.17948691, 4120.51282024, 4130.89743562, 4657.43589827, 4110.76923050, 4124.99999973, 4141.66666646,12.0
4175.89743576, 4118.33333306, 4092.69230735, 4051.92307651, 4124.23076896, 4107.30769203, 4101.53846119, 4096.66666632, 4085.51282017, 4132.43589716, 4637.43589827, 4090.51282017, 4123.33333306, 4140.51282031,12.0
4176.41025628, 4124.99999973, 4097.94871761, 4076.15384581, 4125.76923050, 4109.23076896, 4098.46153812, 4092.56410222, 4080.64102530, 4133.97435870, 4643.97435981, 4101.15384581, 4123.33333306, 4142.82051262,12.0
4184.48717935, 4140.12820492, 4112.43589716, 4087.56410222, 4125.89743562, 4123.33333306, 4123.97435870, 4111.15384588, 4106.92307665, 4130.76923050, 4657.94871879, 4127.69230742, 4126.02564075, 4141.92307672,12.0
4176.15384602, 4149.35897415, 4119.48717921, 4084.99999966, 4122.69230742, 4107.69230742, 4126.41025614, 4127.94871767, 4120.89743562, 4124.87179460, 4657.69230853, 4145.25641005, 4128.58974332, 4141.53846133,12.0
4187.05128192, 4142.17948697, 4116.92307665, 4084.23076889, 4124.35897408, 4101.02564068, 4115.12820485, 4127.43589716, 4108.58974332, 4125.51282024, 4649.48718032, 4139.23076903, 4130.89743562, 4143.84615364,12.0
4177.43589730, 4132.05128178, 4105.76923050, 4075.89743555, 4125.51282024, 4115.76923050, 4119.99999973, 4126.79487152, 4108.20512793, 4132.17948691, 4638.84615468, 4122.82051255, 4126.53846126, 4146.02564082,12.0
4184.23076910, 4135.64102544, 4104.74358947, 4066.15384574, 4126.53846126, 4118.71794844, 4128.07692280, 4128.71794844, 4121.66666639, 4130.38461511, 4637.43589827, 4118.20512793, 4126.15384588, 4148.97435877,12.0
4195.89743576, 4147.82051262, 4122.43589716, 4087.17948684, 4126.28205101, 4127.82051255, 4139.87179467, 4140.64102544, 4133.07692280, 4125.25640998, 4652.05128289, 4142.94871774, 4129.35897408, 4145.51282031,12.0
4173.46153833, 4151.92307672, 4132.30769203, 4108.46153819, 4121.02564075, 4138.33333313, 4147.69230749, 4155.12820492, 4137.69230749, 4132.30769203, 4664.23077014, 4165.64102544, 4126.15384588, 4142.30769210,12.0
4181.66666653, 4128.33333306, 4111.28205101, 4073.58974325, 4122.56410229, 4106.53846126, 4113.20512793, 4118.20512793, 4106.02564075, 4135.25640998, 4648.20512904, 4127.94871767, 4125.12820485, 4145.76923056,12.0
4178.84615371, 4108.71794844, 4089.48717914, 4048.46153805, 4124.61538434, 4079.48717914, 4081.28205094, 4077.82051248, 4075.76923043, 4127.43589716, 4630.00000084, 4095.76923043, 4125.25640998, 4147.82051262,12.0
4171.15384602, 4140.64102544, 4113.97435870, 4092.94871761, 4123.71794844, 4111.66666639, 4118.84615357, 4119.74358947, 4107.94871767, 4128.84615357, 4646.92307776, 4143.07692287, 4125.51282024, 4148.71794851,12.0
4177.82051269, 4176.53846140, 4148.07692287, 4131.15384588, 4123.71794844, 4150.12820492, 4172.05128192, 4172.05128192, 4152.17948697, 4134.23076896, 4669.87179578, 4192.30769217, 4128.07692280, 4146.53846133,12.0
4163.71794851, 4162.17948697, 4137.17948697, 4110.38461511, 4123.20512793, 4136.66666646, 4160.25641005, 4155.12820492, 4141.02564082, 4126.41025614, 4659.23077007, 4175.76923063, 4125.12820485, 4143.84615364,12.0
4172.30769217, 4140.12820492, 4120.38461511, 4089.23076889, 4123.97435870, 4113.33333306, 4131.02564075, 4130.12820485, 4118.58974332, 4123.20512793, 4640.00000084, 4150.51282031, 4123.33333306, 4141.92307672,12.0
4172.30769217, 4139.35897415, 4121.92307665, 4093.71794837, 4121.92307665, 4117.05128178, 4134.74358947, 4135.12820485, 4124.35897408, 4132.82051255, 4640.25641109, 4152.30769210, 4123.07692280, 4139.35897415,12.0
4169.23076910, 4145.12820492, 4124.99999973, 4102.17948684, 4122.82051255, 4122.30769203, 4134.10256383, 4136.66666646, 4134.48717921, 4130.76923050, 4644.35897520, 4152.17948697, 4123.97435870, 4142.82051262,12.0
4181.41025628, 4158.20512800, 4132.05128178, 4113.20512793, 4125.51282024, 4128.58974332, 4141.53846133, 4137.43589723, 4137.43589723, 4122.94871767, 4647.17948802, 4158.20512800, 4126.15384588, 4145.64102544,12.0
4171.79487166, 4164.74358954, 4130.51282024, 4110.64102537, 4123.20512793, 4131.15384588, 4153.71794851, 4135.89743569, 4114.87179460, 4128.33333306, 4645.38461622, 4160.38461518, 4122.05128178, 4144.10256390,12.0
4187.56410243, 4148.84615364, 4116.28205101, 4090.51282017, 4124.74358947, 4114.87179460, 4129.61538434, 4108.84615357, 4083.07692273, 4136.41025621, 4628.46153930, 4135.64102544, 4123.71794844, 4144.87179467,12.0
4188.97435884, 4138.58974339, 4113.58974332, 4097.56410222, 4127.05128178, 4115.12820485, 4119.99999973, 4104.23076896, 4098.20512786, 4134.35897408, 4624.61538538, 4130.38461511, 4128.33333306, 4145.51282031,12.0
4176.79487166, 4162.17948697, 4130.76923050, 4127.56410229, 4125.64102537, 4140.38461518, 4154.10256390, 4145.51282031, 4131.92307665, 4127.56410229, 4642.56410340, 4159.48717928, 4128.71794844, 4146.02564082,12.0
4191.02564089, 4166.79487159, 4128.58974332, 4112.17948691, 4124.61538434, 4132.94871767, 4148.97435877, 4145.51282031, 4118.46153819, 4127.30769203, 4638.33333417, 4157.05128185, 4129.48717921, 4144.99999980,12.0
4172.94871781, 4132.82051255, 4100.89743555, 4071.92307658, 4123.20512793, 4098.46153812, 4102.94871767, 4096.79487145, 4088.97435863, 4130.38461511, 4615.12820590, 4120.76923050, 4127.82051255, 4143.20512800,12.0
4174.61538448, 4132.17948691, 4104.61538434, 4083.20512786, 4126.41025614, 4099.87179453, 4104.48717921, 4093.07692273, 4094.48717914, 4134.10256383, 4616.53846231, 4122.05128178, 4128.97435870, 4144.48717928,12.0
4181.66666653, 4154.61538441, 4124.61538434, 4117.94871767, 4124.99999973, 4122.94871767, 4137.30769210, 4134.23076896, 4117.05128178, 4134.61538434, 4631.41025725, 4151.02564082, 4129.23076896, 4144.74358954,12.0
4163.33333313, 4145.38461518, 4123.07692280, 4117.43589716, 4120.38461511, 4125.89743562, 4139.87179467, 4146.15384595, 4134.23076896, 4128.71794844, 4633.97435981, 4154.99999980, 4127.69230742, 4145.25641005,12.0
4174.48717935, 4140.38461518, 4119.87179460, 4101.92307658, 4125.89743562, 4112.69230742, 4121.15384588, 4129.10256383, 4139.48717928, 4121.02564075, 4638.33333417, 4147.82051262, 4130.89743562, 4147.69230749,12.0
4170.76923063, 4153.97435877, 4117.82051255, 4104.48717921, 4125.38461511, 4103.97435870, 4116.92307665, 4124.35897408, 4124.61538434, 4126.66666639, 4640.00000084, 4147.69230749, 4128.20512793, 4148.20512800,12.0
4171.41025628, 4158.33333313, 4122.94871767, 4127.05128178, 4121.92307665, 4118.20512793, 4136.02564082, 4138.84615364, 4119.61538434, 4139.87179467, 4634.87179571, 4159.35897415, 4124.23076896, 4145.89743569,12.0
4175.38461525, 4144.10256390, 4123.07692280, 4126.15384588, 4123.84615357, 4114.23076896, 4128.33333306, 4134.48717921, 4126.28205101, 4137.43589723, 4629.48718032, 4157.30769210, 4126.15384588, 4141.41025621,12.0
4162.56410236, 4125.89743562, 4103.58974332, 4091.02564068, 4123.71794844, 4080.25640991, 4093.46153812, 4103.20512793, 4103.84615357, 4133.58974332, 4620.89743667, 4127.69230742, 4126.53846126, 4142.05128185,12.0
4183.07692294, 4138.84615364, 4106.66666639, 4091.92307658, 4126.15384588, 4089.35897402, 4104.23076896, 4102.30769196, 4083.71794837, 4137.69230749, 4623.20512897, 4128.97435870, 4127.17948691, 4145.38461518,12.0
4180.25641012, 4167.17948697, 4131.15384588, 4134.23076896, 4125.51282024, 4134.23076896, 4150.51282031, 4138.97435877, 4113.84615357, 4137.56410236, 4639.35897520, 4166.79487159, 4127.30769203, 4142.43589723,12.0
4174.23076910, 4159.99999980, 4128.58974332, 4138.46153826, 4124.61538434, 4136.53846133, 4152.43589723, 4147.05128185, 4136.92307672, 4131.66666639, 4646.79487263, 4168.84615371, 4127.43589716, 4140.25641005,12.0
4188.33333320, 4135.89743569, 4109.61538434, 4112.17948691, 4124.61538434, 4107.30769203, 4123.97435870, 4121.28205101, 4114.99999973, 4127.82051255, 4639.74359058, 4142.82051262, 4127.05128178, 4141.28205108,12.0
4177.56410243, 4141.92307672, 4111.41025614, 4114.10256383, 4122.30769203, 4107.82051255, 4127.43589716, 4121.79487152, 4107.56410229, 4132.69230742, 4637.69230853, 4146.28205108, 4124.87179460, 4145.25641005,12.0
4185.64102551, 4151.79487159, 4117.69230742, 4117.69230742, 4125.64102537, 4119.99999973, 4138.84615364, 4132.94871767, 4121.02564075, 4137.69230749, 4653.46153930, 4149.48717928, 4126.92307665, 4149.10256390,12.0
4180.76923063, 4135.64102544, 4108.46153819, 4107.17948691, 4124.74358947, 4114.10256383, 4138.46153826, 4135.38461518, 4127.17948691, 4134.61538434, 4675.12820604, 4135.51282031, 4124.74358947, 4145.51282031,12.0
4172.05128192, 4128.20512793, 4107.05128178, 4107.94871767, 4119.87179460, 4110.12820485, 4138.20512800, 4141.41025621, 4127.43589716, 4133.71794844, 4677.17948809, 4134.74358947, 4124.10256383, 4144.23076903,12.0
4182.94871781, 4125.25640998, 4105.51282024, 4103.58974332, 4122.05128178, 4111.92307665, 4127.56410229, 4121.92307665, 4102.82051255, 4138.97435877, 4654.10256494, 4127.17948691, 4128.58974332, 4146.92307672,12.0
4165.89743569, 4115.89743562, 4093.71794837, 4098.71794837, 4123.84615357, 4110.89743562, 4119.87179460, 4101.92307658, 4082.82051248, 4133.84615357, 4640.51282135, 4116.15384588, 4124.99999973, 4146.79487159,12.0
4172.82051269, 4119.74358947, 4092.94871761, 4094.35897402, 4125.25640998, 4100.38461504, 4113.71794844, 4102.82051255, 4089.10256376, 4128.07692280, 4639.35897520, 4109.35897408, 4125.12820485, 4143.33333313,12.0
4175.51282038, 4128.97435870, 4099.48717914, 4091.92307658, 4124.99999973, 4094.23076889, 4106.41025614, 4108.07692280, 4093.58974325, 4133.84615357, 4631.92307776, 4111.02564075, 4127.56410229, 4140.76923056,12.0
4162.43589723, 4134.87179460, 4110.25640998, 4111.15384588, 4121.53846126, 4108.20512793, 4117.69230742, 4117.56410229, 4097.30769196, 4130.51282024, 4630.76923161, 4137.43589723, 4126.92307665, 4142.82051262,12.0
4172.30769217, 4139.99999980, 4120.51282024, 4124.99999973, 4123.07692280, 4121.28205101, 4141.41025621, 4132.82051255, 4112.30769203, 4122.17948691, 4628.20512904, 4157.82051262, 4132.56410229, 4143.07692287,12.0
4161.79487159, 4137.43589723, 4115.25640998, 4113.33333306, 4124.10256383, 4119.23076896, 4147.82051262, 4141.15384595, 4123.46153819, 4127.69230742, 4610.76923154, 4151.53846133, 4132.69230742, 4142.30769210,12.0
4169.99999986, 4142.30769210, 4117.56410229, 4115.25640998, 4123.97435870, 4118.20512793, 4135.38461518, 4132.05128178, 4125.51282024, 4134.35897408, 4608.84615461, 4147.94871774, 4129.74358947, 4145.12820492,12.0
4176.53846140, 4146.02564082, 4122.30769203, 4121.79487152, 4124.99999973, 4115.12820485, 4123.58974332, 4120.51282024, 4123.46153819, 4132.43589716, 4618.46153923, 4149.48717928, 4129.48717921, 4144.87179467,12.0
4165.12820492, 4134.74358947, 4110.64102537, 4111.66666639, 4124.48717921, 4111.66666639, 4128.71794844, 4121.92307665, 4114.23076896, 4128.71794844, 4611.15384692, 4139.61538441, 4127.94871767, 4143.84615364,12.0
4179.99999986, 4133.97435870, 4109.35897408, 4117.17948691, 4125.12820485, 4123.46153819, 4145.64102544, 4133.46153819, 4115.38461511, 4129.10256383, 4599.48718026, 4139.61538441, 4127.30769203, 4144.23076903,12.0
4171.28205115, 4144.48717928, 4119.87179460, 4131.53846126, 4123.97435870, 4121.53846126, 4138.20512800, 4135.64102544, 4131.02564075, 4129.61538434, 4599.23077000, 4154.48717928, 4126.15384588, 4144.23076903,12.0
4176.28205115, 4148.07692287, 4121.15384588, 4127.82051255, 4123.84615357, 4108.58974332, 4119.10256383, 4129.87179460, 4132.94871767, 4130.51282024, 4601.28205205, 4154.61538441, 4129.48717921, 4148.20512800,12.0
4188.46153833, 4129.99999973, 4101.92307658, 4109.87179460, 4124.35897408, 4109.74358947, 4122.94871767, 4124.87179460, 4110.51282024, 4132.43589716, 4582.56410326, 4127.30769203, 4130.12820485, 4148.46153826,12.0
4169.48717935, 4110.51282024, 4083.07692273, 4088.97435863, 4124.23076896, 4106.28205101, 4122.56410229, 4107.17948691, 4082.69230735, 4133.46153819, 4555.00000063, 4102.05128171, 4124.99999973, 4143.84615364,12.0
4169.48717935, 4110.51282024, 4083.07692273, 4088.97435863, 4124.23076896, 4106.28205101, 4122.56410229, 4107.17948691, 4082.69230735, 4133.46153819, 4555.00000063, 4102.05128171, 4124.99999973, 4143.84615364,12.0
4177.05128192, 4119.99999973, 4096.92307658, 4094.87179453, 4127.43589716, 4102.30769196, 4116.79487152, 4104.35897408, 4088.84615350, 4131.28205101, 4556.92307755, 4118.97435870, 4129.74358947, 4144.74358954,12.0
4172.17948704, 4129.87179460, 4112.30769203, 4119.99999973, 4124.48717921, 4109.10256383, 4131.41025614, 4128.71794844, 4120.38461511, 4127.17948691, 4574.74359044, 4146.53846133, 4133.20512793, 4147.56410236,12.0
4168.20512807, 4127.30769203, 4109.74358947, 4122.05128178, 4123.84615357, 4106.66666639, 4142.17948697, 4138.97435877, 4128.33333306, 4129.35897408, 4573.07692378, 4144.10256390, 4130.76923050, 4147.94871774,12.0
4177.05128192, 4121.41025614, 4105.51282024, 4108.33333306, 4125.51282024, 4097.69230735, 4132.17948691, 4130.12820485, 4115.38461511, 4132.82051255, 4562.43589813, 4135.89743569, 4128.97435870, 4145.64102544,12.0
4161.66666646, 4133.58974332, 4114.23076896, 4124.74358947, 4120.76923050, 4110.64102537, 4138.33333313, 4146.15384595, 4131.66666639, 4132.30769203, 4571.28205198, 4154.35897415, 4128.07692280, 4144.35897415,12.0
4170.76923063, 4157.05128185, 4133.20512793, 4154.99999980, 4124.10256383, 4126.15384588, 4155.25641005, 4169.99999986, 4167.30769210, 4132.56410229, 4583.71794942, 4180.38461525, 4133.07692280, 4143.33333313,12.0
4167.43589723, 4151.92307672, 4131.53846126, 4152.69230749, 4127.30769203, 4119.23076896, 4146.66666646, 4162.30769210, 4168.84615371, 4132.82051255, 4576.41025711, 4175.38461525, 4131.79487152, 4141.15384595,12.0
4163.84615364, 4133.46153819, 4113.97435870, 4133.46153819, 4124.48717921, 4113.33333306, 4133.20512793, 4140.89743569, 4142.30769210, 4133.97435870, 4562.82051352, 4147.56410236, 4127.05128178, 4145.38461518,12.0
4178.71794858, 4139.87179467, 4114.10256383, 4141.53846133, 4123.84615357, 4121.28205101, 4143.20512800, 4142.05128185, 4134.74358947, 4135.38461518, 4562.17948788, 4146.92307672, 4130.12820485, 4147.69230749,12.0
4166.02564082, 4148.07692287, 4117.56410229, 4156.66666646, 4124.74358947, 4113.84615357, 4133.07692280, 4137.56410236, 4131.15384588, 4129.35897408, 4560.00000063, 4157.56410236, 4128.84615357, 4143.46153826,12.0
4176.79487166, 4135.12820485, 4110.12820485, 4144.48717928, 4128.20512793, 4093.20512786, 4102.56410229, 4110.38461511, 4110.12820485, 4123.97435870, 4548.71794935, 4140.38461518, 4127.82051255, 4143.33333313,12.0
4178.84615371, 4135.25640998, 4105.25640998, 4135.51282031, 4126.53846126, 4100.76923043, 4118.46153819, 4117.30769203, 4108.33333306, 4130.25640998, 4544.74359037, 4130.64102537, 4130.38461511, 4145.12820492,12.0
4168.71794858, 4145.89743569, 4102.05128171, 4136.79487159, 4123.71794844, 4114.87179460, 4143.84615364, 4140.51282031, 4113.58974332, 4136.53846133, 4539.74359037, 4131.79487152, 4129.61538434, 4146.92307672,12.0
4180.12820499, 4133.20512793, 4095.89743555, 4134.87179460, 4126.02564075, 4103.71794844, 4124.87179460, 4123.58974332, 4102.30769196, 4130.38461511, 4533.33333396, 4117.43589716, 4129.61538434, 4148.07692287,12.0
4167.69230749, 4118.97435870, 4091.15384581, 4141.15384595, 4123.97435870, 4093.71794837, 4112.05128178, 4109.74358947, 4108.58974332, 4125.76923050, 4541.28205191, 4114.10256383, 4130.51282024, 4148.84615364,12.0
4177.69230756, 4134.87179460, 4099.74358940, 4150.51282031, 4125.12820485, 4106.15384588, 4134.10256383, 4126.28205101, 4129.48717921, 4129.87179460, 4548.84615448, 4131.53846126, 4131.79487152, 4148.58974339,12.0
4180.12820499, 4134.99999973, 4095.12820478, 4137.17948697, 4128.33333306, 4106.53846126, 4135.38461518, 4119.87179460, 4114.23076896, 4131.41025614, 4535.12820576, 4124.23076896, 4129.35897408, 4143.97435877,12.0
4160.38461518, 4110.25640998, 4082.94871761, 4123.33333306, 4125.38461511, 4092.05128171, 4115.25640998, 4104.74358947, 4093.33333299, 4127.17948691, 4527.30769287, 4107.69230742, 4127.56410229, 4142.82051262,12.0
4172.05128192, 4120.89743562, 4099.99999966, 4141.15384595, 4124.99999973, 4104.61538434, 4128.33333306, 4126.41025614, 4121.02564075, 4123.20512793, 4541.28205191, 4129.74358947, 4129.87179460, 4146.92307672,12.0
4161.41025621, 4141.66666646, 4113.46153819, 4157.30769210, 4124.35897408, 4123.97435870, 4159.35897415, 4151.02564082, 4150.64102544, 4129.87179460, 4545.64102627, 4156.15384595, 4129.61538434, 4147.30769210,12.0
4164.10256390, 4133.46153819, 4102.56410229, 4138.33333313, 4126.15384588, 4119.10256383, 4160.38461518, 4146.15384595, 4138.97435877, 4139.23076903, 4542.17948781, 4142.94871774, 4133.71794844, 4143.71794851,12.0
4175.25641012, 4119.74358947, 4091.66666632, 4113.20512793, 4128.33333306, 4107.05128178, 4141.92307672, 4138.20512800, 4125.89743562, 4136.28205108, 4550.89743653, 4113.71794844, 4133.33333306, 4141.15384595,12.0
4158.07692287, 4116.02564075, 4089.87179453, 4112.94871767, 4125.12820485, 4102.56410229, 4135.76923056, 4138.20512800, 4129.35897408, 4134.23076896, 4559.61538524, 4106.53846126, 4127.43589716, 4144.23076903,12.0
4167.69230749, 4110.12820485, 4086.41025607, 4114.61538434, 4126.41025614, 4093.97435863, 4128.97435870, 4122.43589716, 4114.35897408, 4136.79487159, 4555.12820576, 4104.99999973, 4130.51282024, 4146.02564082,12.0
4167.94871774, 4113.71794844, 4086.41025607, 4116.28205101, 4127.17948691, 4096.92307658, 4137.05128185, 4124.87179460, 4111.28205101, 4135.64102544, 4555.64102627, 4108.33333306, 4130.76923050, 4142.69230749,12.0
4171.66666653, 4141.79487159, 4104.99999973, 4140.12820492, 4127.17948691, 4119.99999973, 4168.33333320, 4153.71794851, 4142.17948697, 4135.51282031, 4576.66666737, 4131.28205101, 4128.46153819, 4144.48717928,12.0
4178.58974345, 4147.94871774, 4111.92307665, 4152.05128185, 4127.56410229, 4119.87179460, 4161.28205108, 4150.89743569, 4140.76923056, 4136.66666646, 4588.71794942, 4140.25641005, 4130.64102537, 4148.07692287,12.0
4164.61538441, 4131.02564075, 4099.23076889, 4134.61538434, 4124.99999973, 4108.58974332, 4140.12820492, 4133.58974332, 4115.89743562, 4136.02564082, 4586.02564172, 4131.53846126, 4130.89743562, 4148.97435877,12.0
4177.69230756, 4127.94871767, 4099.23076889, 4126.41025614, 4124.61538434, 4114.87179460, 4150.25641005, 4132.82051255, 4117.05128178, 4136.15384595, 4592.69230839, 4128.20512793, 4131.53846126, 4147.56410236,12.0
4171.66666653, 4119.61538434, 4092.56410222, 4121.92307665, 4123.58974332, 4105.64102537, 4142.05128185, 4121.53846126, 4111.66666639, 4136.28205108, 4600.00000077, 4113.20512793, 4130.12820485, 4144.35897415,12.0
4167.94871774, 4123.58974332, 4087.69230735, 4119.99999973, 4125.12820485, 4095.12820478, 4127.56410229, 4112.43589716, 4098.97435863, 4136.15384595, 4606.53846231, 4106.92307665, 4128.20512793, 4147.43589723,12.0
4181.79487166, 4151.28205108, 4109.48717921, 4148.33333313, 4127.56410229, 4118.33333306, 4160.76923056, 4138.33333313, 4120.38461511, 4136.15384595, 4623.58974436, 4141.15384595, 4130.12820485, 4148.84615364,12.0
4162.17948697, 4150.89743569, 4111.53846126, 4156.28205108, 4122.30769203, 4127.17948691, 4178.20512807, 4154.35897415, 4139.23076903, 4136.15384595, 4633.33333417, 4152.17948697, 4129.48717921, 4144.35897415,12.0
4167.43589723, 4129.99999973, 4091.92307658, 4126.15384588, 4123.07692280, 4110.12820485, 4152.30769210, 4148.46153826, 4135.89743569, 4136.15384595, 4637.17948802, 4120.25640998, 4130.12820485, 4144.99999980,12.0
4168.33333320, 4127.56410229, 4088.71794837, 4121.02564075, 4125.12820485, 4107.30769203, 4148.33333313, 4155.89743569, 4145.51282031, 4136.15384595, 4653.33333417, 4113.46153819, 4129.99999973, 4147.05128185,12.0
4158.84615364, 4131.28205101, 4098.07692273, 4137.82051262, 4120.38461511, 4109.23076896, 4160.76923056, 4162.82051262, 4148.71794851, 4136.15384595, 4663.33333424, 4128.20512793, 4128.46153819, 4145.38461518,12.0
4169.87179474, 4123.97435870, 4092.94871761, 4127.30769203, 4119.74358947, 4101.15384581, 4151.66666646, 4146.53846133, 4127.43589716, 4136.15384595, 4664.74359065, 4116.41025614, 4128.71794844, 4143.07692287,12.0
4156.41025621, 4122.94871767, 4085.38461504, 4125.64102537, 4121.66666639, 4102.82051255, 4147.82051262, 4135.89743569, 4123.58974332, 4136.15384595, 4693.84615482, 4110.51282024, 4125.76923050, 4143.20512800,12.0
4164.35897415, 4143.33333313, 4106.53846126, 4158.58974339, 4125.25640998, 4122.82051255, 4170.51282038, 4155.76923056, 4156.92307672, 4136.79487159, 4739.48718053, 4142.94871774, 4129.61538434, 4145.12820492,12.0
4172.43589730, 4156.28205108, 4119.61538434, 4159.87179467, 4124.99999973, 4130.51282024, 4186.92307679, 4178.58974345, 4174.87179474, 4136.66666646, 4743.58974464, 4162.17948697, 4132.56410229, 4145.64102544,12.0
4161.92307672, 4142.82051262, 4100.38461504, 4129.74358947, 4120.64102537, 4112.94871767, 4167.05128185, 4167.30769210, 4149.48717928, 4134.35897408, 4724.35897534, 4135.51282031, 4128.07692280, 4146.02564082,12.0
4174.35897422, 4134.74358947, 4091.02564068, 4134.48717921, 4123.46153819, 4104.74358947, 4145.76923056, 4141.79487159, 4129.74358947, 4138.07692287, 4734.87179592, 4117.94871767, 4131.28205101, 4145.51282031,12.0
4167.05128185, 4143.07692287, 4098.97435863, 4160.12820492, 4124.48717921, 4123.20512793, 4161.28205108, 4147.43589723, 4142.56410236, 4136.79487159, 4751.28205233, 4134.23076896, 4131.92307665, 4145.38461518,12.0
4172.82051269, 4140.38461518, 4098.07692273, 4146.53846133, 4124.61538434, 4124.99999973, 4167.94871774, 4151.28205108, 4143.84615364, 4124.35897408, 4740.89743694, 4134.10256383, 4129.61538434, 4148.33333313,12.0
4179.74358961, 4131.53846126, 4091.92307658, 4126.02564075, 4123.20512793, 4111.92307665, 4154.10256390, 4137.30769210, 4132.69230742, 4124.23076896, 4736.66666771, 4125.51282024, 4130.38461511, 4146.79487159,12.0
4167.69230749, 4138.97435877, 4091.53846119, 4150.64102544, 4120.12820485, 4121.41025614, 4160.51282031, 4139.23076903, 4137.43589723, 4136.41025621, 4749.74359079, 4134.99999973, 4130.51282024, 4144.74358954,12.0
4180.38461525, 4144.35897415, 4087.82051248, 4169.10256397, 4121.92307665, 4120.51282024, 4165.25641005, 4141.92307672, 4134.10256383, 4138.20512800, 4741.28205233, 4130.51282024, 4133.33333306, 4146.53846133,12.0
4168.71794858, 4129.87179460, 4078.07692273, 4144.23076903, 4120.76923050, 4095.89743555, 4146.41025621, 4134.61538434, 4124.99999973, 4133.07692280, 4717.82051380, 4114.48717921, 4131.79487152, 4146.66666646,12.0
4167.30769210, 4120.76923050, 4075.12820478, 4124.87179460, 4122.30769203, 4094.74358940, 4137.82051262, 4131.15384588, 4127.30769203, 4135.64102544, 4705.25641123, 4111.79487152, 4131.02564075, 4146.92307672,12.0
4177.69230756, 4112.05128178, 4064.99999959, 4123.46153819, 4124.74358947, 4098.58974325, 4137.43589723, 4126.02564075, 4123.20512793, 4140.12820492, 4677.82051373, 4100.76923043, 4131.41025614, 4146.28205108,12.0
4157.94871774, 4111.02564075, 4063.20512779, 4132.17948691, 4121.66666639, 4094.48717914, 4144.23076903, 4131.92307665, 4126.79487152, 4131.92307665, 4641.28205212, 4101.92307658, 4128.97435870, 4146.66666646,12.0
4164.74358954, 4135.12820485, 4087.17948684, 4151.28205108, 4124.35897408, 4109.87179460, 4163.46153826, 4149.61538441, 4147.30769210, 4126.92307665, 4625.38461615, 4130.64102537, 4131.15384588, 4147.30769210,12.0
4161.15384595, 4142.69230749, 4090.89743555, 4150.89743569, 4127.30769203, 4115.25640998, 4157.17948697, 4146.66666646, 4153.07692287, 4132.30769203, 4612.30769308, 4134.99999973, 4129.74358947, 4143.58974339,12.0
4158.58974339, 4135.25640998, 4083.33333299, 4143.07692287, 4127.69230742, 4110.38461511, 4149.10256390, 4139.48717928, 4146.41025621, 4129.23076896, 4596.92307769, 4124.48717921, 4128.58974332, 4143.97435877,12.0
4168.84615371, 4133.33333306, 4086.66666632, 4151.28205108, 4126.15384588, 4116.53846126, 4164.87179467, 4142.94871774, 4142.82051262, 4124.61538434, 4587.82051352, 4123.33333306, 4132.69230742, 4145.25641005,12.0
4155.12820492, 4130.64102537, 4085.12820478, 4156.28205108, 4121.66666639, 4115.76923050, 4167.69230749, 4145.64102544, 4149.48717928, 4126.15384588, 4572.43589813, 4123.71794844, 4132.05128178, 4142.69230749,12.0
4166.02564082, 4131.66666639, 4090.25640991, 4153.07692287, 4122.94871767, 4116.79487152, 4159.10256390, 4150.64102544, 4162.69230749, 4128.20512793, 4562.56410326, 4132.43589716, 4130.51282024, 4142.56410236,12.0
4164.23076903, 4125.89743562, 4089.23076889, 4149.61538441, 4122.43589716, 4115.38461511, 4150.12820492, 4143.33333313, 4150.89743569, 4129.99999973, 4557.56410319, 4129.87179460, 4128.84615357, 4144.74358954,12.0
4164.61538441, 4121.28205101, 4079.10256376, 4143.58974339, 4121.79487152, 4097.43589709, 4139.87179467, 4123.58974332, 4122.82051255, 4128.84615357, 4537.17948781, 4112.43589716, 4129.10256383, 4147.05128185,12.0
4185.25641012, 4134.99999973, 4085.12820478, 4147.30769210, 4124.48717921, 4104.48717921, 4154.61538441, 4129.61538434, 4137.56410236, 4128.58974332, 4522.05128261, 4122.56410229, 4132.30769203, 4144.35897415,12.0
4169.35897422, 4144.87179467, 4096.66666632, 4171.41025628, 4120.76923050, 4132.17948691, 4182.30769217, 4155.89743569, 4173.20512807, 4126.53846126, 4527.56410312, 4150.76923056, 4131.02564075, 4144.74358954,12.0
4174.99999986, 4134.48717921, 4091.28205094, 4177.43589730, 4122.17948691, 4112.94871767, 4159.23076903, 4139.61538441, 4154.10256390, 4125.51282024, 4518.84615441, 4136.53846133, 4132.17948691, 4150.38461518,12.0
4176.41025628, 4125.76923050, 4079.48717914, 4158.46153826, 4126.15384588, 4079.74358940, 4125.12820485, 4112.82051255, 4123.84615357, 4128.46153819, 4498.20512876, 4112.17948691, 4132.82051255, 4147.17948697,12.0
4161.02564082, 4134.87179460, 4084.99999966, 4151.53846133, 4123.97435870, 4086.92307658, 4134.10256383, 4125.12820485, 4136.53846133, 4129.61538434, 4493.20512870, 4124.23076896, 4131.02564075, 4145.25641005,12.0
4171.92307679, 4148.20512800, 4098.71794837, 4171.66666653, 4124.74358947, 4105.89743562, 4156.66666646, 4141.53846133, 4156.53846133, 4126.15384588, 4499.87179543, 4142.17948697, 4133.46153819, 4148.84615364,12.0
4157.05128185, 4142.94871774, 4091.15384581, 4177.17948704, 4123.84615357, 4108.07692280, 4161.28205108, 4139.87179467, 4151.15384595, 4127.82051255, 4496.41025697, 4132.69230742, 4132.05128178, 4148.33333313,12.0
4157.69230749, 4123.71794844, 4073.07692273, 4151.92307672, 4123.46153819, 4099.74358940, 4147.69230749, 4126.28205101, 4132.82051255, 4136.66666646, 4476.53846203, 4107.30769203, 4130.38461511, 4147.05128185,12.0
4163.20512800, 4112.43589716, 4068.84615343, 4143.58974339, 4123.84615357, 4091.28205094, 4138.58974339, 4117.30769203, 4126.92307665, 4134.61538434, 4468.07692357, 4101.66666632, 4128.84615357, 4146.15384595,12.0
4150.76923056, 4125.38461511, 4080.76923043, 4166.02564082, 4123.33333306, 4096.92307658, 4148.71794851, 4127.30769203, 4142.05128185, 4129.23076896, 4483.71794921, 4121.53846126, 4126.15384588, 4146.41025621,12.0
4163.20512800, 4147.30769210, 4097.56410222, 4192.94871781, 4124.99999973, 4120.64102537, 4171.02564089, 4143.20512800, 4165.38461518, 4129.35897408, 4496.02564152, 4146.15384595, 4130.51282024, 4145.76923056,12.0
4157.30769210, 4149.61538441, 4100.12820478, 4201.53846147, 4125.38461511, 4126.53846126, 4172.17948704, 4139.87179467, 4168.71794858, 4129.48717921, 4490.12820562, 4152.43589723, 4129.61538434, 4143.07692287,12.0
4163.58974339, 4143.33333313, 4097.30769196, 4195.64102551, 4128.33333306, 4104.48717921, 4150.12820492, 4125.76923050, 4155.38461518, 4133.71794844, 4481.28205177, 4139.99999980, 4127.05128178, 4143.07692287,12.0
4172.69230756, 4137.17948697, 4097.43589709, 4192.56410243, 4129.61538434, 4088.97435863, 4134.87179460, 4123.84615357, 4149.99999980, 4136.28205108, 4475.76923126, 4135.64102544, 4127.43589716, 4143.20512800,12.0
4157.30769210, 4134.10256383, 4093.58974325, 4197.56410243, 4124.35897408, 4090.38461504, 4130.51282024, 4123.71794844, 4156.15384595, 4128.71794844, 4474.74359023, 4140.51282031, 4127.17948691, 4144.35897415,12.0
4169.35897422, 4145.89743569, 4097.43589709, 4205.25641019, 4123.07692280, 4099.48717914, 4138.46153826, 4122.30769203, 4159.35897415, 4123.71794844, 4483.46153895, 4141.66666646, 4130.12820485, 4145.38461518,12.0
4165.12820492, 4148.84615364, 4096.92307658, 4207.17948711, 4121.41025614, 4104.23076896, 4148.46153826, 4126.02564075, 4153.20512800, 4129.74358947, 4477.30769280, 4138.97435877, 4129.74358947, 4144.23076903,12.0
4164.87179467, 4144.74358954, 4091.41025607, 4203.33333327, 4123.20512793, 4107.69230742, 4152.82051262, 4128.71794844, 4152.17948697, 4132.56410229, 4464.35897485, 4137.56410236, 4129.23076896, 4147.17948697,12.0
4175.25641012, 4147.30769210, 4090.89743555, 4196.28205115, 4128.71794844, 4110.76923050, 4151.41025621, 4128.33333306, 4156.02564082, 4129.35897408, 4467.17948767, 4133.97435870, 4131.79487152, 4148.58974339,12.0
4159.99999980, 4137.43589723, 4082.56410222, 4192.30769217, 4124.74358947, 4105.64102537, 4143.71794851, 4119.35897408, 4151.92307672, 4129.35897408, 4470.12820562, 4122.94871767, 4130.25640998, 4147.56410236,12.0
4172.82051269, 4120.89743562, 4071.66666632, 4180.25641012, 4123.58974332, 4096.66666632, 4130.38461511, 4095.64102530, 4134.10256383, 4128.97435870, 4458.84615427, 4105.76923050, 4131.28205101, 4148.33333313,12.0
4168.20512807, 4118.20512793, 4067.17948677, 4174.10256397, 4124.48717921, 4090.38461504, 4121.92307665, 4086.02564068, 4124.10256383, 4129.74358947, 4447.56410298, 4101.02564068, 4129.74358947, 4147.30769210,12.0
4155.51282031, 4120.89743562, 4069.48717907, 4176.15384602, 4122.94871767, 4084.48717914, 4117.05128178, 4095.12820478, 4127.69230742, 4134.48717921, 4445.89743632, 4106.92307665, 4127.17948691, 4146.15384595,12.0
4169.23076910, 4118.71794844, 4071.28205094, 4167.17948697, 4125.38461511, 4081.66666632, 4113.46153819, 4094.35897402, 4129.87179460, 4132.05128178, 4445.89743632, 4107.30769203, 4129.87179460, 4147.94871774,12.0
4155.25641005, 4132.30769203, 4082.30769196, 4184.48717935, 4123.20512793, 4094.10256376, 4133.46153819, 4104.35897408, 4143.33333313, 4126.92307665, 4456.53846196, 4124.35897408, 4128.58974332, 4148.20512800,12.0
4159.87179467, 4166.53846133, 4115.51282024, 4234.48717949, 4122.43589716, 4121.15384588, 4173.20512807, 4143.07692287, 4175.38461525, 4131.28205101, 4482.05128254, 4174.10256397, 4131.02564075, 4144.99999980,12.0
4164.10256390, 4176.92307679, 4126.79487152, 4246.53846154, 4123.58974332, 4129.99999973, 4185.38461525, 4163.46153826, 4193.20512807, 4133.33333306, 4486.66666716, 4194.74358961, 4134.48717921, 4142.30769210,12.0
4155.89743569, 4156.15384595, 4105.89743562, 4214.61538455, 4123.07692280, 4108.46153819, 4152.17948697, 4144.61538441, 4181.79487166, 4131.53846126, 4467.30769280, 4158.20512800, 4131.92307665, 4143.07692287,12.0
4166.79487159, 4144.23076903, 4097.82051248, 4206.15384609, 4123.46153819, 4098.97435863, 4133.97435870, 4129.74358947, 4181.28205115, 4131.66666639, 4460.64102606, 4135.64102544, 4129.74358947, 4142.17948697,12.0
4158.07692287, 4154.10256390, 4104.35897408, 4221.92307686, 4123.33333306, 4120.89743562, 4164.35897415, 4145.25641005, 4198.71794858, 4133.71794844, 4473.84615434, 4157.56410236, 4127.94871767, 4140.89743569,12.0
4168.33333320, 4155.64102544, 4102.30769196, 4217.56410250, 4127.56410229, 4123.46153819, 4172.94871781, 4145.25641005, 4183.58974345, 4136.02564082, 4477.69230818, 4157.82051262, 4131.41025614, 4142.69230749,12.0
4169.99999986, 4142.05128185, 4090.64102530, 4203.46153840, 4125.89743562, 4104.23076896, 4148.58974339, 4122.05128178, 4156.79487159, 4135.76923056, 4467.56410305, 4132.56410229, 4133.71794844, 4142.94871774,12.0
4156.15384595, 4145.25641005, 4090.51282017, 4204.35897429, 4120.25640998, 4112.56410229, 4153.84615364, 4130.12820485, 4173.20512807, 4132.56410229, 4464.10256459, 4136.92307672, 4130.76923050, 4144.61538441,12.0
4172.94871781, 4146.28205108, 4089.35897402, 4203.58974352, 4122.17948691, 4113.58974332, 4156.28205108, 4140.25641005, 4178.20512807, 4129.61538434, 4460.25641068, 4135.25640998, 4130.38461511, 4146.79487159,12.0
4160.89743569, 4125.76923050, 4072.56410222, 4186.79487166, 4124.61538434, 4089.74358940, 4135.51282031, 4121.92307665, 4147.82051262, 4131.79487152, 4451.28205170, 4106.02564075, 4130.12820485, 4145.89743569,12.0
4157.17948697, 4127.82051255, 4073.07692273, 4184.23076910, 4125.64102537, 4092.30769196, 4133.58974332, 4111.92307665, 4146.53846133, 4136.15384595, 4449.23076965, 4103.07692280, 4133.33333306, 4148.07692287,12.0
4164.74358954, 4137.17948697, 4079.48717914, 4193.97435884, 4122.69230742, 4096.92307658, 4128.20512793, 4109.35897408, 4159.48717928, 4137.05128185, 4447.82051324, 4114.10256383, 4131.15384588, 4146.79487159,12.0
4152.30769210, 4124.61538434, 4066.79487138, 4187.94871781, 4120.51282024, 4079.35897402, 4110.89743562, 4102.17948684, 4146.15384595, 4129.87179460, 4443.71794914, 4102.69230742, 4123.97435870, 4143.58974339,12.0
4162.17948697, 4128.33333306, 4070.76923043, 4190.12820499, 4124.74358947, 4090.76923043, 4131.66666639, 4111.28205101, 4144.23076903, 4124.10256383, 4446.79487222, 4104.48717921, 4128.33333306, 4143.97435877,12.0
4154.23076903, 4145.76923056, 4084.35897402, 4208.07692301, 4124.61538434, 4123.58974332, 4170.38461525, 4132.82051255, 4170.25641012, 4129.35897408, 4453.71794914, 4127.43589716, 4130.64102537, 4144.23076903,12.0
4154.99999980, 4151.92307672, 4083.84615350, 4209.99999993, 4123.33333306, 4127.82051255, 4177.43589730, 4137.69230749, 4175.89743576, 4134.35897408, 4450.64102606, 4126.28205101, 4126.66666639, 4145.12820492,12.0
4164.74358954, 4141.79487159, 4077.05128171, 4192.30769217, 4122.82051255, 4113.71794844, 4164.99999980, 4129.87179460, 4159.10256390, 4134.48717921, 4404.74359009, 4107.43589716, 4126.15384588, 4145.51282031,12.0
4151.79487159, 4119.48717921, 4066.28205087, 4176.79487166, 4123.71794844, 4092.82051248, 4135.89743569, 4112.30769203, 4144.10256390, 4129.35897408, 4323.20512835, 4092.69230735, 4124.48717921, 4145.12820492,12.0
4169.10256397, 4122.05128178, 4070.51282017, 4184.23076910, 4129.23076896, 4082.82051248, 4111.53846126, 4105.51282024, 4150.89743569, 4124.99999973, 4428.20512856, 4095.89743555, 4127.43589716, 4145.89743569,12.0
4166.92307672, 4143.46153826, 4084.87179453, 4207.17948711, 4126.15384588, 4095.12820478, 4126.66666639, 4127.30769203, 4175.64102551, 4127.56410229, 4442.17948760, 4117.05128178, 4129.87179460, 4145.51282031,12.0
4159.35897415, 4148.07692287, 4090.64102530, 4214.87179481, 4123.33333306, 4105.51282024, 4151.02564082, 4136.28205108, 4176.92307679, 4133.58974332, 4276.02564110, 4128.07692280, 4129.35897408, 4145.89743569,12.0
4175.76923063, 4141.41025621, 4089.35897402, 4197.30769217, 4127.94871767, 4104.87179460, 4153.20512800, 4126.02564075, 4164.23076903, 4136.92307672, 5004.61538622, 4124.35897408, 4131.15384588, 4144.10256390,12.0
4166.41025621, 4139.74358954, 4086.92307658, 4192.69230756, 4124.35897408, 4106.53846126, 4150.38461518, 4128.84615357, 4171.41025628, 4130.25640998, 6357.17949163, 4120.76923050, 4131.92307665, 4143.33333313,12.0
4172.43589730, 4137.69230749, 4088.58974325, 4207.94871788, 4124.61538434, 4110.38461511, 4155.89743569, 4133.58974332, 4177.94871781, 4124.61538434, 6698.58974881, 4116.53846126, 4130.76923050, 4145.25641005,12.0
4168.84615371, 4130.64102537, 4080.76923043, 4202.56410250, 4126.53846126, 4105.25640998, 4155.51282031, 4125.38461511, 4166.15384595, 4128.97435870, 6259.61538886, 4108.20512793, 4127.82051255, 4145.38461518,12.0
4164.74358954, 4128.07692280, 4072.82051248, 4179.10256397, 4122.94871767, 4104.10256383, 4152.30769210, 4120.25640998, 4154.35897415, 4135.51282031, 6241.41026065, 4106.15384588, 4129.74358947, 4147.94871774,12.0
4182.17948704, 4127.05128178, 4077.05128171, 4174.10256397, 4124.23076896, 4114.23076896, 4153.71794851, 4118.46153819, 4149.87179467, 4133.71794844, 6342.94872240, 4108.07692280, 4133.97435870, 4148.33333313,12.0
4162.56410236, 4121.66666639, 4075.76923043, 4182.82051269, 4123.84615357, 4109.48717921, 4144.61538441, 4105.25640998, 4145.25641005, 4130.51282024, 6174.74359385, 4101.66666632, 4130.12820485, 4145.38461518,12.0
4166.15384595, 4125.89743562, 4078.58974325, 4190.51282038, 4123.71794844, 4099.87179453, 4133.20512793, 4095.12820478, 4146.28205108, 4132.82051255, 6128.46154243, 4105.25640998, 4129.48717921, 4147.05128185,12.0
4169.35897422, 4134.35897408, 4086.92307658, 4191.66666653, 4124.35897408, 4101.92307658, 4133.97435870, 4104.87179460, 4156.66666646, 4130.89743562, 6132.69231166, 4119.61538434, 4130.89743562, 4146.41025621,12.0
4152.69230749, 4134.10256383, 4086.66666632, 4186.53846140, 4124.61538434, 4105.12820485, 4139.74358954, 4117.17948691, 4163.07692287, 4125.12820485, 6093.58974748, 4121.66666639, 4128.58974332, 4144.61538441,12.0
4174.99999986, 4135.51282031, 4087.05128171, 4191.66666653, 4127.69230742, 4105.25640998, 4146.41025621, 4119.23076896, 4161.79487159, 4123.20512793, 6082.05128595, 4117.69230742, 4131.28205101, 4144.23076903,12.0
4169.87179474, 4135.64102544, 4089.10256376, 4196.28205115, 4127.56410229, 4098.20512786, 4145.25641005, 4122.30769203, 4164.48717928, 4128.46153819, 6054.23077306, 4121.28205101, 4128.97435870, 4143.20512800,12.0
4164.74358954, 4134.48717921, 4093.33333299, 4185.38461525, 4127.05128178, 4102.94871767, 4147.82051262, 4127.30769203, 4169.61538448, 4134.74358947, 6032.94872170, 4127.69230742, 4128.33333306, 4145.89743569,12.0
4172.05128192, 4141.02564082, 4099.61538427, 4186.79487166, 4125.51282024, 4128.20512793, 4171.02564089, 4136.02564082, 4177.94871781, 4135.76923056, 6017.43590119, 4136.28205108, 4131.92307665, 4144.61538441,12.0
4163.97435877, 4152.17948697, 4102.82051255, 4201.41025634, 4124.74358947, 4136.53846133, 4181.79487166, 4148.84615364, 4187.17948704, 4130.38461511, 5999.35897805, 4141.53846133, 4126.79487152, 4141.15384595,12.0
4177.82051269, 4148.07692287, 4101.66666632, 4194.87179474, 4127.05128178, 4117.05128178, 4157.43589723, 4139.35897415, 4186.53846140, 4124.23076896, 5970.51282413, 4131.66666639, 4125.38461511, 4143.46153826,12.0
4171.41025628, 4128.46153819, 4093.84615350, 4179.61538448, 4125.64102537, 4108.71794844, 4148.71794851, 4119.61538434, 4180.64102551, 4128.71794844, 5948.71795234, 4123.20512793, 4125.64102537, 4147.30769210,12.0
4176.79487166, 4141.66666646, 4101.28205094, 4195.38461525, 4125.64102537, 4130.51282024, 4174.74358961, 4128.97435870, 4191.28205115, 4134.48717921, 5945.12820875, 4139.87179467, 4128.46153819, 4148.71794851,12.0
4187.56410243, 4161.15384595, 4109.99999973, 4205.64102558, 4125.25640998, 4133.97435870, 4177.05128192, 4140.89743569, 4195.38461525, 4131.41025614, 5928.33333688, 4149.87179467, 4133.46153819, 4144.61538441,12.0
4166.92307672, 4146.92307672, 4098.71794837, 4185.76923063, 4121.66666639, 4111.92307665, 4153.71794851, 4126.28205101, 4173.58974345, 4131.02564075, 5899.61538809, 4132.17948691, 4130.38461511, 4143.84615364,12.0
4178.46153833, 4142.56410236, 4095.89743555, 4184.99999986, 4126.28205101, 4111.66666639, 4152.94871774, 4115.25640998, 4170.25641012, 4135.25640998, 5881.79487527, 4126.02564075, 4130.25640998, 4147.17948697,12.0
4175.89743576, 4155.25641005, 4102.94871767, 4196.15384602, 4127.69230742, 4130.89743562, 4170.51282038, 4128.97435870, 4186.28205115, 4133.58974332, 5861.15384956, 4137.05128185, 4130.64102537, 4147.05128185,12.0
4169.10256397, 4153.33333313, 4101.53846119, 4183.97435884, 4124.61538434, 4132.94871767, 4176.53846140, 4138.97435877, 4179.74358961, 4134.87179460, 5836.92308026, 4129.23076896, 4128.84615357, 4145.76923056,12.0
4179.35897422, 4143.71794851, 4097.56410222, 4179.23076910, 4125.12820485, 4124.61538434, 4173.71794858, 4136.79487159, 4170.25641012, 4136.28205108, 5821.53846488, 4118.20512793, 4127.94871767, 4144.99999980,12.0
4166.02564082, 4142.56410236, 4090.51282017, 4184.87179474, 4123.46153819, 4119.10256383, 4163.58974339, 4131.92307665, 4172.82051269, 4133.84615357, 5799.74359301, 4118.20512793, 4126.15384588, 4145.64102544,12.0
4174.23076910, 4138.71794851, 4082.30769196, 4167.05128185, 4124.61538434, 4106.92307665, 4145.25641005, 4118.58974332, 4162.30769210, 4136.15384595, 5776.02564423, 4105.89743562, 4127.43589716, 4145.76923056,12.0
4169.35897422, 4135.51282031, 4085.51282017, 4158.84615364, 4124.10256383, 4108.84615357, 4149.23076903, 4128.71794844, 4167.05128185, 4137.17948697, 5768.46154166, 4105.12820485, 4126.02564075, 4141.92307672,12.0
4161.66666646, 4142.43589723, 4096.02564068, 4171.15384602, 4123.71794844, 4120.76923050, 4164.99999980, 4145.38461518, 4185.25641012, 4133.07692280, 5755.25641346, 4123.20512793, 4126.41025614, 4141.28205108,12.0
4176.41025628, 4141.66666646, 4098.97435863, 4170.89743576, 4127.56410229, 4118.97435870, 4160.25641005, 4130.51282024, 4179.87179474, 4132.82051255, 5734.74359287, 4127.69230742, 4128.71794844, 4142.69230749,12.0
4167.43589723, 4145.89743569, 4106.15384588, 4185.51282038, 4127.43589716, 4128.58974332, 4166.53846133, 4130.76923050, 4189.10256397, 4133.71794844, 5736.92308005, 4140.76923056, 4126.92307665, 4141.66666646,12.0
4179.10256397, 4159.23076903, 4121.92307665, 4198.33333320, 4129.23076896, 4141.92307672, 4179.87179474, 4146.79487159, 4202.69230763, 4131.66666639, 5732.30769544, 4161.79487159, 4129.99999973, 4144.10256390,12.0
4184.23076910, 4146.28205108, 4109.48717921, 4154.23076903, 4129.10256383, 4119.35897408, 4160.76923056, 4128.07692280, 4172.43589730, 4131.15384588, 5689.35897742, 4145.25641005, 4130.64102537, 4146.92307672,12.0
4175.38461525, 4134.99999973, 4098.33333299, 4137.43589723, 4128.46153819, 4107.94871767, 4152.30769210, 4115.89743562, 4160.12820492, 4127.17948691, 5666.66666966, 4125.38461511, 4127.56410229, 4146.28205108,12.0
4187.82051269, 4153.46153826, 4114.74358947, 4183.71794858, 4128.97435870, 4137.56410236, 4177.82051269, 4143.20512800, 4199.99999986, 4124.23076896, 5682.82051588, 4143.20512800, 4131.66666639, 4144.10256390,12.0
4178.58974345, 4151.41025621, 4106.15384588, 4182.43589730, 4126.41025614, 4138.84615364, 4173.84615371, 4143.46153826, 4201.92307686, 4129.61538434, 5666.79487479, 4141.66666646, 4133.20512793, 4146.92307672,12.0
4182.82051269, 4133.97435870, 4089.74358940, 4144.10256390, 4127.17948691, 4116.92307665, 4147.17948697, 4118.84615357, 4167.82051262, 4133.84615357, 5629.87179779, 4114.23076896, 4132.05128178, 4150.76923056,12.0
4185.89743576, 4139.48717928, 4098.20512786, 4153.46153826, 4126.15384588, 4121.92307665, 4151.66666646, 4123.71794844, 4169.99999986, 4131.66666639, 5622.56410549, 4120.51282024, 4130.51282024, 4146.28205108,12.0
4171.53846140, 4153.07692287, 4104.48717921, 4173.58974345, 4121.92307665, 4128.84615357, 4162.82051262, 4135.89743569, 4187.94871781, 4129.87179460, 5615.89743882, 4140.76923056, 4128.71794844, 4146.28205108,12.0
4183.07692294, 4150.12820492, 4097.43589709, 4160.89743569, 4126.15384588, 4121.02564075, 4154.99999980, 4132.05128178, 4183.71794858, 4133.97435870, 5589.87179772, 4129.87179460, 4130.76923050, 4150.64102544,12.0
4172.94871781, 4131.92307665, 4088.71794837, 4148.58974339, 4129.10256383, 4120.51282024, 4152.82051262, 4127.30769203, 4170.12820499, 4131.92307665, 5572.82051560, 4111.02564075, 4127.69230742, 4148.07692287,12.0
4173.46153833, 4135.38461518, 4097.17948684, 4158.97435877, 4128.33333306, 4129.35897408, 4162.69230749, 4128.46153819, 4167.43589723, 4124.10256383, 5567.69231048, 4123.20512793, 4124.99999973, 4144.61538441,12.0
4182.94871781, 4161.79487159, 4116.53846126, 4181.41025628, 4128.46153819, 4140.25641005, 4182.94871781, 4150.76923056, 4189.87179474, 4125.25640998, 5554.10256689, 4151.92307672, 4127.17948691, 4144.48717928,12.0
4168.07692287, 4159.10256390, 4118.58974332, 4180.51282038, 4126.28205101, 4138.58974339, 4190.51282038, 4175.12820499, 4216.02564096, 4132.05128178, 5537.56410528, 4154.35897415, 4126.15384588, 4145.76923056,12.0
4182.30769217, 4135.51282031, 4103.33333306, 4148.97435877, 4126.92307665, 4116.92307665, 4161.53846133, 4149.74358954, 4193.33333320, 4132.56410229, 5516.53846425, 4123.84615357, 4126.41025614, 4144.61538441,12.0
4180.12820499, 4127.17948691, 4088.46153812, 4141.15384595, 4126.79487152, 4109.23076896, 4140.76923056, 4114.87179460, 4155.89743569, 4129.99999973, 5493.58974623, 4098.84615350, 4125.89743562, 4141.41025621,12.0
4176.53846140, 4132.43589716, 4090.64102530, 4162.82051262, 4126.28205101, 4122.43589716, 4150.89743569, 4119.48717921, 4161.79487159, 4136.15384595, 5479.87179745, 4104.48717921, 4125.51282024, 4142.56410236,12.0
4188.97435884, 4146.66666646, 4108.97435870, 4171.15384602, 4127.17948691, 4130.12820485, 4160.25641005, 4134.99999973, 4182.43589730, 4138.58974339, 5468.33333591, 4128.33333306, 4128.58974332, 4143.97435877,12.0
4178.46153833, 4157.43589723, 4117.94871767, 4166.66666646, 4123.97435870, 4132.17948691, 4164.10256390, 4141.66666646, 4183.84615371, 4127.82051255, 5457.94872052, 4143.07692287, 4130.12820485, 4143.71794851,12.0
4187.17948704, 4150.76923056, 4113.71794844, 4172.05128192, 4125.25640998, 4134.99999973, 4167.30769210, 4138.71794851, 4176.92307679, 4121.53846126, 5450.12820770, 4137.69230749, 4130.64102537, 4145.12820492,12.0
4183.84615371, 4141.92307672, 4107.30769203, 4179.74358961, 4126.41025614, 4132.69230742, 4166.92307672, 4129.10256383, 4173.33333320, 4129.23076896, 5439.10256661, 4131.79487152, 4127.56410229, 4146.15384595,12.0
4179.35897422, 4152.43589723, 4111.28205101, 4182.69230756, 4126.79487152, 4134.48717921, 4170.64102551, 4126.02564075, 4167.82051262, 4136.66666646, 5420.12820763, 4140.51282031, 4127.69230742, 4147.05128185,12.0
4191.53846140, 4154.99999980, 4115.25640998, 4182.69230756, 4128.46153819, 4137.94871774, 4164.74358954, 4123.46153819, 4161.53846133, 4131.02564075, 5403.84615628, 4143.07692287, 4131.66666639, 4148.07692287,12.0
4177.30769217, 4143.97435877, 4109.48717921, 4182.56410243, 4124.61538434, 4134.74358947, 4151.92307672, 4123.46153819, 4164.99999980, 4126.15384588, 5400.12820756, 4137.94871774, 4128.07692280, 4148.58974339,12.0
4187.56410243, 4145.51282031, 4113.71794844, 4178.20512807, 4126.02564075, 4133.71794844, 4159.99999980, 4136.79487159, 4174.48717935, 4133.58974332, 5389.74359218, 4138.58974339, 4127.94871767, 4147.43589723,12.0
4185.89743576, 4133.58974332, 4105.12820485, 4160.76923056, 4127.56410229, 4126.02564075, 4163.84615364, 4139.35897415, 4169.23076910, 4137.30769210, 5355.89743826, 4125.64102537, 4128.84615357, 4145.51282031,12.0
4170.12820499, 4112.69230742, 4087.05128171, 4152.69230749, 4124.48717921, 4120.89743562, 4149.35897415, 4125.64102537, 4161.53846133, 4129.10256383, 5333.07692537, 4103.97435870, 4126.02564075, 4147.82051262,12.0
4188.07692294, 4115.51282024, 4091.02564068, 4161.79487159, 4125.64102537, 4132.05128178, 4149.87179467, 4119.99999973, 4170.64102551, 4126.28205101, 5336.66666896, 4104.61538434, 4126.66666639, 4145.64102544,12.0
4176.66666653, 4132.30769203, 4102.30769196, 4170.76923063, 4125.12820485, 4138.84615364, 4158.33333313, 4125.89743562, 4178.58974345, 4132.56410229, 5331.28205358, 4126.02564075, 4126.41025614, 4140.64102544,12.0
4176.15384602, 4142.94871774, 4112.69230742, 4177.82051269, 4126.92307665, 4127.82051255, 4142.56410236, 4121.02564075, 4171.92307679, 4136.53846133, 5316.02564325, 4142.05128185, 4129.23076896, 4146.02564082,12.0
4183.33333320, 4144.23076903, 4120.76923050, 4188.58974345, 4126.41025614, 4116.41025614, 4124.74358947, 4112.05128178, 4172.82051269, 4132.82051255, 5313.07692530, 4146.66666646, 4129.48717921, 4148.07692287,12.0
4174.35897422, 4149.35897415, 4126.79487152, 4199.99999986, 4124.35897408, 4125.25640998, 4144.10256390, 4129.87179460, 4195.38461525, 4131.28205101, 5312.94872018, 4156.66666646, 4126.53846126, 4143.20512800,12.0
4188.58974345, 4162.17948697, 4133.20512793, 4199.99999986, 4128.07692280, 4134.74358947, 4171.15384602, 4155.38461518, 4211.66666660, 4134.74358947, 5301.41025864, 4167.56410236, 4129.87179460, 4144.23076903,12.0
4180.64102551, 4166.15384595, 4133.97435870, 4197.82051269, 4127.05128178, 4133.46153819, 4175.38461525, 4161.02564082, 4212.30769224, 4134.61538434, 5292.05128428, 4172.17948704, 4130.38461511, 4144.87179467,12.0
4183.46153833, 4155.89743569, 4130.89743562, 4202.30769224, 4127.30769203, 4137.05128185, 4171.02564089, 4153.20512800, 4208.58974352, 4131.41025614, 5279.74359190, 4169.99999986, 4129.61538434, 4141.53846133,12.0
4190.89743576, 4140.25641005, 4118.97435870, 4194.74358961, 4130.25640998, 4135.25640998, 4163.07692287, 4137.30769210, 4192.05128192, 4131.66666639, 5248.97436106, 4150.12820492, 4130.38461511, 4141.15384595,12.0
4177.94871781, 4131.41025614, 4106.92307665, 4171.79487166, 4128.84615357, 4124.87179460, 4150.76923056, 4123.07692280, 4169.74358961, 4133.33333306, 5227.69230978, 4126.28205101, 4129.48717921, 4146.15384595,12.0
4191.79487166, 4138.84615364, 4109.74358947, 4159.99999980, 4127.56410229, 4130.89743562, 4152.30769210, 4126.28205101, 4167.17948697, 4132.17948691, 5222.56410465, 4127.56410229, 4130.76923050, 4146.41025621,12.0
4184.35897422, 4144.61538441, 4110.25640998, 4168.97435884, 4125.89743562, 4144.35897415, 4163.20512800, 4138.46153826, 4177.94871781, 4131.92307665, 5208.84615587, 4135.64102544, 4128.97435870, 4142.05128185,12.0
4182.17948704, 4145.76923056, 4107.94871767, 4185.64102551, 4126.66666639, 4144.61538441, 4161.79487159, 4144.10256390, 4180.38461525, 4132.69230742, 5196.79487381, 4133.33333306, 4128.84615357, 4145.25641005,12.0
4192.30769217, 4147.43589723, 4116.53846126, 4199.35897422, 4129.48717921, 4145.64102544, 4157.05128185, 4144.74358954, 4179.48717935, 4131.66666639, 5199.10256612, 4142.05128185, 4129.99999973, 4146.53846133,12.0
4174.99999986, 4142.17948697, 4122.17948691, 4191.02564089, 4127.94871767, 4143.20512800, 4153.33333313, 4139.35897415, 4178.33333320, 4133.20512793, 5188.46154048, 4155.76923056, 4126.66666639, 4145.76923056,12.0
4185.38461525, 4146.41025621, 4119.74358947, 4177.05128192, 4126.28205101, 4135.25640998, 4153.07692287, 4131.15384588, 4171.41025628, 4132.94871767, 5175.12820708, 4154.10256390, 4127.94871767, 4149.23076903,12.0
4181.41025628, 4155.89743569, 4117.94871767, 4186.41025628, 4126.41025614, 4136.02564082, 4161.28205108, 4133.33333306, 4175.89743576, 4128.58974332, 5171.53846349, 4153.46153826, 4127.56410229, 4147.05128185,12.0
4172.82051269, 4147.30769210, 4115.89743562, 4187.05128192, 4129.61538434, 4128.71794844, 4149.61538441, 4128.20512793, 4180.38461525, 4129.10256383, 5155.38461733, 4149.61538441, 4123.84615357, 4142.82051262,12.0
4185.51282038, 4134.23076896, 4114.87179460, 4173.71794858, 4131.79487152, 4119.61538434, 4136.28205108, 4126.53846126, 4178.71794858, 4133.97435870, 5139.74359162, 4141.28205108, 4125.38461511, 4141.92307672,12.0
4172.69230756, 4144.35897415, 4117.94871767, 4183.33333320, 4127.05128178, 4136.02564082, 4159.99999980, 4155.25641005, 4195.89743576, 4132.56410229, 5138.46154034, 4152.82051262, 4125.89743562, 4142.56410236,12.0
4180.76923063, 4155.38461518, 4119.48717921, 4187.05128192, 4126.28205101, 4150.12820492, 4175.51282038, 4165.51282031, 4203.71794865, 4128.33333306, 5125.25641214, 4153.97435877, 4128.71794844, 4143.07692287,12.0
4182.69230756, 4142.17948697, 4109.35897408, 4162.43589723, 4126.66666639, 4138.46153826, 4160.51282031, 4143.33333313, 4184.23076910, 4129.99999973, 5095.00000181, 4129.99999973, 4129.23076896, 4142.82051262,12.0
4176.92307679, 4138.33333313, 4107.05128178, 4158.71794851, 4125.51282024, 4136.15384595, 4158.58974339, 4138.71794851, 4179.48717935, 4131.79487152, 5084.87179661, 4126.53846126, 4128.20512793, 4144.87179467,12.0
4191.53846140, 4143.84615364, 4116.79487152, 4171.28205115, 4126.41025614, 4145.51282031, 4164.87179467, 4144.10256390, 4188.33333320, 4127.82051255, 5090.12820694, 4140.51282031, 4130.64102537, 4146.15384595,12.0
4180.76923063, 4138.07692287, 4111.41025614, 4162.30769210, 4124.48717921, 4136.79487159, 4157.82051262, 4133.84615357, 4174.87179474, 4129.48717921, 5080.38461713, 4136.15384595, 4128.58974332, 4144.48717928,12.0
4187.17948704, 4141.53846133, 4112.05128178, 4159.99999980, 4127.43589716, 4142.05128185, 4166.41025621, 4130.25640998, 4167.17948697, 4136.02564082, 5071.66666841, 4138.33333313, 4129.74358947, 4143.97435877,12.0
4189.35897422, 4147.94871774, 4117.30769203, 4166.66666646, 4129.10256383, 4158.58974339, 4174.87179474, 4138.71794851, 4186.79487166, 4135.64102544, 5063.33333507, 4150.51282031, 4130.89743562, 4144.74358954,12.0
4178.46153833, 4146.15384595, 4111.79487152, 4160.76923056, 4126.41025614, 4149.35897415, 4156.41025621, 4136.79487159, 4189.99999986, 4133.71794844, 5044.23077090, 4138.58974339, 4130.12820485, 4147.43589723,12.0
4194.61538448, 4143.58974339, 4113.33333306, 4162.30769210, 4127.94871767, 4142.82051262, 4151.53846133, 4141.79487159, 4181.15384602, 4131.92307665, 5029.87179654, 4131.28205101, 4132.82051255, 4148.58974339,12.0
4182.43589730, 4130.76923050, 4107.82051255, 4163.33333313, 4127.82051255, 4140.51282031, 4154.87179467, 4146.92307672, 4179.23076910, 4128.20512793, 5022.43589911, 4133.71794844, 4128.97435870, 4147.30769210,12.0
4180.89743576, 4130.51282024, 4101.28205094, 4156.92307672, 4128.07692280, 4132.56410229, 4146.28205108, 4133.97435870, 4170.64102551, 4129.35897408, 5014.35897596, 4124.74358947, 4128.46153819, 4147.05128185,12.0
4187.05128192, 4143.58974339, 4110.51282024, 4162.82051262, 4127.94871767, 4141.02564082, 4148.84615364, 4133.58974332, 4168.07692287, 4133.97435870, 5007.94871955, 4128.71794844, 4132.05128178, 4145.38461518,12.0
4171.41025628, 4135.76923056, 4114.87179460, 4157.17948697, 4126.66666639, 4147.17948697, 4153.97435877, 4145.76923056, 4178.58974345, 4129.23076896, 4996.28205288, 4139.48717928, 4129.35897408, 4145.51282031,12.0
4181.92307679, 4124.74358947, 4107.56410229, 4136.41025621, 4130.76923050, 4135.76923056, 4151.41025621, 4141.15384595, 4180.12820499, 4123.97435870, 4983.33333487, 4129.48717921, 4127.30769203, 4146.02564082,12.0
4177.30769217, 4141.79487159, 4115.76923050, 4149.99999980, 4129.74358947, 4143.20512800, 4162.43589723, 4141.02564082, 4181.15384602, 4131.15384588, 4983.84615538, 4137.43589723, 4127.43589716, 4143.33333313,12.0
4177.30769217, 4165.38461518, 4141.15384595, 4187.56410243, 4127.82051255, 4168.97435884, 4175.64102551, 4157.43589723, 4196.53846140, 4135.89743569, 4989.35897596, 4172.56410243, 4128.20512793, 4143.07692287,12.0
4185.38461525, 4153.71794851, 4135.51282031, 4180.89743576, 4129.74358947, 4162.17948697, 4163.07692287, 4153.20512800, 4196.28205115, 4130.51282024, 4975.51282205, 4166.53846133, 4127.43589716, 4141.28205108,12.0
4173.97435884, 4131.28205101, 4109.61538434, 4145.89743569, 4127.82051255, 4133.71794844, 4144.61538441, 4134.35897408, 4173.46153833, 4127.43589716, 4953.58974505, 4133.58974332, 4125.89743562, 4141.53846133,12.0
4190.12820499, 4143.71794851, 4114.87179460, 4144.61538441, 4127.30769203, 4137.69230749, 4151.41025621, 4138.97435877, 4170.25641012, 4131.92307665, 4946.15384762, 4133.71794844, 4128.71794844, 4145.25641005,12.0
4188.58974345, 4151.66666646, 4124.10256383, 4159.87179467, 4125.64102537, 4159.99999980, 4170.89743576, 4154.48717928, 4181.02564089, 4134.35897408, 4936.02564249, 4143.97435877, 4128.20512793, 4144.99999980,12.0
4185.51282038, 4140.12820492, 4118.46153819, 4162.30769210, 4124.61538434, 4161.15384595, 4175.89743576, 4154.99999980, 4178.97435884, 4132.30769203, 4923.84615531, 4138.46153826, 4126.66666639, 4145.38461518,12.0
4196.66666653, 4128.84615357, 4110.25640998, 4153.20512800, 4127.94871767, 4144.74358954, 4155.64102544, 4138.58974339, 4169.61538448, 4131.15384588, 4916.41025780, 4125.12820485, 4129.48717921, 4145.51282031,12.0
4182.43589730, 4118.33333306, 4097.43589709, 4140.51282031, 4127.30769203, 4135.38461518, 4132.30769203, 4123.07692280, 4157.30769210, 4128.20512793, 4905.38461678, 4115.89743562, 4129.23076896, 4144.99999980,12.0
4191.92307679, 4135.12820485, 4111.28205101, 4150.12820492, 4127.82051255, 4148.20512800, 4145.12820492, 4128.71794844, 4157.30769210, 4126.02564075, 4898.33333473, 4134.23076896, 4130.25640998, 4148.33333313,12.0
4188.97435884, 4161.79487159, 4133.84615357, 4172.82051269, 4128.07692280, 4161.53846133, 4171.53846140, 4147.69230749, 4175.64102551, 4130.76923050, 4900.00000139, 4163.33333313, 4128.97435870, 4150.12820492,12.0
4178.07692294, 4152.56410236, 4124.23076896, 4169.23076910, 4127.94871767, 4149.61538441, 4157.69230749, 4146.79487159, 4179.35897422, 4134.23076896, 4893.20512960, 4151.28205108, 4125.38461511, 4149.10256390,12.0
4191.41025628, 4144.74358954, 4118.97435870, 4160.51282031, 4129.23076896, 4137.56410236, 4137.82051262, 4137.69230749, 4171.53846140, 4131.53846126, 4880.25641158, 4136.92307672, 4127.30769203, 4144.99999980,12.0
4177.30769217, 4167.30769210, 4135.76923056, 4181.02564089, 4126.53846126, 4150.89743569, 4157.30769210, 4149.23076903, 4181.92307679, 4132.43589716, 4878.84615517, 4163.46153826, 4124.48717921, 4141.41025621,12.0
4181.79487166, 4170.38461525, 4138.20512800, 4188.97435884, 4126.15384588, 4160.76923056, 4167.56410236, 4148.58974339, 4181.28205115, 4134.48717921, 4872.30769363, 4167.43589723, 4123.71794844, 4143.33333313,12.0
4184.99999986, 4146.79487159, 4118.97435870, 4164.10256390, 4125.64102537, 4147.94871774, 4150.25641005, 4129.10256383, 4157.69230749, 4129.61538434, 4848.71794997, 4132.94871767, 4126.41025614, 4143.97435877,12.0
4173.71794858, 4150.76923056, 4119.35897408, 4160.64102544, 4125.64102537, 4153.58974339, 4162.30769210, 4140.51282031, 4161.28205108, 4127.94871767, 4838.46153972, 4134.10256383, 4125.12820485, 4142.69230749,12.0
4184.87179474, 4155.64102544, 4122.30769203, 4170.51282038, 4128.58974332, 4163.97435877, 4170.38461525, 4146.92307672, 4172.56410243, 4132.94871767, 4840.51282177, 4142.30769210, 4125.38461511, 4142.69230749,12.0
4176.92307679, 4138.46153826, 4106.92307665, 4157.69230749, 4126.53846126, 4146.15384595, 4141.02564082, 4120.64102537, 4156.92307672, 4131.02564075, 4826.79487305, 4121.28205101, 4124.23076896, 4143.07692287,12.0
4184.87179474, 4146.66666646, 4114.99999973, 4156.02564082, 4126.41025614, 4138.71794851, 4134.35897408, 4115.89743562, 4150.51282031, 4122.94871767, 4804.74359093, 4123.58974332, 4126.15384588, 4143.46153826,12.0
4190.76923063, 4165.51282031, 4131.41025614, 4172.05128192, 4127.56410229, 4152.69230749, 4153.46153826, 4130.64102537, 4164.61538441, 4125.12820485, 4802.69230888, 4143.58974339, 4127.30769203, 4140.64102544,12.0
4177.69230756, 4162.82051262, 4127.05128178, 4168.84615371, 4125.76923050, 4152.43589723, 4145.38461518, 4129.61538434, 4166.15384595, 4130.51282024, 4809.61538580, 4140.38461518, 4124.99999973, 4141.92307672,12.0
4190.38461525, 4158.33333313, 4127.56410229, 4164.48717928, 4126.02564075, 4145.12820492, 4132.43589716, 4132.56410229, 4165.51282031, 4129.99999973, 4803.71794990, 4142.17948697, 4128.58974332, 4146.02564082,12.0
4182.82051269, 4154.99999980, 4132.69230742, 4173.07692294, 4125.51282024, 4148.20512800, 4146.41025621, 4146.15384595, 4176.02564089, 4129.74358947, 4791.53846265, 4157.17948697, 4130.25640998, 4146.15384595,12.0
4187.30769217, 4150.12820492, 4131.28205101, 4164.61538441, 4127.30769203, 4145.51282031, 4147.30769210, 4135.38461518, 4164.48717928, 4134.61538434, 4776.79487291, 4152.69230749, 4130.38461511, 4148.58974339,12.0
4198.20512807, 4154.35897415, 4126.28205101, 4150.38461518, 4128.84615357, 4138.33333313, 4130.51282024, 4116.79487152, 4144.35897415, 4136.15384595, 4761.92307804, 4139.61538441, 4127.94871767, 4148.46153826,12.0
4179.35897422, 4156.02564082, 4118.58974332, 4153.07692287, 4125.51282024, 4147.30769210, 4137.82051262, 4126.79487152, 4154.87179467, 4126.92307665, 4758.46153951, 4133.97435870, 4123.58974332, 4144.74358954,12.0
4188.07692294, 4144.10256390, 4112.05128178, 4148.84615364, 4126.79487152, 4149.87179467, 4142.69230749, 4128.71794844, 4158.33333313, 4123.20512793, 4755.64102669, 4120.89743562, 4127.17948691, 4145.38461518,12.0
4182.05128192, 4135.12820485, 4113.71794844, 4137.69230749, 4126.53846126, 4140.76923056, 4132.30769203, 4116.53846126, 4142.56410236, 4128.58974332, 4739.87179592, 4118.71794844, 4127.94871767, 4146.92307672,12.0
4174.74358961, 4149.23076903, 4130.25640998, 4149.35897415, 4125.89743562, 4151.28205108, 4147.05128185, 4133.07692280, 4153.97435877, 4128.33333306, 4727.69230874, 4146.28205108, 4127.69230742, 4144.99999980,12.0
4186.41025628, 4155.76923056, 4135.89743569, 4155.76923056, 4128.07692280, 4155.51282031, 4148.46153826, 4138.07692287, 4159.99999980, 4124.99999973, 4728.71794976, 4155.12820492, 4129.99999973, 4142.94871774,12.0
4170.51282038, 4141.15384595, 4119.74358947, 4141.28205108, 4125.38461511, 4135.64102544, 4116.02564075, 4103.71794844, 4134.61538434, 4133.33333306, 4728.46153951, 4129.35897408, 4126.28205101, 4144.23076903,12.0
4179.48717935, 4137.69230749, 4118.20512793, 4142.56410236, 4124.61538434, 4138.20512800, 4119.10256383, 4102.30769196, 4139.87179467, 4141.28205108, 4724.10256508, 4126.15384588, 4126.92307665, 4145.64102544,12.0
4183.58974345, 4143.71794851, 4127.82051255, 4149.61538441, 4124.35897408, 4157.05128185, 4145.25641005, 4140.38461518, 4168.07692287, 4134.23076896, 4713.46153944, 4146.66666646, 4130.12820485, 4143.33333313,12.0
4173.07692294, 4154.10256390, 4127.17948691, 4141.15384595, 4125.51282024, 4147.82051262, 4131.28205101, 4139.87179467, 4154.10256390, 4133.97435870, 4700.25641123, 4144.35897415, 4126.41025614, 4143.71794851,12.0
4183.33333320, 4158.20512800, 4124.99999973, 4143.58974339, 4128.97435870, 4133.84615357, 4109.74358947, 4109.35897408, 4125.38461511, 4141.02564082, 4695.51282149, 4130.64102537, 4125.51282024, 4143.97435877,12.0
4177.56410243, 4154.61538441, 4131.15384588, 4163.97435877, 4126.66666639, 4143.46153826, 4128.97435870, 4119.99999973, 4143.58974339, 4131.02564075, 4695.38461636, 4142.69230749, 4125.12820485, 4142.94871774,12.0
