AF3,F7,F3,FC5,T7,P7,O1,O2,P8,T8,FC6,F4,F8,AF4,Label
4122.82051255, 4213.20512814, 4161.28205108, 4253.84615385, 4132.69230742, 4182.17948704, 4194.99999986, 4181.53846140, 4238.58974359, 4134.48717921, 4268.20512828, 4153.33333313, 4128.71794844, 4147.05128185,12.0
4127.82051255, 4213.58974352, 4196.15384602, 4310.89743604, 4132.56410229, 4230.76923070, 4238.84615385, 4205.89743583, 4274.48717956, 4134.48717921, 4303.20512835, 4207.17948711, 4128.07692280, 4145.38461518,12.0
4129.74358947, 4206.79487173, 4211.79487173, 4318.58974373, 4132.17948691, 4256.02564103, 4273.33333341, 4220.51282045, 4291.02564110, 4134.48717921, 4320.12820527, 4232.69230763, 4124.35897408, 4143.71794851,12.0
4121.15384588, 4181.53846140, 4186.92307679, 4261.15384616, 4132.82051255, 4229.23076917, 4252.05128206, 4202.17948711, 4264.10256411, 4134.48717921, 4306.41025655, 4199.23076910, 4120.64102537, 4143.84615364,12.0
4131.92307665, 4170.25641012, 4173.84615371, 4239.48717949, 4134.35897408, 4214.10256404, 4227.94871788, 4193.71794858, 4242.56410257, 4134.48717921, 4296.28205136, 4181.02564089, 4124.74358947, 4144.48717928,12.0
4133.71794844, 4178.07692294, 4178.46153833, 4257.43589744, 4133.20512793, 4224.87179481, 4228.84615378, 4202.69230763, 4247.94871795, 4134.48717921, 4301.66666681, 4191.66666653, 4126.41025614, 4143.33333313,12.0
4127.69230742, 4183.20512807, 4175.51282038, 4256.92307693, 4132.82051255, 4218.33333327, 4224.74358968, 4202.69230763, 4252.82051282, 4134.48717921, 4296.41025648, 4194.48717935, 4124.23076896, 4145.76923056,12.0
4128.20512793, 4174.74358961, 4171.02564089, 4238.84615385, 4132.69230742, 4204.23076917, 4219.99999993, 4194.99999986, 4244.35897436, 4134.74358947, 4292.17948725, 4190.89743576, 4126.79487152, 4147.05128185,12.0
4124.87179460, 4164.23076903, 4168.71794858, 4224.99999993, 4131.79487152, 4209.23076917, 4226.15384609, 4196.15384602, 4236.79487180, 4134.10256383, 4295.51282059, 4190.64102551, 4126.92307665, 4144.61538441,12.0
4127.69230742, 4163.58974339, 4172.30769217, 4225.89743583, 4130.51282024, 4222.56410250, 4236.92307693, 4209.35897429, 4252.82051282, 4134.61538434, 4300.51282066, 4200.51282038, 4126.15384588, 4145.51282031,12.0
4124.99999973, 4163.33333313, 4172.94871781, 4222.30769224, 4131.15384588, 4216.92307686, 4229.87179481, 4210.64102558, 4264.48717949, 4135.25640998, 4292.56410264, 4200.25641012, 4126.66666639, 4147.56410236,12.0
4128.97435870, 4181.92307679, 4169.48717935, 4211.92307686, 4130.89743562, 4204.35897429, 4223.07692301, 4203.20512814, 4253.84615385, 4132.69230742, 4284.23076930, 4194.48717935, 4129.23076896, 4147.82051262,12.0
4133.20512793, 4204.74358968, 4171.02564089, 4209.99999993, 4129.10256383, 4211.15384609, 4229.10256404, 4196.15384602, 4240.38461539, 4132.17948691, 4282.05128212, 4198.58974345, 4129.61538434, 4145.76923056,12.0
4119.87179460, 4192.69230756, 4169.87179474, 4208.46153840, 4131.66666639, 4221.41025634, 4230.51282045, 4188.84615371, 4233.20512814, 4135.38461518, 4276.66666674, 4194.48717935, 4125.12820485, 4146.66666646,12.0
4123.58974332, 4172.56410243, 4166.02564082, 4201.92307686, 4132.30769203, 4217.56410250, 4222.17948711, 4186.53846140, 4231.66666660, 4135.25640998, 4275.38461546, 4187.05128192, 4127.43589716, 4148.33333313,12.0
4127.82051255, 4173.84615371, 4173.33333320, 4213.97435891, 4130.64102537, 4221.79487173, 4227.82051275, 4193.07692294, 4240.12820513, 4133.33333306, 4283.07692315, 4202.05128199, 4129.10256383, 4144.35897415,12.0
4124.10256383, 4180.38461525, 4183.07692294, 4218.71794865, 4133.33333306, 4232.17948711, 4244.48717949, 4200.12820499, 4247.17948718, 4135.12820485, 4285.00000007, 4217.43589737, 4127.94871767, 4144.35897415,12.0
4130.51282024, 4174.35897422, 4179.87179474, 4198.71794858, 4133.71794844, 4225.12820506, 4234.74358975, 4199.10256397, 4245.38461539, 4136.15384595, 4280.89743597, 4208.07692301, 4128.46153819, 4146.28205108,12.0
4128.33333306, 4162.17948697, 4180.38461525, 4199.35897422, 4133.07692280, 4215.25641019, 4218.97435891, 4197.17948704, 4247.56410257, 4134.23076896, 4282.43589751, 4204.48717942, 4126.66666639, 4144.23076903,12.0
4134.87179460, 4157.69230749, 4185.76923063, 4211.66666660, 4134.74358947, 4213.20512814, 4213.20512814, 4194.35897422, 4248.20512821, 4134.23076896, 4282.69230777, 4207.30769224, 4130.38461511, 4144.35897415,12.0
4141.53846133, 4161.41025621, 4177.05128192, 4198.71794858, 4134.48717921, 4220.25641019, 4214.48717942, 4202.17948711, 4247.43589744, 4134.74358947, 4275.38461546, 4197.17948704, 4132.05128178, 4144.87179467,12.0
4135.76923056, 4166.53846133, 4170.64102551, 4180.64102551, 4132.94871767, 4227.43589737, 4228.07692301, 4221.15384609, 4252.94871795, 4134.48717921, 4270.89743597, 4190.89743576, 4129.23076896, 4145.51282031,12.0
4137.43589723, 4162.30769210, 4170.89743576, 4178.97435884, 4131.28205101, 4215.12820506, 4222.05128199, 4216.28205122, 4249.74358975, 4134.48717921, 4269.48717956, 4190.89743576, 4134.61538434, 4144.61538441,12.0
4135.25640998, 4151.79487159, 4161.41025621, 4174.10256397, 4132.94871767, 4199.35897422, 4199.10256397, 4194.61538448, 4233.71794865, 4134.48717921, 4260.38461539, 4178.71794858, 4135.51282031, 4142.82051262,12.0
4134.99999973, 4153.58974339, 4155.51282031, 4164.23076903, 4133.84615357, 4206.92307686, 4205.12820506, 4186.41025628, 4220.64102558, 4134.74358947, 4255.12820513, 4164.48717928, 4131.02564075, 4147.43589723,12.0
4132.82051255, 4158.71794851, 4162.56410236, 4158.71794851, 4131.02564075, 4214.23076917, 4218.07692301, 4183.71794858, 4213.07692301, 4134.87179460, 4258.33333334, 4169.23076910, 4131.79487152, 4146.79487159,12.0
4128.46153819, 4160.76923056, 4174.35897422, 4162.30769210, 4131.66666639, 4216.02564096, 4212.56410250, 4183.84615371, 4213.97435891, 4133.46153819, 4261.15384616, 4190.38461525, 4128.84615357, 4143.07692287,12.0
4137.17948697, 4167.43589723, 4183.71794858, 4175.64102551, 4131.92307665, 4224.87179481, 4218.71794865, 4188.71794858, 4220.38461532, 4135.51282031, 4263.20512821, 4204.61538455, 4128.97435870, 4147.82051262,12.0
4135.38461518, 4167.17948697, 4177.17948704, 4171.53846140, 4131.28205101, 4219.10256404, 4217.69230763, 4184.10256397, 4216.66666660, 4135.12820485, 4256.66666667, 4187.69230756, 4134.61538434, 4149.61538441,12.0
4134.48717921, 4164.23076903, 4163.58974339, 4148.20512800, 4132.56410229, 4203.20512814, 4188.71794858, 4166.15384595, 4201.66666660, 4128.58974332, 4247.30769231, 4162.17948697, 4134.99999973, 4145.76923056,12.0
4139.87179467, 4159.61538441, 4159.74358954, 4137.05128185, 4133.07692280, 4199.48717935, 4173.58974345, 4154.99999980, 4187.43589730, 4128.97435870, 4243.46153847, 4158.07692287, 4132.69230742, 4143.84615364,12.0
4139.10256390, 4156.79487159, 4168.07692287, 4151.41025621, 4135.12820485, 4208.58974352, 4195.76923063, 4180.64102551, 4201.79487173, 4135.38461518, 4246.53846154, 4171.41025628, 4132.30769203, 4144.35897415,12.0
4148.84615364, 4168.33333320, 4178.46153833, 4164.99999980, 4136.15384595, 4219.48717942, 4228.46153840, 4223.07692301, 4245.51282052, 4134.99999973, 4257.05128206, 4184.35897422, 4136.66666646, 4145.76923056,12.0
4150.12820492, 4170.12820499, 4179.35897422, 4169.87179474, 4137.05128185, 4220.76923070, 4236.79487180, 4233.97435898, 4266.79487187, 4132.30769203, 4264.23076923, 4188.46153833, 4136.79487159, 4145.12820492,12.0
4147.82051262, 4166.92307672, 4178.97435884, 4173.33333320, 4135.89743569, 4221.66666660, 4227.94871788, 4219.48717942, 4246.53846154, 4134.35897408, 4260.25641026, 4187.56410243, 4132.94871767, 4144.23076903,12.0
4157.69230749, 4167.82051262, 4178.20512807, 4157.30769210, 4133.07692280, 4218.46153840, 4218.97435891, 4207.17948711, 4223.84615378, 4134.61538434, 4253.58974359, 4178.20512807, 4136.15384595, 4144.99999980,12.0
4162.56410236, 4163.58974339, 4173.20512807, 4137.69230749, 4138.84615364, 4205.76923070, 4200.89743576, 4188.33333320, 4206.41025634, 4133.46153819, 4250.51282052, 4164.99999980, 4139.87179467, 4144.99999980,12.0
4168.20512807, 4168.20512807, 4177.69230756, 4146.41025621, 4141.02564082, 4217.82051275, 4201.53846147, 4184.61538448, 4199.61538448, 4134.61538434, 4253.33333334, 4174.87179474, 4140.12820492, 4144.35897415,12.0
4158.07692287, 4162.82051262, 4177.43589730, 4150.76923056, 4132.94871767, 4233.84615385, 4221.02564096, 4208.07692301, 4212.69230763, 4134.23076896, 4245.76923077, 4182.94871781, 4137.94871774, 4144.23076903,12.0
4150.25641005, 4149.74358954, 4163.20512800, 4138.71794851, 4132.05128178, 4210.51282045, 4201.15384609, 4195.76923063, 4198.71794858, 4134.35897408, 4233.20512814, 4161.41025621, 4139.48717928, 4146.92307672,12.0
4155.89743569, 4147.82051262, 4156.15384595, 4139.74358954, 4132.82051255, 4194.23076910, 4164.87179467, 4145.51282031, 4157.69230749, 4134.74358947, 4229.99999993, 4143.20512800, 4142.56410236, 4145.64102544,12.0
4135.64102544, 4123.33333306, 4148.20512800, 4132.82051255, 4126.79487152, 4198.97435884, 4158.46153826, 4133.07692280, 4150.12820492, 4134.10256383, 4212.43589737, 4128.97435870, 4136.02564082, 4140.38461518,12.0
4128.84615357, 4094.99999966, 4135.38461518, 4115.76923050, 4125.12820485, 4187.30769217, 4156.53846133, 4149.61538441, 4168.46153833, 4134.35897408, 4201.92307686, 4115.51282024, 4133.46153819, 4143.84615364,12.0
4152.56410236, 4105.76923050, 4143.71794851, 4109.61538434, 4132.56410229, 4179.99999986, 4149.10256390, 4153.07692287, 4174.61538448, 4135.25640998, 4230.12820506, 4129.10256383, 4137.17948697, 4146.79487159,12.0
4161.28205108, 4119.74358947, 4164.10256390, 4112.05128178, 4137.82051262, 4190.38461525, 4155.38461518, 4162.82051262, 4185.25641012, 4132.17948691, 4258.07692308, 4155.64102544, 4138.07692287, 4143.33333313,12.0
4161.02564082, 4110.76923050, 4170.76923063, 4113.33333306, 4134.35897408, 4192.43589730, 4163.20512800, 4173.58974345, 4202.82051275, 4128.20512793, 4261.02564103, 4167.17948697, 4140.51282031, 4141.41025621,12.0
4152.43589723, 4105.89743562, 4170.25641012, 4101.02564068, 4131.15384588, 4189.10256397, 4165.25641005, 4169.74358961, 4200.89743576, 4128.46153819, 4257.56410257, 4168.20512807, 4140.25641005, 4140.64102544,12.0
4130.25640998, 4104.35897408, 4165.64102544, 4083.84615350, 4123.33333306, 4186.92307679, 4164.74358954, 4162.17948697, 4186.28205115, 4129.48717921, 4250.89743590, 4164.35897415, 4134.23076896, 4139.48717928,12.0
4113.84615357, 4099.48717914, 4154.23076903, 4094.35897402, 4114.99999973, 4183.46153833, 4163.97435877, 4152.30769210, 4176.02564089, 4128.84615357, 4243.58974359, 4156.41025621, 4126.28205101, 4140.38461518,12.0
4116.66666639, 4108.33333306, 4161.02564082, 4114.74358947, 4117.69230742, 4199.74358961, 4186.92307679, 4167.56410236, 4189.87179474, 4129.61538434, 4250.00000000, 4167.69230749, 4125.51282024, 4143.97435877,12.0
4122.05128178, 4109.48717921, 4169.35897422, 4088.84615350, 4118.07692280, 4213.58974352, 4200.38461525, 4188.58974345, 4204.48717942, 4130.51282024, 4248.58974359, 4174.23076910, 4128.71794844, 4142.82051262,12.0
4111.28205101, 4083.58974325, 4148.71794851, 4054.87179446, 4116.66666639, 4192.56410243, 4169.87179474, 4171.79487166, 4187.30769217, 4130.12820485, 4234.61538462, 4147.05128185, 4126.53846126, 4142.30769210,12.0
4109.35897408, 4082.43589709, 4139.99999980, 4072.56410222, 4117.56410229, 4180.12820499, 4160.12820492, 4166.02564082, 4180.64102551, 4130.12820485, 4233.20512814, 4139.48717928, 4128.20512793, 4146.53846133,12.0
4111.53846126, 4106.02564075, 4155.25641005, 4090.64102530, 4115.51282024, 4190.64102551, 4188.07692294, 4191.41025628, 4193.71794858, 4130.25640998, 4234.10256411, 4158.71794851, 4126.53846126, 4143.84615364,12.0
4092.43589709, 4092.30769196, 4145.64102544, 4066.66666625, 4111.79487152, 4183.71794858, 4181.02564089, 4187.43589730, 4186.79487166, 4130.25640998, 4222.17948711, 4145.51282031, 4120.38461511, 4144.48717928,12.0
4094.10256376, 4065.76923036, 4124.74358947, 4053.20512779, 4114.61538434, 4167.56410236, 4142.17948697, 4153.46153826, 4165.12820492, 4130.25640998, 4213.20512814, 4112.69230742, 4123.46153819, 4147.69230749,12.0
4098.07692273, 4067.69230728, 4129.35897408, 4070.38461504, 4120.64102537, 4173.46153833, 4145.25641005, 4147.17948697, 4155.51282031, 4130.25640998, 4218.33333327, 4114.99999973, 4125.12820485, 4141.28205108,12.0
4079.48717914, 4074.61538427, 4140.25641005, 4066.79487138, 4115.76923050, 4192.30769217, 4178.07692294, 4167.17948697, 4165.64102544, 4130.25640998, 4222.30769224, 4139.48717928, 4121.28205101, 4141.66666646,12.0
4083.07692273, 4066.66666625, 4140.38461518, 4058.97435856, 4115.12820485, 4185.12820499, 4169.87179474, 4160.38461518, 4167.94871774, 4130.25640998, 4217.56410250, 4141.41025621, 4117.05128178, 4145.89743569,12.0
4071.53846119, 4058.46153805, 4137.82051262, 4076.02564068, 4113.84615357, 4170.38461525, 4149.61538441, 4136.41025621, 4154.35897415, 4130.25640998, 4220.38461532, 4128.84615357, 4113.33333306, 4143.97435877,12.0
4057.69230728, 4079.23076889, 4144.99999980, 4079.99999966, 4104.99999973, 4187.82051269, 4176.53846140, 4142.30769210, 4163.97435877, 4130.25640998, 4227.56410250, 4137.56410236, 4113.46153819, 4144.10256390,12.0
4076.28205094, 4087.82051248, 4153.97435877, 4069.74358940, 4110.89743562, 4197.82051269, 4191.66666653, 4155.89743569, 4182.43589730, 4130.25640998, 4225.25641019, 4152.17948697, 4112.17948691, 4145.51282031,12.0
4083.33333299, 4058.07692266, 4139.61538441, 4073.58974325, 4118.58974332, 4166.28205108, 4140.76923056, 4128.20512793, 4159.10256390, 4130.25640998, 4219.87179481, 4136.02564082, 4113.20512793, 4148.97435877,12.0
4103.20512793, 4057.82051241, 4130.76923050, 4069.48717907, 4120.89743562, 4141.15384595, 4102.69230742, 4105.64102537, 4129.87179460, 4130.25640998, 4213.20512814, 4110.51282024, 4115.89743562, 4150.25641005,12.0
4111.15384588, 4078.58974325, 4148.71794851, 4066.15384574, 4123.97435870, 4151.92307672, 4125.89743562, 4130.38461511, 4147.05128185, 4130.25640998, 4215.76923070, 4123.33333306, 4114.10256383, 4148.20512800,12.0
4106.15384588, 4071.79487145, 4157.05128185, 4080.76923043, 4125.64102537, 4163.58974339, 4136.53846133, 4136.53846133, 4157.17948697, 4130.25640998, 4228.07692301, 4140.89743569, 4117.43589716, 4146.41025621,12.0
4124.61538434, 4061.92307651, 4146.79487159, 4070.89743555, 4132.69230742, 4151.66666646, 4108.07692280, 4106.79487152, 4129.48717921, 4130.25640998, 4221.66666660, 4118.58974332, 4121.28205101, 4146.66666646,12.0
4123.84615357, 4068.84615343, 4148.07692287, 4062.30769189, 4134.99999973, 4153.20512800, 4122.94871767, 4132.82051255, 4140.89743569, 4130.25640998, 4217.30769224, 4114.10256383, 4121.92307665, 4150.76923056,12.0
4129.48717921, 4084.23076889, 4165.12820492, 4097.69230735, 4134.10256383, 4191.41025628, 4178.84615371, 4184.35897422, 4185.64102551, 4130.25640998, 4232.94871788, 4140.89743569, 4123.07692280, 4149.61538441,12.0
4137.05128185, 4071.28205094, 4143.71794851, 4080.89743555, 4136.92307672, 4175.25641012, 4139.99999980, 4123.33333306, 4134.35897408, 4130.25640998, 4212.69230763, 4100.64102530, 4123.07692280, 4146.15384595,12.0
4136.79487159, 4049.99999959, 4109.10256383, 4028.71794824, 4137.56410236, 4109.61538434, 4051.41025600, 4028.97435849, 4042.05128164, 4130.25640998, 4178.20512807, 4039.23076882, 4127.05128178, 4148.46153826,12.0
4148.20512800, 4073.46153812, 4138.84615364, 4065.64102523, 4138.71794851, 4130.12820485, 4083.84615350, 4070.12820478, 4084.35897402, 4130.25640998, 4199.74358961, 4084.48717914, 4126.53846126, 4145.76923056,12.0
4132.69230742, 4094.87179453, 4173.97435884, 4118.84615357, 4132.56410229, 4191.15384602, 4159.61538441, 4162.82051262, 4181.66666653, 4130.25640998, 4230.76923070, 4146.41025621, 4124.10256383, 4142.17948697,12.0
4132.05128178, 4083.07692273, 4159.48717928, 4092.82051248, 4128.20512793, 4174.10256397, 4146.28205108, 4164.10256390, 4175.25641012, 4130.25640998, 4215.51282045, 4120.12820485, 4126.41025614, 4143.97435877,12.0
4137.69230749, 4082.43589709, 4147.17948697, 4064.23076882, 4133.46153819, 4145.38461518, 4122.94871767, 4137.05128185, 4129.74358947, 4130.25640998, 4198.46153833, 4094.87179453, 4125.38461511, 4146.66666646,12.0
4123.46153819, 4106.92307665, 4155.38461518, 4078.33333299, 4129.10256383, 4175.12820499, 4136.15384595, 4134.99999973, 4126.28205101, 4130.25640998, 4204.48717942, 4108.84615357, 4125.38461511, 4146.02564082,12.0
4128.58974332, 4116.02564075, 4148.20512800, 4073.20512786, 4125.64102537, 4182.69230756, 4128.07692280, 4116.02564075, 4130.64102537, 4130.25640998, 4202.05128199, 4094.61538427, 4123.46153819, 4141.02564082,12.0
4117.56410229, 4096.66666632, 4133.20512793, 4048.58974318, 4126.79487152, 4150.51282031, 4117.43589716, 4114.48717921, 4128.20512793, 4130.25640998, 4195.89743576, 4078.33333299, 4121.66666639, 4143.58974339,12.0
4119.10256383, 4093.97435863, 4138.46153826, 4049.99999959, 4124.35897408, 4154.74358954, 4127.94871767, 4140.76923056, 4117.56410229, 4130.25640998, 4191.79487166, 4094.10256376, 4123.84615357, 4148.97435877,12.0
4130.38461511, 4094.87179453, 4138.58974339, 4048.58974318, 4124.87179460, 4176.02564089, 4132.69230742, 4134.74358947, 4105.64102537, 4130.25640998, 4186.53846140, 4089.74358940, 4122.94871767, 4145.64102544,12.0
4113.07692280, 4078.97435863, 4124.87179460, 4028.33333285, 4123.71794844, 4157.05128185, 4114.99999973, 4100.38461504, 4102.30769196, 4130.25640998, 4191.79487166, 4070.25640991, 4124.10256383, 4143.07692287,12.0
4121.66666639, 4071.53846119, 4122.43589716, 4010.89743541, 4126.02564075, 4122.43589716, 4087.94871761, 4085.89743555, 4092.94871761, 4130.25640998, 4194.35897422, 4070.64102530, 4123.58974332, 4141.28205108,12.0
4121.02564075, 4059.74358933, 4123.07692280, 3998.84615329, 4128.46153819, 4124.35897408, 4095.12820478, 4097.94871761, 4093.97435863, 4130.25640998, 4188.58974345, 4074.10256376, 4122.17948691, 4143.97435877,12.0
4115.38461511, 4032.94871747, 4123.20512793, 3981.41025586, 4127.56410229, 4149.10256390, 4118.46153819, 4100.25640991, 4107.30769203, 4130.25640998, 4189.35897422, 4069.35897395, 4125.64102537, 4147.94871774,12.0
4125.12820485, 4009.35897388, 4135.89743569, 3970.51281989, 4130.76923050, 4163.46153826, 4123.33333306, 4107.30769203, 4117.56410229, 4130.25640998, 4199.35897422, 4083.97435863, 4125.76923050, 4146.92307672,12.0
4118.58974332, 4006.66666618, 4146.92307672, 3968.33333271, 4128.07692280, 4163.20512800, 4127.82051255, 4136.92307672, 4132.43589716, 4130.25640998, 4204.61538455, 4108.20512793, 4125.64102537, 4146.02564082,12.0
4128.58974332, 4015.76923029, 4142.17948697, 3946.15384553, 4126.79487152, 4155.25641005, 4128.71794844, 4130.25640998, 4126.92307665, 4130.25640998, 4194.48717935, 4096.53846119, 4125.64102537, 4144.48717928,12.0
4125.64102537, 4002.82051227, 4124.48717921, 3910.89743521, 4130.38461511, 4143.46153826, 4106.41025614, 4093.07692273, 4091.53846119, 4130.25640998, 4179.74358961, 4066.02564061, 4123.71794844, 4145.25641005,12.0
4119.87179460, 3988.71794817, 4122.94871767, 3901.28205052, 4129.23076896, 4143.46153826, 4102.56410229, 4099.10256376, 4077.94871761, 4130.25640998, 4179.74358961, 4065.76923036, 4125.64102537, 4144.99999980,12.0
4132.17948691, 3996.28205073, 4149.10256390, 3932.30769162, 4128.58974332, 4166.66666646, 4134.61538434, 4142.94871774, 4120.25640998, 4130.25640998, 4195.89743576, 4102.94871767, 4124.99999973, 4141.92307672,12.0
4124.99999973, 4013.46153798, 4163.97435877, 3959.23076861, 4127.82051255, 4171.53846140, 4132.05128178, 4149.99999980, 4154.61538441, 4130.25640998, 4208.97435891, 4131.15384588, 4126.79487152, 4146.15384595,12.0
4131.28205101, 4029.10256362, 4162.69230749, 3956.53846092, 4127.05128178, 4158.33333313, 4107.17948691, 4136.66666646, 4141.41025621, 4130.25640998, 4208.07692301, 4132.56410229, 4128.84615357, 4148.97435877,12.0
4133.71794844, 4021.92307644, 4163.71794851, 3959.48717887, 4127.82051255, 4164.99999980, 4117.82051255, 4147.56410236, 4137.17948697, 4130.25640998, 4204.48717942, 4133.97435870, 4125.76923050, 4147.69230749,12.0
4127.43589716, 3992.94871740, 4163.46153826, 3970.25640963, 4127.05128178, 4169.61538448, 4131.41025614, 4143.58974339, 4142.05128185, 4130.25640998, 4207.05128199, 4134.61538434, 4127.43589716, 4147.17948697,12.0
4131.66666639, 3958.20512758, 4158.46153826, 3965.64102502, 4126.92307665, 4155.76923056, 4119.61538434, 4122.69230742, 4126.02564075, 4130.25640998, 4206.53846147, 4123.33333306, 4127.56410229, 4144.74358954,12.0
4125.76923050, 3949.35897374, 4151.41025621, 3957.56410194, 4125.64102537, 4150.76923056, 4110.51282024, 4117.30769203, 4116.92307665, 4130.25640998, 4203.71794865, 4114.61538434, 4124.87179460, 4144.99999980,12.0
4128.46153819, 3962.94871733, 4153.97435877, 3959.10256348, 4124.87179460, 4160.76923056, 4117.56410229, 4119.74358947, 4121.28205101, 4130.25640998, 4204.35897429, 4122.17948691, 4123.58974332, 4145.38461518,12.0
4120.12820485, 3952.82051220, 4159.23076903, 3954.35897374, 4125.64102537, 4161.53846133, 4121.15384588, 4118.97435870, 4117.05128178, 4130.25640998, 4198.33333320, 4130.76923050, 4123.58974332, 4144.23076903,12.0
4114.74358947, 3921.28205059, 4158.84615364, 3948.07692246, 4124.48717921, 4157.94871774, 4122.82051255, 4122.69230742, 4114.99999973, 4130.25640998, 4194.35897422, 4130.64102537, 4124.23076896, 4145.12820492,12.0
4123.46153819, 3883.07692232, 4156.02564082, 3951.02564040, 4124.74358947, 4157.56410236, 4119.99999973, 4126.28205101, 4119.35897408, 4130.25640998, 4200.12820499, 4125.12820485, 4120.76923050, 4143.20512800,12.0
4117.43589716, 3867.69230686, 4158.07692287, 3950.12820451, 4125.89743562, 4155.25641005, 4116.28205101, 4129.99999973, 4116.53846126, 4130.25640998, 4194.87179474, 4126.53846126, 4120.12820485, 4143.07692287,12.0
4127.05128178, 3883.97435821, 4165.38461518, 3936.15384546, 4123.71794844, 4153.46153826, 4114.99999973, 4126.92307665, 4114.99999973, 4130.25640998, 4190.25641012, 4135.38461518, 4123.71794844, 4144.35897415,12.0
4129.23076896, 3887.69230693, 4160.76923056, 3917.43589674, 4122.43589716, 4151.28205108, 4110.12820485, 4113.33333306, 4113.97435870, 4130.25640998, 4200.89743576, 4126.28205101, 4123.20512793, 4145.51282031,12.0
4127.56410229, 3893.46153770, 4159.10256390, 3914.10256341, 4123.71794844, 4157.82051262, 4118.20512793, 4127.69230742, 4118.58974332, 4130.25640998, 4204.74358968, 4122.05128178, 4121.92307665, 4146.66666646,12.0
4136.92307672, 3901.53846078, 4167.05128185, 3917.43589674, 4125.76923050, 4164.35897415, 4128.46153819, 4146.79487159, 4119.74358947, 4130.25640998, 4196.66666653, 4135.76923056, 4123.33333306, 4144.61538441,12.0
4129.35897408, 3887.82051206, 4162.94871774, 3919.74358905, 4127.05128178, 4156.41025621, 4121.15384588, 4133.33333306, 4109.87179460, 4130.25640998, 4193.84615371, 4133.58974332, 4124.99999973, 4143.33333313,12.0
4130.51282024, 3882.56410180, 4151.41025621, 3924.10256341, 4124.48717921, 4145.38461518, 4105.64102537, 4110.12820485, 4109.48717921, 4130.25640998, 4189.61538448, 4114.48717921, 4125.64102537, 4142.05128185,12.0
4128.33333306, 3889.61538385, 4141.79487159, 3925.25640957, 4121.41025614, 4144.23076903, 4096.41025607, 4092.69230735, 4097.94871761, 4130.25640998, 4178.71794858, 4100.25640991, 4122.43589716, 4142.82051262,12.0
4125.64102537, 3903.33333257, 4142.82051262, 3921.53846085, 4124.10256383, 4138.46153826, 4090.38461504, 4081.66666632, 4073.46153812, 4130.25640998, 4183.20512807, 4103.71794844, 4123.33333306, 4148.33333313,12.0
4130.51282024, 3920.51281982, 4151.66666646, 3918.20512751, 4125.64102537, 4124.10256383, 4089.74358940, 4095.89743555, 4084.48717914, 4130.25640998, 4197.94871781, 4121.66666639, 4126.02564075, 4147.30769210,12.0
4122.56410229, 3905.12820437, 4154.87179467, 3923.20512751, 4122.82051255, 4127.30769203, 4097.05128171, 4122.43589716, 4109.10256383, 4130.25640998, 4198.07692294, 4130.25640998, 4121.41025614, 4144.35897415,12.0
4131.53846126, 3890.25640950, 4147.82051262, 3922.30769162, 4124.99999973, 4136.92307672, 4084.48717914, 4103.33333306, 4091.02564068, 4130.25640998, 4186.28205115, 4112.69230742, 4121.79487152, 4147.69230749,12.0
4131.28205101, 3914.35897367, 4145.51282031, 3909.48717880, 4128.20512793, 4129.87179460, 4076.15384581, 4083.33333299, 4075.12820478, 4130.25640998, 4182.69230756, 4105.38461511, 4126.02564075, 4146.66666646,12.0
4122.69230742, 3928.71794803, 4158.20512800, 3918.46153777, 4126.53846126, 4131.92307665, 4102.17948684, 4118.07692280, 4104.10256383, 4130.25640998, 4204.99999993, 4125.89743562, 4124.35897408, 4141.28205108,12.0
4129.10256383, 3914.87179418, 4157.43589723, 3941.92307630, 4125.38461511, 4142.17948697, 4105.51282024, 4127.56410229, 4113.46153819, 4130.25640998, 4218.58974352, 4127.94871767, 4121.53846126, 4141.53846133,12.0
4122.82051255, 3915.76923008, 4148.58974339, 3938.84615322, 4126.15384588, 4131.79487152, 4089.10256376, 4102.56410229, 4094.23076889, 4130.25640998, 4203.33333327, 4114.61538434, 4121.15384588, 4146.41025621,12.0
4128.07692280, 3940.64102502, 4156.53846133, 3938.20512751, 4124.87179460, 4118.71794844, 4092.56410222, 4106.15384588, 4092.82051248, 4130.25640998, 4233.58974352, 4116.53846126, 4123.20512793, 4146.15384595,12.0
4129.10256383, 3947.05128143, 4158.84615364, 3961.41025579, 4123.07692280, 4120.38461511, 4086.15384581, 4111.41025614, 4094.48717914, 4130.25640998, 4320.25641040, 4118.58974332, 4122.05128178, 4141.28205108,12.0
4122.56410229, 3931.02564033, 4153.46153826, 3984.74358919, 4122.69230742, 4126.28205101, 4069.74358940, 4092.69230735, 4076.66666632, 4130.25640998, 4347.69230790, 4116.92307665, 4123.71794844, 4143.33333313,12.0
4134.74358947, 3938.46153784, 4167.82051262, 4012.94871747, 4120.89743562, 4134.10256383, 4089.61538427, 4098.20512786, 4082.56410222, 4130.25640998, 4307.17948732, 4132.05128178, 4127.82051255, 4147.30769210,12.0
4130.89743562, 3951.79487117, 4167.94871774, 4010.64102516, 4122.43589716, 4121.28205101, 4095.12820478, 4110.64102537, 4091.28205094, 4130.25640998, 4288.46153853, 4129.23076896, 4127.05128178, 4146.79487159,12.0
4133.20512793, 3948.07692246, 4133.20512793, 3963.71794810, 4126.79487152, 4078.20512786, 4038.46153805, 4059.61538420, 4034.23076875, 4130.25640998, 4278.97435905, 4077.56410222, 4127.94871767, 4146.41025621,12.0
4138.84615364, 3958.46153784, 4122.94871767, 3969.23076861, 4126.53846126, 4072.82051248, 4017.43589695, 4014.74358926, 4001.15384560, 4130.25640998, 4246.53846154, 4057.43589702, 4129.35897408, 4148.07692287,12.0
4130.51282024, 4002.82051227, 4160.64102544, 4032.56410208, 4128.07692280, 4125.51282024, 4081.66666632, 4070.25640991, 4061.53846113, 4130.25640998, 4239.61538462, 4118.84615357, 4128.20512793, 4147.17948697,12.0
4134.74358947, 4034.61538413, 4184.35897422, 4040.89743548, 4129.87179460, 4144.61538441, 4120.12820485, 4130.25640998, 4105.25640998, 4129.99999973, 4254.48717949, 4160.51282031, 4126.92307665, 4143.46153826,12.0
4127.17948691, 4012.82051234, 4163.20512800, 4019.48717900, 4125.89743562, 4114.35897408, 4085.38461504, 4106.28205101, 4081.53846119, 4129.87179460, 4246.79487180, 4127.30769203, 4125.38461511, 4143.46153826,12.0
4123.97435870, 3997.30769176, 4148.20512800, 4040.76923036, 4123.07692280, 4113.58974332, 4072.69230735, 4081.79487145, 4060.64102523, 4130.51282024, 4221.02564096, 4104.99999973, 4124.74358947, 4146.02564082,12.0
4130.76923050, 4014.74358926, 4156.92307672, 4052.69230728, 4123.97435870, 4133.71794844, 4097.05128171, 4102.30769196, 4066.53846113, 4129.74358947, 4200.51282038, 4118.33333306, 4124.10256383, 4143.33333313,12.0
4122.30769203, 4010.12820465, 4152.43589723, 4035.12820465, 4124.99999973, 4113.97435870, 4074.35897402, 4102.56410229, 4063.07692266, 4130.12820485, 4194.23076910, 4108.71794844, 4125.51282024, 4141.92307672,12.0
4126.92307665, 3995.64102509, 4140.64102544, 4048.07692266, 4123.33333306, 4091.79487145, 4038.84615343, 4077.69230735, 4051.92307651, 4133.33333306, 4187.05128192, 4086.53846119, 4127.94871767, 4145.76923056,12.0
4128.97435870, 4005.12820465, 4145.38461518, 4093.46153812, 4124.23076896, 4122.05128178, 4081.02564068, 4092.56410222, 4064.99999959, 4136.53846133, 4165.51282031, 4091.79487145, 4127.94871767, 4146.79487159,12.0
4127.82051255, 4013.71794824, 4151.92307672, 4112.05128178, 4127.82051255, 4143.20512800, 4121.41025614, 4131.79487152, 4091.53846119, 4136.92307672, 4140.12820492, 4098.97435863, 4127.17948691, 4144.48717928,12.0
4134.35897408, 4008.46153798, 4144.35897415, 4100.12820478, 4127.82051255, 4099.87179453, 4068.20512779, 4102.05128171, 4068.97435856, 4133.20512793, 4122.69230742, 4086.28205094, 4128.20512793, 4144.61538441,12.0
4126.15384588, 4014.87179439, 4145.25641005, 4116.92307665, 4126.15384588, 4073.97435863, 4026.41025593, 4046.92307651, 4024.10256362, 4129.87179460, 4113.97435870, 4089.35897402, 4128.20512793, 4146.02564082,12.0
4127.82051255, 4036.53846106, 4163.07692287, 4161.41025621, 4124.87179460, 4117.69230742, 4071.53846119, 4071.41025607, 4046.15384574, 4129.61538434, 4108.71794844, 4109.35897408, 4127.56410229, 4146.15384595,12.0
4124.87179460, 4054.35897395, 4172.17948704, 4174.61538448, 4124.23076896, 4144.35897415, 4106.41025614, 4113.58974332, 4093.84615350, 4131.02564075, 4098.46153812, 4119.23076896, 4126.15384588, 4145.12820492,12.0
4118.84615357, 4055.64102523, 4160.12820492, 4160.64102544, 4124.99999973, 4122.94871767, 4082.94871761, 4093.58974325, 4077.30769196, 4130.64102537, 4074.23076889, 4106.41025614, 4123.71794844, 4146.02564082,12.0
4130.64102537, 4045.89743548, 4148.46153826, 4150.38461518, 4124.87179460, 4115.38461511, 4064.99999959, 4072.94871761, 4044.99999959, 4129.23076896, 4053.58974318, 4088.71794837, 4125.64102537, 4147.05128185,12.0
4124.87179460, 4046.66666625, 4149.23076903, 4131.41025614, 4125.12820485, 4113.71794844, 4073.33333299, 4083.07692273, 4044.10256369, 4131.53846126, 4050.76923036, 4086.28205094, 4126.92307665, 4144.99999980,12.0
4125.51282024, 4068.07692266, 4150.76923056, 4122.30769203, 4125.51282024, 4102.17948684, 4075.38461504, 4077.43589709, 4048.07692266, 4135.25640998, 4044.23076882, 4087.30769196, 4123.97435870, 4145.51282031,12.0
4129.61538434, 4065.25640984, 4140.12820492, 4134.48717921, 4126.15384588, 4102.56410229, 4061.66666625, 4068.71794830, 4044.10256369, 4137.17948697, 4022.05128157, 4071.15384581, 4125.25640998, 4144.35897415,12.0
4120.51282024, 4050.25640984, 4130.38461511, 4129.35897408, 4128.07692280, 4099.35897402, 4048.84615343, 4074.87179453, 4031.41025593, 4135.64102544, 4009.99999952, 4050.76923036, 4128.71794844, 4141.02564082,12.0
4130.25640998, 4076.02564068, 4135.89743569, 4120.89743562, 4127.05128178, 4093.33333299, 4048.58974318, 4071.02564068, 4026.79487131, 4134.48717921, 4024.48717900, 4057.56410215, 4127.94871767, 4143.33333313,12.0
4131.79487152, 4096.79487145, 4139.35897415, 4131.41025614, 4125.12820485, 4096.92307658, 4050.64102523, 4070.25640991, 4042.69230728, 4136.02564082, 4030.25640977, 4071.92307658, 4124.23076896, 4144.61538441,12.0
4128.84615357, 4091.66666632, 4138.58974339, 4139.35897415, 4126.15384588, 4100.89743555, 4056.79487138, 4083.46153812, 4059.48717907, 4134.99999973, 4020.89743541, 4073.33333299, 4124.99999973, 4144.35897415,12.0
4126.66666639, 4093.33333299, 4137.56410236, 4136.15384595, 4126.66666639, 4102.56410229, 4068.58974318, 4089.23076889, 4060.89743548, 4129.87179460, 4021.15384567, 4067.69230728, 4126.41025614, 4144.48717928,12.0
4118.33333306, 4096.28205094, 4128.33333306, 4126.02564075, 4121.41025614, 4098.07692273, 4060.64102523, 4080.64102530, 4041.92307651, 4128.71794844, 4018.84615336, 4053.71794830, 4123.97435870, 4143.46153826,12.0
4126.15384588, 4098.07692273, 4122.43589716, 4120.25640998, 4118.97435870, 4087.17948684, 4038.84615343, 4073.07692273, 4027.82051234, 4130.51282024, 4010.64102516, 4048.97435856, 4125.12820485, 4143.97435877,12.0
4124.99999973, 4109.74358947, 4129.48717921, 4128.97435870, 4126.02564075, 4089.23076889, 4048.33333292, 4077.43589709, 4044.61538420, 4129.61538434, 4016.53846106, 4062.56410215, 4125.25640998, 4146.66666646,12.0
4129.87179460, 4119.61538434, 4134.10256383, 4132.05128178, 4128.07692280, 4099.74358940, 4066.79487138, 4078.97435863, 4053.71794830, 4130.89743562, 4028.97435849, 4066.15384574, 4124.87179460, 4146.92307672,12.0
4136.15384595, 4109.61538434, 4125.12820485, 4117.43589716, 4123.58974332, 4093.46153812, 4054.99999959, 4072.94871761, 4032.56410208, 4135.38461518, 4023.84615336, 4050.51282010, 4128.58974332, 4144.35897415,12.0
4122.69230742, 4110.38461511, 4124.35897408, 4110.51282024, 4124.61538434, 4086.53846119, 4048.33333292, 4082.94871761, 4042.17948677, 4136.02564082, 4014.23076875, 4051.41025600, 4127.17948691, 4146.92307672,12.0
4132.30769203, 4130.51282024, 4138.84615364, 4119.87179460, 4127.56410229, 4096.92307658, 4058.97435856, 4090.12820478, 4064.61538420, 4134.48717921, 4019.48717900, 4064.10256369, 4124.10256383, 4149.48717928,12.0
4134.35897408, 4133.07692280, 4142.30769210, 4126.41025614, 4126.15384588, 4104.61538434, 4059.74358933, 4068.20512779, 4040.51282010, 4133.97435870, 4024.61538413, 4062.69230728, 4124.23076896, 4144.48717928,12.0
4125.38461511, 4128.97435870, 4132.05128178, 4122.43589716, 4124.87179460, 4096.15384581, 4049.10256369, 4040.38461497, 4009.48717900, 4134.10256383, 4023.33333285, 4054.10256369, 4123.97435870, 4142.69230749,12.0
4129.74358947, 4133.07692280, 4128.20512793, 4111.41025614, 4126.92307665, 4078.07692273, 4032.69230721, 4030.76923029, 4003.97435842, 4135.38461518, 4019.23076875, 4049.61538420, 4124.87179460, 4145.38461518,12.0
4119.48717921, 4128.58974332, 4131.28205101, 4109.48717921, 4125.64102537, 4074.74358940, 4029.48717900, 4041.92307651, 4010.89743541, 4135.76923056, 4019.61538413, 4051.53846113, 4124.87179460, 4144.10256390,12.0
4116.92307665, 4132.56410229, 4135.89743569, 4124.10256383, 4122.82051255, 4090.89743555, 4051.53846113, 4062.56410215, 4028.84615336, 4134.10256383, 4035.38461490, 4060.76923036, 4123.84615357, 4141.92307672,12.0
4116.79487152, 4143.07692287, 4143.46153826, 4133.84615357, 4123.33333306, 4092.94871761, 4066.66666625, 4080.51282017, 4052.56410215, 4134.35897408, 4045.51282010, 4078.33333299, 4124.87179460, 4144.10256390,12.0
4118.71794844, 4144.74358954, 4150.38461518, 4126.41025614, 4124.35897408, 4084.61538427, 4058.97435856, 4084.10256376, 4061.28205087, 4134.74358947, 4042.43589702, 4088.07692273, 4125.25640998, 4147.43589723,12.0
4131.28205101, 4142.56410236, 4147.30769210, 4119.48717921, 4124.87179460, 4091.28205094, 4054.87179446, 4076.15384581, 4053.46153805, 4134.48717921, 4041.02564061, 4080.25640991, 4123.97435870, 4146.53846133,12.0
4125.76923050, 4142.05128185, 4138.20512800, 4119.99999973, 4125.76923050, 4095.51282017, 4060.64102523, 4081.41025607, 4047.82051241, 4134.48717921, 4045.89743548, 4066.28205087, 4124.48717921, 4143.97435877,12.0
4131.15384588, 4148.97435877, 4139.48717928, 4116.02564075, 4124.61538434, 4099.61538427, 4074.35897402, 4101.15384581, 4064.99999959, 4134.48717921, 4048.46153805, 4062.43589702, 4129.10256383, 4146.02564082,12.0
4137.56410236, 4144.48717928, 4142.05128185, 4113.20512793, 4125.76923050, 4113.97435870, 4087.43589709, 4103.58974332, 4076.15384581, 4134.48717921, 4034.23076875, 4066.02564061, 4130.25640998, 4147.82051262,12.0
4130.12820485, 4134.87179460, 4132.30769203, 4113.33333306, 4127.69230742, 4098.07692273, 4058.33333292, 4066.53846113, 4033.33333285, 4134.48717921, 4024.35897388, 4058.20512779, 4127.17948691, 4146.92307672,12.0
4130.76923050, 4138.46153826, 4122.69230742, 4100.76923043, 4124.87179460, 4067.56410215, 4024.99999952, 4028.20512772, 3993.97435842, 4134.48717921, 4037.05128164, 4045.25640984, 4128.33333306, 4145.12820492,12.0
4120.25640998, 4134.99999973, 4122.82051255, 4086.41025607, 4122.69230742, 4070.51282017, 4043.20512779, 4041.28205087, 4013.33333285, 4134.48717921, 4046.66666625, 4045.76923036, 4126.92307665, 4142.82051262,12.0
4122.17948691, 4133.84615357, 4126.41025614, 4088.97435863, 4123.58974332, 4084.61538427, 4059.23076882, 4069.74358940, 4039.61538420, 4134.48717921, 4039.48717907, 4049.10256369, 4124.10256383, 4143.84615364,12.0
4128.07692280, 4138.46153826, 4123.07692280, 4096.02564068, 4124.99999973, 4091.28205094, 4050.64102523, 4064.10256369, 4039.74358933, 4134.48717921, 4037.05128164, 4044.61538420, 4126.28205101, 4146.02564082,12.0
4120.12820485, 4137.17948697, 4126.02564075, 4099.61538427, 4125.76923050, 4100.89743555, 4058.46153805, 4059.35897395, 4044.61538420, 4134.87179460, 4046.66666625, 4052.82051241, 4125.89743562, 4144.87179467,12.0
4126.92307665, 4136.28205108, 4129.23076896, 4092.56410222, 4124.87179460, 4086.79487145, 4051.15384574, 4057.05128164, 4035.38461490, 4134.74358947, 4046.53846113, 4053.71794830, 4123.46153819, 4144.48717928,12.0
4124.61538434, 4132.05128178, 4117.30769203, 4075.64102530, 4125.64102537, 4055.89743548, 4015.64102516, 4047.69230728, 4017.30769183, 4134.10256383, 4036.79487131, 4032.43589695, 4125.76923050, 4145.51282031,12.0
4126.02564075, 4137.82051262, 4126.02564075, 4094.48717914, 4126.15384588, 4074.99999966, 4039.99999959, 4073.71794837, 4048.46153805, 4135.38461518, 4043.33333292, 4050.12820472, 4129.48717921, 4146.66666646,12.0
4126.79487152, 4148.84615364, 4147.30769210, 4134.35897408, 4123.20512793, 4116.66666639, 4100.12820478, 4105.51282024, 4088.07692273, 4134.35897408, 4065.25640984, 4086.41025607, 4128.58974332, 4142.82051262,12.0
4114.61538434, 4142.17948697, 4138.97435877, 4128.71794844, 4121.79487152, 4116.66666639, 4093.58974325, 4091.53846119, 4078.58974325, 4130.12820485, 4069.87179453, 4072.05128171, 4124.74358947, 4139.99999980,12.0
4124.35897408, 4144.87179467, 4132.17948691, 4105.38461511, 4123.71794844, 4103.07692280, 4071.92307658, 4081.15384581, 4067.69230728, 4128.46153819, 4061.15384574, 4061.53846113, 4124.99999973, 4141.92307672,12.0
4126.41025614, 4152.17948697, 4143.07692287, 4106.41025614, 4125.38461511, 4106.15384588, 4096.53846119, 4110.12820485, 4090.64102530, 4129.74358947, 4063.33333292, 4081.79487145, 4126.02564075, 4143.97435877,12.0
4127.56410229, 4141.02564082, 4135.89743569, 4114.23076896, 4124.35897408, 4103.58974332, 4095.89743555, 4108.33333306, 4089.48717914, 4129.74358947, 4062.05128164, 4066.79487138, 4124.87179460, 4146.41025621,12.0
4134.74358947, 4129.74358947, 4122.05128178, 4115.76923050, 4124.48717921, 4090.64102530, 4057.05128164, 4074.10256376, 4050.38461497, 4129.99999973, 4052.17948677, 4041.92307651, 4124.35897408, 4146.53846133,12.0
4124.74358947, 4131.02564075, 4126.79487152, 4108.33333306, 4126.79487152, 4088.20512786, 4060.76923036, 4067.43589702, 4037.82051241, 4131.79487152, 4054.87179446, 4056.02564061, 4124.99999973, 4147.17948697,12.0
4130.12820485, 4129.99999973, 4128.58974332, 4090.76923043, 4127.17948691, 4086.28205094, 4071.92307658, 4057.30769189, 4043.97435856, 4131.41025614, 4062.43589702, 4061.28205087, 4127.56410229, 4147.82051262,12.0
4127.05128178, 4121.15384588, 4120.51282024, 4090.89743555, 4126.02564075, 4081.41025607, 4047.30769189, 4042.56410215, 4034.87179439, 4130.76923050, 4057.05128164, 4045.89743548, 4126.92307665, 4144.23076903,12.0
4114.99999973, 4122.05128178, 4119.87179460, 4111.28205101, 4125.25640998, 4084.10256376, 4040.38461497, 4051.15384574, 4030.76923029, 4132.94871767, 4054.10256369, 4043.58974318, 4124.61538434, 4143.84615364,12.0
4121.28205101, 4124.99999973, 4120.25640998, 4105.12820485, 4124.99999973, 4074.87179453, 4046.92307651, 4053.97435856, 4032.43589695, 4135.25640998, 4057.94871754, 4041.66666625, 4125.64102537, 4144.99999980,12.0
4116.28205101, 4112.30769203, 4114.35897408, 4085.64102530, 4122.69230742, 4064.87179446, 4042.43589702, 4054.87179446, 4033.71794824, 4136.53846133, 4055.51282010, 4037.43589702, 4124.23076896, 4144.74358954,12.0
4118.58974332, 4106.92307665, 4115.64102537, 4091.41025607, 4120.12820485, 4078.84615350, 4046.28205087, 4067.69230728, 4051.02564061, 4135.25640998, 4053.46153805, 4043.58974318, 4123.97435870, 4144.99999980,12.0
4123.71794844, 4122.30769203, 4119.35897408, 4092.17948684, 4122.69230742, 4085.89743555, 4052.94871754, 4064.87179446, 4058.84615343, 4134.35897408, 4059.99999959, 4047.69230728, 4125.76923050, 4145.38461518,12.0
4120.25640998, 4137.05128185, 4112.94871767, 4076.53846119, 4124.61538434, 4067.43589702, 4045.12820472, 4048.20512779, 4035.12820465, 4137.30769210, 4061.53846113, 4039.99999959, 4124.48717921, 4143.84615364,12.0
4125.38461511, 4133.84615357, 4112.82051255, 4083.84615350, 4123.71794844, 4068.20512779, 4047.43589702, 4051.79487138, 4029.35897388, 4131.41025614, 4059.48717907, 4043.58974318, 4124.87179460, 4143.20512800,12.0
4119.99999973, 4127.56410229, 4123.84615357, 4111.53846126, 4124.10256383, 4093.84615350, 4066.41025600, 4075.51282017, 4057.43589702, 4122.43589716, 4065.64102523, 4065.89743548, 4124.35897408, 4143.33333313,12.0
4121.28205101, 4135.89743569, 4131.79487152, 4117.94871767, 4123.20512793, 4106.15384588, 4077.94871761, 4091.79487145, 4071.66666632, 4127.56410229, 4073.46153812, 4077.82051248, 4122.69230742, 4144.10256390,12.0
4124.99999973, 4134.87179460, 4126.66666639, 4104.23076896, 4123.20512793, 4100.12820478, 4080.25640991, 4083.71794837, 4062.43589702, 4134.61538434, 4076.92307658, 4069.35897395, 4124.61538434, 4146.79487159,12.0
4123.33333306, 4127.43589716, 4118.07692280, 4100.76923043, 4124.74358947, 4088.07692273, 4066.53846113, 4066.41025600, 4053.97435856, 4132.30769203, 4076.79487145, 4057.17948677, 4125.12820485, 4148.71794851,12.0
4132.82051255, 4137.17948697, 4122.30769203, 4107.17948691, 4126.41025614, 4077.56410222, 4054.61538420, 4070.76923043, 4057.94871754, 4123.71794844, 4076.79487145, 4058.46153805, 4122.43589716, 4147.43589723,12.0
4121.28205101, 4141.28205108, 4127.56410229, 4107.56410229, 4126.02564075, 4075.38461504, 4064.48717907, 4083.84615350, 4060.64102523, 4122.17948691, 4084.10256376, 4071.15384581, 4122.94871767, 4145.64102544,12.0
4117.30769203, 4136.79487159, 4122.05128178, 4098.84615350, 4122.69230742, 4080.51282017, 4069.99999966, 4076.79487145, 4049.61538420, 4130.38461511, 4084.61538427, 4068.84615343, 4127.43589716, 4147.43589723,12.0
4124.10256383, 4129.10256383, 4106.15384588, 4080.25640991, 4124.61538434, 4082.56410222, 4053.97435856, 4057.94871754, 4036.15384567, 4131.28205101, 4069.23076882, 4038.58974318, 4126.02564075, 4145.38461518,12.0
4116.41025614, 4131.28205101, 4104.35897408, 4081.15384581, 4129.35897408, 4083.84615350, 4050.12820472, 4061.02564061, 4043.07692266, 4125.76923050, 4062.56410215, 4035.12820465, 4122.82051255, 4140.64102544,12.0
4127.43589716, 4144.87179467, 4125.51282024, 4108.58974332, 4127.05128178, 4086.28205094, 4065.76923036, 4078.58974325, 4058.46153805, 4131.28205101, 4077.69230735, 4065.51282010, 4126.02564075, 4141.79487159,12.0
4128.97435870, 4136.15384595, 4123.20512793, 4105.51282024, 4123.46153819, 4076.92307658, 4059.48717907, 4068.20512779, 4053.71794830, 4140.12820492, 4084.74358940, 4053.84615343, 4125.64102537, 4143.20512800,12.0
4125.38461511, 4124.99999973, 4097.82051248, 4077.30769196, 4125.76923050, 4070.25640991, 4042.05128164, 4042.56410215, 4041.66666625, 4136.02564082, 4075.25640991, 4022.05128157, 4122.17948691, 4142.82051262,12.0
4120.51282024, 4148.07692287, 4113.71794844, 4078.33333299, 4123.71794844, 4077.05128171, 4056.41025600, 4065.64102523, 4051.53846113, 4136.92307672, 4092.82051248, 4051.02564061, 4128.97435870, 4143.46153826,12.0
4123.84615357, 4154.61538441, 4121.66666639, 4090.25640991, 4121.79487152, 4085.38461504, 4068.97435856, 4071.92307658, 4062.82051241, 4135.12820485, 4113.20512793, 4061.53846113, 4130.25640998, 4146.41025621,12.0
4122.43589716, 4166.92307672, 4133.58974332, 4112.82051255, 4124.48717921, 4093.58974325, 4075.64102530, 4084.48717914, 4076.15384581, 4136.79487159, 4121.79487152, 4088.46153812, 4128.07692280, 4146.02564082,12.0
4116.28205101, 4164.23076903, 4128.46153819, 4100.51282017, 4126.41025614, 4085.25640991, 4064.23076882, 4068.07692266, 4061.92307651, 4137.94871774, 4110.76923050, 4086.92307658, 4126.53846126, 4145.25641005,12.0
4128.58974332, 4154.87179467, 4117.43589716, 4080.38461504, 4123.46153819, 4080.12820478, 4058.71794830, 4050.38461497, 4047.43589702, 4126.79487152, 4112.69230742, 4060.12820472, 4128.84615357, 4145.76923056,12.0
4123.33333306, 4146.15384595, 4109.99999973, 4078.20512786, 4122.17948691, 4077.56410222, 4054.61538420, 4056.15384574, 4049.48717907, 4119.10256383, 4122.94871767, 4045.51282010, 4128.58974332, 4143.46153826,12.0
4123.97435870, 4161.28205108, 4123.07692280, 4086.92307658, 4124.61538434, 4084.10256376, 4063.71794830, 4069.23076882, 4062.05128164, 4129.74358947, 4125.89743562, 4067.05128164, 4127.82051255, 4142.94871774,12.0
4127.17948691, 4165.76923056, 4134.10256383, 4092.30769196, 4127.94871767, 4093.20512786, 4080.64102530, 4079.48717914, 4070.38461504, 4134.99999973, 4124.48717921, 4080.89743555, 4128.20512793, 4144.87179467,12.0
4120.89743562, 4141.66666646, 4123.71794844, 4081.53846119, 4128.71794844, 4090.12820478, 4076.92307658, 4080.64102530, 4063.46153805, 4128.71794844, 4129.61538434, 4063.97435856, 4129.10256383, 4143.71794851,12.0
4130.89743562, 4147.05128185, 4122.94871767, 4076.28205094, 4125.38461511, 4089.87179453, 4072.56410222, 4068.33333292, 4051.41025600, 4130.25640998, 4142.17948697, 4063.07692266, 4128.71794844, 4142.94871774,12.0
4129.23076896, 4166.28205108, 4136.02564082, 4093.20512786, 4123.97435870, 4094.35897402, 4079.87179453, 4071.28205094, 4051.92307651, 4136.79487159, 4146.02564082, 4087.94871761, 4127.56410229, 4145.25641005,12.0
4130.25640998, 4160.25641005, 4140.64102544, 4109.35897408, 4124.35897408, 4089.10256376, 4071.15384581, 4079.99999966, 4056.66666625, 4135.38461518, 4148.07692287, 4096.41025607, 4129.61538434, 4145.76923056,12.0
4131.15384588, 4154.10256390, 4135.12820485, 4099.10256376, 4122.05128178, 4087.69230735, 4068.33333292, 4074.23076889, 4057.05128164, 4131.92307665, 4154.74358954, 4087.05128171, 4131.41025614, 4144.99999980,12.0
4124.48717921, 4161.92307672, 4135.25640998, 4102.17948684, 4121.79487152, 4102.43589709, 4093.58974325, 4077.94871761, 4063.46153805, 4133.58974332, 4157.56410236, 4093.97435863, 4128.33333306, 4148.58974339,12.0
4132.43589716, 4166.02564082, 4139.99999980, 4123.97435870, 4123.46153819, 4098.97435863, 4090.89743555, 4080.76923043, 4063.84615343, 4134.23076896, 4160.76923056, 4104.87179460, 4129.87179460, 4147.56410236,12.0
4125.25640998, 4157.94871774, 4136.41025621, 4111.02564075, 4125.76923050, 4081.02564068, 4062.17948677, 4070.51282017, 4054.10256369, 4131.15384588, 4162.69230749, 4096.41025607, 4133.33333306, 4143.58974339,12.0
4125.12820485, 4157.82051262, 4137.56410236, 4098.20512786, 4126.66666639, 4088.33333299, 4069.61538420, 4072.43589709, 4061.66666625, 4128.46153819, 4153.84615364, 4097.82051248, 4131.02564075, 4147.56410236,12.0
4133.71794844, 4161.02564082, 4144.35897415, 4115.89743562, 4126.02564075, 4096.15384581, 4085.25640991, 4074.48717914, 4073.84615350, 4129.74358947, 4152.17948697, 4110.89743562, 4128.71794844, 4149.48717928,12.0
4121.53846126, 4146.92307672, 4129.87179460, 4101.15384581, 4125.25640998, 4070.25640991, 4050.89743548, 4054.23076882, 4045.64102523, 4129.87179460, 4151.53846133, 4086.28205094, 4128.20512793, 4145.25641005,12.0
4124.61538434, 4127.17948691, 4111.15384588, 4060.51282010, 4125.38461511, 4050.51282010, 4021.92307644, 4044.74358933, 4017.94871747, 4128.33333306, 4138.07692287, 4050.76923036, 4129.87179460, 4144.35897415,12.0
4126.28205101, 4123.84615357, 4118.46153819, 4070.64102530, 4127.30769203, 4066.79487138, 4047.05128164, 4061.79487138, 4043.33333292, 4129.87179460, 4140.89743569, 4067.56410215, 4129.23076896, 4145.38461518,12.0
4126.02564075, 4147.94871774, 4142.17948697, 4118.33333306, 4126.79487152, 4092.94871761, 4082.94871761, 4074.87179453, 4073.20512786, 4130.76923050, 4166.92307672, 4107.17948691, 4126.28205101, 4144.23076903,12.0
4129.87179460, 4161.92307672, 4156.92307672, 4137.56410236, 4125.25640998, 4103.33333306, 4097.17948684, 4080.38461504, 4077.17948684, 4129.74358947, 4180.25641012, 4119.74358947, 4125.25640998, 4143.07692287,12.0
4119.48717921, 4149.35897415, 4147.82051262, 4125.25640998, 4124.61538434, 4090.51282017, 4081.79487145, 4077.82051248, 4075.12820478, 4129.23076896, 4175.76923063, 4107.82051255, 4124.87179460, 4143.58974339,12.0
4127.17948691, 4149.48717928, 4135.76923056, 4116.15384588, 4123.71794844, 4080.25640991, 4065.51282010, 4071.28205094, 4065.76923036, 4132.69230742, 4175.12820499, 4098.97435863, 4127.56410229, 4145.12820492,12.0
4131.15384588, 4148.97435877, 4140.76923056, 4127.43589716, 4123.84615357, 4090.51282017, 4078.46153812, 4082.05128171, 4064.23076882, 4136.28205108, 4177.69230756, 4105.12820485, 4127.94871767, 4145.51282031,12.0
4126.53846126, 4141.41025621, 4144.35897415, 4128.97435870, 4123.46153819, 4085.89743555, 4078.71794837, 4083.33333299, 4071.02564068, 4135.25640998, 4175.64102551, 4102.94871767, 4126.02564075, 4145.12820492,12.0
4131.92307665, 4140.38461518, 4139.99999980, 4114.99999973, 4124.48717921, 4066.41025600, 4055.64102523, 4067.82051241, 4068.58974318, 4133.58974332, 4177.30769217, 4099.87179453, 4128.20512793, 4144.87179467,12.0
4122.30769203, 4139.87179467, 4145.76923056, 4115.38461511, 4125.64102537, 4072.17948684, 4071.41025607, 4095.51282017, 4085.64102530, 4136.66666646, 4183.46153833, 4120.12820485, 4129.35897408, 4142.82051262,12.0
4124.61538434, 4139.61538441, 4147.43589723, 4110.89743562, 4125.64102537, 4083.71794837, 4096.15384581, 4112.69230742, 4099.87179453, 4136.41025621, 4184.48717935, 4119.48717921, 4128.46153819, 4143.71794851,12.0
4126.92307665, 4122.56410229, 4122.56410229, 4086.53846119, 4125.89743562, 4065.12820472, 4059.10256369, 4057.56410215, 4059.10256369, 4132.17948691, 4171.28205115, 4074.23076889, 4129.10256383, 4144.87179467,12.0
4120.76923050, 4110.89743562, 4112.56410229, 4089.10256376, 4125.76923050, 4055.38461497, 4028.97435849, 4031.15384567, 4031.92307644, 4133.33333306, 4167.05128185, 4060.89743548, 4129.10256383, 4143.58974339,12.0
4128.46153819, 4126.02564075, 4131.15384588, 4117.05128178, 4124.35897408, 4071.53846119, 4051.28205087, 4056.66666625, 4054.35897395, 4129.35897408, 4185.89743576, 4089.87179453, 4127.82051255, 4141.41025621,12.0
4121.28205101, 4134.99999973, 4134.74358947, 4114.48717921, 4124.48717921, 4074.48717914, 4067.05128164, 4056.15384574, 4057.82051241, 4121.53846126, 4194.48717935, 4090.12820478, 4127.94871767, 4142.17948697,12.0
4122.56410229, 4135.76923056, 4125.89743562, 4094.35897402, 4123.58974332, 4069.23076882, 4062.05128164, 4052.30769189, 4047.94871754, 4127.43589716, 4188.46153833, 4075.76923043, 4130.25640998, 4146.66666646,12.0
4130.25640998, 4139.74358954, 4128.46153819, 4101.92307658, 4122.69230742, 4070.12820478, 4057.17948677, 4067.69230728, 4055.89743548, 4138.20512800, 4191.15384602, 4086.02564068, 4129.99999973, 4144.61538441,12.0
4124.61538434, 4136.66666646, 4133.33333306, 4117.94871767, 4126.28205101, 4063.84615343, 4049.23076882, 4056.53846113, 4054.99999959, 4136.79487159, 4192.17948704, 4099.61538427, 4129.48717921, 4143.46153826,12.0
4127.30769203, 4134.99999973, 4136.41025621, 4115.76923050, 4126.92307665, 4061.53846113, 4050.64102523, 4043.97435856, 4052.56410215, 4134.10256383, 4196.79487166, 4105.76923050, 4130.51282024, 4146.53846133,12.0
4122.30769203, 4130.76923050, 4126.92307665, 4109.87179460, 4124.10256383, 4055.25640984, 4044.23076882, 4049.99999959, 4053.46153805, 4136.79487159, 4215.76923070, 4092.05128171, 4128.46153819, 4145.76923056,12.0
4127.17948691, 4133.46153819, 4121.66666639, 4124.48717921, 4122.30769203, 4057.43589702, 4035.25640977, 4050.25640984, 4052.17948677, 4135.76923056, 4230.25641019, 4081.53846119, 4128.71794844, 4142.69230749,12.0
4133.20512793, 4142.43589723, 4139.10256390, 4138.33333313, 4124.61538434, 4073.58974325, 4056.92307651, 4066.79487138, 4075.51282017, 4135.38461518, 4233.97435898, 4107.05128178, 4131.66666639, 4141.53846133,12.0
4122.30769203, 4136.28205108, 4146.92307672, 4134.61538434, 4125.51282024, 4064.99999959, 4066.15384574, 4076.28205094, 4084.35897402, 4136.66666646, 4233.33333327, 4123.46153819, 4130.51282024, 4144.23076903,12.0
4126.79487152, 4136.41025621, 4133.97435870, 4135.38461518, 4121.28205101, 4057.82051241, 4057.94871754, 4055.64102523, 4058.71794830, 4136.02564082, 4228.84615378, 4104.61538434, 4129.23076896, 4146.79487159,12.0
4123.58974332, 4141.41025621, 4130.51282024, 4144.23076903, 4120.76923050, 4079.99999966, 4072.17948684, 4061.66666625, 4061.79487138, 4136.15384595, 4234.74358975, 4099.87179453, 4128.71794844, 4144.48717928,12.0
4123.07692280, 4130.38461511, 4138.84615364, 4150.76923056, 4125.64102537, 4079.35897402, 4067.17948677, 4077.82051248, 4075.25640991, 4136.28205108, 4242.82051282, 4112.56410229, 4128.07692280, 4141.92307672,12.0
4130.38461511, 4113.84615357, 4128.84615357, 4146.66666646, 4128.20512793, 4052.69230728, 4032.94871747, 4042.30769189, 4043.33333292, 4136.15384595, 4224.61538455, 4094.74358940, 4129.74358947, 4141.28205108,12.0
4121.66666639, 4118.58974332, 4131.66666639, 4146.41025621, 4125.89743562, 4071.28205094, 4058.58974318, 4040.51282010, 4044.48717907, 4136.15384595, 4217.82051275, 4102.30769196, 4128.97435870, 4141.79487159,12.0
4127.17948691, 4133.97435870, 4163.20512800, 4153.84615364, 4123.84615357, 4102.82051255, 4104.10256383, 4106.15384588, 4101.28205094, 4136.15384595, 4240.64102564, 4155.25641005, 4128.33333306, 4142.82051262,12.0
4126.66666639, 4119.10256383, 4163.33333313, 4150.51282031, 4124.74358947, 4075.12820478, 4066.41025600, 4108.07692280, 4100.76923043, 4136.15384595, 4238.97435898, 4157.82051262, 4130.25640998, 4142.82051262,12.0
4122.43589716, 4104.87179460, 4138.97435877, 4145.12820492, 4124.23076896, 4045.64102523, 4025.51282003, 4052.69230728, 4057.17948677, 4136.15384595, 4213.07692301, 4119.74358947, 4131.28205101, 4142.94871774,12.0
4132.69230742, 4124.87179460, 4147.43589723, 4159.23076903, 4122.56410229, 4068.84615343, 4059.99999959, 4058.58974318, 4066.41025600, 4136.15384595, 4197.56410243, 4130.64102537, 4129.35897408, 4142.43589723,12.0
4127.17948691, 4148.46153826, 4173.33333320, 4188.84615371, 4122.69230742, 4094.48717914, 4097.56410222, 4099.10256376, 4102.69230742, 4136.15384595, 4204.99999993, 4176.28205115, 4125.76923050, 4144.61538441,12.0
4129.87179460, 4142.05128185, 4167.05128185, 4199.48717935, 4123.97435870, 4092.94871761, 4088.84615350, 4097.05128171, 4100.51282017, 4136.15384595, 4223.97435891, 4166.53846133, 4129.48717921, 4148.58974339,12.0
4130.12820485, 4130.51282024, 4144.87179467, 4186.41025628, 4124.48717921, 4089.48717914, 4078.58974325, 4066.02564061, 4066.15384574, 4136.15384595, 4197.69230756, 4124.74358947, 4132.30769203, 4146.41025621,12.0
4123.46153819, 4129.87179460, 4138.46153826, 4176.92307679, 4123.84615357, 4080.38461504, 4076.53846119, 4061.02564061, 4059.35897395, 4136.15384595, 4144.35897415, 4117.17948691, 4127.82051255, 4144.48717928,12.0
4130.25640998, 4128.58974332, 4145.25641005, 4186.53846140, 4123.84615357, 4070.64102530, 4064.61538420, 4083.84615350, 4087.30769196, 4136.15384595, 4147.17948697, 4131.79487152, 4126.53846126, 4147.05128185,12.0
4122.30769203, 4134.61538434, 4153.84615364, 4197.30769217, 4124.99999973, 4079.87179453, 4062.43589702, 4079.87179453, 4084.74358940, 4136.15384595, 4181.79487166, 4145.76923056, 4127.94871767, 4146.79487159,12.0
4123.07692280, 4149.61538441, 4151.79487159, 4188.20512807, 4124.48717921, 4087.17948684, 4065.89743548, 4041.79487138, 4051.92307651, 4136.15384595, 4152.94871774, 4141.28205108, 4129.74358947, 4143.84615364,12.0
4127.69230742, 4149.87179467, 4141.02564082, 4191.53846140, 4124.10256383, 4072.94871761, 4049.87179446, 4022.69230721, 4048.71794830, 4136.15384595, 4095.25640991, 4123.20512793, 4130.64102537, 4143.07692287,12.0
4118.97435870, 4144.99999980, 4142.94871774, 4211.28205122, 4124.23076896, 4064.99999959, 4038.07692266, 4036.92307651, 4067.05128164, 4136.15384595, 4097.17948684, 4127.05128178, 4128.58974332, 4143.71794851,12.0
4124.10256383, 4158.07692287, 4155.38461518, 4209.10256404, 4124.87179460, 4081.66666632, 4062.82051241, 4055.38461497, 4073.46153812, 4136.15384595, 4116.15384588, 4147.30769210, 4126.28205101, 4141.92307672,12.0
4122.05128178, 4158.46153826, 4147.43589723, 4184.99999986, 4125.64102537, 4097.05128171, 4093.33333299, 4081.66666632, 4084.23076889, 4136.15384595, 4092.56410222, 4135.38461518, 4124.48717921, 4141.28205108,12.0
4122.56410229, 4153.46153826, 4139.61538441, 4186.53846140, 4123.20512793, 4097.05128171, 4094.23076889, 4101.66666632, 4095.38461504, 4136.15384595, 4070.89743555, 4119.48717921, 4124.99999973, 4144.48717928,12.0
4127.17948691, 4161.92307672, 4142.43589723, 4199.10256397, 4122.17948691, 4090.64102530, 4081.28205094, 4085.12820478, 4076.92307658, 4136.41025621, 4074.74358940, 4126.28205101, 4127.56410229, 4145.38461518,12.0
4122.30769203, 4163.07692287, 4130.12820485, 4183.33333320, 4123.20512793, 4090.38461504, 4083.07692273, 4071.92307658, 4057.82051241, 4137.17948697, 4070.12820478, 4109.23076896, 4128.20512793, 4144.35897415,12.0
4130.89743562, 4157.69230749, 4114.74358947, 4165.64102544, 4123.71794844, 4084.61538427, 4077.94871761, 4075.25640991, 4057.30769189, 4135.38461518, 4054.87179446, 4079.99999966, 4127.94871767, 4144.74358954,12.0
4128.97435870, 4149.23076903, 4115.51282024, 4174.87179474, 4126.66666639, 4068.97435856, 4048.71794830, 4066.15384574, 4055.12820472, 4135.64102544, 4059.10256369, 4084.99999966, 4128.07692280, 4144.23076903,12.0
4129.35897408, 4162.82051262, 4131.28205101, 4194.48717935, 4128.07692280, 4067.43589702, 4036.53846106, 4046.92307651, 4046.66666625, 4139.23076903, 4077.82051248, 4116.15384588, 4128.71794844, 4145.51282031,12.0
4132.56410229, 4177.94871781, 4143.97435877, 4202.05128199, 4126.41025614, 4083.20512786, 4059.74358933, 4051.53846113, 4064.10256369, 4131.02564075, 4079.99999966, 4139.87179467, 4127.43589716, 4145.76923056,12.0
4117.94871767, 4167.69230749, 4143.84615364, 4201.66666660, 4124.87179460, 4104.48717921, 4081.02564068, 4079.87179453, 4095.51282017, 4121.02564075, 4069.74358940, 4145.38461518, 4127.56410229, 4142.05128185,12.0
4123.97435870, 4174.10256397, 4138.58974339, 4194.61538448, 4126.28205101, 4106.41025614, 4075.76923043, 4074.74358940, 4077.17948684, 4128.07692280, 4077.17948684, 4131.15384588, 4131.92307665, 4143.07692287,12.0
4125.76923050, 4188.84615371, 4136.79487159, 4190.51282038, 4129.87179460, 4088.07692273, 4072.69230735, 4057.17948677, 4058.84615343, 4135.25640998, 4095.89743555, 4123.97435870, 4131.53846126, 4145.89743569,12.0
4122.56410229, 4179.99999986, 4140.12820492, 4206.02564096, 4128.58974332, 4087.43589709, 4082.69230735, 4076.28205094, 4086.15384581, 4129.74358947, 4087.82051248, 4136.41025621, 4126.79487152, 4143.07692287,12.0
4127.82051255, 4176.15384602, 4139.48717928, 4202.56410250, 4125.89743562, 4104.99999973, 4100.51282017, 4096.53846119, 4092.82051248, 4126.79487152, 4068.20512779, 4137.05128185, 4127.43589716, 4140.25641005,12.0
4118.71794844, 4189.23076910, 4134.99999973, 4169.48717935, 4125.89743562, 4105.25640998, 4113.58974332, 4091.66666632, 4068.71794830, 4131.92307665, 4074.74358940, 4120.25640998, 4129.35897408, 4142.43589723,12.0
4123.84615357, 4186.28205115, 4133.46153819, 4169.61538448, 4124.10256383, 4093.46153812, 4095.64102530, 4084.61538427, 4066.66666625, 4134.61538434, 4081.66666632, 4118.97435870, 4126.66666639, 4145.25641005,12.0
4124.48717921, 4158.07692287, 4131.02564075, 4190.89743576, 4124.10256383, 4093.58974325, 4069.74358940, 4087.94871761, 4078.58974325, 4135.12820485, 4071.79487145, 4128.84615357, 4125.12820485, 4143.71794851,12.0
4119.87179460, 4142.94871774, 4118.20512793, 4158.84615364, 4123.58974332, 4087.94871761, 4061.66666625, 4071.15384581, 4056.79487138, 4134.35897408, 4065.64102523, 4105.51282024, 4126.79487152, 4142.56410236,12.0
4131.79487152, 4151.02564082, 4109.99999973, 4128.97435870, 4122.56410229, 4077.94871761, 4058.07692266, 4044.99999959, 4034.10256362, 4134.23076896, 4067.43589702, 4081.15384581, 4127.82051255, 4141.15384595,12.0
4129.10256383, 4149.23076903, 4117.17948691, 4155.12820492, 4126.79487152, 4086.28205094, 4060.25640984, 4061.41025600, 4054.35897395, 4134.61538434, 4066.79487138, 4099.23076889, 4125.25640998, 4144.23076903,12.0
4130.38461511, 4144.10256390, 4122.94871767, 4169.23076910, 4129.23076896, 4097.94871761, 4073.33333299, 4079.87179453, 4078.58974325, 4132.94871767, 4077.94871761, 4113.97435870, 4125.64102537, 4149.10256390,12.0
4129.99999973, 4147.94871774, 4121.41025614, 4146.92307672, 4124.87179460, 4092.17948684, 4077.56410222, 4065.76923036, 4071.15384581, 4133.07692280, 4090.51282017, 4103.33333306, 4127.82051255, 4146.53846133,12.0
4124.10256383, 4149.61538441, 4121.28205101, 4145.76923056, 4121.79487152, 4085.64102530, 4071.79487145, 4067.82051241, 4062.56410215, 4133.46153819, 4077.56410222, 4102.82051255, 4126.53846126, 4146.41025621,12.0
4131.28205101, 4155.38461518, 4126.28205101, 4154.87179467, 4124.23076896, 4099.10256376, 4084.61538427, 4085.12820478, 4076.15384581, 4133.20512793, 4077.69230735, 4116.41025614, 4126.92307665, 4148.20512800,12.0
4121.28205101, 4152.30769210, 4118.84615357, 4138.20512800, 4125.25640998, 4104.48717921, 4096.41025607, 4078.97435863, 4073.58974325, 4133.84615357, 4091.41025607, 4105.64102537, 4126.79487152, 4145.89743569,12.0
4118.97435870, 4139.23076903, 4108.07692280, 4130.51282024, 4124.10256383, 4094.87179453, 4094.35897402, 4082.56410222, 4065.51282010, 4133.07692280, 4082.05128171, 4087.56410222, 4126.15384588, 4146.28205108,12.0
4124.87179460, 4130.76923050, 4108.58974332, 4136.41025621, 4124.61538434, 4091.28205094, 4086.28205094, 4094.99999966, 4075.38461504, 4132.30769203, 4074.35897402, 4089.87179453, 4126.79487152, 4148.20512800,12.0
4118.20512793, 4136.79487159, 4106.02564075, 4130.12820485, 4122.69230742, 4086.53846119, 4058.84615343, 4061.66666625, 4057.05128164, 4135.51282031, 4091.02564068, 4087.82051248, 4127.56410229, 4145.25641005,12.0
4125.76923050, 4151.53846133, 4103.97435870, 4124.99999973, 4122.56410229, 4073.97435863, 4033.84615336, 4028.58974311, 4025.12820465, 4130.89743562, 4103.97435870, 4084.61538427, 4127.56410229, 4142.56410236,12.0
4124.61538434, 4144.23076903, 4102.30769196, 4116.79487152, 4123.71794844, 4062.30769189, 4033.58974311, 4044.74358933, 4032.69230721, 4122.82051255, 4096.79487145, 4085.89743555, 4125.51282024, 4142.56410236,12.0
4126.41025614, 4136.66666646, 4101.02564068, 4109.10256383, 4121.79487152, 4066.66666625, 4044.35897395, 4065.64102523, 4052.94871754, 4127.82051255, 4096.79487145, 4085.12820478, 4128.20512793, 4143.58974339,12.0
4133.58974332, 4146.53846133, 4104.35897408, 4119.74358947, 4124.10256383, 4079.35897402, 4053.20512779, 4069.23076882, 4054.74358933, 4134.99999973, 4108.46153819, 4090.25640991, 4131.53846126, 4144.35897415,12.0
4126.15384588, 4153.84615364, 4111.41025614, 4129.23076896, 4125.89743562, 4085.89743555, 4074.10256376, 4077.94871761, 4061.53846113, 4132.69230742, 4116.41025614, 4102.82051255, 4127.69230742, 4143.07692287,12.0
4129.10256383, 4161.66666646, 4115.76923050, 4122.43589716, 4122.56410229, 4093.33333299, 4096.92307658, 4088.71794837, 4067.17948677, 4132.17948691, 4117.56410229, 4103.84615357, 4127.69230742, 4143.46153826,12.0
4124.61538434, 4159.61538441, 4108.84615357, 4114.35897408, 4124.10256383, 4101.02564068, 4094.35897402, 4090.12820478, 4056.66666625, 4135.76923056, 4116.15384588, 4090.76923043, 4132.05128178, 4144.99999980,12.0
4125.12820485, 4149.61538441, 4101.66666632, 4111.28205101, 4126.28205101, 4103.07692280, 4083.20512786, 4083.58974325, 4046.79487138, 4134.74358947, 4126.28205101, 4086.41025607, 4130.25640998, 4145.76923056,12.0
4130.64102537, 4148.46153826, 4103.46153819, 4115.76923050, 4121.66666639, 4098.46153812, 4083.71794837, 4085.38461504, 4053.71794830, 4133.58974332, 4141.28205108, 4090.38461504, 4125.64102537, 4144.23076903,12.0
4118.84615357, 4155.76923056, 4115.25640998, 4126.92307665, 4122.05128178, 4096.41025607, 4092.56410222, 4111.53846126, 4082.30769196, 4133.97435870, 4153.46153826, 4105.12820485, 4126.53846126, 4144.61538441,12.0
4125.25640998, 4161.53846133, 4126.02564075, 4130.51282024, 4125.51282024, 4105.38461511, 4094.10256376, 4115.25640998, 4093.46153812, 4133.46153819, 4159.35897415, 4121.15384588, 4130.12820485, 4147.17948697,12.0
4122.43589716, 4154.23076903, 4113.46153819, 4113.46153819, 4123.71794844, 4106.28205101, 4079.10256376, 4072.94871761, 4063.07692266, 4134.48717921, 4151.41025621, 4106.66666639, 4127.56410229, 4142.82051262,12.0
4114.61538434, 4153.97435877, 4095.89743555, 4099.48717914, 4124.99999973, 4088.58974325, 4057.69230728, 4042.30769189, 4034.61538413, 4134.35897408, 4145.76923056, 4083.33333299, 4124.10256383, 4141.15384595,12.0
4125.25640998, 4158.46153826, 4105.12820485, 4106.66666639, 4128.71794844, 4081.28205094, 4059.99999959, 4057.05128164, 4044.61538420, 4134.10256383, 4154.74358954, 4092.94871761, 4127.05128178, 4145.76923056,12.0
4121.28205101, 4149.87179467, 4115.38461511, 4109.99999973, 4128.58974332, 4097.82051248, 4083.46153812, 4085.76923043, 4068.97435856, 4134.35897408, 4162.82051262, 4108.46153819, 4128.46153819, 4143.33333313,12.0
4127.17948691, 4152.30769210, 4108.97435870, 4104.23076896, 4125.51282024, 4107.69230742, 4087.17948684, 4092.94871761, 4076.41025607, 4134.23076896, 4162.43589723, 4102.43589709, 4127.69230742, 4139.35897415,12.0
4131.02564075, 4158.20512800, 4102.69230742, 4103.71794844, 4123.33333306, 4098.33333299, 4076.53846119, 4086.02564068, 4067.56410215, 4134.35897408, 4161.41025621, 4098.20512786, 4128.46153819, 4143.33333313,12.0
4122.94871767, 4157.17948697, 4102.82051255, 4102.43589709, 4124.10256383, 4089.74358940, 4073.58974325, 4083.97435863, 4057.30769189, 4134.61538434, 4158.84615364, 4099.35897402, 4127.43589716, 4145.76923056,12.0
4127.30769203, 4162.94871774, 4107.30769203, 4104.87179460, 4124.61538434, 4093.33333299, 4077.56410222, 4084.99999966, 4060.76923036, 4134.35897408, 4161.15384595, 4099.35897402, 4125.38461511, 4143.20512800,12.0
4124.10256383, 4170.51282038, 4114.61538434, 4114.10256383, 4124.10256383, 4102.69230742, 4086.92307658, 4086.92307658, 4068.07692266, 4133.97435870, 4169.23076910, 4106.15384588, 4122.05128178, 4144.10256390,12.0
4128.84615357, 4173.46153833, 4113.20512793, 4109.35897408, 4123.84615357, 4104.23076896, 4090.12820478, 4081.28205094, 4061.92307651, 4135.12820485, 4164.99999980, 4105.25640998, 4122.30769203, 4144.61538441,12.0
4129.99999973, 4160.76923056, 4093.58974325, 4083.46153812, 4125.38461511, 4087.05128171, 4071.92307658, 4064.48717907, 4040.38461497, 4134.35897408, 4156.53846133, 4082.05128171, 4125.64102537, 4142.43589723,12.0
4123.07692280, 4152.43589723, 4088.07692273, 4066.15384574, 4125.64102537, 4077.94871761, 4064.74358933, 4066.53846113, 4040.12820472, 4130.64102537, 4163.58974339, 4078.46153812, 4124.23076896, 4146.92307672,12.0
4130.64102537, 4151.41025621, 4099.99999966, 4065.89743548, 4123.97435870, 4091.79487145, 4074.99999966, 4080.12820478, 4061.28205087, 4127.05128178, 4176.53846140, 4098.97435863, 4124.48717921, 4149.23076903,12.0
4121.66666639, 4131.28205101, 4105.51282024, 4072.94871761, 4124.61538434, 4103.71794844, 4081.66666632, 4084.74358940, 4067.56410215, 4129.23076896, 4184.99999986, 4106.28205101, 4126.53846126, 4143.71794851,12.0
4117.94871767, 4126.92307665, 4116.02564075, 4078.20512786, 4125.64102537, 4107.69230742, 4096.92307658, 4098.84615350, 4077.56410222, 4131.66666639, 4192.56410243, 4116.28205101, 4125.38461511, 4144.23076903,12.0
4122.69230742, 4136.53846133, 4117.82051255, 4058.46153805, 4125.25640998, 4102.05128171, 4094.61538427, 4107.56410229, 4088.46153812, 4123.84615357, 4192.17948704, 4125.25640998, 4125.25640998, 4147.30769210,12.0
4115.76923050, 4120.76923050, 4098.58974325, 4030.76923029, 4124.10256383, 4083.97435863, 4065.12820472, 4087.82051248, 4071.15384581, 4123.33333306, 4192.05128192, 4102.94871767, 4126.15384588, 4145.89743569,12.0
4124.23076896, 4111.02564075, 4104.23076896, 4040.89743548, 4123.71794844, 4091.28205094, 4078.84615350, 4084.74358940, 4069.74358940, 4129.48717921, 4209.35897429, 4101.02564068, 4126.02564075, 4142.82051262,12.0
4122.69230742, 4123.46153819, 4131.53846126, 4060.64102523, 4124.10256383, 4117.94871767, 4116.02564075, 4110.89743562, 4096.66666632, 4127.82051255, 4214.87179481, 4138.33333313, 4122.56410229, 4142.17948697,12.0
4120.89743562, 4112.56410229, 4110.76923050, 4030.76923029, 4122.30769203, 4093.33333299, 4076.79487145, 4087.30769196, 4069.35897395, 4128.33333306, 4196.41025628, 4117.56410229, 4122.05128178, 4147.69230749,12.0
4129.35897408, 4076.92307658, 4070.38461504, 3996.41025586, 4122.56410229, 4048.20512779, 4018.46153798, 4031.79487131, 4005.51282003, 4134.35897408, 4188.46153833, 4052.94871754, 4126.02564075, 4148.20512800,12.0
4124.35897408, 4074.74358940, 4078.33333299, 4013.46153798, 4123.97435870, 4061.79487138, 4040.12820472, 4039.74358933, 4009.35897388, 4133.97435870, 4191.15384602, 4058.07692266, 4125.64102537, 4142.05128185,12.0
4130.64102537, 4093.97435863, 4100.64102530, 4031.66666618, 4121.41025614, 4087.56410222, 4071.92307658, 4073.20512786, 4051.15384574, 4132.30769203, 4190.76923063, 4094.74358940, 4125.12820485, 4145.89743569,12.0
4130.12820485, 4091.28205094, 4096.15384581, 4026.53846106, 4121.15384588, 4078.58974325, 4062.82051241, 4070.64102530, 4052.30769189, 4136.28205108, 4192.43589730, 4092.82051248, 4127.30769203, 4151.02564082,12.0
4126.53846126, 4101.66666632, 4095.12820478, 4033.71794824, 4124.35897408, 4079.10256376, 4064.99999959, 4069.10256369, 4040.25640984, 4134.61538434, 4198.97435884, 4091.15384581, 4127.17948691, 4147.17948697,12.0
4126.53846126, 4101.66666632, 4095.12820478, 4033.71794824, 4124.35897408, 4079.10256376, 4064.99999959, 4069.10256369, 4040.25640984, 4134.61538434, 4198.97435884, 4091.15384581, 4127.17948691, 4147.17948697,12.0
4131.79487152, 4112.82051255, 4105.64102537, 4044.48717907, 4124.99999973, 4100.89743555, 4086.15384581, 4085.12820478, 4058.07692266, 4132.69230742, 4204.23076917, 4108.58974332, 4124.35897408, 4143.71794851,12.0
4122.69230742, 4096.53846119, 4096.53846119, 4034.23076875, 4123.20512793, 4103.97435870, 4086.66666632, 4089.23076889, 4071.41025607, 4134.74358947, 4198.46153833, 4104.61538434, 4122.43589716, 4144.61538441,12.0
4125.38461511, 4100.89743555, 4086.53846119, 4028.07692259, 4121.53846126, 4094.48717914, 4073.71794837, 4083.71794837, 4059.87179446, 4133.84615357, 4197.30769217, 4088.46153812, 4125.89743562, 4144.61538441,12.0
4124.10256383, 4115.51282024, 4094.10256376, 4035.76923029, 4123.46153819, 4094.48717914, 4076.53846119, 4090.89743555, 4061.53846113, 4134.35897408, 4203.97435891, 4090.64102530, 4126.41025614, 4143.97435877,12.0
4118.58974332, 4112.69230742, 4106.02564075, 4040.38461497, 4126.53846126, 4110.64102537, 4097.05128171, 4111.41025614, 4081.66666632, 4134.35897408, 4198.97435884, 4111.53846126, 4123.20512793, 4146.15384595,12.0
4127.05128178, 4110.25640998, 4104.48717921, 4031.66666618, 4126.15384588, 4113.84615357, 4097.43589709, 4111.53846126, 4081.41025607, 4134.23076896, 4187.56410243, 4114.10256383, 4123.71794844, 4146.28205108,12.0
4121.02564075, 4097.82051248, 4083.97435863, 4015.12820465, 4123.71794844, 4082.56410222, 4060.38461497, 4080.51282017, 4058.33333292, 4134.35897408, 4190.89743576, 4081.02564068, 4122.69230742, 4145.38461518,12.0
4124.61538434, 4091.28205094, 4079.23076889, 4018.71794824, 4120.38461511, 4070.38461504, 4047.94871754, 4063.97435856, 4045.12820472, 4134.23076896, 4197.05128192, 4067.82051241, 4121.92307665, 4146.92307672,12.0
4129.48717921, 4111.53846126, 4098.97435863, 4036.28205080, 4118.97435870, 4102.30769196, 4086.79487145, 4090.25640991, 4062.43589702, 4134.23076896, 4189.61538448, 4104.99999973, 4123.07692280, 4146.28205108,12.0
4126.15384588, 4122.82051255, 4109.74358947, 4042.43589702, 4122.05128178, 4119.23076896, 4106.28205101, 4111.28205101, 4083.46153812, 4134.23076896, 4190.89743576, 4127.82051255, 4123.58974332, 4146.02564082,12.0
4134.74358947, 4108.58974332, 4107.94871767, 4052.94871754, 4124.74358947, 4108.97435870, 4087.30769196, 4104.23076896, 4085.12820478, 4134.23076896, 4205.64102558, 4109.61538434, 4125.12820485, 4147.30769210,12.0
4128.33333306, 4098.97435863, 4113.33333306, 4072.43589709, 4121.53846126, 4114.23076896, 4091.28205094, 4106.02564075, 4085.38461504, 4134.23076896, 4203.71794865, 4109.87179460, 4124.87179460, 4145.12820492,12.0
4128.20512793, 4105.64102537, 4121.02564075, 4075.64102530, 4120.25640998, 4125.89743562, 4109.87179460, 4107.43589716, 4081.53846119, 4134.23076896, 4183.07692294, 4129.74358947, 4124.87179460, 4144.61538441,12.0
4130.64102537, 4101.02564068, 4112.30769203, 4055.76923036, 4124.61538434, 4119.48717921, 4102.69230742, 4093.46153812, 4063.97435856, 4134.23076896, 4176.02564089, 4116.53846126, 4125.38461511, 4147.56410236,12.0
4122.94871767, 4091.15384581, 4098.58974325, 4032.69230721, 4124.87179460, 4108.71794844, 4092.69230735, 4091.79487145, 4056.02564061, 4134.23076896, 4183.33333320, 4094.10256376, 4125.89743562, 4147.69230749,12.0
4129.61538434, 4089.99999966, 4093.58974325, 4019.48717900, 4122.05128178, 4102.94871767, 4091.92307658, 4093.84615350, 4056.28205087, 4134.23076896, 4168.84615371, 4092.56410222, 4128.33333306, 4144.61538441,12.0
4123.20512793, 4071.66666632, 4090.51282017, 4016.02564054, 4124.10256383, 4096.79487145, 4087.82051248, 4085.51282017, 4051.66666625, 4134.23076896, 4150.76923056, 4087.17948684, 4126.66666639, 4142.69230749,12.0
4123.46153819, 4061.28205087, 4097.56410222, 4028.84615336, 4124.10256383, 4097.69230735, 4087.69230735, 4088.20512786, 4063.71794830, 4134.23076896, 4165.89743569, 4092.43589709, 4123.71794844, 4144.10256390,12.0
4130.38461511, 4077.17948684, 4114.48717921, 4042.30769189, 4121.15384588, 4106.41025614, 4094.87179453, 4109.35897408, 4093.46153812, 4134.23076896, 4180.12820499, 4122.43589716, 4126.53846126, 4145.51282031,12.0
4118.71794844, 4084.99999966, 4118.58974332, 4042.05128164, 4124.87179460, 4106.53846126, 4096.41025607, 4121.41025614, 4100.38461504, 4134.23076896, 4171.66666653, 4130.12820485, 4127.43589716, 4145.64102544,12.0
4124.61538434, 4091.02564068, 4113.46153819, 4037.82051241, 4126.02564075, 4105.25640998, 4098.84615350, 4106.53846126, 4078.33333299, 4134.23076896, 4174.23076910, 4112.82051255, 4126.28205101, 4146.15384595,12.0
4127.05128178, 4098.58974325, 4107.82051255, 4038.97435856, 4121.79487152, 4105.38461511, 4096.79487145, 4086.41025607, 4059.23076882, 4134.23076896, 4185.51282038, 4104.48717921, 4125.76923050, 4143.33333313,12.0
4122.05128178, 4096.28205094, 4104.48717921, 4049.48717907, 4122.30769203, 4101.28205094, 4083.84615350, 4087.82051248, 4061.41025600, 4134.23076896, 4181.53846140, 4108.07692280, 4124.48717921, 4145.25641005,12.0
4128.07692280, 4091.41025607, 4108.84615357, 4057.82051241, 4124.74358947, 4103.71794844, 4085.89743555, 4099.48717914, 4072.05128171, 4134.23076896, 4171.66666653, 4115.89743562, 4124.48717921, 4150.76923056,12.0
4124.48717921, 4085.25640991, 4104.99999973, 4046.41025600, 4123.20512793, 4101.15384581, 4084.74358940, 4086.92307658, 4054.10256369, 4134.23076896, 4162.43589723, 4108.33333306, 4124.35897408, 4149.10256390,12.0
4130.76923050, 4087.94871761, 4101.02564068, 4039.74358933, 4122.05128178, 4091.66666632, 4073.84615350, 4080.38461504, 4038.97435856, 4134.23076896, 4159.23076903, 4099.61538427, 4123.58974332, 4148.46153826,12.0
4130.76923050, 4099.74358940, 4115.25640998, 4048.58974318, 4124.74358947, 4097.94871761, 4092.17948684, 4112.17948691, 4068.97435856, 4134.23076896, 4170.89743576, 4118.97435870, 4124.23076896, 4150.38461518,12.0
4126.41025614, 4097.94871761, 4116.92307665, 4043.20512779, 4123.46153819, 4109.23076896, 4109.87179460, 4124.87179460, 4084.99999966, 4134.23076896, 4173.71794858, 4122.17948691, 4126.53846126, 4150.12820492,12.0
4132.82051255, 4079.87179453, 4097.82051248, 4033.71794824, 4120.51282024, 4097.94871761, 4085.76923043, 4090.89743555, 4055.76923036, 4134.23076896, 4155.64102544, 4091.41025607, 4127.56410229, 4147.43589723,12.0
4123.20512793, 4073.58974325, 4092.94871761, 4039.87179446, 4122.82051255, 4085.38461504, 4073.97435863, 4072.82051248, 4043.07692266, 4134.23076896, 4152.30769210, 4082.30769196, 4122.94871767, 4146.53846133,12.0
4126.66666639, 4082.17948684, 4099.74358940, 4027.94871747, 4124.61538434, 4093.71794837, 4095.51282017, 4093.71794837, 4058.20512779, 4134.23076896, 4162.56410236, 4094.74358940, 4124.61538434, 4145.51282031,12.0
4129.74358947, 4075.25640991, 4092.17948684, 3995.76923022, 4124.74358947, 4095.25640991, 4098.58974325, 4109.35897408, 4058.97435856, 4134.23076896, 4154.48717928, 4088.33333299, 4130.38461511, 4142.69230749,12.0
4120.25640998, 4073.20512786, 4088.71794837, 3998.71794817, 4124.74358947, 4091.15384581, 4098.71794837, 4117.17948691, 4066.28205087, 4134.23076896, 4149.87179467, 4088.71794837, 4128.97435870, 4145.51282031,12.0
4125.89743562, 4081.79487145, 4096.28205094, 4020.12820465, 4123.46153819, 4090.51282017, 4106.41025614, 4121.15384588, 4076.53846119, 4134.35897408, 4159.87179467, 4101.92307658, 4126.02564075, 4146.28205108,12.0
4122.30769203, 4075.12820478, 4089.61538427, 4017.82051234, 4124.48717921, 4092.30769196, 4103.71794844, 4116.02564075, 4061.15384574, 4134.87179460, 4155.76923056, 4091.92307658, 4126.28205101, 4142.56410236,12.0
4124.99999973, 4072.56410222, 4076.41025607, 4005.25640977, 4126.28205101, 4092.30769196, 4098.58974325, 4100.76923043, 4038.58974318, 4134.48717921, 4142.69230749, 4068.58974318, 4126.79487152, 4142.94871774,12.0
4127.69230742, 4074.61538427, 4073.71794837, 4002.05128150, 4124.23076896, 4083.71794837, 4091.92307658, 4089.99999966, 4035.76923029, 4133.20512793, 4142.05128185, 4064.35897395, 4123.71794844, 4143.33333313,12.0
4120.38461511, 4075.51282017, 4078.97435863, 4014.74358926, 4122.17948691, 4080.64102530, 4087.05128171, 4101.02564068, 4053.58974318, 4135.89743569, 4149.10256390, 4072.30769196, 4121.79487152, 4143.07692287,12.0
4128.84615357, 4078.33333299, 4074.23076889, 4020.38461490, 4123.20512793, 4082.56410222, 4078.46153812, 4098.71794837, 4051.41025600, 4133.84615357, 4150.12820492, 4058.58974318, 4124.61538434, 4144.61538441,12.0
4126.41025614, 4065.38461497, 4057.69230728, 4003.58974304, 4123.33333306, 4070.51282017, 4061.92307651, 4071.66666632, 4019.48717900, 4124.48717921, 4141.79487159, 4033.97435849, 4124.48717921, 4146.41025621,12.0
4126.66666639, 4053.97435856, 4050.51282010, 3986.92307637, 4122.56410229, 4055.38461497, 4047.94871754, 4049.61538420, 3998.46153791, 4124.99999973, 4132.56410229, 4024.48717900, 4122.56410229, 4146.66666646,12.0
4132.82051255, 4064.61538420, 4060.76923036, 4001.53846099, 4124.35897408, 4074.74358940, 4074.87179453, 4071.41025607, 4021.92307644, 4131.79487152, 4136.92307672, 4041.41025600, 4122.94871767, 4144.48717928,12.0
4124.23076896, 4071.79487145, 4073.84615350, 4016.53846106, 4122.05128178, 4107.05128178, 4124.35897408, 4124.48717921, 4060.38461497, 4131.92307665, 4148.07692287, 4063.07692266, 4124.99999973, 4144.74358954,12.0
4127.30769203, 4065.64102523, 4074.61538427, 3999.10256355, 4119.87179460, 4099.48717914, 4116.79487152, 4130.38461511, 4061.02564061, 4131.79487152, 4147.82051262, 4059.99999959, 4124.99999973, 4146.79487159,12.0
4123.58974332, 4057.94871754, 4068.84615343, 3981.66666611, 4123.58974332, 4073.46153812, 4078.71794837, 4096.79487145, 4037.30769189, 4135.51282031, 4145.64102544, 4054.48717907, 4122.30769203, 4146.02564082,12.0
4124.74358947, 4060.64102523, 4070.76923043, 3985.25640970, 4122.56410229, 4073.07692273, 4080.64102530, 4090.12820478, 4031.15384567, 4135.12820485, 4154.61538441, 4065.64102523, 4123.58974332, 4145.12820492,12.0
4131.53846126, 4069.23076882, 4075.38461504, 3997.17948663, 4119.48717921, 4083.84615350, 4101.41025607, 4107.69230742, 4047.05128164, 4133.58974332, 4159.99999980, 4074.61538427, 4125.38461511, 4145.38461518,12.0
4118.46153819, 4071.79487145, 4071.66666632, 4006.79487131, 4121.53846126, 4073.20512786, 4086.02564068, 4103.97435870, 4047.82051241, 4134.23076896, 4151.28205108, 4065.12820472, 4121.02564075, 4146.02564082,12.0
4123.46153819, 4072.94871761, 4069.87179453, 4017.05128157, 4124.61538434, 4064.10256369, 4073.33333299, 4087.05128171, 4036.28205080, 4133.46153819, 4145.51282031, 4058.33333292, 4122.94871767, 4144.99999980,12.0
4126.53846126, 4062.82051241, 4072.82051248, 4020.51282003, 4123.46153819, 4071.28205094, 4088.33333299, 4088.20512786, 4040.89743548, 4134.23076896, 4152.30769210, 4064.35897395, 4127.94871767, 4144.10256390,12.0
4121.79487152, 4056.92307651, 4077.43589709, 4020.25640977, 4119.35897408, 4076.02564068, 4093.33333299, 4100.12820478, 4049.87179446, 4134.61538434, 4159.99999980, 4073.84615350, 4125.38461511, 4144.87179467,12.0
4127.43589716, 4061.41025600, 4084.10256376, 4024.35897388, 4120.38461511, 4073.33333299, 4089.87179453, 4102.69230742, 4049.35897395, 4134.10256383, 4161.53846133, 4081.92307658, 4122.94871767, 4144.48717928,12.0
4122.94871767, 4052.05128164, 4084.99999966, 4025.38461490, 4125.51282024, 4069.35897395, 4088.84615350, 4107.17948691, 4047.94871754, 4134.35897408, 4159.61538441, 4082.30769196, 4124.74358947, 4144.61538441,12.0
4129.35897408, 4043.58974318, 4088.33333299, 4022.17948670, 4125.12820485, 4075.12820478, 4093.58974325, 4121.79487152, 4054.99999959, 4134.35897408, 4156.41025621, 4082.56410222, 4127.94871767, 4145.38461518,12.0
4128.71794844, 4037.17948677, 4088.97435863, 4022.05128157, 4121.66666639, 4082.56410222, 4100.12820478, 4118.20512793, 4063.33333292, 4134.23076896, 4158.07692287, 4081.02564068, 4126.41025614, 4144.61538441,12.0
4122.56410229, 4030.64102516, 4077.56410222, 4024.74358926, 4120.89743562, 4077.05128171, 4097.17948684, 4099.10256376, 4061.28205087, 4134.23076896, 4164.48717928, 4074.35897402, 4122.94871767, 4144.99999980,12.0
4131.53846126, 4027.05128157, 4070.25640991, 4023.07692259, 4121.15384588, 4072.82051248, 4087.94871761, 4095.76923043, 4056.66666625, 4134.23076896, 4164.61538441, 4068.46153805, 4123.20512793, 4144.74358954,12.0
4122.30769203, 4021.66666618, 4074.61538427, 4022.82051234, 4123.07692280, 4080.76923043, 4097.05128171, 4110.76923050, 4069.87179453, 4134.23076896, 4164.48717928, 4072.05128171, 4124.61538434, 4144.74358954,12.0
4124.61538434, 4024.61538413, 4078.97435863, 4026.53846106, 4124.23076896, 4083.46153812, 4105.76923050, 4112.94871767, 4081.02564068, 4134.23076896, 4174.48717935, 4082.94871761, 4126.28205101, 4147.43589723,12.0
4130.12820485, 4026.53846106, 4073.97435863, 4027.05128157, 4122.82051255, 4077.82051248, 4090.76923043, 4097.05128171, 4066.28205087, 4134.23076896, 4166.41025621, 4077.56410222, 4124.74358947, 4145.38461518,12.0
4117.56410229, 4024.35897388, 4069.74358940, 4023.97435849, 4120.89743562, 4080.12820478, 4089.87179453, 4109.74358947, 4070.25640991, 4134.23076896, 4149.74358954, 4065.12820472, 4123.07692280, 4143.33333313,12.0
4120.51282024, 4027.94871747, 4069.35897395, 4023.71794824, 4121.28205101, 4083.58974325, 4099.61538427, 4130.89743562, 4090.89743555, 4134.23076896, 4163.07692287, 4062.17948677, 4125.64102537, 4144.48717928,12.0
4120.64102537, 4022.56410208, 4060.38461497, 4016.66666618, 4122.30769203, 4067.94871754, 4075.89743555, 4095.76923043, 4064.35897395, 4134.23076896, 4172.17948704, 4053.20512779, 4124.99999973, 4143.46153826,12.0
4123.33333306, 4014.87179439, 4053.71794830, 4003.07692252, 4120.12820485, 4055.76923036, 4053.97435856, 4049.48717907, 4024.23076875, 4134.23076896, 4154.23076903, 4039.99999959, 4123.58974332, 4143.58974339,12.0
4124.61538434, 4010.12820465, 4053.84615343, 3995.51281996, 4119.74358947, 4066.15384574, 4074.61538427, 4064.87179446, 4035.76923029, 4134.23076896, 4150.38461518, 4038.97435856, 4124.61538434, 4144.99999980,12.0
4119.87179460, 4005.51282003, 4058.33333292, 4007.17948670, 4121.79487152, 4075.89743555, 4089.10256376, 4094.61538427, 4058.46153805, 4134.23076896, 4163.97435877, 4052.17948677, 4126.53846126, 4143.84615364,12.0
4129.48717921, 4010.51282003, 4069.74358940, 4020.12820465, 4122.43589716, 4073.71794837, 4085.89743555, 4089.74358940, 4055.89743548, 4134.23076896, 4164.61538441, 4069.99999966, 4129.35897408, 4143.20512800,12.0
4124.99999973, 4009.23076875, 4068.20512779, 3996.53846099, 4121.92307665, 4064.99999959, 4080.51282017, 4081.79487145, 4053.20512779, 4134.23076896, 4162.82051262, 4068.71794830, 4128.71794844, 4144.74358954,12.0
4124.87179460, 4003.20512765, 4059.99999959, 3980.51281996, 4120.38461511, 4066.15384574, 4070.25640991, 4089.35897402, 4063.97435856, 4134.23076896, 4172.17948704, 4060.12820472, 4126.28205101, 4147.69230749,12.0
4131.92307665, 4002.05128150, 4063.46153805, 3995.89743535, 4120.25640998, 4073.84615350, 4069.10256369, 4092.05128171, 4070.25640991, 4134.23076896, 4173.58974345, 4067.69230728, 4126.79487152, 4147.82051262,12.0
4123.84615357, 3999.61538406, 4064.10256369, 3993.71794817, 4121.66666639, 4068.84615343, 4075.51282017, 4087.17948684, 4059.61538420, 4134.23076896, 4162.94871774, 4075.12820478, 4127.05128178, 4145.12820492,12.0
4130.38461511, 4002.56410201, 4063.33333292, 3987.17948663, 4122.43589716, 4069.10256369, 4082.05128171, 4100.38461504, 4067.05128164, 4134.23076896, 4163.84615364, 4076.79487145, 4129.10256383, 4144.74358954,12.0
4126.92307665, 3997.56410201, 4061.02564061, 3998.07692252, 4121.41025614, 4078.71794837, 4089.99999966, 4122.30769203, 4096.02564068, 4134.23076896, 4176.15384602, 4073.07692273, 4131.53846126, 4145.12820492,12.0
4120.64102537, 3992.69230714, 4053.71794830, 4000.12820458, 4121.02564075, 4077.30769196, 4094.23076889, 4115.64102537, 4094.99999966, 4134.23076896, 4176.02564089, 4063.20512779, 4131.53846126, 4144.87179467,12.0
4127.94871767, 4004.99999952, 4054.87179446, 3996.02564047, 4122.05128178, 4073.71794837, 4091.53846119, 4096.28205094, 4077.56410222, 4134.23076896, 4165.51282031, 4066.15384574, 4129.74358947, 4144.99999980,12.0
4119.35897408, 4013.46153798, 4058.33333292, 4007.82051234, 4124.87179460, 4080.38461504, 4092.30769196, 4099.35897402, 4080.12820478, 4134.74358947, 4167.69230749, 4072.43589709, 4126.79487152, 4146.02564082,12.0
4121.53846126, 4006.66666618, 4052.05128164, 4013.84615336, 4126.41025614, 4086.79487145, 4098.46153812, 4105.64102537, 4081.79487145, 4133.71794844, 4172.56410243, 4061.53846113, 4125.25640998, 4145.64102544,12.0
4122.56410229, 3999.10256355, 4047.30769189, 4003.58974304, 4121.66666639, 4082.82051248, 4099.48717914, 4098.97435863, 4072.56410222, 4133.97435870, 4164.61538441, 4052.43589702, 4125.25640998, 4144.61538441,12.0
4119.74358947, 4004.87179439, 4054.61538420, 4004.23076875, 4117.17948691, 4076.92307658, 4094.61538427, 4096.28205094, 4076.53846119, 4136.53846133, 4164.74358954, 4063.58974318, 4127.43589716, 4147.17948697,12.0
4130.12820485, 4009.99999952, 4064.48717907, 4018.20512772, 4121.02564075, 4076.79487145, 4087.69230735, 4100.25640991, 4090.25640991, 4132.94871767, 4179.48717935, 4079.87179453, 4128.97435870, 4146.79487159,12.0
4127.05128178, 4009.99999952, 4067.17948677, 4028.84615336, 4125.51282024, 4081.53846119, 4093.84615350, 4110.38461511, 4099.23076889, 4130.25640998, 4184.87179474, 4091.92307658, 4128.71794844, 4144.87179467,12.0
4130.89743562, 4014.35897388, 4061.66666625, 4024.48717900, 4120.64102537, 4082.94871761, 4099.99999966, 4106.02564075, 4090.38461504, 4133.84615357, 4179.23076910, 4090.76923043, 4130.12820485, 4146.41025621,12.0
4130.76923050, 4002.56410201, 4049.23076882, 4009.23076875, 4117.82051255, 4075.12820478, 4084.23076889, 4085.25640991, 4067.94871754, 4134.35897408, 4173.20512807, 4074.87179453, 4128.20512793, 4145.64102544,12.0
4121.79487152, 3984.74358919, 4043.07692266, 4001.79487124, 4121.15384588, 4076.15384581, 4082.56410222, 4084.35897402, 4065.12820472, 4131.41025614, 4173.46153833, 4064.61538420, 4126.28205101, 4145.76923056,12.0
4129.87179460, 3985.76923022, 4048.20512779, 4003.71794817, 4118.20512793, 4084.61538427, 4100.64102530, 4093.71794837, 4073.97435863, 4133.58974332, 4174.35897422, 4067.05128164, 4128.71794844, 4146.28205108,12.0
4124.23076896, 3981.02564047, 4051.41025600, 4004.87179439, 4117.56410229, 4077.82051248, 4100.25640991, 4099.10256376, 4076.79487145, 4136.41025621, 4163.97435877, 4071.92307658, 4128.46153819, 4143.97435877,12.0
4120.51282024, 3971.28205073, 4049.87179446, 4005.38461490, 4120.64102537, 4066.92307651, 4093.07692273, 4107.82051255, 4084.35897402, 4134.61538434, 4160.25641005, 4071.92307658, 4128.07692280, 4145.12820492,12.0
4122.56410229, 3968.58974297, 4045.25640984, 4003.58974304, 4118.84615357, 4062.17948677, 4087.82051248, 4098.84615350, 4079.61538427, 4133.46153819, 4164.35897415, 4061.41025600, 4128.71794844, 4145.12820492,12.0
4117.94871767, 3964.87179425, 4036.53846106, 3993.58974304, 4118.07692280, 4054.74358933, 4068.33333292, 4069.74358940, 4055.12820472, 4134.10256383, 4154.74358954, 4045.64102523, 4126.15384588, 4142.17948697,12.0
4122.69230742, 3964.10256348, 4029.99999952, 3986.02564047, 4118.97435870, 4050.38461497, 4052.56410215, 4056.79487138, 4047.17948677, 4135.51282031, 4143.97435877, 4034.87179439, 4126.66666639, 4143.20512800,12.0
4115.89743562, 3967.43589681, 4032.94871747, 3992.56410201, 4119.99999973, 4064.61538420, 4072.82051248, 4077.94871761, 4070.89743555, 4135.64102544, 4155.25641005, 4041.02564061, 4128.07692280, 4143.97435877,12.0
4119.99999973, 3979.48717894, 4047.94871754, 4012.43589695, 4122.56410229, 4086.41025607, 4104.10256383, 4102.05128171, 4093.84615350, 4134.10256383, 4174.48717935, 4061.28205087, 4126.15384588, 4143.46153826,12.0
4127.82051255, 3980.89743535, 4049.99999959, 4021.92307644, 4123.71794844, 4088.20512786, 4104.10256383, 4102.82051255, 4093.46153812, 4134.48717921, 4171.02564089, 4069.10256369, 4125.89743562, 4143.84615364,12.0
4120.25640998, 3967.69230707, 4035.89743541, 4005.89743541, 4120.76923050, 4080.64102530, 4094.10256376, 4094.87179453, 4088.46153812, 4134.74358947, 4154.61538441, 4054.87179446, 4126.79487152, 4144.74358954,12.0
4130.12820485, 3970.51281989, 4034.99999952, 4007.17948670, 4121.66666639, 4094.35897402, 4111.41025614, 4099.35897402, 4096.92307658, 4134.48717921, 4156.66666646, 4051.02564061, 4127.43589716, 4144.48717928,12.0
4128.97435870, 3978.33333278, 4045.51282010, 4026.28205080, 4124.23076896, 4104.87179460, 4131.79487152, 4108.84615357, 4103.58974332, 4134.48717921, 4169.35897422, 4063.58974318, 4126.66666639, 4143.58974339,12.0
4125.12820485, 3979.87179432, 4046.15384574, 4007.30769183, 4120.76923050, 4080.76923043, 4108.84615357, 4099.10256376, 4088.33333299, 4134.48717921, 4160.25641005, 4063.20512779, 4126.15384588, 4146.41025621,12.0
4131.79487152, 3973.20512765, 4030.89743541, 3978.71794817, 4120.76923050, 4055.64102523, 4070.89743555, 4080.12820478, 4073.33333299, 4134.48717921, 4143.07692287, 4047.69230728, 4128.33333306, 4147.69230749,12.0
4122.17948691, 3968.20512758, 4025.25640977, 3999.48717894, 4121.79487152, 4062.69230728, 4072.56410222, 4083.84615350, 4084.48717914, 4134.87179460, 4154.35897415, 4051.53846113, 4128.46153819, 4147.17948697,12.0
4123.84615357, 3983.07692252, 4040.38461497, 4025.38461490, 4119.99999973, 4081.02564068, 4099.74358940, 4096.53846119, 4102.05128171, 4134.48717921, 4172.05128192, 4072.69230735, 4126.53846126, 4148.97435877,12.0
4125.38461511, 3991.66666611, 4045.64102523, 4021.02564054, 4121.66666639, 4082.69230735, 4111.66666639, 4099.48717914, 4107.69230742, 4134.48717921, 4176.02564089, 4081.28205094, 4125.51282024, 4147.56410236,12.0
4124.48717921, 3985.64102509, 4036.79487131, 4021.79487131, 4122.30769203, 4076.02564068, 4101.92307658, 4099.99999966, 4108.33333306, 4135.12820485, 4176.28205115, 4071.79487145, 4127.94871767, 4145.25641005,12.0
4130.51282024, 3986.92307637, 4035.89743541, 4023.71794824, 4121.15384588, 4082.69230735, 4091.79487145, 4091.79487145, 4098.46153812, 4133.58974332, 4173.33333320, 4059.23076882, 4130.89743562, 4145.25641005,12.0
4120.38461511, 3983.33333278, 4027.94871747, 4007.43589695, 4124.23076896, 4081.28205094, 4083.33333299, 4077.56410222, 4088.58974325, 4130.64102537, 4164.61538441, 4048.07692266, 4127.56410229, 4144.48717928,12.0
4123.71794844, 3975.51281996, 4013.33333285, 3996.02564047, 4123.97435870, 4068.84615343, 4082.43589709, 4077.30769196, 4089.87179453, 4129.74358947, 4155.76923056, 4039.35897395, 4124.99999973, 4142.69230749,12.0
4127.17948691, 3979.10256355, 4015.64102516, 3992.94871740, 4119.48717921, 4070.89743555, 4086.79487145, 4073.07692273, 4076.79487145, 4130.89743562, 4150.89743569, 4040.25640984, 4126.79487152, 4142.05128185,12.0
4120.51282024, 3989.35897381, 4028.20512772, 3995.12820458, 4118.97435870, 4076.92307658, 4080.12820478, 4062.82051241, 4062.43589702, 4131.53846126, 4151.53846133, 4054.99999959, 4126.28205101, 4143.58974339,12.0
4127.56410229, 3999.35897381, 4037.30769189, 4011.53846106, 4122.56410229, 4074.99999966, 4083.33333299, 4074.35897402, 4086.41025607, 4130.76923050, 4156.79487159, 4069.61538420, 4126.79487152, 4144.10256390,12.0
4124.87179460, 4005.76923029, 4041.15384574, 4025.51282003, 4122.56410229, 4089.48717914, 4116.79487152, 4094.74358940, 4117.69230742, 4130.89743562, 4164.48717928, 4076.53846119, 4130.12820485, 4144.10256390,12.0
4129.35897408, 4000.64102509, 4040.12820472, 4015.89743541, 4118.97435870, 4101.02564068, 4130.38461511, 4086.66666632, 4106.66666639, 4131.79487152, 4172.56410243, 4077.56410222, 4131.15384588, 4143.58974339,12.0
4131.02564075, 3984.10256355, 4031.02564054, 4000.38461483, 4119.10256383, 4077.69230735, 4109.23076896, 4079.23076889, 4091.41025607, 4131.41025614, 4171.28205115, 4065.64102523, 4126.66666639, 4142.69230749,12.0
4122.30769203, 3979.99999945, 4018.58974311, 3995.89743535, 4121.15384588, 4065.38461497, 4103.71794844, 4089.74358940, 4097.05128171, 4129.35897408, 4159.99999980, 4044.23076882, 4126.53846126, 4145.51282031,12.0
4127.82051255, 3985.51281996, 4012.82051234, 3994.87179432, 4119.74358947, 4080.38461504, 4102.05128171, 4079.48717914, 4093.97435863, 4129.10256383, 4158.97435877, 4036.41025593, 4130.64102537, 4146.41025621,12.0
4119.61538434, 3977.30769176, 4012.56410208, 3994.61538406, 4118.07692280, 4071.79487145, 4079.87179453, 4069.10256369, 4090.76923043, 4129.61538434, 4163.07692287, 4039.74358933, 4128.71794844, 4143.58974339,12.0
4119.23076896, 3975.12820458, 4014.48717900, 3993.46153791, 4118.46153819, 4051.53846113, 4069.74358940, 4081.53846119, 4097.94871761, 4129.35897408, 4157.94871774, 4040.51282010, 4128.20512793, 4144.87179467,12.0
4126.66666639, 3981.28205073, 4021.15384567, 3996.79487124, 4121.66666639, 4063.07692266, 4085.38461504, 4088.07692273, 4102.69230742, 4129.35897408, 4158.07692287, 4048.71794830, 4129.99999973, 4145.64102544,12.0
4118.58974332, 3979.74358919, 4027.43589695, 4006.79487131, 4123.71794844, 4081.66666632, 4096.66666632, 4081.28205094, 4102.05128171, 4129.35897408, 4166.53846133, 4063.20512779, 4126.66666639, 4142.05128185,12.0
4125.25640998, 3984.23076868, 4026.15384567, 4008.97435849, 4119.61538434, 4078.20512786, 4095.25640991, 4077.82051248, 4101.92307658, 4129.23076896, 4167.43589723, 4067.82051241, 4124.48717921, 4142.17948697,12.0
4123.97435870, 3988.33333278, 4029.10256362, 4006.53846106, 4116.79487152, 4084.23076889, 4113.71794844, 4098.71794837, 4111.92307665, 4128.97435870, 4164.48717928, 4074.48717914, 4125.76923050, 4143.71794851,12.0
4121.79487152, 3986.53846099, 4034.35897388, 4005.38461490, 4120.76923050, 4096.53846119, 4131.66666639, 4117.30769203, 4123.71794844, 4129.74358947, 4169.87179474, 4080.76923043, 4128.46153819, 4144.35897415,12.0
4129.61538434, 3982.05128150, 4027.82051234, 3994.99999945, 4123.58974332, 4082.56410222, 4113.71794844, 4101.15384581, 4118.46153819, 4129.10256383, 4170.89743576, 4068.46153805, 4128.97435870, 4144.61538441,12.0
4123.97435870, 3974.99999945, 4017.69230721, 3977.05128150, 4120.51282024, 4065.12820472, 4093.97435863, 4078.33333299, 4102.43589709, 4129.35897408, 4159.87179467, 4054.74358933, 4125.12820485, 4142.56410236,12.0
4127.56410229, 3980.89743535, 4022.69230721, 3977.05128150, 4118.07692280, 4073.71794837, 4104.23076896, 4082.43589709, 4108.20512793, 4132.17948691, 4166.02564082, 4064.61538420, 4125.12820485, 4142.17948697,12.0
4127.94871767, 3988.33333278, 4029.48717900, 3986.15384560, 4122.56410229, 4080.64102530, 4107.69230742, 4094.35897402, 4123.33333306, 4134.35897408, 4181.28205115, 4075.76923043, 4127.30769203, 4144.74358954,12.0
4124.74358947, 3991.79487124, 4023.58974311, 3972.56410201, 4123.58974332, 4063.46153805, 4083.97435863, 4085.51282017, 4110.89743562, 4137.05128185, 4173.97435884, 4064.35897395, 4126.28205101, 4147.05128185,12.0
4127.82051255, 4001.41025586, 4024.99999952, 3962.05128143, 4115.64102537, 4058.71794830, 4080.89743555, 4084.99999966, 4105.89743562, 4132.17948691, 4167.43589723, 4065.51282010, 4126.28205101, 4144.99999980,12.0
4123.58974332, 4006.79487131, 4035.25640977, 3983.71794817, 4115.25640998, 4079.87179453, 4111.28205101, 4109.48717921, 4132.94871767, 4123.46153819, 4179.61538448, 4087.94871761, 4127.43589716, 4144.99999980,12.0
4129.87179460, 4008.20512772, 4042.56410215, 4004.35897388, 4119.61538434, 4096.28205094, 4127.56410229, 4116.02564075, 4139.61538441, 4126.66666639, 4180.76923063, 4096.53846119, 4130.38461511, 4147.43589723,12.0
4123.46153819, 4007.69230721, 4038.07692266, 3992.43589688, 4117.56410229, 4097.69230735, 4127.69230742, 4119.61538434, 4134.10256383, 4133.33333306, 4169.23076910, 4087.30769196, 4128.84615357, 4144.61538441,12.0
4116.92307665, 4005.12820465, 4026.53846106, 3969.87179425, 4116.66666639, 4088.46153812, 4123.97435870, 4122.69230742, 4133.97435870, 4133.33333306, 4167.05128185, 4074.99999966, 4126.15384588, 4143.84615364,12.0
4127.69230742, 4004.10256362, 4022.82051234, 3965.89743528, 4119.74358947, 4076.28205094, 4102.17948684, 4083.97435863, 4105.38461511, 4132.43589716, 4163.58974339, 4065.89743548, 4131.66666639, 4147.17948697,12.0
4119.23076896, 4006.15384567, 4028.84615336, 3976.02564047, 4117.56410229, 4076.02564068, 4089.48717914, 4055.64102523, 4086.66666632, 4131.79487152, 4159.61538441, 4073.84615350, 4131.53846126, 4144.23076903,12.0
4122.56410229, 4017.30769183, 4040.76923036, 3984.87179432, 4115.64102537, 4086.92307658, 4109.99999973, 4089.10256376, 4116.66666639, 4128.97435870, 4170.89743576, 4097.30769196, 4126.92307665, 4139.99999980,12.0
4128.97435870, 4017.69230721, 4039.35897395, 3976.28205073, 4121.41025614, 4080.38461504, 4114.48717921, 4110.12820485, 4135.25640998, 4129.74358947, 4174.48717935, 4099.48717914, 4130.51282024, 4141.15384595,12.0
4120.51282024, 4015.38461490, 4033.07692259, 3976.28205073, 4122.69230742, 4072.43589709, 4096.28205094, 4093.97435863, 4126.02564075, 4129.48717921, 4170.25641012, 4090.38461504, 4133.20512793, 4145.38461518,12.0
4126.79487152, 4030.25640977, 4043.33333292, 3994.48717894, 4118.84615357, 4087.30769196, 4101.79487145, 4099.87179453, 4135.51282031, 4125.76923050, 4177.30769217, 4101.28205094, 4128.46153819, 4145.51282031,12.0
4124.48717921, 4029.87179439, 4038.58974318, 3984.87179432, 4118.07692280, 4079.23076889, 4108.97435870, 4106.66666639, 4136.53846133, 4126.92307665, 4176.79487166, 4092.17948684, 4125.51282024, 4141.79487159,12.0
4126.41025614, 4028.71794824, 4027.69230721, 3979.10256355, 4117.69230742, 4068.07692266, 4106.53846126, 4106.02564075, 4130.38461511, 4127.17948691, 4167.82051262, 4075.76923043, 4128.97435870, 4144.87179467,12.0
4130.51282024, 4044.61538420, 4044.48717907, 4019.87179439, 4120.76923050, 4097.56410222, 4122.56410229, 4122.30769203, 4151.15384595, 4126.28205101, 4177.17948704, 4103.33333306, 4131.28205101, 4149.87179467,12.0
4123.33333306, 4051.28205087, 4056.66666625, 4037.82051241, 4122.30769203, 4111.02564075, 4127.56410229, 4124.10256383, 4160.25641005, 4127.56410229, 4186.66666653, 4125.12820485, 4128.71794844, 4147.30769210,12.0
4130.64102537, 4046.92307651, 4041.15384574, 4009.10256362, 4118.07692280, 4084.48717914, 4110.64102537, 4110.64102537, 4149.87179467, 4126.28205101, 4179.48717935, 4102.17948684, 4127.69230742, 4142.43589723,12.0
4124.10256383, 4041.92307651, 4031.53846106, 4003.46153791, 4117.05128178, 4077.94871761, 4104.48717921, 4113.20512793, 4150.51282031, 4126.53846126, 4175.25641012, 4089.74358940, 4128.33333306, 4142.30769210,12.0
4119.35897408, 4045.38461497, 4041.92307651, 4024.35897388, 4120.12820485, 4092.94871761, 4107.94871767, 4110.51282024, 4145.38461518, 4132.17948691, 4179.74358961, 4106.66666639, 4129.99999973, 4145.38461518,12.0
4126.02564075, 4053.46153805, 4050.76923036, 4018.84615336, 4120.12820485, 4085.12820478, 4111.92307665, 4091.92307658, 4127.69230742, 4136.02564082, 4179.23076910, 4116.02564075, 4130.25640998, 4144.23076903,12.0
4116.02564075, 4055.76923036, 4056.53846113, 4006.92307644, 4118.71794844, 4079.23076889, 4123.33333306, 4103.84615357, 4140.76923056, 4134.23076896, 4178.84615371, 4118.97435870, 4125.38461511, 4143.33333313,12.0
4121.79487152, 4053.71794830, 4057.94871754, 4010.51282003, 4118.71794844, 4085.76923043, 4118.71794844, 4122.56410229, 4162.82051262, 4132.05128178, 4182.17948704, 4119.23076896, 4124.10256383, 4144.23076903,12.0
4125.25640998, 4051.41025600, 4050.64102523, 4008.71794824, 4119.35897408, 4079.35897402, 4103.84615357, 4110.89743562, 4145.25641005, 4133.58974332, 4175.51282038, 4112.43589716, 4128.71794844, 4143.20512800,12.0
4121.41025614, 4061.02564061, 4054.74358933, 4013.97435849, 4121.66666639, 4089.35897402, 4124.23076896, 4114.35897408, 4139.87179467, 4136.79487159, 4169.74358961, 4117.30769203, 4130.25640998, 4144.35897415,12.0
4126.53846126, 4066.53846113, 4061.28205087, 4026.15384567, 4121.79487152, 4106.92307665, 4145.89743569, 4130.64102537, 4166.41025621, 4130.38461511, 4181.41025628, 4123.33333306, 4126.28205101, 4144.99999980,12.0
4121.79487152, 4058.46153805, 4053.46153805, 4021.15384567, 4118.84615357, 4090.89743555, 4119.74358947, 4114.87179460, 4161.15384595, 4122.43589716, 4185.76923063, 4115.25640998, 4127.56410229, 4142.30769210,12.0
4127.69230742, 4062.43589702, 4050.89743548, 4018.97435849, 4118.97435870, 4079.10256376, 4103.84615357, 4094.99999966, 4138.20512800, 4130.12820485, 4176.02564089, 4111.66666639, 4132.69230742, 4141.15384595,12.0
4129.48717921, 4066.66666625, 4059.10256369, 4035.89743541, 4122.17948691, 4093.07692273, 4120.12820485, 4109.35897408, 4150.25641005, 4137.69230749, 4177.17948704, 4119.99999973, 4128.71794844, 4143.71794851,12.0
4127.43589716, 4067.17948677, 4061.41025600, 4035.89743541, 4121.41025614, 4093.97435863, 4117.30769203, 4115.64102537, 4154.61538441, 4132.43589716, 4183.84615371, 4123.20512793, 4124.48717921, 4146.41025621,12.0
4131.79487152, 4072.56410222, 4058.58974318, 4018.71794824, 4118.33333306, 4087.05128171, 4108.33333306, 4098.97435863, 4133.33333306, 4131.41025614, 4180.12820499, 4119.99999973, 4128.46153819, 4144.10256390,12.0
4121.53846126, 4067.94871754, 4060.76923036, 4028.71794824, 4116.79487152, 4096.15384581, 4117.56410229, 4102.17948684, 4136.15384595, 4136.53846133, 4177.69230756, 4123.71794844, 4129.48717921, 4144.10256390,12.0
4125.76923050, 4062.05128164, 4063.20512779, 4038.97435856, 4118.07692280, 4098.46153812, 4113.46153819, 4105.64102537, 4145.25641005, 4135.76923056, 4178.33333320, 4122.17948691, 4128.20512793, 4147.82051262,12.0
4126.79487152, 4058.33333292, 4054.35897395, 4014.23076875, 4121.02564075, 4082.17948684, 4100.51282017, 4091.53846119, 4130.38461511, 4133.58974332, 4174.10256397, 4104.99999973, 4126.02564075, 4146.02564082,12.0
4117.43589716, 4059.87179446, 4050.76923036, 4003.33333278, 4119.74358947, 4084.35897402, 4119.87179460, 4107.94871767, 4139.61538441, 4133.84615357, 4172.30769217, 4109.48717921, 4125.12820485, 4143.97435877,12.0
4124.87179460, 4067.05128164, 4061.28205087, 4024.23076875, 4119.61538434, 4105.25640998, 4145.12820492, 4141.28205108, 4168.97435884, 4134.35897408, 4180.64102551, 4132.94871767, 4132.17948691, 4144.48717928,12.0
4120.64102537, 4064.99999959, 4061.41025600, 4017.69230721, 4121.28205101, 4108.07692280, 4134.61538434, 4139.35897415, 4166.41025621, 4136.02564082, 4185.64102551, 4125.89743562, 4135.64102544, 4143.84615364,12.0
4122.05128178, 4054.61538420, 4046.02564061, 3987.43589688, 4119.48717921, 4087.56410222, 4103.71794844, 4110.12820485, 4144.35897415, 4134.99999973, 4174.48717935, 4094.35897402, 4128.97435870, 4144.87179467,12.0
4126.15384588, 4049.61538420, 4037.56410215, 3986.66666611, 4119.23076896, 4083.46153812, 4100.89743555, 4098.33333299, 4145.12820492, 4133.97435870, 4166.15384595, 4086.66666632, 4122.94871767, 4144.35897415,12.0
4121.15384588, 4057.30769189, 4047.69230728, 4004.87179439, 4122.17948691, 4105.38461511, 4135.12820485, 4122.05128178, 4167.94871774, 4134.61538434, 4176.02564089, 4105.12820485, 4126.41025614, 4142.05128185,12.0
4128.97435870, 4065.76923036, 4062.82051241, 4017.05128157, 4119.48717921, 4107.17948691, 4142.43589723, 4135.25640998, 4171.28205115, 4134.61538434, 4182.30769217, 4121.15384588, 4131.66666639, 4141.02564082,12.0
4123.97435870, 4064.35897395, 4063.58974318, 4025.12820465, 4116.66666639, 4094.87179453, 4121.79487152, 4112.82051255, 4151.79487159, 4134.35897408, 4176.92307679, 4121.66666639, 4127.94871767, 4141.92307672,12.0
4126.15384588, 4069.87179453, 4060.38461497, 4034.48717900, 4117.17948691, 4107.69230742, 4125.51282024, 4098.07692273, 4148.07692287, 4134.48717921, 4183.71794858, 4117.56410229, 4125.64102537, 4145.51282031,12.0
4134.74358947, 4075.64102530, 4063.58974318, 4037.43589702, 4117.05128178, 4118.20512793, 4134.48717921, 4110.25640998, 4154.61538441, 4134.48717921, 4191.66666653, 4122.43589716, 4131.28205101, 4144.10256390,12.0
4124.48717921, 4066.79487138, 4061.02564061, 4030.25640977, 4118.07692280, 4100.12820478, 4112.30769203, 4105.64102537, 4138.46153826, 4134.48717921, 4187.82051269, 4119.23076896, 4131.02564075, 4140.76923056,12.0
4128.33333306, 4065.89743548, 4056.41025600, 4027.30769183, 4117.94871767, 4088.46153812, 4092.82051248, 4080.51282017, 4122.94871767, 4134.48717921, 4184.61538448, 4108.84615357, 4127.05128178, 4147.17948697,12.0
4127.17948691, 4069.10256369, 4055.89743548, 4029.87179439, 4118.58974332, 4091.53846119, 4099.99999966, 4087.17948684, 4136.02564082, 4134.48717921, 4181.28205115, 4111.79487152, 4126.15384588, 4152.05128185,12.0
4123.33333306, 4069.61538420, 4056.66666625, 4032.17948670, 4119.10256383, 4091.28205094, 4108.97435870, 4110.38461511, 4147.69230749, 4134.48717921, 4185.76923063, 4116.02564075, 4128.46153819, 4145.12820492,12.0
4126.41025614, 4076.28205094, 4066.53846113, 4036.53846106, 4120.64102537, 4104.74358947, 4133.46153819, 4128.33333306, 4159.87179467, 4134.48717921, 4204.48717942, 4122.17948691, 4130.89743562, 4140.89743569,12.0
4118.07692280, 4074.74358940, 4073.71794837, 4036.92307651, 4122.56410229, 4114.99999973, 4154.35897415, 4144.74358954, 4174.23076910, 4134.48717921, 4212.94871788, 4131.41025614, 4128.33333306, 4145.76923056,12.0
4126.15384588, 4068.71794830, 4067.82051241, 4030.89743541, 4119.10256383, 4102.94871767, 4135.12820485, 4131.41025614, 4159.35897415, 4134.48717921, 4202.69230763, 4125.64102537, 4128.20512793, 4147.05128185,12.0
4128.20512793, 4061.15384574, 4060.38461497, 4030.25640977, 4118.07692280, 4092.94871761, 4109.87179460, 4108.58974332, 4137.56410236, 4134.48717921, 4200.64102551, 4110.51282024, 4130.38461511, 4141.53846133,12.0
4121.02564075, 4056.92307651, 4062.82051241, 4041.02564061, 4119.10256383, 4094.35897402, 4109.10256383, 4113.84615357, 4140.89743569, 4134.48717921, 4211.41025634, 4109.87179460, 4128.71794844, 4140.51282031,12.0
4126.53846126, 4056.02564061, 4065.64102523, 4046.41025600, 4118.46153819, 4097.94871761, 4110.76923050, 4113.84615357, 4143.71794851, 4134.48717921, 4208.84615378, 4112.69230742, 4125.25640998, 4142.05128185,12.0
4122.69230742, 4046.53846113, 4058.20512779, 4037.30769189, 4118.33333306, 4092.17948684, 4099.10256376, 4089.35897402, 4129.48717921, 4134.48717921, 4197.69230756, 4102.69230742, 4124.87179460, 4144.35897415,12.0
4129.23076896, 4041.66666625, 4053.33333292, 4027.94871747, 4118.58974332, 4080.38461504, 4089.99999966, 4078.20512786, 4120.51282024, 4134.48717921, 4199.87179474, 4095.12820478, 4128.07692280, 4147.82051262,12.0
4130.76923050, 4036.15384567, 4053.58974318, 4027.30769183, 4116.53846126, 4077.56410222, 4086.41025607, 4087.05128171, 4123.20512793, 4134.48717921, 4207.05128199, 4092.17948684, 4127.94871767, 4145.51282031,12.0
4124.35897408, 4028.71794824, 4050.51282010, 4029.99999952, 4116.79487152, 4088.58974325, 4093.58974325, 4101.28205094, 4128.33333306, 4134.48717921, 4204.74358968, 4090.51282017, 4125.89743562, 4141.53846133,12.0
4134.10256383, 4031.53846106, 4048.71794830, 4030.12820465, 4120.76923050, 4100.76923043, 4112.30769203, 4114.87179460, 4134.74358947, 4134.48717921, 4198.07692294, 4096.41025607, 4128.07692280, 4143.84615364,12.0
4128.33333306, 4028.46153798, 4048.71794830, 4029.87179439, 4123.07692280, 4103.58974332, 4123.97435870, 4118.71794844, 4145.89743569, 4134.48717921, 4195.38461525, 4097.94871761, 4130.38461511, 4146.66666646,12.0
4128.20512793, 4028.71794824, 4053.97435856, 4039.99999959, 4119.61538434, 4111.66666639, 4130.12820485, 4120.64102537, 4156.66666646, 4134.48717921, 4202.17948711, 4099.10256376, 4129.61538434, 4147.05128185,12.0
4129.74358947, 4030.76923029, 4053.46153805, 4045.51282010, 4116.66666639, 4109.48717921, 4120.25640998, 4111.28205101, 4143.71794851, 4134.48717921, 4207.82051275, 4100.12820478, 4127.30769203, 4145.89743569,12.0
4118.20512793, 4025.38461490, 4044.87179446, 4032.43589695, 4117.05128178, 4093.71794837, 4102.56410229, 4086.66666632, 4111.66666639, 4134.48717921, 4197.56410243, 4090.12820478, 4127.05128178, 4146.28205108,12.0
4124.74358947, 4026.41025593, 4045.51282010, 4021.15384567, 4118.33333306, 4097.69230735, 4106.41025614, 4088.07692273, 4109.87179460, 4134.48717921, 4194.48717935, 4081.66666632, 4127.94871767, 4148.46153826,12.0
4122.69230742, 4022.69230721, 4045.51282010, 4026.66666618, 4118.71794844, 4104.10256383, 4111.53846126, 4112.56410229, 4135.64102544, 4134.48717921, 4203.33333327, 4085.38461504, 4125.89743562, 4148.58974339,12.0
4124.10256383, 4016.92307644, 4041.79487138, 4040.76923036, 4117.94871767, 4093.46153812, 4099.48717914, 4109.87179460, 4136.15384595, 4134.48717921, 4199.23076910, 4089.10256376, 4124.99999973, 4146.66666646,12.0
4130.76923050, 4023.46153798, 4049.99999959, 4049.61538420, 4118.07692280, 4097.56410222, 4105.38461511, 4096.41025607, 4121.53846126, 4134.48717921, 4198.58974345, 4094.48717914, 4126.53846126, 4144.74358954,12.0
4123.33333306, 4033.71794824, 4061.92307651, 4050.64102523, 4117.82051255, 4115.25640998, 4122.30769203, 4102.43589709, 4125.89743562, 4134.48717921, 4212.69230763, 4109.35897408, 4125.89743562, 4145.64102544,12.0
4128.71794844, 4031.02564054, 4061.02564061, 4050.12820472, 4119.61538434, 4109.23076896, 4117.43589716, 4105.51282024, 4137.30769210, 4134.48717921, 4214.74358968, 4111.02564075, 4129.10256383, 4146.79487159,12.0
4128.58974332, 4017.69230721, 4056.66666625, 4048.71794830, 4121.92307665, 4093.46153812, 4112.94871767, 4103.97435870, 4137.05128185, 4134.48717921, 4204.23076917, 4102.17948684, 4132.17948691, 4144.10256390,12.0
4127.82051255, 4018.58974311, 4062.94871754, 4046.41025600, 4118.84615357, 4105.12820485, 4122.17948691, 4102.56410229, 4130.38461511, 4134.48717921, 4204.87179481, 4108.07692280, 4129.99999973, 4145.64102544,12.0
4129.74358947, 4023.07692259, 4066.41025600, 4048.07692266, 4118.71794844, 4113.58974332, 4121.02564075, 4090.25640991, 4122.56410229, 4134.48717921, 4212.43589737, 4109.87179460, 4127.56410229, 4149.74358954,12.0
4125.12820485, 4018.71794824, 4063.97435856, 4054.23076882, 4121.41025614, 4096.28205094, 4110.12820485, 4086.53846119, 4119.61538434, 4134.48717921, 4210.25641019, 4103.46153819, 4125.51282024, 4149.10256390,12.0
4133.71794844, 4018.07692259, 4067.69230728, 4056.28205087, 4117.82051255, 4088.58974325, 4098.20512786, 4097.69230735, 4128.97435870, 4134.48717921, 4207.94871788, 4112.56410229, 4127.17948691, 4147.05128185,12.0
4127.17948691, 4015.51282003, 4069.87179453, 4054.48717907, 4114.87179460, 4100.25640991, 4090.12820478, 4099.99999966, 4136.79487159, 4134.48717921, 4207.94871788, 4123.71794844, 4129.10256383, 4148.46153826,12.0
4122.94871767, 4015.76923029, 4071.53846119, 4060.12820472, 4118.84615357, 4103.46153819, 4098.97435863, 4098.20512786, 4136.53846133, 4134.48717921, 4208.20512814, 4122.56410229, 4125.89743562, 4149.74358954,12.0
4133.71794844, 4022.56410208, 4077.05128171, 4069.48717907, 4121.53846126, 4097.69230735, 4107.17948691, 4106.79487152, 4138.97435877, 4134.48717921, 4211.02564096, 4128.20512793, 4125.25640998, 4145.38461518,12.0
4124.35897408, 4025.89743541, 4075.76923043, 4068.84615343, 4119.61538434, 4102.17948684, 4101.79487145, 4116.41025614, 4143.46153826, 4134.48717921, 4211.79487173, 4134.61538434, 4127.43589716, 4142.05128185,12.0
4126.92307665, 4024.35897388, 4071.66666632, 4060.38461497, 4119.74358947, 4105.51282024, 4100.25640991, 4114.23076896, 4140.12820492, 4134.48717921, 4208.07692301, 4126.41025614, 4128.20512793, 4144.23076903,12.0
4128.84615357, 4018.46153798, 4073.58974325, 4058.46153805, 4121.41025614, 4094.99999966, 4101.41025607, 4103.33333306, 4132.17948691, 4134.48717921, 4202.94871788, 4119.99999973, 4125.76923050, 4145.25641005,12.0
4122.43589716, 4026.53846106, 4078.71794837, 4063.33333292, 4119.87179460, 4088.71794837, 4093.46153812, 4091.28205094, 4124.87179460, 4134.48717921, 4205.25641019, 4123.71794844, 4125.12820485, 4146.92307672,12.0
4127.43589716, 4035.76923029, 4080.89743555, 4061.66666625, 4119.74358947, 4092.05128171, 4084.74358940, 4079.99999966, 4113.33333306, 4134.48717921, 4208.58974352, 4125.76923050, 4126.28205101, 4149.35897415,12.0
4123.71794844, 4019.74358926, 4084.10256376, 4064.87179446, 4119.10256383, 4092.43589709, 4091.15384581, 4099.74358940, 4126.15384588, 4134.48717921, 4206.79487173, 4132.17948691, 4125.76923050, 4148.84615364,12.0
4129.35897408, 4009.99999952, 4088.20512786, 4076.53846119, 4118.46153819, 4092.56410222, 4096.53846119, 4123.71794844, 4151.28205108, 4134.48717921, 4206.02564096, 4139.99999980, 4127.69230742, 4147.05128185,12.0
4128.46153819, 4015.38461490, 4083.71794837, 4075.12820478, 4122.05128178, 4094.74358940, 4088.84615350, 4107.43589716, 4144.99999980, 4134.48717921, 4207.30769224, 4134.48717921, 4128.84615357, 4143.84615364,12.0
4120.38461511, 4018.58974311, 4084.87179453, 4073.20512786, 4124.74358947, 4100.12820478, 4090.64102530, 4104.87179460, 4142.82051262, 4134.48717921, 4212.17948711, 4139.48717928, 4128.97435870, 4144.99999980,12.0
4131.79487152, 4018.33333285, 4087.56410222, 4075.25640991, 4121.53846126, 4105.76923050, 4098.20512786, 4122.17948691, 4155.12820492, 4134.48717921, 4210.76923070, 4142.69230749, 4128.71794844, 4148.84615364,12.0
4128.58974332, 4009.35897388, 4069.99999966, 4062.56410215, 4120.51282024, 4097.94871761, 4089.61538427, 4112.43589716, 4142.56410236, 4134.48717921, 4196.79487166, 4113.97435870, 4125.51282024, 4145.89743569,12.0
4129.10256383, 4009.87179439, 4062.69230728, 4054.99999959, 4121.15384588, 4095.76923043, 4087.56410222, 4105.89743562, 4135.12820485, 4134.48717921, 4194.10256397, 4100.25640991, 4125.89743562, 4144.61538441,12.0
4129.99999973, 4018.97435849, 4077.94871761, 4064.61538420, 4117.30769203, 4110.51282024, 4109.48717921, 4126.28205101, 4153.71794851, 4134.48717921, 4202.43589737, 4124.23076896, 4127.94871767, 4146.79487159,12.0
4117.69230742, 4010.64102516, 4075.12820478, 4055.25640984, 4117.30769203, 4108.46153819, 4110.76923050, 4122.05128178, 4142.94871774, 4134.48717921, 4196.92307679, 4119.87179460, 4126.28205101, 4147.17948697,12.0
4124.87179460, 4003.71794817, 4060.89743548, 4039.99999959, 4120.64102537, 4087.17948684, 4075.64102530, 4089.23076889, 4114.10256383, 4134.48717921, 4185.51282038, 4087.94871761, 4125.38461511, 4146.92307672,12.0
4123.46153819, 4014.99999952, 4067.05128164, 4052.43589702, 4120.51282024, 4091.53846119, 4074.10256376, 4094.99999966, 4124.74358947, 4134.48717921, 4188.46153833, 4096.53846119, 4124.99999973, 4146.92307672,12.0
4120.25640998, 4028.20512772, 4079.87179453, 4060.51282010, 4121.66666639, 4110.64102537, 4110.64102537, 4128.07692280, 4147.56410236, 4134.48717921, 4193.33333320, 4119.99999973, 4126.41025614, 4146.53846133,12.0
4125.76923050, 4022.94871747, 4072.30769196, 4042.94871754, 4123.71794844, 4095.64102530, 4094.61538427, 4115.12820485, 4135.38461518, 4134.48717921, 4185.12820499, 4103.71794844, 4126.53846126, 4143.46153826,12.0
4121.28205101, 4015.51282003, 4060.12820472, 4034.74358926, 4120.76923050, 4070.76923043, 4044.99999959, 4073.46153812, 4107.69230742, 4134.48717921, 4180.38461525, 4080.64102530, 4123.71794844, 4144.10256390,12.0
4126.92307665, 4031.92307644, 4074.10256376, 4055.25640984, 4119.23076896, 4087.69230735, 4064.74358933, 4078.33333299, 4114.61538434, 4134.48717921, 4188.58974345, 4099.74358940, 4126.66666639, 4146.15384595,12.0
4124.87179460, 4044.61538420, 4090.64102530, 4075.51282017, 4122.69230742, 4113.84615357, 4110.89743562, 4111.92307665, 4147.56410236, 4134.48717921, 4197.17948704, 4123.33333306, 4127.69230742, 4144.35897415,12.0
4125.12820485, 4047.05128164, 4087.56410222, 4074.87179453, 4121.28205101, 4113.20512793, 4105.25640998, 4119.74358947, 4158.33333313, 4134.48717921, 4196.66666653, 4117.82051255, 4124.48717921, 4144.48717928,12.0
4130.51282024, 4044.99999959, 4083.07692273, 4053.71794830, 4118.71794844, 4110.51282024, 4095.64102530, 4117.30769203, 4151.41025621, 4134.48717921, 4188.58974345, 4110.89743562, 4127.56410229, 4144.61538441,12.0
4122.56410229, 4035.38461490, 4076.92307658, 4038.07692266, 4120.12820485, 4112.94871767, 4102.82051255, 4116.41025614, 4146.02564082, 4134.48717921, 4181.15384602, 4102.30769196, 4127.05128178, 4145.51282031,12.0
4130.38461511, 4035.76923029, 4065.38461497, 4047.30769189, 4121.79487152, 4103.84615357, 4088.20512786, 4100.76923043, 4134.61538434, 4134.48717921, 4175.89743576, 4084.99999966, 4124.87179460, 4147.56410236,12.0
4128.84615357, 4037.56410215, 4065.38461497, 4058.20512779, 4121.41025614, 4103.84615357, 4090.89743555, 4098.33333299, 4132.56410229, 4134.48717921, 4173.84615371, 4085.38461504, 4128.58974332, 4144.35897415,12.0
4122.43589716, 4039.61538420, 4081.53846119, 4056.92307651, 4119.99999973, 4116.66666639, 4113.20512793, 4105.51282024, 4139.61538441, 4134.48717921, 4177.69230756, 4107.17948691, 4130.89743562, 4139.48717928,12.0
4128.58974332, 4049.35897395, 4087.94871761, 4052.17948677, 4120.38461511, 4109.61538434, 4087.43589709, 4093.46153812, 4130.89743562, 4134.48717921, 4179.74358961, 4115.51282024, 4128.07692280, 4140.51282031,12.0
4117.69230742, 4053.20512779, 4084.35897402, 4056.28205087, 4122.17948691, 4090.38461504, 4049.35897395, 4089.23076889, 4125.89743562, 4134.48717921, 4179.23076910, 4111.28205101, 4124.87179460, 4145.89743569,12.0
4121.28205101, 4056.92307651, 4093.84615350, 4072.43589709, 4120.38461511, 4096.53846119, 4069.35897395, 4094.99999966, 4134.48717921, 4134.48717921, 4187.05128192, 4119.87179460, 4124.23076896, 4146.02564082,12.0
4125.76923050, 4062.69230728, 4100.12820478, 4082.30769196, 4119.74358947, 4113.58974332, 4097.17948684, 4092.30769196, 4137.82051262, 4134.48717921, 4193.97435884, 4127.56410229, 4124.10256383, 4141.92307672,12.0
4117.94871767, 4062.94871754, 4093.46153812, 4074.10256376, 4122.82051255, 4107.05128178, 4081.53846119, 4094.61538427, 4131.66666639, 4134.48717921, 4184.10256397, 4121.53846126, 4126.92307665, 4144.23076903,12.0
4123.71794844, 4061.92307651, 4089.23076889, 4064.61538420, 4121.41025614, 4090.64102530, 4067.94871754, 4096.66666632, 4120.76923050, 4134.48717921, 4174.35897422, 4109.61538434, 4129.23076896, 4146.92307672,12.0
4122.69230742, 4066.66666625, 4090.64102530, 4064.87179446, 4120.25640998, 4096.53846119, 4085.51282017, 4097.30769196, 4113.97435870, 4134.48717921, 4177.05128192, 4105.89743562, 4126.41025614, 4144.23076903,12.0
