AF3,F7,F3,FC5,T7,P7,O1,O2,P8,T8,FC6,F4,F8,AF4,Label
4110.64102537, 4108.71794844, 4115.51282024, 4090.25640991, 4106.41025614, 4116.66666639, 4107.56410229, 4112.94871767, 4123.07692280, 4121.66666639, 4124.23076896, 4127.56410229, 4109.35897408, 4125.12820485,10.0
4115.51282024, 4112.43589716, 4124.61538434, 4097.56410222, 4107.56410229, 4113.71794844, 4112.43589716, 4106.53846126, 4113.84615357, 4126.92307665, 4131.02564075, 4138.07692287, 4114.61538434, 4126.41025614,10.0
4103.97435870, 4104.87179460, 4109.48717921, 4086.28205094, 4098.20512786, 4099.10256376, 4107.05128178, 4097.43589709, 4105.51282024, 4109.48717921, 4112.94871767, 4123.33333306, 4103.97435870, 4127.17948691,10.0
4094.23076889, 4102.05128171, 4100.25640991, 4083.46153812, 4102.17948684, 4101.15384581, 4101.15384581, 4092.30769196, 4091.15384581, 4088.84615350, 4102.94871767, 4119.10256383, 4097.17948684, 4128.97435870,10.0
4106.41025614, 4113.33333306, 4121.02564075, 4098.58974325, 4115.12820485, 4108.20512793, 4103.20512793, 4102.94871767, 4100.64102530, 4099.99999966, 4127.05128178, 4148.20512800, 4109.74358947, 4127.82051255,10.0
4108.20512793, 4110.64102537, 4121.79487152, 4094.35897402, 4099.61538427, 4092.30769196, 4095.38461504, 4101.28205094, 4107.69230742, 4105.76923050, 4131.53846126, 4153.20512800, 4106.66666639, 4122.94871767,10.0
4091.28205094, 4094.23076889, 4096.28205094, 4078.46153812, 4078.58974325, 4083.58974325, 4080.89743555, 4086.79487145, 4086.02564068, 4088.20512786, 4107.17948691, 4128.46153819, 4090.25640991, 4123.71794844,10.0
4094.48717914, 4099.61538427, 4100.38461504, 4084.99999966, 4093.46153812, 4107.43589716, 4096.41025607, 4100.89743555, 4093.84615350, 4097.94871761, 4112.69230742, 4130.76923050, 4100.89743555, 4125.25640998,10.0
4117.69230742, 4122.56410229, 4124.61538434, 4098.71794837, 4117.17948691, 4126.41025614, 4127.94871767, 4128.84615357, 4129.87179460, 4128.33333306, 4134.48717921, 4153.07692287, 4120.38461511, 4123.20512793,10.0
4120.89743562, 4125.12820485, 4119.35897408, 4095.38461504, 4115.25640998, 4116.15384588, 4124.74358947, 4123.07692280, 4129.87179460, 4129.74358947, 4127.30769203, 4148.07692287, 4113.20512793, 4124.61538434,10.0
4100.12820478, 4108.71794844, 4095.25640991, 4083.20512786, 4096.66666632, 4101.53846119, 4100.38461504, 4103.84615357, 4108.46153819, 4111.66666639, 4106.41025614, 4123.46153819, 4095.89743555, 4126.15384588,10.0
4093.97435863, 4105.51282024, 4096.92307658, 4083.97435863, 4098.71794837, 4103.58974332, 4105.51282024, 4107.94871767, 4109.23076896, 4111.41025614, 4108.46153819, 4124.10256383, 4100.64102530, 4126.41025614,10.0
4098.33333299, 4110.38461511, 4108.20512793, 4088.84615350, 4106.41025614, 4104.23076896, 4113.58974332, 4108.20512793, 4107.43589716, 4114.10256383, 4122.56410229, 4139.87179467, 4112.82051255, 4128.97435870,10.0
4096.66666632, 4109.99999973, 4106.15384588, 4089.10256376, 4095.76923043, 4098.71794837, 4104.87179460, 4104.87179460, 4105.25640998, 4110.51282024, 4125.76923050, 4142.82051262, 4114.48717921, 4129.87179460,10.0
4096.53846119, 4105.51282024, 4100.64102530, 4087.30769196, 4092.05128171, 4102.05128171, 4108.20512793, 4112.69230742, 4113.97435870, 4111.41025614, 4118.58974332, 4137.05128185, 4107.69230742, 4127.56410229,10.0
4088.97435863, 4097.56410222, 4090.64102530, 4079.23076889, 4098.07692273, 4103.58974332, 4110.89743562, 4107.56410229, 4107.17948691, 4101.92307658, 4104.10256383, 4126.41025614, 4094.48717914, 4128.07692280,10.0
4074.48717914, 4093.07692273, 4077.17948684, 4070.51282017, 4092.43589709, 4098.71794837, 4101.79487145, 4100.89743555, 4104.23076896, 4091.53846119, 4097.69230735, 4114.74358947, 4088.71794837, 4129.74358947,10.0
4068.20512779, 4093.58974325, 4072.94871761, 4071.66666632, 4087.82051248, 4100.38461504, 4097.30769196, 4106.41025614, 4113.84615357, 4098.07692273, 4104.35897408, 4112.94871767, 4093.33333299, 4127.43589716,10.0
4073.46153812, 4097.43589709, 4078.46153812, 4077.43589709, 4098.84615350, 4108.33333306, 4101.79487145, 4103.84615357, 4104.48717921, 4102.17948684, 4108.07692280, 4118.58974332, 4097.05128171, 4125.89743562,10.0
4081.28205094, 4103.71794844, 4079.48717914, 4081.92307658, 4106.53846126, 4111.28205101, 4112.69230742, 4101.79487145, 4095.89743555, 4096.53846119, 4104.10256383, 4118.33333306, 4097.30769196, 4126.15384588,10.0
4088.07692273, 4108.20512793, 4085.25640991, 4088.46153812, 4101.79487145, 4101.28205094, 4117.82051255, 4112.56410229, 4110.51282024, 4101.28205094, 4104.61538434, 4123.58974332, 4099.48717914, 4124.10256383,10.0
4100.38461504, 4110.12820485, 4103.46153819, 4092.17948684, 4098.07692273, 4089.87179453, 4107.94871767, 4114.23076896, 4116.41025614, 4114.99999973, 4118.46153819, 4140.25641005, 4109.48717921, 4124.99999973,10.0
4120.76923050, 4121.53846126, 4121.92307665, 4102.82051255, 4111.79487152, 4102.17948684, 4113.20512793, 4116.28205101, 4118.58974332, 4132.05128178, 4139.23076903, 4158.71794851, 4128.46153819, 4127.56410229,10.0
4127.69230742, 4132.82051255, 4125.38461511, 4113.07692280, 4123.97435870, 4115.89743562, 4128.07692280, 4126.92307665, 4131.92307665, 4138.20512800, 4144.74358954, 4161.15384595, 4131.15384588, 4125.51282024,10.0
4106.53846126, 4118.84615357, 4108.20512793, 4099.10256376, 4107.43589716, 4103.33333306, 4117.05128178, 4116.02564075, 4120.89743562, 4118.07692280, 4123.46153819, 4139.35897415, 4105.64102537, 4123.33333306,10.0
4091.41025607, 4105.25640998, 4096.41025607, 4086.66666632, 4095.64102530, 4100.89743555, 4112.43589716, 4107.56410229, 4110.25640998, 4108.46153819, 4110.25640998, 4127.56410229, 4095.89743555, 4125.25640998,10.0
4106.41025614, 4118.46153819, 4108.71794844, 4099.23076889, 4111.41025614, 4116.92307665, 4128.33333306, 4124.23076896, 4131.02564075, 4123.84615357, 4123.84615357, 4141.79487159, 4112.43589716, 4128.97435870,10.0
4111.28205101, 4119.48717921, 4110.25640998, 4099.61538427, 4105.76923050, 4103.07692280, 4109.87179460, 4112.82051255, 4117.82051255, 4113.46153819, 4124.48717921, 4145.12820492, 4109.74358947, 4128.58974332,10.0
4085.76923043, 4090.64102530, 4083.07692273, 4073.33333299, 4074.74358940, 4075.51282017, 4073.20512786, 4080.76923043, 4075.25640991, 4079.61538427, 4102.05128171, 4123.71794844, 4083.84615350, 4124.23076896,10.0
4069.23076882, 4077.82051248, 4065.12820472, 4061.15384574, 4068.84615343, 4082.17948684, 4082.43589709, 4084.87179453, 4074.74358940, 4068.58974318, 4088.33333299, 4106.79487152, 4071.79487145, 4124.48717921,10.0
4074.10256376, 4090.76923043, 4069.23076882, 4069.99999966, 4075.25640991, 4098.71794837, 4110.51282024, 4102.94871767, 4091.66666632, 4074.23076889, 4092.94871761, 4106.79487152, 4080.12820478, 4128.07692280,10.0
4078.20512786, 4097.43589709, 4074.74358940, 4074.48717914, 4076.41025607, 4091.28205094, 4106.92307665, 4098.33333299, 4089.61538427, 4083.71794837, 4105.25640998, 4118.71794844, 4092.43589709, 4128.20512793,10.0
4080.38461504, 4097.30769196, 4077.94871761, 4078.07692273, 4085.76923043, 4078.20512786, 4090.64102530, 4093.58974325, 4089.87179453, 4096.79487145, 4112.69230742, 4128.97435870, 4099.35897402, 4125.89743562,10.0
4090.76923043, 4106.02564075, 4085.12820478, 4089.23076889, 4098.71794837, 4087.94871761, 4099.35897402, 4106.79487152, 4102.94871767, 4103.84615357, 4116.15384588, 4134.23076896, 4105.51282024, 4126.92307665,10.0
4100.64102530, 4112.43589716, 4092.17948684, 4094.61538427, 4098.71794837, 4107.56410229, 4117.30769203, 4114.74358947, 4108.58974332, 4106.53846126, 4122.17948691, 4141.15384595, 4111.79487152, 4130.38461511,10.0
4103.07692280, 4110.38461511, 4098.58974325, 4091.15384581, 4094.61538427, 4112.82051255, 4122.05128178, 4115.38461511, 4110.64102537, 4111.79487152, 4127.43589716, 4144.10256390, 4110.51282024, 4128.33333306,10.0
4102.17948684, 4112.30769203, 4104.23076896, 4093.07692273, 4098.20512786, 4105.38461511, 4122.43589716, 4124.99999973, 4125.25640998, 4118.84615357, 4126.15384588, 4139.61538441, 4106.15384588, 4124.10256383,10.0
4099.74358940, 4115.51282024, 4106.41025614, 4097.05128171, 4101.53846119, 4096.92307658, 4116.41025614, 4124.74358947, 4130.64102537, 4122.82051255, 4121.92307665, 4137.43589723, 4106.53846126, 4126.66666639,10.0
4095.25640991, 4109.48717921, 4098.97435863, 4089.99999966, 4096.02564068, 4092.69230735, 4104.10256383, 4106.02564075, 4108.20512793, 4115.38461511, 4115.64102537, 4131.92307665, 4103.07692280, 4129.48717921,10.0
4090.12820478, 4101.92307658, 4087.82051248, 4080.38461504, 4085.12820478, 4092.69230735, 4099.87179453, 4098.07692273, 4090.76923043, 4101.41025607, 4108.20512793, 4122.69230742, 4096.15384581, 4128.07692280,10.0
4091.92307658, 4102.17948684, 4091.41025607, 4083.97435863, 4083.58974325, 4093.58974325, 4099.35897402, 4106.66666639, 4103.58974332, 4100.38461504, 4110.89743562, 4125.25640998, 4098.07692273, 4128.33333306,10.0
4100.25640991, 4108.07692280, 4101.53846119, 4093.20512786, 4093.71794837, 4091.15384581, 4095.51282017, 4104.35897408, 4110.38461511, 4108.33333306, 4121.79487152, 4135.12820485, 4104.74358947, 4128.71794844,10.0
4092.69230735, 4105.51282024, 4092.17948684, 4087.30769196, 4089.61538427, 4084.61538427, 4091.02564068, 4090.51282017, 4092.56410222, 4101.41025607, 4117.30769203, 4125.25640998, 4097.56410222, 4127.69230742,10.0
4067.43589702, 4089.23076889, 4068.97435856, 4070.76923043, 4067.56410215, 4074.48717914, 4079.35897402, 4078.07692273, 4074.99999966, 4083.71794837, 4098.07692273, 4099.35897402, 4080.25640991, 4127.17948691,10.0
4065.38461497, 4086.66666632, 4067.17948677, 4069.10256369, 4065.64102523, 4075.12820478, 4079.87179453, 4081.28205094, 4079.23076889, 4079.87179453, 4093.46153812, 4098.07692273, 4079.10256376, 4127.82051255,10.0
4088.71794837, 4105.25640998, 4086.28205094, 4084.48717914, 4091.92307658, 4091.28205094, 4101.28205094, 4098.07692273, 4095.89743555, 4091.53846119, 4110.64102537, 4122.94871767, 4094.87179453, 4128.20512793,10.0
4104.61538434, 4118.58974332, 4104.23076896, 4101.53846119, 4108.46153819, 4100.64102530, 4109.74358947, 4107.43589716, 4105.64102537, 4104.87179460, 4128.33333306, 4142.17948697, 4108.84615357, 4128.84615357,10.0
4111.92307665, 4123.58974332, 4113.46153819, 4111.79487152, 4106.66666639, 4101.41025607, 4107.30769203, 4109.87179460, 4109.87179460, 4112.94871767, 4136.79487159, 4150.89743569, 4117.30769203, 4127.56410229,10.0
4109.99999973, 4123.58974332, 4108.33333306, 4108.46153819, 4106.41025614, 4097.30769196, 4106.53846126, 4105.51282024, 4106.53846126, 4110.76923050, 4134.35897408, 4150.12820492, 4115.89743562, 4124.10256383,10.0
4092.69230735, 4111.66666639, 4098.84615350, 4100.38461504, 4104.87179460, 4084.74358940, 4095.25640991, 4091.79487145, 4091.92307658, 4099.10256376, 4122.05128178, 4134.10256383, 4103.71794844, 4124.61538434,10.0
4073.97435863, 4097.69230735, 4087.05128171, 4091.79487145, 4090.12820478, 4065.38461497, 4073.58974325, 4075.89743555, 4074.35897402, 4084.99999966, 4104.35897408, 4109.61538434, 4088.33333299, 4127.17948691,10.0
4070.38461504, 4093.33333299, 4072.17948684, 4078.84615350, 4075.25640991, 4057.94871754, 4069.10256369, 4072.30769196, 4066.15384574, 4073.97435863, 4088.71794837, 4089.48717914, 4078.20512786, 4127.94871767,10.0
4081.92307658, 4097.69230735, 4077.56410222, 4082.43589709, 4082.43589709, 4070.25640991, 4086.53846119, 4088.71794837, 4077.43589709, 4078.71794837, 4097.56410222, 4090.64102530, 4086.02564068, 4126.53846126,10.0
4093.84615350, 4107.05128178, 4099.10256376, 4104.10256383, 4104.48717921, 4082.05128171, 4098.97435863, 4109.10256383, 4097.30769196, 4095.76923043, 4125.76923050, 4116.79487152, 4105.51282024, 4123.07692280,10.0
4105.25640998, 4119.48717921, 4117.69230742, 4112.69230742, 4125.12820485, 4096.15384581, 4116.28205101, 4125.64102537, 4116.53846126, 4114.99999973, 4148.33333313, 4144.10256390, 4120.64102537, 4123.33333306,10.0
4112.05128178, 4122.69230742, 4124.35897408, 4099.74358940, 4130.38461511, 4104.10256383, 4128.58974332, 4127.17948691, 4121.92307665, 4119.35897408, 4155.76923056, 4146.53846133, 4123.20512793, 4127.17948691,10.0
4105.25640998, 4110.89743562, 4117.94871767, 4085.12820478, 4115.64102537, 4097.30769196, 4117.30769203, 4121.15384588, 4116.15384588, 4112.05128178, 4155.76923056, 4133.84615357, 4121.53846126, 4127.56410229,10.0
4107.30769203, 4108.46153819, 4116.28205101, 4084.74358940, 4110.51282024, 4101.15384581, 4116.53846126, 4132.05128178, 4131.02564075, 4126.15384588, 4163.58974339, 4137.82051262, 4129.61538434, 4126.41025614,10.0
4125.25640998, 4121.15384588, 4127.43589716, 4093.97435863, 4127.43589716, 4111.79487152, 4130.51282024, 4138.97435877, 4144.61538441, 4142.30769210, 4172.82051269, 4148.84615364, 4137.05128185, 4128.33333306,10.0
4122.30769203, 4119.99999973, 4126.41025614, 4095.64102530, 4129.35897408, 4096.02564068, 4116.66666639, 4118.46153819, 4123.07692280, 4126.28205101, 4166.41025621, 4138.58974339, 4128.84615357, 4127.82051255,10.0
4097.94871761, 4101.02564068, 4107.43589716, 4078.71794837, 4106.79487152, 4069.10256369, 4089.74358940, 4101.41025607, 4107.43589716, 4105.76923050, 4149.35897415, 4114.23076896, 4115.64102537, 4126.41025614,10.0
4088.33333299, 4091.15384581, 4093.97435863, 4060.89743548, 4091.53846119, 4068.84615343, 4093.07692273, 4107.30769203, 4119.10256383, 4106.28205101, 4140.12820492, 4102.43589709, 4111.02564075, 4126.79487152,10.0
4087.05128171, 4088.46153812, 4081.02564068, 4052.05128164, 4083.33333299, 4074.35897402, 4097.82051248, 4107.43589716, 4112.82051255, 4102.43589709, 4134.48717921, 4096.15384581, 4105.38461511, 4126.28205101,10.0
4093.58974325, 4096.66666632, 4086.28205094, 4060.76923036, 4089.99999966, 4077.82051248, 4099.99999966, 4106.79487152, 4103.07692280, 4108.33333306, 4139.99999980, 4099.87179453, 4113.07692280, 4128.71794844,10.0
4115.76923050, 4120.64102537, 4115.51282024, 4087.30769196, 4119.99999973, 4091.15384581, 4120.25640998, 4123.07692280, 4124.10256383, 4138.71794851, 4162.05128185, 4120.89743562, 4135.25640998, 4131.92307665,10.0
4119.99999973, 4127.17948691, 4116.66666639, 4096.92307658, 4125.64102537, 4097.69230735, 4128.84615357, 4128.33333306, 4134.10256383, 4140.38461518, 4163.20512800, 4122.17948691, 4134.99999973, 4128.84615357,10.0
4103.46153819, 4109.87179460, 4096.28205094, 4081.92307658, 4106.79487152, 4098.20512786, 4124.10256383, 4119.61538434, 4120.76923050, 4116.92307665, 4145.64102544, 4101.66666632, 4118.33333306, 4125.38461511,10.0
4099.74358940, 4100.12820478, 4098.20512786, 4074.87179453, 4104.48717921, 4099.23076889, 4124.99999973, 4119.23076896, 4118.46153819, 4117.43589716, 4141.79487159, 4098.33333299, 4113.71794844, 4128.33333306,10.0
4109.99999973, 4109.10256383, 4111.15384588, 4088.46153812, 4117.05128178, 4099.74358940, 4127.43589716, 4127.30769203, 4131.53846126, 4131.92307665, 4148.58974339, 4112.17948691, 4121.28205101, 4127.17948691,10.0
4114.99999973, 4116.15384588, 4108.46153819, 4095.12820478, 4121.02564075, 4101.41025607, 4124.99999973, 4129.23076896, 4141.92307672, 4127.56410229, 4146.53846133, 4112.30769203, 4123.46153819, 4125.64102537,10.0
4109.10256383, 4110.12820485, 4102.17948684, 4087.17948684, 4113.71794844, 4101.92307658, 4122.05128178, 4127.69230742, 4143.46153826, 4119.23076896, 4137.69230749, 4102.56410229, 4116.15384588, 4129.23076896,10.0
4097.43589709, 4099.23076889, 4095.12820478, 4078.20512786, 4100.51282017, 4095.51282017, 4119.35897408, 4124.61538434, 4137.05128185, 4118.71794844, 4131.02564075, 4097.69230735, 4110.38461511, 4129.87179460,10.0
4089.48717914, 4092.69230735, 4081.41025607, 4070.76923043, 4093.84615350, 4087.30769196, 4115.25640998, 4116.02564075, 4127.94871767, 4113.84615357, 4125.12820485, 4091.79487145, 4110.51282024, 4128.33333306,10.0
4085.38461504, 4089.48717914, 4071.15384581, 4062.69230728, 4087.94871761, 4077.69230735, 4104.10256383, 4111.15384588, 4124.35897408, 4110.12820485, 4120.25640998, 4086.66666632, 4106.79487152, 4124.74358947,10.0
4086.15384581, 4092.94871761, 4076.79487145, 4065.12820472, 4079.74358940, 4071.28205094, 4092.94871761, 4110.51282024, 4122.56410229, 4115.51282024, 4126.41025614, 4094.23076889, 4106.53846126, 4125.38461511,10.0
4092.05128171, 4102.05128171, 4090.64102530, 4076.79487145, 4089.48717914, 4076.66666632, 4098.46153812, 4107.17948691, 4116.15384588, 4114.61538434, 4132.94871767, 4104.99999973, 4114.23076896, 4129.10256383,10.0
4078.71794837, 4090.12820478, 4076.41025607, 4068.58974318, 4089.61538427, 4070.89743555, 4092.94871761, 4095.51282017, 4104.48717921, 4093.71794837, 4116.79487152, 4094.48717914, 4103.46153819, 4126.41025614,10.0
4053.46153805, 4067.82051241, 4045.64102523, 4048.33333292, 4064.87179446, 4057.30769189, 4078.58974325, 4084.99999966, 4092.82051248, 4073.07692273, 4096.92307658, 4079.35897402, 4083.71794837, 4124.23076896,10.0
4057.82051241, 4068.33333292, 4049.61538420, 4050.64102523, 4061.02564061, 4065.38461497, 4085.12820478, 4088.58974325, 4093.33333299, 4072.69230735, 4098.71794837, 4083.71794837, 4088.46153812, 4123.07692280,10.0
4076.41025607, 4080.51282017, 4070.25640991, 4062.56410215, 4077.30769196, 4075.51282017, 4090.89743555, 4096.28205094, 4106.41025614, 4086.53846119, 4101.79487145, 4090.38461504, 4099.74358940, 4125.76923050,10.0
4073.07692273, 4085.25640991, 4067.56410215, 4062.17948677, 4075.38461504, 4069.35897395, 4083.58974325, 4097.43589709, 4113.07692280, 4091.79487145, 4095.12820478, 4087.43589709, 4096.15384581, 4129.87179460,10.0
4064.61538420, 4083.58974325, 4062.56410215, 4060.76923036, 4066.41025600, 4063.20512779, 4083.58974325, 4098.71794837, 4113.46153819, 4086.66666632, 4098.20512786, 4086.53846119, 4093.33333299, 4127.43589716,10.0
4055.12820472, 4067.17948677, 4060.38461497, 4052.17948677, 4055.89743548, 4055.76923036, 4073.20512786, 4088.58974325, 4099.23076889, 4071.92307658, 4095.25640991, 4076.53846119, 4086.02564068, 4127.56410229,10.0
4037.82051241, 4050.89743548, 4045.38461497, 4039.35897395, 4040.64102523, 4044.74358933, 4052.82051241, 4070.76923043, 4076.53846119, 4045.89743548, 4071.15384581, 4053.97435856, 4064.74358933, 4128.20512793,10.0
4036.28205080, 4060.38461497, 4043.46153805, 4045.25640984, 4042.94871754, 4043.07692266, 4051.53846113, 4068.46153805, 4072.17948684, 4037.82051241, 4067.43589702, 4055.51282010, 4060.89743548, 4126.66666639,10.0
4058.84615343, 4081.02564068, 4070.64102530, 4065.51282010, 4061.92307651, 4058.07692266, 4072.56410222, 4084.35897402, 4087.69230735, 4067.30769189, 4097.30769196, 4085.25640991, 4089.10256376, 4125.89743562,10.0
4077.30769196, 4089.61538427, 4087.56410222, 4076.15384581, 4076.92307658, 4077.56410222, 4094.61538427, 4103.46153819, 4109.48717921, 4092.69230735, 4110.12820485, 4101.79487145, 4107.82051255, 4126.92307665,10.0
4070.25640991, 4080.76923043, 4073.20512786, 4067.43589702, 4068.84615343, 4071.41025607, 4087.56410222, 4100.89743555, 4108.46153819, 4075.89743555, 4089.87179453, 4087.17948684, 4091.28205094, 4130.51282024,10.0
4066.92307651, 4076.92307658, 4066.41025600, 4067.17948677, 4054.61538420, 4062.05128164, 4078.84615350, 4089.48717914, 4091.41025607, 4063.58974318, 4082.05128171, 4075.12820478, 4080.12820478, 4127.17948691,10.0
4069.61538420, 4079.99999966, 4067.17948677, 4070.12820478, 4055.76923036, 4068.20512779, 4088.20512786, 4090.89743555, 4090.64102530, 4069.87179453, 4087.43589709, 4071.92307658, 4084.23076889, 4124.99999973,10.0
4048.97435856, 4061.53846113, 4043.71794830, 4050.25640984, 4048.20512779, 4048.84615343, 4063.46153805, 4079.61538427, 4088.46153812, 4052.94871754, 4070.89743555, 4049.10256369, 4070.51282017, 4129.23076896,10.0
4024.87179439, 4038.07692266, 4021.15384567, 4030.12820465, 4023.97435849, 4023.07692259, 4022.69230721, 4054.99999959, 4070.89743555, 4034.23076875, 4050.12820472, 4026.02564054, 4053.46153805, 4128.07692280,10.0
4022.43589695, 4037.30769189, 4024.35897388, 4026.53846106, 4014.23076875, 4031.92307644, 4029.10256362, 4055.25640984, 4069.35897395, 4034.74358926, 4047.30769189, 4026.79487131, 4057.69230728, 4126.66666639,10.0
4022.56410208, 4040.64102523, 4023.46153798, 4022.30769183, 4021.28205080, 4042.82051241, 4055.38461497, 4068.84615343, 4077.30769196, 4028.33333285, 4043.97435856, 4028.84615336, 4058.97435856, 4126.79487152,10.0
4025.12820465, 4047.43589702, 4021.41025593, 4029.87179439, 4034.87179439, 4045.89743548, 4064.99999959, 4076.53846119, 4081.41025607, 4037.94871754, 4048.71794830, 4035.12820465, 4061.79487138, 4126.53846126,10.0
4036.02564054, 4058.97435856, 4028.58974311, 4044.74358933, 4046.66666625, 4056.41025600, 4068.71794830, 4085.64102530, 4096.66666632, 4063.97435856, 4064.61538420, 4045.89743548, 4075.89743555, 4125.12820485,10.0
4025.64102516, 4045.38461497, 4013.97435849, 4028.97435849, 4031.92307644, 4046.66666625, 4054.74358933, 4067.94871754, 4081.79487145, 4043.58974318, 4051.79487138, 4027.43589695, 4062.05128164, 4122.17948691,10.0
4010.51282003, 4028.84615336, 3996.79487124, 4013.71794824, 4015.12820465, 4030.38461490, 4040.25640984, 4044.48717907, 4052.43589702, 4011.53846106, 4031.92307644, 4010.12820465, 4038.71794830, 4126.66666639,10.0
4018.07692259, 4037.82051241, 4004.99999952, 4024.61538413, 4022.82051234, 4037.69230728, 4047.17948677, 4051.92307651, 4060.38461497, 4014.35897388, 4036.02564054, 4022.94871747, 4041.02564061, 4129.87179460,10.0
4023.33333285, 4043.33333292, 4012.69230721, 4028.84615336, 4025.38461490, 4033.33333285, 4040.12820472, 4052.05128164, 4059.74358933, 4010.51282003, 4038.46153805, 4028.20512772, 4042.56410215, 4126.41025614,10.0
4022.05128157, 4041.66666625, 4014.74358926, 4028.07692259, 4018.20512772, 4014.99999952, 4018.58974311, 4032.43589695, 4034.87179439, 3998.33333278, 4038.97435856, 4031.15384567, 4039.74358933, 4126.28205101,10.0
4017.17948670, 4040.89743548, 4013.20512772, 4030.25640977, 4013.71794824, 4012.05128157, 4012.30769183, 4023.46153798, 4026.15384567, 3998.33333278, 4039.87179446, 4036.41025593, 4039.74358933, 4127.94871767,10.0
4005.89743541, 4030.51282003, 4003.33333278, 4020.51282003, 4009.10256362, 4015.12820465, 4023.20512772, 4028.58974311, 4030.51282003, 3999.35897381, 4031.79487131, 4025.76923029, 4036.28205080, 4128.71794844,10.0
4008.46153798, 4033.33333285, 4003.84615329, 4018.46153798, 4017.43589695, 4015.25640977, 4032.05128157, 4035.25640977, 4034.74358926, 4007.05128157, 4031.28205080, 4023.84615336, 4039.35897395, 4128.20512793,10.0
4015.51282003, 4043.20512779, 4010.76923029, 4025.51282003, 4017.94871747, 4006.66666618, 4020.12820465, 4029.35897388, 4028.71794824, 4009.61538413, 4035.76923029, 4030.51282003, 4041.92307651, 4125.64102537,10.0
4002.56410201, 4027.94871747, 3998.97435842, 4013.46153798, 3989.99999945, 3991.53846099, 4004.61538413, 4020.76923029, 4017.30769183, 3992.94871740, 4024.48717900, 4018.20512772, 4031.15384567, 4127.69230742,10.0
4006.53846106, 4027.05128157, 3998.84615329, 4011.92307644, 3996.02564047, 4001.02564047, 4025.89743541, 4045.12820472, 4044.35897395, 3997.05128150, 4024.10256362, 4020.25640977, 4035.25640977, 4127.94871767,10.0
4027.56410208, 4051.28205087, 4021.41025593, 4029.23076875, 4032.69230721, 4020.64102516, 4048.97435856, 4062.43589702, 4063.33333292, 4014.99999952, 4039.61538420, 4043.46153805, 4050.76923036, 4123.58974332,10.0
4018.58974311, 4044.61538420, 4018.97435849, 4024.99999952, 4022.43589695, 4009.61538413, 4026.79487131, 4036.02564054, 4028.84615336, 4006.41025593, 4033.46153798, 4039.74358933, 4043.20512779, 4127.30769203,10.0
4006.92307644, 4028.46153798, 4001.92307637, 4015.76923029, 3998.33333278, 3999.99999945, 4010.89743541, 4027.43589695, 4021.66666618, 4000.89743535, 4026.92307644, 4030.38461490, 4035.89743541, 4133.20512793,10.0
4017.17948670, 4042.43589702, 4008.07692259, 4025.89743541, 4016.66666618, 4021.02564054, 4033.33333285, 4050.25640984, 4050.89743548, 4017.56410208, 4039.99999959, 4045.12820472, 4049.10256369, 4129.87179460,10.0
4008.07692259, 4044.87179446, 4005.12820465, 4028.46153798, 4025.25640977, 4025.25640977, 4036.02564054, 4047.82051241, 4042.82051241, 4015.76923029, 4036.28205080, 4042.82051241, 4045.64102523, 4125.12820485,10.0
3998.07692252, 4036.79487131, 3995.38461483, 4028.20512772, 4014.87179439, 4010.64102516, 4021.15384567, 4038.58974318, 4037.82051241, 4011.66666618, 4030.89743541, 4036.41025593, 4039.10256369, 4126.28205101,10.0
4006.53846106, 4039.48717907, 3998.07692252, 4029.74358926, 4020.38461490, 4016.15384567, 4031.92307644, 4048.97435856, 4057.30769189, 4021.53846106, 4037.56410215, 4044.99999959, 4048.84615343, 4129.35897408,10.0
3993.58974304, 4027.43589695, 3984.74358919, 4013.46153798, 4011.92307644, 4018.07692259, 4036.15384567, 4047.05128164, 4051.02564061, 4011.92307644, 4022.94871747, 4033.97435849, 4042.82051241, 4126.92307665,10.0
3989.35897381, 4025.51282003, 3982.05128150, 4013.84615336, 4001.02564047, 4009.10256362, 4024.23076875, 4044.87179446, 4049.35897395, 4011.53846106, 4018.20512772, 4029.23076875, 4038.84615343, 4123.97435870,10.0
4015.64102516, 4049.74358933, 4012.05128157, 4037.82051241, 4015.89743541, 4013.97435849, 4028.20512772, 4054.35897395, 4064.23076882, 4032.56410208, 4039.10256369, 4051.15384574, 4054.35897395, 4127.05128178,10.0
4013.33333285, 4043.97435856, 4013.71794824, 4030.64102516, 4018.84615336, 4022.82051234, 4039.48717907, 4054.99999959, 4061.92307651, 4029.48717900, 4034.99999952, 4048.46153805, 4049.23076882, 4129.48717921,10.0
3988.71794817, 4016.79487131, 3988.20512765, 4005.89743541, 4000.89743535, 4019.23076875, 4033.84615336, 4047.43589702, 4050.38461497, 4013.20512772, 4017.94871747, 4030.51282003, 4032.56410208, 4127.43589716,10.0
3995.25640970, 4023.71794824, 3994.61538406, 4016.41025593, 4001.79487124, 4014.10256362, 4026.66666618, 4050.12820472, 4052.82051241, 4019.23076875, 4025.89743541, 4043.84615343, 4041.79487138, 4126.15384588,10.0
4009.35897388, 4040.12820472, 4009.74358926, 4032.94871747, 4015.25640977, 4015.51282003, 4035.64102516, 4060.12820472, 4062.56410215, 4024.35897388, 4032.69230721, 4057.82051241, 4050.25640984, 4126.79487152,10.0
4004.87179439, 4038.46153805, 4007.43589695, 4026.66666618, 4015.64102516, 4019.35897388, 4044.61538420, 4053.97435856, 4061.92307651, 4019.87179439, 4027.17948670, 4052.43589702, 4041.66666625, 4126.79487152,10.0
4000.64102509, 4035.51282003, 4004.74358926, 4022.30769183, 4010.51282003, 4021.02564054, 4040.51282010, 4041.53846113, 4050.76923036, 4019.23076875, 4026.15384567, 4051.92307651, 4037.69230728, 4126.79487152,10.0
3993.58974304, 4033.46153798, 3995.38461483, 4020.12820465, 3998.46153791, 4009.23076875, 4028.20512772, 4042.17948677, 4039.61538420, 4009.35897388, 4023.20512772, 4046.15384574, 4034.61538413, 4129.61538434,10.0
3990.12820458, 4034.35897388, 3991.02564047, 4019.35897388, 3998.07692252, 4003.71794817, 4024.99999952, 4047.05128164, 4044.99999959, 4006.15384567, 4023.20512772, 4040.51282010, 4035.51282003, 4128.71794844,10.0
3996.79487124, 4040.38461497, 4001.66666611, 4024.61538413, 4016.15384567, 4014.99999952, 4026.53846106, 4040.25640984, 4044.74358933, 4014.35897388, 4026.79487131, 4049.74358933, 4041.41025600, 4125.38461511,10.0
4002.17948663, 4038.46153805, 4006.79487131, 4023.97435849, 4017.82051234, 4013.20512772, 4019.87179439, 4032.43589695, 4027.69230721, 4014.35897388, 4027.69230721, 4058.46153805, 4041.66666625, 4128.58974332,10.0
4005.25640977, 4035.89743541, 4008.71794824, 4021.41025593, 4004.99999952, 4000.64102509, 4015.64102516, 4037.56410215, 4026.53846106, 4018.84615336, 4031.92307644, 4061.28205087, 4041.53846113, 4130.51282024,10.0
4002.69230714, 4036.66666618, 4010.64102516, 4022.30769183, 4001.53846099, 3999.87179432, 4015.38461490, 4044.99999959, 4042.43589702, 4025.64102516, 4031.79487131, 4059.61538420, 4037.82051241, 4126.28205101,10.0
3991.28205073, 4028.07692259, 4000.89743535, 4018.46153798, 4001.28205073, 4003.58974304, 4012.17948670, 4036.15384567, 4034.23076875, 4011.02564054, 4021.02564054, 4051.28205087, 4026.79487131, 4125.38461511,10.0
3993.58974304, 4028.33333285, 4004.87179439, 4023.07692259, 4003.84615329, 4008.20512772, 4018.58974311, 4029.23076875, 4018.33333285, 4003.33333278, 4024.61538413, 4059.23076882, 4031.92307644, 4128.33333306,10.0
4019.87179439, 4048.71794830, 4032.56410208, 4042.69230728, 4017.82051234, 4022.17948670, 4041.66666625, 4052.17948677, 4042.56410215, 4024.35897388, 4046.92307651, 4083.20512786, 4051.28205087, 4127.56410229,10.0
4029.74358926, 4057.05128164, 4039.61538420, 4046.53846113, 4019.99999952, 4030.38461490, 4052.05128164, 4065.89743548, 4058.71794830, 4031.41025593, 4049.87179446, 4082.05128171, 4048.58974318, 4124.61538434,10.0
4019.87179439, 4050.38461497, 4024.35897388, 4037.05128164, 4011.79487131, 4022.56410208, 4040.64102523, 4048.33333292, 4041.02564061, 4016.02564054, 4035.64102516, 4067.43589702, 4036.92307651, 4124.87179460,10.0
4022.05128157, 4051.15384574, 4021.28205080, 4038.84615343, 4016.41025593, 4017.69230721, 4038.46153805, 4049.35897395, 4042.30769189, 4016.41025593, 4036.41025593, 4072.30769196, 4044.74358933, 4126.28205101,10.0
4028.58974311, 4054.74358933, 4025.89743541, 4042.82051241, 4022.17948670, 4027.05128157, 4052.69230728, 4068.33333292, 4061.28205087, 4032.69230721, 4042.94871754, 4072.94871761, 4054.35897395, 4127.69230742,10.0
4029.23076875, 4055.76923036, 4025.51282003, 4042.69230728, 4021.79487131, 4029.48717900, 4053.58974318, 4061.28205087, 4056.66666625, 4038.46153805, 4044.99999959, 4062.94871754, 4057.17948677, 4129.99999973,10.0
4025.76923029, 4053.46153805, 4022.17948670, 4042.94871754, 4016.28205080, 4013.46153798, 4026.92307644, 4038.07692266, 4036.92307651, 4027.82051234, 4042.56410215, 4061.02564061, 4052.94871754, 4127.56410229,10.0
4021.92307644, 4046.92307651, 4019.48717900, 4040.12820472, 4010.76923029, 4008.07692259, 4011.41025593, 4035.25640977, 4035.89743541, 4023.97435849, 4039.74358933, 4067.69230728, 4046.66666625, 4123.46153819,10.0
4030.38461490, 4051.53846113, 4031.41025593, 4044.99999959, 4021.02564054, 4025.64102516, 4030.51282003, 4048.71794830, 4047.69230728, 4036.41025593, 4047.05128164, 4081.28205094, 4052.43589702, 4127.43589716,10.0
4045.51282010, 4065.51282010, 4049.99999959, 4053.84615343, 4032.43589695, 4033.84615336, 4043.84615343, 4054.99999959, 4048.46153805, 4041.66666625, 4053.58974318, 4092.43589709, 4059.10256369, 4129.99999973,10.0
4046.92307651, 4065.38461497, 4048.71794830, 4048.84615343, 4022.17948670, 4027.69230721, 4036.41025593, 4049.87179446, 4039.99999959, 4033.20512772, 4046.28205087, 4088.71794837, 4054.74358933, 4125.51282024,10.0
4043.33333292, 4061.15384574, 4043.58974318, 4045.76923036, 4020.89743541, 4031.15384567, 4040.12820472, 4048.97435856, 4039.99999959, 4032.56410208, 4043.84615343, 4082.56410222, 4053.20512779, 4124.87179460,10.0
4049.23076882, 4067.94871754, 4054.35897395, 4053.46153805, 4040.51282010, 4028.97435849, 4046.15384574, 4055.76923036, 4046.28205087, 4039.99999959, 4049.99999959, 4090.25640991, 4058.97435856, 4126.15384588,10.0
4053.33333292, 4073.84615350, 4061.66666625, 4057.43589702, 4051.92307651, 4029.10256362, 4052.30769189, 4066.02564061, 4051.28205087, 4045.51282010, 4054.10256369, 4098.58974325, 4060.89743548, 4126.02564075,10.0
4047.43589702, 4071.28205094, 4054.99999959, 4054.99999959, 4048.84615343, 4042.94871754, 4065.89743548, 4067.94871754, 4055.51282010, 4047.05128164, 4056.53846113, 4094.23076889, 4059.48717907, 4127.43589716,10.0
4026.15384567, 4055.38461497, 4037.94871754, 4046.28205087, 4033.33333285, 4031.28205080, 4047.30769189, 4047.43589702, 4039.35897395, 4031.66666618, 4042.05128164, 4074.23076889, 4046.79487138, 4128.33333306,10.0
4012.94871747, 4042.30769189, 4026.53846106, 4038.33333292, 4017.30769183, 4006.28205080, 4015.76923029, 4032.43589695, 4018.07692259, 4018.07692259, 4026.41025593, 4061.41025600, 4037.43589702, 4126.28205101,10.0
4026.92307644, 4048.33333292, 4038.84615343, 4041.41025600, 4020.12820465, 4012.94871747, 4026.41025593, 4043.97435856, 4024.48717900, 4029.74358926, 4042.30769189, 4076.79487145, 4051.92307651, 4124.74358947,10.0
4041.28205087, 4059.48717907, 4053.33333292, 4048.71794830, 4029.48717900, 4029.74358926, 4047.43589702, 4054.48717907, 4041.79487138, 4037.30769189, 4057.94871754, 4095.12820478, 4062.17948677, 4126.28205101,10.0
4030.51282003, 4054.10256369, 4042.43589702, 4044.99999959, 4021.79487131, 4019.35897388, 4031.66666618, 4041.79487138, 4026.92307644, 4020.89743541, 4046.92307651, 4089.35897402, 4049.99999959, 4125.76923050,10.0
4016.02564054, 4044.61538420, 4031.53846106, 4039.87179446, 4014.10256362, 4011.28205080, 4017.69230721, 4029.61538413, 3998.46153791, 4009.35897388, 4040.64102523, 4077.69230735, 4041.02564061, 4124.10256383,10.0
4032.30769183, 4060.25640984, 4051.92307651, 4053.84615343, 4029.99999952, 4031.28205080, 4042.94871754, 4045.25640984, 4011.92307644, 4026.66666618, 4055.51282010, 4092.82051248, 4056.66666625, 4126.41025614,10.0
4060.64102523, 4084.23076889, 4081.28205094, 4077.05128171, 4053.84615343, 4050.38461497, 4069.61538420, 4069.48717907, 4048.07692266, 4051.02564061, 4070.64102530, 4117.17948691, 4073.33333299, 4127.17948691,10.0
4058.84615343, 4084.99999966, 4083.46153812, 4080.76923043, 4059.61538420, 4047.82051241, 4067.05128164, 4066.92307651, 4044.35897395, 4049.87179446, 4070.38461504, 4110.38461511, 4066.15384574, 4126.66666639,10.0
4034.99999952, 4069.23076882, 4060.12820472, 4064.99999959, 4037.43589702, 4029.35897388, 4045.76923036, 4042.69230728, 4016.41025593, 4025.89743541, 4054.10256369, 4084.87179453, 4049.10256369, 4127.43589716,10.0
4021.41025593, 4059.61538420, 4039.23076882, 4053.20512779, 4016.53846106, 4014.99999952, 4029.35897388, 4032.05128157, 4010.89743541, 4014.87179439, 4034.99999952, 4068.58974318, 4038.97435856, 4129.10256383,10.0
4019.10256362, 4058.71794830, 4034.23076875, 4053.20512779, 4023.97435849, 4019.48717900, 4034.48717900, 4044.35897395, 4019.35897388, 4023.97435849, 4032.43589695, 4059.87179446, 4035.76923029, 4130.89743562,10.0
4014.99999952, 4055.51282010, 4033.58974311, 4051.28205087, 4034.10256362, 4026.41025593, 4044.35897395, 4051.41025600, 4018.97435849, 4024.10256362, 4035.64102516, 4053.84615343, 4036.28205080, 4129.61538434,10.0
4016.15384567, 4051.79487138, 4035.64102516, 4045.76923036, 4024.10256362, 4017.43589695, 4038.20512779, 4045.25640984, 4018.58974311, 4021.02564054, 4031.28205080, 4060.51282010, 4040.76923036, 4128.58974332,10.0
4031.79487131, 4058.07692266, 4051.53846113, 4053.46153805, 4022.30769183, 4018.58974311, 4039.87179446, 4057.56410215, 4038.33333292, 4041.41025600, 4043.58974318, 4081.66666632, 4057.56410215, 4128.71794844,10.0
4050.12820472, 4070.51282017, 4069.48717907, 4069.23076882, 4040.51282010, 4039.61538420, 4062.05128164, 4077.56410222, 4058.84615343, 4064.74358933, 4070.51282017, 4097.56410222, 4075.64102530, 4125.76923050,10.0
4058.20512779, 4076.66666632, 4072.17948684, 4075.76923043, 4052.69230728, 4044.61538420, 4068.97435856, 4071.79487145, 4052.43589702, 4062.17948677, 4074.61538427, 4097.94871761, 4075.38461504, 4127.43589716,10.0
4069.23076882, 4086.66666632, 4083.33333299, 4088.46153812, 4060.89743548, 4045.25640984, 4068.20512779, 4069.48717907, 4050.51282010, 4061.92307651, 4073.07692273, 4102.05128171, 4078.71794837, 4129.99999973,10.0
4085.12820478, 4101.66666632, 4104.10256383, 4108.58974332, 4071.66666632, 4055.38461497, 4076.79487145, 4078.84615350, 4057.82051241, 4073.46153812, 4090.76923043, 4112.43589716, 4090.38461504, 4127.17948691,10.0
4093.58974325, 4108.07692280, 4110.12820485, 4112.56410229, 4082.56410222, 4055.76923036, 4079.99999966, 4079.35897402, 4056.79487138, 4078.07692273, 4101.53846119, 4117.69230742, 4090.25640991, 4126.53846126,10.0
4097.30769196, 4110.51282024, 4110.76923050, 4112.17948691, 4089.35897402, 4056.15384574, 4086.41025607, 4082.30769196, 4062.69230728, 4076.41025607, 4099.48717914, 4121.66666639, 4090.51282017, 4128.20512793,10.0
4093.97435863, 4109.87179460, 4110.38461511, 4114.99999973, 4082.30769196, 4057.05128164, 4087.30769196, 4085.38461504, 4066.79487138, 4066.02564061, 4092.82051248, 4116.79487152, 4090.76923043, 4126.53846126,10.0
4079.87179453, 4103.58974332, 4099.48717914, 4105.64102537, 4075.64102530, 4041.66666625, 4065.64102523, 4075.12820478, 4053.33333292, 4055.76923036, 4079.35897402, 4098.46153812, 4078.58974325, 4124.48717921,10.0
4078.46153812, 4102.82051255, 4098.46153812, 4102.30769196, 4085.12820478, 4036.02564054, 4059.99999959, 4077.56410222, 4061.53846113, 4068.46153805, 4083.46153812, 4097.17948684, 4081.15384581, 4124.61538434,10.0
4098.71794837, 4111.28205101, 4117.43589716, 4118.33333306, 4096.66666632, 4055.64102523, 4082.69230735, 4096.79487145, 4088.84615350, 4090.51282017, 4105.89743562, 4120.38461511, 4104.23076896, 4126.28205101,10.0
4101.28205094, 4107.05128178, 4119.87179460, 4119.48717921, 4087.30769196, 4058.07692266, 4084.74358940, 4093.07692273, 4079.61538427, 4085.76923043, 4105.12820485, 4121.02564075, 4101.02564068, 4126.15384588,10.0
4089.48717914, 4099.48717914, 4112.94871767, 4108.07692280, 4079.10256376, 4048.58974318, 4075.38461504, 4077.82051248, 4058.46153805, 4073.46153812, 4093.33333299, 4104.99999973, 4084.87179453, 4126.02564075,10.0
4102.43589709, 4113.20512793, 4128.20512793, 4121.02564075, 4092.43589709, 4054.74358933, 4084.87179453, 4084.10256376, 4066.15384574, 4081.41025607, 4107.30769203, 4112.69230742, 4096.28205094, 4128.20512793,10.0
4120.12820485, 4125.12820485, 4141.28205108, 4136.79487159, 4102.69230742, 4059.61538420, 4088.58974325, 4090.89743555, 4073.20512786, 4091.79487145, 4122.69230742, 4127.30769203, 4111.28205101, 4129.48717921,10.0
4123.58974332, 4128.33333306, 4141.66666646, 4139.10256390, 4104.23076896, 4065.12820472, 4091.28205094, 4093.07692273, 4074.35897402, 4095.64102530, 4123.58974332, 4131.92307665, 4109.23076896, 4128.58974332,10.0
4126.79487152, 4137.17948697, 4147.30769210, 4142.82051262, 4111.92307665, 4078.07692273, 4104.35897408, 4104.48717921, 4086.79487145, 4095.51282017, 4119.87179460, 4132.43589716, 4106.15384588, 4126.66666639,10.0
4121.02564075, 4138.58974339, 4147.94871774, 4140.89743569, 4115.89743562, 4079.61538427, 4103.71794844, 4102.17948684, 4079.23076889, 4084.48717914, 4108.46153819, 4118.33333306, 4099.99999966, 4126.41025614,10.0
4110.89743562, 4130.25640998, 4138.97435877, 4134.35897408, 4109.48717921, 4069.10256369, 4095.51282017, 4087.82051248, 4059.35897395, 4076.41025607, 4101.02564068, 4100.76923043, 4092.17948684, 4127.56410229,10.0
4115.89743562, 4129.74358947, 4134.35897408, 4136.15384595, 4106.28205101, 4067.69230728, 4098.46153812, 4095.64102530, 4074.74358940, 4082.69230735, 4104.48717921, 4106.02564075, 4093.58974325, 4126.02564075,10.0
4106.02564075, 4115.51282024, 4114.99999973, 4121.79487152, 4090.51282017, 4063.07692266, 4083.07692273, 4096.66666632, 4079.48717914, 4073.33333299, 4087.94871761, 4099.35897402, 4082.30769196, 4126.92307665,10.0
4078.97435863, 4092.17948684, 4089.35897402, 4101.66666632, 4072.17948684, 4053.84615343, 4059.48717907, 4076.92307658, 4052.30769189, 4059.48717907, 4066.92307651, 4075.25640991, 4065.51282010, 4127.82051255,10.0
4090.25640991, 4103.07692280, 4107.43589716, 4119.23076896, 4083.84615350, 4069.74358940, 4082.56410222, 4087.43589709, 4065.12820472, 4088.20512786, 4092.82051248, 4091.79487145, 4087.69230735, 4127.30769203,10.0
4117.30769203, 4125.25640998, 4133.20512793, 4139.48717928, 4096.41025607, 4089.10256376, 4113.33333306, 4113.71794844, 4102.69230742, 4124.61538434, 4126.79487152, 4125.76923050, 4122.94871767, 4127.56410229,10.0
4117.82051255, 4126.79487152, 4125.76923050, 4133.71794844, 4098.97435863, 4086.28205094, 4107.17948691, 4109.74358947, 4103.46153819, 4128.58974332, 4125.64102537, 4125.25640998, 4121.41025614, 4124.48717921,10.0
4107.30769203, 4117.94871767, 4115.64102537, 4129.48717921, 4104.35897408, 4071.92307658, 4092.56410222, 4092.43589709, 4083.58974325, 4113.58974332, 4111.66666639, 4104.87179460, 4100.25640991, 4124.74358947,10.0
4109.35897408, 4121.66666639, 4125.12820485, 4140.51282031, 4109.48717921, 4069.99999966, 4099.87179453, 4098.84615350, 4087.30769196, 4105.25640998, 4111.28205101, 4102.94871767, 4099.23076889, 4129.74358947,10.0
4110.25640998, 4128.46153819, 4126.79487152, 4144.23076903, 4108.33333306, 4079.74358940, 4104.48717921, 4105.38461511, 4090.12820478, 4102.17948684, 4108.97435870, 4107.30769203, 4103.33333306, 4129.61538434,10.0
4092.43589709, 4114.74358947, 4103.58974332, 4130.51282024, 4094.61538427, 4080.76923043, 4082.94871761, 4081.15384581, 4062.82051241, 4088.58974325, 4092.94871761, 4091.66666632, 4090.12820478, 4124.87179460,10.0
4081.92307658, 4103.58974332, 4092.05128171, 4127.17948691, 4082.69230735, 4071.41025607, 4066.02564061, 4065.64102523, 4046.66666625, 4076.66666632, 4087.94871761, 4081.53846119, 4081.92307658, 4123.20512793,10.0
4093.20512786, 4113.46153819, 4102.56410229, 4136.66666646, 4089.23076889, 4069.74358940, 4076.66666632, 4086.02564068, 4064.74358933, 4078.97435863, 4092.05128171, 4090.25640991, 4087.94871761, 4127.82051255,10.0
4099.48717914, 4118.46153819, 4107.69230742, 4135.76923056, 4094.23076889, 4075.51282017, 4084.35897402, 4094.10256376, 4069.87179453, 4086.15384581, 4092.56410222, 4097.94871761, 4089.23076889, 4129.87179460,10.0
4093.97435863, 4109.23076896, 4105.25640998, 4129.74358947, 4087.05128171, 4075.25640991, 4078.20512786, 4074.61538427, 4052.94871754, 4085.51282017, 4093.97435863, 4100.25640991, 4089.23076889, 4126.53846126,10.0
4093.07692273, 4106.28205101, 4102.94871767, 4132.17948691, 4083.97435863, 4070.76923043, 4078.20512786, 4073.07692273, 4053.84615343, 4081.92307658, 4095.12820478, 4102.69230742, 4091.02564068, 4126.53846126,10.0
4086.28205094, 4102.05128171, 4095.76923043, 4126.66666639, 4073.71794837, 4064.10256369, 4072.69230735, 4086.28205094, 4066.92307651, 4080.89743555, 4089.48717914, 4096.79487145, 4086.79487145, 4127.94871767,10.0
4090.51282017, 4108.84615357, 4102.82051255, 4126.92307665, 4073.33333299, 4070.38461504, 4074.48717914, 4098.58974325, 4082.56410222, 4094.35897402, 4099.35897402, 4101.79487145, 4093.71794837, 4127.82051255,10.0
4119.74358947, 4136.15384595, 4133.07692280, 4151.02564082, 4101.53846119, 4093.07692273, 4103.84615357, 4114.23076896, 4100.25640991, 4114.35897408, 4127.30769203, 4125.51282024, 4112.30769203, 4126.92307665,10.0
4119.48717921, 4138.07692287, 4131.66666639, 4154.35897415, 4113.84615357, 4095.64102530, 4115.12820485, 4109.87179460, 4089.74358940, 4106.92307665, 4123.58974332, 4120.64102537, 4105.89743562, 4125.51282024,10.0
4089.10256376, 4111.41025614, 4095.89743555, 4129.48717921, 4097.30769196, 4080.89743555, 4091.66666632, 4087.43589709, 4062.17948677, 4085.38461504, 4094.61538427, 4091.79487145, 4083.33333299, 4127.94871767,10.0
4079.87179453, 4102.82051255, 4083.84615350, 4118.07692280, 4086.41025607, 4083.20512786, 4082.94871761, 4084.48717914, 4059.99999959, 4078.84615350, 4081.92307658, 4083.20512786, 4078.20512786, 4129.61538434,10.0
4094.99999966, 4119.61538434, 4103.07692280, 4130.51282024, 4097.56410222, 4101.28205094, 4106.92307665, 4108.20512793, 4087.69230735, 4098.71794837, 4093.71794837, 4098.97435863, 4093.84615350, 4126.53846126,10.0
4102.94871767, 4122.82051255, 4112.94871767, 4136.92307672, 4110.64102537, 4098.46153812, 4109.61538434, 4114.23076896, 4096.53846119, 4114.99999973, 4103.71794844, 4108.97435870, 4102.17948684, 4124.74358947,10.0
4100.38461504, 4111.53846126, 4106.02564075, 4129.74358947, 4108.33333306, 4084.48717914, 4090.51282017, 4095.38461504, 4077.94871761, 4101.41025607, 4099.10256376, 4101.53846119, 4092.56410222, 4126.28205101,10.0
4097.30769196, 4107.17948691, 4099.74358940, 4124.99999973, 4097.82051248, 4080.76923043, 4085.76923043, 4083.97435863, 4063.46153805, 4086.66666632, 4090.89743555, 4095.51282017, 4086.41025607, 4128.33333306,10.0
4101.92307658, 4111.28205101, 4104.99999973, 4131.79487152, 4100.12820478, 4085.51282017, 4097.43589709, 4099.35897402, 4078.07692273, 4101.02564068, 4098.46153812, 4106.28205101, 4099.74358940, 4128.33333306,10.0
4112.94871767, 4117.56410229, 4119.23076896, 4142.05128185, 4109.48717921, 4091.28205094, 4108.71794844, 4128.33333306, 4116.15384588, 4126.66666639, 4123.58974332, 4126.79487152, 4117.17948691, 4127.30769203,10.0
4113.84615357, 4119.35897408, 4123.07692280, 4144.10256390, 4106.15384588, 4088.07692273, 4106.53846126, 4123.58974332, 4120.64102537, 4129.48717921, 4129.35897408, 4133.97435870, 4114.61538434, 4125.38461511,10.0
4115.51282024, 4126.02564075, 4123.84615357, 4146.15384595, 4108.71794844, 4084.87179453, 4107.17948691, 4099.48717914, 4088.07692273, 4122.82051255, 4121.02564075, 4134.48717921, 4109.10256383, 4124.74358947,10.0
4120.25640998, 4131.79487152, 4126.92307665, 4147.69230749, 4115.51282024, 4087.82051248, 4111.28205101, 4101.41025607, 4081.15384581, 4120.64102537, 4121.02564075, 4129.74358947, 4109.48717921, 4125.76923050,10.0
4102.69230742, 4115.51282024, 4106.02564075, 4131.92307665, 4102.82051255, 4084.74358940, 4098.84615350, 4105.12820485, 4091.53846119, 4107.30769203, 4108.84615357, 4107.69230742, 4094.87179453, 4125.25640998,10.0
4085.51282017, 4099.48717914, 4082.17948684, 4118.58974332, 4093.20512786, 4083.20512786, 4088.97435863, 4098.20512786, 4087.05128171, 4098.20512786, 4098.58974325, 4095.76923043, 4085.51282017, 4126.02564075,10.0
4103.71794844, 4115.89743562, 4098.84615350, 4131.66666639, 4112.69230742, 4095.38461504, 4104.74358947, 4108.07692280, 4095.64102530, 4113.20512793, 4118.58974332, 4113.97435870, 4100.76923043, 4128.20512793,10.0
4117.05128178, 4127.30769203, 4111.92307665, 4141.15384595, 4126.02564075, 4096.15384581, 4108.97435870, 4106.28205101, 4094.10256376, 4115.12820485, 4124.10256383, 4120.51282024, 4102.05128171, 4125.76923050,10.0
4100.64102530, 4112.43589716, 4093.58974325, 4127.94871767, 4108.84615357, 4079.74358940, 4086.92307658, 4079.48717914, 4058.58974318, 4091.41025607, 4100.38461504, 4104.10256383, 4082.56410222, 4124.99999973,10.0
4097.94871761, 4115.76923050, 4094.99999966, 4127.30769203, 4100.12820478, 4083.46153812, 4087.43589709, 4084.48717914, 4059.74358933, 4089.48717914, 4102.82051255, 4108.20512793, 4085.38461504, 4129.35897408,10.0
4097.94871761, 4115.76923050, 4094.99999966, 4127.30769203, 4100.12820478, 4083.46153812, 4087.43589709, 4084.48717914, 4059.74358933, 4089.48717914, 4102.82051255, 4108.20512793, 4085.38461504, 4129.35897408,10.0
4106.53846126, 4127.30769203, 4109.99999973, 4137.56410236, 4110.25640998, 4094.48717914, 4103.07692280, 4108.46153819, 4093.84615350, 4107.05128178, 4119.87179460, 4123.07692280, 4096.79487145, 4128.58974332,10.0
4099.87179453, 4114.99999973, 4105.25640998, 4133.46153819, 4113.84615357, 4087.56410222, 4101.15384581, 4107.05128178, 4093.33333299, 4111.02564075, 4116.15384588, 4119.74358947, 4097.56410222, 4126.53846126,10.0
4091.53846119, 4105.12820485, 4098.84615350, 4128.84615357, 4106.28205101, 4076.79487145, 4088.58974325, 4093.58974325, 4072.56410222, 4106.41025614, 4112.69230742, 4113.97435870, 4100.76923043, 4126.15384588,10.0
4097.82051248, 4117.94871767, 4108.97435870, 4136.66666646, 4108.46153819, 4082.17948684, 4089.61538427, 4091.15384581, 4069.61538420, 4105.25640998, 4118.58974332, 4118.33333306, 4103.07692280, 4127.05128178,10.0
4102.17948684, 4125.51282024, 4115.38461511, 4138.84615364, 4117.17948691, 4091.79487145, 4096.41025607, 4095.12820478, 4072.43589709, 4102.17948684, 4116.66666639, 4120.12820485, 4095.51282017, 4128.33333306,10.0
4088.84615350, 4113.58974332, 4102.94871767, 4128.84615357, 4111.79487152, 4087.69230735, 4088.97435863, 4093.71794837, 4073.97435863, 4094.48717914, 4102.17948684, 4111.15384588, 4085.38461504, 4126.41025614,10.0
4078.58974325, 4109.23076896, 4090.64102530, 4125.51282024, 4108.71794844, 4089.48717914, 4094.74358940, 4099.61538427, 4088.20512786, 4097.56410222, 4094.74358940, 4109.10256383, 4087.30769196, 4126.66666639,10.0
4068.84615343, 4103.33333306, 4080.89743555, 4118.71794844, 4104.23076896, 4092.43589709, 4096.66666632, 4095.51282017, 4079.10256376, 4092.56410222, 4089.23076889, 4105.51282024, 4085.51282017, 4128.20512793,10.0
4055.38461497, 4087.43589709, 4068.71794830, 4104.35897408, 4086.15384581, 4080.64102530, 4073.97435863, 4072.69230735, 4042.43589702, 4067.82051241, 4079.61538427, 4090.25640991, 4071.53846119, 4127.17948691,10.0
4076.53846119, 4102.82051255, 4084.99999966, 4118.46153819, 4098.20512786, 4081.66666632, 4081.02564068, 4081.66666632, 4053.71794830, 4085.51282017, 4097.82051248, 4105.38461511, 4083.20512786, 4126.79487152,10.0
4105.38461511, 4129.61538434, 4111.66666639, 4141.28205108, 4129.99999973, 4097.69230735, 4113.46153819, 4106.79487152, 4091.66666632, 4127.94871767, 4122.56410229, 4136.15384595, 4108.71794844, 4129.10256383,10.0
4083.71794837, 4110.38461511, 4089.87179453, 4116.66666639, 4112.82051255, 4090.64102530, 4106.02564075, 4097.56410222, 4081.28205094, 4107.43589716, 4102.82051255, 4118.71794844, 4095.89743555, 4130.25640998,10.0
4059.10256369, 4087.56410222, 4063.07692266, 4090.76923043, 4086.02564068, 4066.53846113, 4077.56410222, 4085.64102530, 4064.61538420, 4075.89743555, 4084.35897402, 4089.87179453, 4077.56410222, 4126.66666639,10.0
4078.07692273, 4108.20512793, 4083.58974325, 4116.02564075, 4101.28205094, 4064.87179446, 4080.25640991, 4092.17948684, 4076.41025607, 4101.79487145, 4108.20512793, 4106.79487152, 4095.38461504, 4124.99999973,10.0
4092.43589709, 4120.64102537, 4099.99999966, 4130.76923050, 4102.43589709, 4075.89743555, 4095.89743555, 4090.25640991, 4076.53846119, 4117.56410229, 4114.48717921, 4116.02564075, 4101.02564068, 4127.30769203,10.0
4091.79487145, 4113.71794844, 4094.48717914, 4119.10256383, 4092.94871761, 4083.20512786, 4108.46153819, 4097.43589709, 4079.35897402, 4100.38461504, 4100.25640991, 4104.61538434, 4088.84615350, 4127.30769203,10.0
4097.17948684, 4116.53846126, 4095.51282017, 4123.58974332, 4110.25640998, 4080.89743555, 4108.71794844, 4109.23076896, 4093.71794837, 4099.23076889, 4105.12820485, 4110.89743562, 4092.56410222, 4124.35897408,10.0
4087.30769196, 4105.12820485, 4086.79487145, 4119.74358947, 4105.89743562, 4066.28205087, 4086.53846119, 4086.66666632, 4070.89743555, 4095.51282017, 4100.64102530, 4109.99999973, 4089.61538427, 4123.58974332,10.0
4079.23076889, 4094.10256376, 4079.23076889, 4103.58974332, 4084.35897402, 4069.10256369, 4087.56410222, 4076.79487145, 4052.82051241, 4084.61538427, 4094.10256376, 4101.28205094, 4082.56410222, 4125.89743562,10.0
4099.74358940, 4111.92307665, 4100.25640991, 4114.99999973, 4098.33333299, 4086.28205094, 4111.02564075, 4099.10256376, 4077.05128171, 4093.58974325, 4109.74358947, 4114.99999973, 4094.23076889, 4127.56410229,10.0
4109.87179460, 4123.97435870, 4111.92307665, 4128.46153819, 4109.23076896, 4083.20512786, 4101.53846119, 4091.28205094, 4073.58974325, 4092.43589709, 4111.92307665, 4127.05128178, 4095.25640991, 4126.66666639,10.0
4092.30769196, 4104.99999973, 4091.53846119, 4110.12820485, 4084.87179453, 4068.58974318, 4078.07692273, 4069.61538420, 4045.12820472, 4072.30769196, 4090.76923043, 4112.56410229, 4077.05128171, 4126.79487152,10.0
4089.87179453, 4102.30769196, 4083.20512786, 4102.94871767, 4083.20512786, 4079.61538427, 4092.69230735, 4090.25640991, 4064.99999959, 4079.23076889, 4094.10256376, 4108.97435870, 4083.97435863, 4128.20512793,10.0
4109.10256383, 4124.48717921, 4103.33333306, 4119.74358947, 4110.12820485, 4103.07692280, 4116.41025614, 4114.35897408, 4095.12820478, 4107.94871767, 4118.46153819, 4130.51282024, 4105.25640998, 4127.43589716,10.0
4111.66666639, 4127.56410229, 4116.53846126, 4118.46153819, 4116.79487152, 4105.89743562, 4110.51282024, 4097.82051248, 4076.92307658, 4111.53846126, 4120.38461511, 4137.30769210, 4102.30769196, 4126.66666639,10.0
4097.17948684, 4113.84615357, 4103.84615357, 4103.58974332, 4101.28205094, 4094.10256376, 4094.61538427, 4078.20512786, 4053.71794830, 4092.69230735, 4106.79487152, 4124.99999973, 4089.61538427, 4126.79487152,10.0
4093.58974325, 4107.17948691, 4091.92307658, 4103.07692280, 4095.51282017, 4091.41025607, 4091.79487145, 4085.12820478, 4059.61538420, 4084.74358940, 4100.64102530, 4117.17948691, 4087.56410222, 4128.58974332,10.0
4096.79487145, 4107.17948691, 4094.23076889, 4108.46153819, 4098.46153812, 4101.66666632, 4101.15384581, 4091.66666632, 4065.64102523, 4090.89743555, 4102.69230742, 4118.84615357, 4090.12820478, 4130.89743562,10.0
4092.94871761, 4108.20512793, 4094.48717914, 4104.23076896, 4090.51282017, 4099.48717914, 4099.74358940, 4081.66666632, 4057.69230728, 4093.07692273, 4105.76923050, 4118.71794844, 4088.58974325, 4128.58974332,10.0
4094.99999966, 4117.43589716, 4091.92307658, 4103.84615357, 4090.25640991, 4093.20512786, 4096.28205094, 4078.07692273, 4053.84615343, 4085.51282017, 4107.43589716, 4119.74358947, 4089.61538427, 4127.05128178,10.0
4103.07692280, 4123.07692280, 4096.66666632, 4113.20512793, 4106.15384588, 4099.87179453, 4105.89743562, 4091.28205094, 4065.64102523, 4087.69230735, 4108.20512793, 4126.02564075, 4094.61538427, 4127.82051255,10.0
4101.02564068, 4117.17948691, 4099.61538427, 4114.74358947, 4109.10256383, 4098.20512786, 4100.64102530, 4096.66666632, 4075.89743555, 4102.94871767, 4111.28205101, 4129.48717921, 4097.82051248, 4127.17948691,10.0
4099.35897402, 4117.94871767, 4100.51282017, 4113.71794844, 4106.15384588, 4096.53846119, 4097.82051248, 4097.56410222, 4077.30769196, 4109.10256383, 4118.71794844, 4133.33333306, 4100.76923043, 4126.15384588,10.0
4096.02564068, 4112.82051255, 4095.12820478, 4111.41025614, 4102.30769196, 4101.28205094, 4105.25640998, 4097.17948684, 4071.53846119, 4091.79487145, 4107.94871767, 4127.43589716, 4091.15384581, 4125.12820485,10.0
4079.35897402, 4094.10256376, 4077.94871761, 4098.71794837, 4078.46153812, 4085.76923043, 4084.99999966, 4079.74358940, 4056.15384574, 4068.58974318, 4080.51282017, 4108.07692280, 4071.66666632, 4124.48717921,10.0
4078.20512786, 4094.87179453, 4080.12820478, 4093.46153812, 4065.76923036, 4070.76923043, 4066.28205087, 4070.38461504, 4049.74358933, 4071.28205094, 4082.43589709, 4108.84615357, 4072.94871761, 4123.84615357,10.0
4104.99999973, 4120.38461511, 4108.58974332, 4114.10256383, 4095.51282017, 4095.38461504, 4095.38461504, 4089.35897402, 4070.25640991, 4102.05128171, 4114.74358947, 4137.05128185, 4096.79487145, 4125.38461511,10.0
4116.28205101, 4129.23076896, 4116.15384588, 4129.99999973, 4114.35897408, 4118.46153819, 4118.20512793, 4100.64102530, 4082.56410222, 4116.02564075, 4125.89743562, 4147.82051262, 4104.61538434, 4128.58974332,10.0
4108.71794844, 4123.20512793, 4106.53846126, 4120.51282024, 4103.46153819, 4108.46153819, 4108.33333306, 4094.74358940, 4077.17948684, 4103.71794844, 4115.38461511, 4138.33333313, 4096.79487145, 4127.69230742,10.0
4112.94871767, 4129.23076896, 4112.30769203, 4113.71794844, 4104.87179460, 4101.66666632, 4109.48717921, 4096.15384581, 4077.17948684, 4100.76923043, 4115.89743562, 4138.07692287, 4096.28205094, 4125.25640998,10.0
4108.97435870, 4124.23076896, 4105.76923050, 4112.30769203, 4102.30769196, 4098.97435863, 4103.33333306, 4092.17948684, 4072.69230735, 4101.79487145, 4111.02564075, 4130.12820485, 4092.82051248, 4126.15384588,10.0
4090.51282017, 4105.64102537, 4086.53846119, 4104.48717921, 4085.76923043, 4094.99999966, 4088.20512786, 4079.99999966, 4062.94871754, 4091.02564068, 4096.41025607, 4117.56410229, 4087.43589709, 4127.94871767,10.0
4091.28205094, 4109.10256383, 4091.66666632, 4102.17948684, 4094.48717914, 4106.41025614, 4103.33333306, 4089.99999966, 4076.02564068, 4091.66666632, 4101.28205094, 4125.25640998, 4092.05128171, 4129.23076896,10.0
4101.53846119, 4122.05128178, 4102.05128171, 4109.10256383, 4108.58974332, 4111.02564075, 4116.66666639, 4102.17948684, 4091.15384581, 4103.20512793, 4112.05128178, 4133.58974332, 4096.02564068, 4127.05128178,10.0
4098.46153812, 4115.89743562, 4096.53846119, 4113.84615357, 4097.43589709, 4099.48717914, 4101.41025607, 4092.56410222, 4080.12820478, 4102.05128171, 4109.99999973, 4130.38461511, 4096.41025607, 4125.25640998,10.0
4118.07692280, 4127.56410229, 4121.41025614, 4123.71794844, 4112.43589716, 4104.87179460, 4103.97435870, 4097.82051248, 4092.82051248, 4123.84615357, 4118.84615357, 4144.74358954, 4114.35897408, 4127.69230742,10.0
4117.30769203, 4132.56410229, 4120.38461511, 4128.07692280, 4113.71794844, 4105.25640998, 4110.38461511, 4091.79487145, 4072.43589709, 4111.28205101, 4118.20512793, 4134.74358947, 4108.84615357, 4126.66666639,10.0
4111.41025614, 4129.10256383, 4109.74358947, 4121.79487152, 4103.84615357, 4106.41025614, 4116.02564075, 4086.79487145, 4060.51282010, 4093.20512786, 4113.71794844, 4124.74358947, 4097.82051248, 4125.38461511,10.0
4106.15384588, 4121.28205101, 4106.66666639, 4120.12820485, 4091.66666632, 4093.71794837, 4097.94871761, 4084.10256376, 4068.33333292, 4097.30769196, 4115.38461511, 4128.84615357, 4100.76923043, 4124.35897408,10.0
4097.30769196, 4111.28205101, 4099.10256376, 4117.30769203, 4090.12820478, 4077.56410222, 4084.10256376, 4085.12820478, 4072.94871761, 4099.48717914, 4112.94871767, 4127.05128178, 4099.48717914, 4127.43589716,10.0
4112.56410229, 4126.02564075, 4112.30769203, 4127.56410229, 4110.12820485, 4093.71794837, 4112.43589716, 4108.84615357, 4094.35897402, 4117.05128178, 4124.48717921, 4136.79487159, 4110.12820485, 4128.84615357,10.0
4138.33333313, 4153.58974339, 4142.05128185, 4149.10256390, 4127.05128178, 4115.25640998, 4136.15384595, 4126.28205101, 4113.33333306, 4146.28205108, 4148.33333313, 4162.17948697, 4131.66666639, 4124.74358947,10.0
4136.28205108, 4151.66666646, 4142.82051262, 4153.07692287, 4120.89743562, 4110.89743562, 4130.25640998, 4122.69230742, 4109.74358947, 4141.41025621, 4144.99999980, 4165.76923056, 4125.64102537, 4122.94871767,10.0
4129.10256383, 4139.61538441, 4133.07692280, 4147.43589723, 4120.25640998, 4112.30769203, 4138.07692287, 4130.25640998, 4118.46153819, 4128.33333306, 4131.92307665, 4156.53846133, 4111.79487152, 4128.07692280,10.0
4136.66666646, 4146.41025621, 4142.05128185, 4150.25641005, 4128.33333306, 4120.51282024, 4145.64102544, 4132.30769203, 4123.07692280, 4139.48717928, 4140.51282031, 4159.87179467, 4119.23076896, 4131.53846126,10.0
4135.38461518, 4146.15384595, 4138.46153826, 4149.35897415, 4126.66666639, 4108.97435870, 4127.30769203, 4111.66666639, 4101.92307658, 4137.69230749, 4138.84615364, 4154.35897415, 4118.84615357, 4126.15384588,10.0
4130.25640998, 4137.69230749, 4125.38461511, 4144.48717928, 4125.12820485, 4104.23076896, 4124.23076896, 4108.84615357, 4097.69230735, 4124.23076896, 4120.38461511, 4140.51282031, 4106.53846126, 4124.48717921,10.0
4137.69230749, 4147.43589723, 4137.56410236, 4150.38461518, 4136.15384595, 4118.07692280, 4142.43589723, 4126.66666639, 4117.56410229, 4135.38461518, 4132.43589716, 4149.10256390, 4112.82051255, 4129.61538434,10.0
4142.56410236, 4154.61538441, 4151.79487159, 4157.56410236, 4143.71794851, 4124.35897408, 4142.17948697, 4128.58974332, 4124.23076896, 4149.74358954, 4151.53846133, 4164.99999980, 4126.53846126, 4128.58974332,10.0
4132.43589716, 4142.56410236, 4140.38461518, 4153.58974339, 4134.87179460, 4117.69230742, 4120.76923050, 4111.79487152, 4109.61538434, 4138.71794851, 4137.05128185, 4154.61538441, 4122.30769203, 4125.12820485,10.0
4134.87179460, 4145.12820492, 4142.43589723, 4158.84615364, 4138.71794851, 4128.33333306, 4128.46153819, 4118.71794844, 4117.17948691, 4135.64102544, 4135.12820485, 4151.92307672, 4125.38461511, 4123.71794844,10.0
4163.58974339, 4167.30769210, 4170.89743576, 4177.94871781, 4160.64102544, 4153.33333313, 4163.84615364, 4150.38461518, 4153.97435877, 4160.12820492, 4158.97435877, 4179.35897422, 4147.82051262, 4126.41025614,10.0
4168.46153833, 4165.38461518, 4176.28205115, 4177.82051269, 4159.99999980, 4146.15384595, 4154.74358954, 4140.12820492, 4143.07692287, 4161.28205108, 4155.12820492, 4182.05128192, 4142.43589723, 4130.76923050,10.0
4150.76923056, 4150.64102544, 4161.41025621, 4164.35897415, 4147.30769210, 4123.84615357, 4127.82051255, 4115.25640998, 4113.46153819, 4143.20512800, 4140.76923056, 4161.79487159, 4119.48717921, 4127.17948691,10.0
4162.05128185, 4160.51282031, 4170.12820499, 4171.66666653, 4161.53846133, 4132.69230742, 4145.89743569, 4138.84615364, 4138.71794851, 4152.05128185, 4157.17948697, 4169.48717935, 4129.61538434, 4124.61538434,10.0
4182.94871781, 4178.07692294, 4188.33333320, 4187.30769217, 4180.51282038, 4153.07692287, 4168.20512807, 4163.84615364, 4167.82051262, 4169.99999986, 4172.30769217, 4186.02564089, 4150.51282031, 4129.10256383,10.0
4172.82051269, 4165.76923056, 4176.66666653, 4175.12820499, 4169.74358961, 4143.71794851, 4152.43589723, 4145.38461518, 4149.87179467, 4164.10256390, 4158.46153826, 4170.89743576, 4141.66666646, 4130.12820485,10.0
4152.82051262, 4139.74358954, 4150.76923056, 4151.02564082, 4151.15384595, 4129.99999973, 4139.74358954, 4123.97435870, 4125.51282024, 4153.71794851, 4139.23076903, 4146.28205108, 4124.61538434, 4125.25640998,10.0
4148.33333313, 4136.53846133, 4140.76923056, 4146.92307672, 4146.15384595, 4138.07692287, 4141.53846133, 4122.30769203, 4118.71794844, 4143.58974339, 4128.71794844, 4133.84615357, 4118.84615357, 4125.12820485,10.0
4154.23076903, 4150.64102544, 4147.94871774, 4161.66666646, 4149.23076903, 4147.69230749, 4137.43589723, 4128.20512793, 4125.25640998, 4135.25640998, 4132.56410229, 4133.46153819, 4120.64102537, 4129.35897408,10.0
4160.51282031, 4158.46153826, 4156.02564082, 4174.87179474, 4153.33333313, 4147.94871774, 4137.43589723, 4129.23076896, 4133.33333306, 4138.84615364, 4146.79487159, 4143.33333313, 4126.66666639, 4128.84615357,10.0
4154.10256390, 4151.41025621, 4146.92307672, 4170.76923063, 4150.12820492, 4146.15384595, 4139.61538441, 4118.20512793, 4123.20512793, 4136.92307672, 4142.94871774, 4139.23076903, 4125.51282024, 4126.79487152,10.0
4155.38461518, 4156.66666646, 4146.02564082, 4176.53846140, 4153.20512800, 4153.46153826, 4144.23076903, 4130.76923050, 4136.92307672, 4148.97435877, 4143.84615364, 4135.76923056, 4132.43589716, 4126.02564075,10.0
4163.20512800, 4166.66666646, 4157.05128185, 4189.74358961, 4162.43589723, 4160.12820492, 4143.84615364, 4144.87179467, 4154.61538441, 4171.02564089, 4160.51282031, 4145.76923056, 4144.87179467, 4125.38461511,10.0
4129.99999973, 4137.17948697, 4128.71794844, 4162.82051262, 4146.15384595, 4147.94871774, 4115.38461511, 4106.41025614, 4105.64102537, 4138.58974339, 4134.99999973, 4123.20512793, 4118.46153819, 4127.05128178,10.0
4107.94871767, 4116.28205101, 4104.61538434, 4140.89743569, 4131.79487152, 4149.99999980, 4108.58974332, 4090.12820478, 4079.48717914, 4105.76923050, 4106.79487152, 4099.99999966, 4098.46153812, 4129.74358947,10.0
4147.56410236, 4152.30769210, 4146.92307672, 4174.99999986, 4159.10256390, 4182.69230756, 4157.82051262, 4140.38461518, 4137.94871774, 4146.02564082, 4140.76923056, 4136.02564082, 4131.41025614, 4127.82051255,10.0
4177.56410243, 4183.58974345, 4186.66666653, 4203.07692301, 4193.84615371, 4197.56410243, 4187.43589730, 4170.38461525, 4175.51282038, 4182.30769217, 4172.94871781, 4170.12820499, 4152.94871774, 4127.56410229,10.0
4162.30769210, 4170.25641012, 4172.30769217, 4187.05128192, 4191.53846140, 4173.33333320, 4160.51282031, 4151.15384595, 4157.43589723, 4169.99999986, 4160.38461518, 4156.92307672, 4138.20512800, 4128.46153819,10.0
4162.30769210, 4170.25641012, 4172.30769217, 4187.05128192, 4191.53846140, 4173.33333320, 4160.51282031, 4151.15384595, 4157.43589723, 4169.99999986, 4160.38461518, 4156.92307672, 4138.20512800, 4128.46153819,10.0
4139.23076903, 4144.99999980, 4143.20512800, 4160.89743569, 4159.35897415, 4146.92307672, 4128.84615357, 4131.15384588, 4139.48717928, 4151.15384595, 4138.97435877, 4132.94871767, 4121.92307665, 4128.20512793,10.0
4125.12820485, 4132.43589716, 4124.74358947, 4142.82051262, 4139.99999980, 4142.69230749, 4121.15384588, 4122.05128178, 4127.17948691, 4131.92307665, 4120.38461511, 4115.12820485, 4110.64102537, 4129.74358947,10.0
4133.20512793, 4145.12820492, 4129.48717921, 4147.94871774, 4155.89743569, 4159.87179467, 4133.20512793, 4125.12820485, 4126.79487152, 4135.64102544, 4125.51282024, 4120.89743562, 4118.33333306, 4127.69230742,10.0
4151.28205108, 4161.28205108, 4145.76923056, 4163.46153826, 4166.66666646, 4168.84615371, 4144.61538441, 4132.69230742, 4136.66666646, 4155.89743569, 4150.12820492, 4139.35897415, 4135.64102544, 4125.51282024,10.0
4138.07692287, 4146.02564082, 4137.69230749, 4155.12820492, 4151.15384595, 4148.07692287, 4128.20512793, 4122.94871767, 4126.02564075, 4140.12820492, 4141.53846133, 4129.99999973, 4123.07692280, 4125.64102537,10.0
4121.79487152, 4129.74358947, 4125.12820485, 4144.99999980, 4145.64102544, 4132.56410229, 4109.48717921, 4111.92307665, 4108.58974332, 4115.38461511, 4119.99999973, 4115.51282024, 4105.12820485, 4126.41025614,10.0
4139.74358954, 4144.35897415, 4138.20512800, 4157.69230749, 4157.30769210, 4151.02564082, 4129.23076896, 4118.84615357, 4111.15384588, 4126.28205101, 4131.15384588, 4131.41025614, 4120.89743562, 4127.30769203,10.0
4154.35897415, 4158.33333313, 4151.92307672, 4169.23076910, 4163.84615364, 4163.71794851, 4147.94871774, 4126.28205101, 4120.64102537, 4145.12820492, 4146.15384595, 4147.69230749, 4135.38461518, 4127.17948691,10.0
4158.33333313, 4163.58974339, 4158.58974339, 4172.82051269, 4170.12820499, 4160.12820492, 4144.99999980, 4135.76923056, 4136.41025621, 4154.87179467, 4148.71794851, 4154.10256390, 4136.53846133, 4129.10256383,10.0
4159.99999980, 4163.58974339, 4156.02564082, 4172.56410243, 4174.10256397, 4160.25641005, 4140.25641005, 4139.35897415, 4143.84615364, 4158.71794851, 4145.64102544, 4153.97435877, 4133.58974332, 4130.38461511,10.0
4146.66666646, 4153.84615364, 4141.28205108, 4165.64102544, 4166.28205108, 4163.58974339, 4143.46153826, 4129.87179460, 4133.71794844, 4149.10256390, 4136.15384595, 4135.89743569, 4125.12820485, 4127.94871767,10.0
4126.53846126, 4143.33333313, 4124.61538434, 4157.17948697, 4157.82051262, 4159.87179467, 4144.61538441, 4124.99999973, 4127.17948691, 4136.15384595, 4124.87179460, 4116.66666639, 4117.69230742, 4126.79487152,10.0
4120.38461511, 4137.30769210, 4116.28205101, 4155.12820492, 4150.89743569, 4143.84615364, 4125.89743562, 4118.20512793, 4121.53846126, 4131.02564075, 4124.23076896, 4114.48717921, 4113.97435870, 4128.84615357,10.0
4129.10256383, 4139.23076903, 4120.25640998, 4161.66666646, 4148.97435877, 4128.71794844, 4112.43589716, 4105.64102537, 4111.79487152, 4133.97435870, 4129.35897408, 4123.33333306, 4117.30769203, 4130.25640998,10.0
4137.94871774, 4146.28205108, 4129.87179460, 4168.20512807, 4158.97435877, 4136.15384595, 4127.82051255, 4114.87179460, 4120.25640998, 4137.69230749, 4130.25640998, 4131.41025614, 4125.64102537, 4128.07692280,10.0
4137.56410236, 4145.38461518, 4133.33333306, 4163.84615364, 4165.76923056, 4146.41025621, 4138.33333313, 4132.05128178, 4140.64102544, 4137.43589723, 4131.53846126, 4130.64102537, 4127.94871767, 4124.87179460,10.0
4128.71794844, 4138.20512800, 4126.41025614, 4160.12820492, 4156.15384595, 4136.15384595, 4126.28205101, 4121.79487152, 4134.87179460, 4139.99999980, 4136.15384595, 4121.92307665, 4120.12820485, 4127.30769203,10.0
4121.41025614, 4138.46153826, 4116.92307665, 4160.51282031, 4145.38461518, 4123.46153819, 4121.02564075, 4110.51282024, 4117.05128178, 4141.28205108, 4134.74358947, 4115.89743562, 4115.76923050, 4129.74358947,10.0
4125.64102537, 4141.15384595, 4122.56410229, 4161.15384595, 4153.71794851, 4126.92307665, 4127.43589716, 4119.74358947, 4124.10256383, 4139.10256390, 4133.84615357, 4124.99999973, 4123.97435870, 4126.28205101,10.0
4133.58974332, 4140.51282031, 4137.05128185, 4165.89743569, 4159.99999980, 4130.89743562, 4122.56410229, 4116.53846126, 4124.10256383, 4136.92307672, 4136.92307672, 4133.84615357, 4127.94871767, 4125.25640998,10.0
4130.38461511, 4141.66666646, 4130.64102537, 4166.53846133, 4154.61538441, 4129.61538434, 4120.89743562, 4109.87179460, 4105.64102537, 4127.82051255, 4129.87179460, 4122.94871767, 4115.76923050, 4127.82051255,10.0
4118.97435870, 4137.30769210, 4111.92307665, 4154.61538441, 4153.20512800, 4131.79487152, 4128.97435870, 4120.25640998, 4107.05128178, 4118.20512793, 4116.66666639, 4105.38461511, 4103.07692280, 4130.12820485,10.0
4122.56410229, 4139.74358954, 4120.25640998, 4155.38461518, 4157.82051262, 4141.66666646, 4137.30769210, 4126.02564075, 4124.87179460, 4124.35897408, 4121.92307665, 4112.30769203, 4112.30769203, 4128.84615357,10.0
4137.17948697, 4155.25641005, 4144.10256390, 4175.12820499, 4159.99999980, 4149.35897415, 4144.99999980, 4133.07692280, 4140.89743569, 4142.30769210, 4141.41025621, 4138.84615364, 4131.41025614, 4126.92307665,10.0
4136.02564082, 4150.25641005, 4140.51282031, 4176.41025628, 4151.92307672, 4137.94871774, 4138.84615364, 4139.23076903, 4142.05128185, 4144.87179467, 4145.64102544, 4145.38461518, 4132.17948691, 4127.30769203,10.0
4136.02564082, 4150.25641005, 4140.51282031, 4176.41025628, 4151.92307672, 4137.94871774, 4138.84615364, 4139.23076903, 4142.05128185, 4144.87179467, 4145.64102544, 4145.38461518, 4132.17948691, 4127.30769203,10.0
4122.30769203, 4129.61538434, 4118.97435870, 4159.87179467, 4140.25641005, 4123.20512793, 4127.56410229, 4126.92307665, 4126.41025614, 4131.02564075, 4128.46153819, 4126.28205101, 4117.17948691, 4127.05128178,10.0
4117.82051255, 4129.87179460, 4109.61538434, 4154.35897415, 4133.84615357, 4126.02564075, 4129.48717921, 4115.25640998, 4115.76923050, 4120.12820485, 4114.23076896, 4111.41025614, 4108.58974332, 4127.30769203,10.0
4117.56410229, 4133.46153819, 4110.12820485, 4153.71794851, 4131.79487152, 4123.84615357, 4124.61538434, 4108.33333306, 4108.84615357, 4109.61538434, 4112.17948691, 4108.46153819, 4106.28205101, 4125.51282024,10.0
4115.25640998, 4127.43589716, 4113.46153819, 4150.89743569, 4134.35897408, 4110.51282024, 4106.79487152, 4102.82051255, 4100.76923043, 4103.33333306, 4110.25640998, 4110.38461511, 4104.35897408, 4124.99999973,10.0
4123.20512793, 4138.97435877, 4127.30769203, 4158.07692287, 4147.56410236, 4114.23076896, 4108.07692280, 4112.56410229, 4108.58974332, 4110.89743562, 4117.17948691, 4122.56410229, 4116.02564075, 4128.07692280,10.0
4137.30769210, 4155.25641005, 4143.33333313, 4171.92307679, 4159.74358954, 4129.61538434, 4125.38461511, 4124.23076896, 4121.28205101, 4125.76923050, 4133.97435870, 4141.28205108, 4132.56410229, 4128.46153819,10.0
4132.05128178, 4146.53846133, 4131.53846126, 4167.69230749, 4157.30769210, 4128.97435870, 4122.43589716, 4107.17948691, 4102.82051255, 4122.30769203, 4128.58974332, 4138.71794851, 4121.53846126, 4128.97435870,10.0
4114.23076896, 4132.30769203, 4106.92307665, 4149.61538441, 4150.64102544, 4125.25640998, 4113.20512793, 4096.15384581, 4085.76923043, 4105.25640998, 4103.07692280, 4113.20512793, 4097.30769196, 4128.71794844,10.0
4113.71794844, 4138.58974339, 4108.84615357, 4150.25641005, 4149.74358954, 4135.89743569, 4125.12820485, 4117.43589716, 4105.51282024, 4113.46153819, 4104.10256383, 4111.02564075, 4102.94871767, 4126.92307665,10.0
4143.58974339, 4163.07692287, 4139.74358954, 4179.48717935, 4167.30769210, 4150.12820492, 4146.53846133, 4139.23076903, 4136.28205108, 4150.89743569, 4147.05128185, 4152.82051262, 4139.35897415, 4125.76923050,10.0
4158.84615364, 4168.46153833, 4151.02564082, 4191.15384602, 4175.64102551, 4147.94871774, 4145.89743569, 4139.99999980, 4149.87179467, 4165.76923056, 4167.05128185, 4174.61538448, 4156.28205108, 4125.64102537,10.0
4124.23076896, 4130.89743562, 4112.69230742, 4155.38461518, 4138.20512800, 4125.89743562, 4115.25640998, 4116.41025614, 4122.82051255, 4130.12820485, 4131.15384588, 4139.87179467, 4125.64102537, 4128.71794844,10.0
4100.76923043, 4108.71794844, 4089.10256376, 4134.61538434, 4115.89743562, 4119.35897408, 4104.23076896, 4103.84615357, 4096.02564068, 4108.46153819, 4107.56410229, 4120.38461511, 4102.43589709, 4128.20512793,10.0
4127.05128178, 4132.30769203, 4122.43589716, 4161.15384595, 4143.84615364, 4137.82051262, 4127.94871767, 4125.51282024, 4125.51282024, 4136.28205108, 4132.69230742, 4149.23076903, 4123.07692280, 4124.35897408,10.0
4145.89743569, 4146.53846133, 4149.23076903, 4179.99999986, 4147.94871774, 4136.79487159, 4128.97435870, 4134.10256383, 4146.79487159, 4152.82051262, 4153.58974339, 4170.89743576, 4139.35897415, 4126.66666639,10.0
4135.64102544, 4137.05128185, 4136.28205108, 4170.51282038, 4123.07692280, 4119.35897408, 4106.28205101, 4114.10256383, 4116.41025614, 4134.10256383, 4147.17948697, 4160.51282031, 4128.20512793, 4128.58974332,10.0
4135.25640998, 4138.20512800, 4131.02564075, 4168.33333320, 4133.97435870, 4125.89743562, 4110.12820485, 4107.30769203, 4099.35897402, 4125.12820485, 4139.23076903, 4150.51282031, 4121.66666639, 4126.92307665,10.0
4135.89743569, 4141.92307672, 4132.43589716, 4171.92307679, 4150.51282031, 4132.17948691, 4121.53846126, 4111.41025614, 4106.02564075, 4125.76923050, 4130.89743562, 4149.23076903, 4121.15384588, 4127.94871767,10.0
4126.02564075, 4137.43589723, 4118.20512793, 4158.97435877, 4138.20512800, 4121.28205101, 4120.76923050, 4116.66666639, 4115.89743562, 4120.25640998, 4126.66666639, 4148.97435877, 4116.79487152, 4128.07692280,10.0
4137.05128185, 4147.17948697, 4122.56410229, 4158.58974339, 4144.23076903, 4129.35897408, 4141.15384595, 4138.71794851, 4141.53846133, 4129.48717921, 4139.10256390, 4156.41025621, 4125.51282024, 4126.02564075,10.0
4148.20512800, 4158.20512800, 4140.89743569, 4174.87179474, 4162.82051262, 4139.74358954, 4155.64102544, 4140.76923056, 4143.33333313, 4144.35897415, 4150.76923056, 4161.15384595, 4136.92307672, 4125.51282024,10.0
4133.33333306, 4146.53846133, 4130.12820485, 4167.30769210, 4151.92307672, 4124.23076896, 4135.51282031, 4112.17948691, 4105.51282024, 4134.48717921, 4139.61538441, 4146.92307672, 4125.76923050, 4127.05128178,10.0
4118.07692280, 4127.30769203, 4107.05128178, 4142.05128185, 4132.94871767, 4105.12820485, 4119.99999973, 4111.28205101, 4100.38461504, 4115.51282024, 4116.92307665, 4127.30769203, 4109.99999973, 4127.94871767,10.0
4124.10256383, 4126.53846126, 4111.28205101, 4141.15384595, 4135.38461518, 4106.28205101, 4124.99999973, 4134.48717921, 4131.15384588, 4121.92307665, 4119.74358947, 4129.74358947, 4116.79487152, 4127.82051255,10.0
4133.20512793, 4138.20512800, 4122.05128178, 4152.94871774, 4140.38461518, 4110.51282024, 4128.33333306, 4135.12820485, 4130.12820485, 4133.07692280, 4137.05128185, 4138.97435877, 4126.15384588, 4128.33333306,10.0
4141.79487159, 4149.61538441, 4130.38461511, 4157.56410236, 4142.94871774, 4111.79487152, 4137.30769210, 4137.05128185, 4128.71794844, 4138.97435877, 4144.35897415, 4148.84615364, 4128.33333306, 4127.17948691,10.0
4157.43589723, 4160.12820492, 4149.23076903, 4170.64102551, 4153.07692287, 4121.28205101, 4149.10256390, 4151.92307672, 4147.30769210, 4146.79487159, 4147.17948697, 4164.35897415, 4135.76923056, 4125.76923050,10.0
4152.56410236, 4149.99999980, 4145.51282031, 4171.41025628, 4151.41025621, 4130.38461511, 4142.94871774, 4146.53846133, 4138.46153826, 4136.02564082, 4135.76923056, 4154.23076903, 4129.48717921, 4127.30769203,10.0
4128.97435870, 4127.69230742, 4119.23076896, 4148.58974339, 4129.87179460, 4130.76923050, 4134.74358947, 4132.30769203, 4121.28205101, 4120.64102537, 4114.99999973, 4125.25640998, 4111.66666639, 4129.87179460,10.0
4120.64102537, 4125.76923050, 4112.17948691, 4139.48717928, 4118.46153819, 4122.69230742, 4132.56410229, 4126.53846126, 4120.12820485, 4122.82051255, 4112.69230742, 4118.33333306, 4111.79487152, 4132.17948691,10.0
4129.10256383, 4133.46153819, 4123.20512793, 4149.61538441, 4129.61538434, 4113.58974332, 4123.20512793, 4118.46153819, 4112.69230742, 4126.02564075, 4123.97435870, 4134.61538434, 4119.10256383, 4128.84615357,10.0
4139.48717928, 4137.56410236, 4134.74358947, 4158.97435877, 4144.23076903, 4113.58974332, 4121.41025614, 4118.84615357, 4110.89743562, 4130.51282024, 4134.99999973, 4152.82051262, 4125.38461511, 4124.61538434,10.0
4146.92307672, 4140.12820492, 4138.33333313, 4158.33333313, 4146.41025621, 4118.58974332, 4133.71794844, 4131.92307665, 4128.58974332, 4144.61538441, 4142.17948697, 4156.41025621, 4133.33333306, 4128.58974332,10.0
4156.66666646, 4147.17948697, 4140.25641005, 4160.64102544, 4153.33333313, 4131.79487152, 4150.76923056, 4142.56410236, 4142.69230749, 4156.53846133, 4143.07692287, 4157.94871774, 4138.97435877, 4129.48717921,10.0
4166.15384595, 4158.97435877, 4153.46153826, 4174.74358961, 4173.97435884, 4148.07692287, 4165.12820492, 4151.15384595, 4152.30769210, 4169.48717935, 4146.92307672, 4172.82051269, 4146.53846133, 4124.74358947,10.0
4155.38461518, 4157.43589723, 4154.74358954, 4175.89743576, 4171.28205115, 4141.02564082, 4153.20512800, 4144.74358954, 4147.82051262, 4169.74358961, 4148.07692287, 4167.82051262, 4143.97435877, 4125.25640998,10.0
4123.97435870, 4133.20512793, 4126.02564075, 4152.82051262, 4140.12820492, 4116.15384588, 4120.51282024, 4115.12820485, 4112.94871767, 4134.48717921, 4124.35897408, 4128.20512793, 4118.07692280, 4127.30769203,10.0
4122.82051255, 4126.92307665, 4118.58974332, 4148.46153826, 4134.10256383, 4123.97435870, 4126.02564075, 4115.38461511, 4109.87179460, 4120.51282024, 4111.15384588, 4118.46153819, 4108.97435870, 4128.58974332,10.0
4145.64102544, 4144.61538441, 4135.12820485, 4165.64102544, 4151.15384595, 4147.94871774, 4151.41025621, 4141.53846133, 4140.25641005, 4140.25641005, 4124.87179460, 4139.87179467, 4123.84615357, 4129.99999973,10.0
4128.97435870, 4131.92307665, 4118.20512793, 4154.10256390, 4137.69230749, 4129.74358947, 4129.87179460, 4124.23076896, 4121.92307665, 4122.30769203, 4117.69230742, 4124.35897408, 4114.10256383, 4128.97435870,10.0
4105.12820485, 4112.82051255, 4099.35897402, 4139.23076903, 4117.69230742, 4105.12820485, 4104.35897408, 4099.61538427, 4090.12820478, 4099.74358940, 4107.17948691, 4105.25640998, 4102.94871767, 4127.05128178,10.0
4117.69230742, 4126.92307665, 4114.99999973, 4152.94871774, 4129.48717921, 4118.58974332, 4117.56410229, 4111.66666639, 4100.25640991, 4119.35897408, 4122.17948691, 4128.84615357, 4117.17948691, 4125.64102537,10.0
4132.05128178, 4141.92307672, 4131.28205101, 4165.12820492, 4136.92307672, 4131.15384588, 4125.12820485, 4116.41025614, 4108.84615357, 4129.87179460, 4130.51282024, 4149.35897415, 4121.92307665, 4124.48717921,10.0
4132.69230742, 4138.33333313, 4132.30769203, 4166.53846133, 4134.61538434, 4126.92307665, 4118.71794844, 4107.30769203, 4102.94871767, 4122.30769203, 4127.43589716, 4142.17948697, 4118.84615357, 4123.20512793,10.0
4125.12820485, 4129.74358947, 4121.66666639, 4163.20512800, 4142.05128185, 4129.87179460, 4123.71794844, 4109.35897408, 4104.61538434, 4121.41025614, 4125.25640998, 4133.71794844, 4120.38461511, 4125.38461511,10.0
4112.94871767, 4126.02564075, 4109.10256383, 4155.12820492, 4143.84615364, 4129.87179460, 4124.35897408, 4109.23076896, 4101.79487145, 4117.56410229, 4116.53846126, 4128.84615357, 4114.74358947, 4128.97435870,10.0
4123.84615357, 4139.99999980, 4126.66666639, 4164.87179467, 4148.46153826, 4131.02564075, 4127.17948691, 4113.97435870, 4108.71794844, 4126.92307665, 4124.35897408, 4135.76923056, 4119.99999973, 4126.53846126,10.0
4142.94871774, 4151.15384595, 4147.69230749, 4179.23076910, 4157.05128185, 4143.33333313, 4141.02564082, 4124.74358947, 4123.20512793, 4139.23076903, 4141.15384595, 4147.43589723, 4130.12820485, 4126.02564075,10.0
4127.05128178, 4132.17948691, 4129.61538434, 4163.71794851, 4143.46153826, 4132.82051255, 4133.07692280, 4116.79487152, 4113.84615357, 4123.84615357, 4128.84615357, 4135.25640998, 4115.38461511, 4130.89743562,10.0
4116.28205101, 4124.48717921, 4120.89743562, 4153.97435877, 4134.48717921, 4121.02564075, 4127.56410229, 4121.92307665, 4117.43589716, 4121.79487152, 4117.69230742, 4127.17948691, 4111.53846126, 4131.28205101,10.0
4114.35897408, 4126.79487152, 4121.02564075, 4153.33333313, 4132.05128178, 4124.23076896, 4129.48717921, 4127.05128178, 4119.61538434, 4123.20512793, 4115.76923050, 4125.51282024, 4116.79487152, 4127.82051255,10.0
4081.53846119, 4097.30769196, 4086.92307658, 4125.89743562, 4102.43589709, 4102.94871767, 4101.92307658, 4096.79487145, 4081.92307658, 4088.71794837, 4092.43589709, 4096.15384581, 4092.82051248, 4125.38461511,10.0
4072.82051248, 4087.17948684, 4078.46153812, 4115.89743562, 4091.53846119, 4090.76923043, 4095.76923043, 4095.89743555, 4084.35897402, 4087.69230735, 4090.12820478, 4086.66666632, 4088.33333299, 4125.64102537,10.0
4115.51282024, 4129.99999973, 4122.69230742, 4152.69230749, 4128.07692280, 4125.38461511, 4138.84615364, 4137.17948697, 4139.23076903, 4140.76923056, 4132.69230742, 4130.64102537, 4127.56410229, 4126.92307665,10.0
4136.41025621, 4152.05128185, 4142.05128185, 4171.28205115, 4149.74358954, 4146.02564082, 4160.64102544, 4141.02564082, 4147.56410236, 4160.38461518, 4154.10256390, 4159.23076903, 4144.48717928, 4125.89743562,10.0
4116.53846126, 4130.12820485, 4121.79487152, 4151.92307672, 4134.74358947, 4125.25640998, 4136.53846133, 4114.35897408, 4114.23076896, 4135.51282031, 4133.46153819, 4138.58974339, 4125.64102537, 4126.41025614,10.0
4097.30769196, 4115.64102537, 4108.20512793, 4140.64102544, 4120.12820485, 4108.20512793, 4111.41025614, 4108.07692280, 4109.48717921, 4122.94871767, 4116.53846126, 4118.58974332, 4114.35897408, 4127.30769203,10.0
4097.05128171, 4119.99999973, 4111.02564075, 4147.05128185, 4123.20512793, 4115.64102537, 4116.15384588, 4119.10256383, 4127.94871767, 4135.64102544, 4124.48717921, 4122.82051255, 4117.56410229, 4125.51282024,10.0
4113.58974332, 4126.28205101, 4123.46153819, 4155.64102544, 4131.92307665, 4133.71794844, 4137.82051262, 4125.51282024, 4128.33333306, 4147.17948697, 4140.64102544, 4135.64102544, 4124.10256383, 4123.33333306,10.0
4113.71794844, 4121.66666639, 4121.53846126, 4151.28205108, 4122.56410229, 4127.94871767, 4129.87179460, 4112.17948691, 4107.43589716, 4128.58974332, 4131.28205101, 4130.89743562, 4118.07692280, 4124.23076896,10.0
4094.23076889, 4113.97435870, 4104.35897408, 4142.17948697, 4111.79487152, 4107.43589716, 4107.82051255, 4104.48717921, 4103.84615357, 4108.20512793, 4112.30769203, 4118.20512793, 4104.74358947, 4126.79487152,10.0
4092.30769196, 4117.05128178, 4102.56410229, 4145.89743569, 4125.12820485, 4114.74358947, 4117.43589716, 4118.07692280, 4117.56410229, 4119.74358947, 4115.38461511, 4121.41025614, 4106.79487152, 4124.87179460,10.0
4089.35897402, 4111.79487152, 4101.15384581, 4141.15384595, 4127.43589716, 4121.53846126, 4119.61538434, 4116.66666639, 4104.99999973, 4119.35897408, 4107.43589716, 4112.05128178, 4105.76923050, 4125.64102537,10.0
4075.89743555, 4098.46153812, 4088.84615350, 4128.07692280, 4108.97435870, 4104.74358947, 4101.66666632, 4101.66666632, 4089.10256376, 4097.69230735, 4086.66666632, 4093.07692273, 4093.97435863, 4130.89743562,10.0
4094.61538427, 4114.23076896, 4107.56410229, 4145.64102544, 4121.15384588, 4113.71794844, 4121.28205101, 4116.53846126, 4114.61538434, 4116.92307665, 4109.10256383, 4113.20512793, 4109.87179460, 4128.07692280,10.0
4132.30769203, 4143.20512800, 4145.64102544, 4177.56410243, 4157.17948697, 4145.12820492, 4160.12820492, 4144.99999980, 4146.92307672, 4158.58974339, 4149.74358954, 4149.35897415, 4141.15384595, 4123.84615357,10.0
4138.20512800, 4143.71794851, 4152.82051262, 4181.53846140, 4163.20512800, 4147.82051262, 4156.79487159, 4145.25641005, 4150.51282031, 4161.15384595, 4148.97435877, 4153.20512800, 4142.94871774, 4126.53846126,10.0
4134.10256383, 4140.12820492, 4145.76923056, 4175.25641012, 4153.71794851, 4135.89743569, 4140.64102544, 4132.43589716, 4139.48717928, 4149.35897415, 4137.17948697, 4143.46153826, 4133.97435870, 4129.99999973,10.0
4146.41025621, 4152.17948697, 4153.71794851, 4183.58974345, 4165.89743569, 4147.82051262, 4152.69230749, 4140.64102544, 4147.94871774, 4162.05128185, 4150.25641005, 4148.97435877, 4145.51282031, 4128.07692280,10.0
4152.43589723, 4154.35897415, 4159.61538441, 4187.17948704, 4176.53846140, 4164.10256390, 4164.35897415, 4156.28205108, 4169.99999986, 4173.46153833, 4157.82051262, 4153.46153826, 4152.56410236, 4124.35897408,10.0
4138.71794851, 4140.89743569, 4145.38461518, 4171.79487166, 4163.46153826, 4156.15384595, 4150.25641005, 4138.71794851, 4148.97435877, 4153.07692287, 4141.41025621, 4137.69230749, 4133.07692280, 4126.79487152,10.0
4120.12820485, 4130.51282024, 4126.02564075, 4155.38461518, 4150.38461518, 4138.58974339, 4129.23076896, 4114.99999973, 4114.48717921, 4129.87179460, 4127.69230742, 4114.87179460, 4118.71794844, 4127.94871767,10.0
4110.76923050, 4123.46153819, 4119.99999973, 4153.07692287, 4150.25641005, 4130.76923050, 4118.20512793, 4117.94871767, 4124.99999973, 4132.69230742, 4132.56410229, 4103.97435870, 4124.74358947, 4125.25640998,10.0
4108.33333306, 4119.48717921, 4121.53846126, 4157.69230749, 4151.28205108, 4133.97435870, 4119.10256383, 4123.97435870, 4138.58974339, 4141.02564082, 4134.23076896, 4101.53846119, 4124.35897408, 4125.76923050,10.0
4111.79487152, 4126.15384588, 4124.99999973, 4160.76923056, 4156.15384595, 4139.10256390, 4127.17948691, 4124.99999973, 4128.46153819, 4140.12820492, 4128.97435870, 4103.97435870, 4121.41025614, 4126.02564075,10.0
4126.53846126, 4138.07692287, 4136.53846133, 4170.25641012, 4168.46153833, 4148.58974339, 4143.84615364, 4137.82051262, 4142.69230749, 4148.07692287, 4138.46153826, 4116.53846126, 4136.79487159, 4125.51282024,10.0
4136.92307672, 4142.56410236, 4142.82051262, 4178.58974345, 4172.82051269, 4160.76923056, 4162.56410236, 4154.23076903, 4172.30769217, 4163.58974339, 4151.15384595, 4123.71794844, 4149.10256390, 4125.51282024,10.0
4131.15384588, 4139.48717928, 4135.51282031, 4174.61538448, 4165.25641005, 4157.30769210, 4165.64102544, 4155.12820492, 4171.15384602, 4163.84615364, 4149.10256390, 4114.48717921, 4139.10256390, 4124.87179460,10.0
4134.48717921, 4145.89743569, 4137.56410236, 4177.43589730, 4167.30769210, 4154.74358954, 4169.61538448, 4159.10256390, 4168.84615371, 4165.25641005, 4151.02564082, 4112.82051255, 4140.51282031, 4125.38461511,10.0
4150.12820492, 4152.82051262, 4151.79487159, 4191.15384602, 4178.20512807, 4159.10256390, 4175.51282038, 4166.28205108, 4182.05128192, 4174.48717935, 4161.15384595, 4123.58974332, 4153.20512800, 4125.64102537,10.0
4150.38461518, 4146.15384595, 4153.46153826, 4190.89743576, 4173.07692294, 4150.89743569, 4156.41025621, 4149.48717928, 4168.97435884, 4163.07692287, 4156.15384595, 4121.02564075, 4143.97435877, 4126.15384588,10.0
4144.61538441, 4145.38461518, 4150.25641005, 4184.74358961, 4168.58974345, 4149.87179467, 4143.97435877, 4131.41025614, 4141.15384595, 4142.30769210, 4143.97435877, 4114.48717921, 4131.28205101, 4128.07692280,10.0
4137.43589723, 4146.66666646, 4145.89743569, 4183.07692294, 4172.17948704, 4154.23076903, 4143.20512800, 4124.99999973, 4129.87179460, 4134.10256383, 4136.53846133, 4109.74358947, 4128.58974332, 4126.92307665,10.0
4122.94871767, 4132.43589716, 4132.30769203, 4172.43589730, 4155.64102544, 4132.17948691, 4119.99999973, 4109.74358947, 4118.71794844, 4128.46153819, 4125.64102537, 4096.15384581, 4121.28205101, 4125.38461511,10.0
4130.12820485, 4136.66666646, 4138.46153826, 4171.79487166, 4153.20512800, 4124.99999973, 4123.07692280, 4117.94871767, 4126.41025614, 4136.15384595, 4133.58974332, 4101.41025607, 4124.48717921, 4127.56410229,10.0
4155.12820492, 4161.41025621, 4163.84615364, 4191.02564089, 4181.92307679, 4155.64102544, 4167.82051262, 4158.46153826, 4168.20512807, 4161.92307672, 4158.33333313, 4129.23076896, 4145.25641005, 4129.10256383,10.0
4152.69230749, 4153.33333313, 4158.33333313, 4193.46153833, 4181.15384602, 4157.69230749, 4166.79487159, 4156.02564082, 4167.94871774, 4158.97435877, 4150.89743569, 4127.82051255, 4142.05128185, 4126.66666639,10.0
4132.30769203, 4128.58974332, 4131.66666639, 4177.30769217, 4151.28205108, 4128.97435870, 4128.84615357, 4114.61538434, 4119.35897408, 4132.30769203, 4126.02564075, 4102.56410229, 4119.87179460, 4122.94871767,10.0
4138.58974339, 4134.87179460, 4137.05128185, 4177.43589730, 4157.69230749, 4140.89743569, 4146.15384595, 4130.89743562, 4132.30769203, 4142.94871774, 4136.92307672, 4110.51282024, 4130.51282024, 4125.64102537,10.0
4154.87179467, 4145.51282031, 4155.12820492, 4186.28205115, 4177.17948704, 4169.74358961, 4181.02564089, 4170.76923063, 4179.48717935, 4169.87179474, 4156.53846133, 4129.74358947, 4151.28205108, 4130.12820485,10.0
4153.33333313, 4140.89743569, 4153.84615364, 4185.51282038, 4170.12820499, 4162.69230749, 4170.25641012, 4157.82051262, 4164.10256390, 4163.84615364, 4152.17948697, 4124.99999973, 4146.02564082, 4127.43589716,10.0
4144.48717928, 4139.10256390, 4147.94871774, 4178.84615371, 4164.48717928, 4149.48717928, 4150.76923056, 4136.15384595, 4132.17948691, 4147.30769210, 4144.35897415, 4115.89743562, 4134.99999973, 4125.38461511,10.0
4124.99999973, 4124.10256383, 4130.38461511, 4162.17948697, 4153.97435877, 4139.48717928, 4133.46153819, 4124.99999973, 4119.99999973, 4132.30769203, 4128.97435870, 4102.56410229, 4122.05128178, 4126.66666639,10.0
4107.43589716, 4107.05128178, 4112.69230742, 4152.69230749, 4136.66666646, 4126.02564075, 4115.25640998, 4109.61538434, 4110.89743562, 4119.99999973, 4116.02564075, 4090.89743555, 4114.48717921, 4127.82051255,10.0
4110.51282024, 4115.25640998, 4119.74358947, 4161.02564082, 4143.07692287, 4131.41025614, 4117.43589716, 4108.97435870, 4111.66666639, 4122.94871767, 4124.61538434, 4097.30769196, 4122.17948691, 4127.69230742,10.0
4119.10256383, 4124.74358947, 4132.56410229, 4166.92307672, 4153.58974339, 4144.61538441, 4128.97435870, 4121.28205101, 4116.92307665, 4129.99999973, 4131.79487152, 4107.05128178, 4125.76923050, 4126.79487152,10.0
4126.92307665, 4126.28205101, 4140.12820492, 4171.15384602, 4149.99999980, 4140.25641005, 4131.53846126, 4130.51282024, 4129.87179460, 4139.35897415, 4137.82051262, 4111.53846126, 4129.61538434, 4127.94871767,10.0
4144.48717928, 4137.69230749, 4154.61538441, 4184.87179474, 4159.74358954, 4143.33333313, 4144.87179467, 4146.66666646, 4161.53846133, 4163.97435877, 4158.71794851, 4123.71794844, 4151.66666646, 4126.92307665,10.0
4151.15384595, 4145.12820492, 4158.07692287, 4187.69230756, 4174.10256397, 4154.99999980, 4156.02564082, 4149.99999980, 4164.48717928, 4177.05128192, 4164.35897415, 4129.35897408, 4159.87179467, 4126.53846126,10.0
4126.15384588, 4126.15384588, 4138.20512800, 4168.46153833, 4156.28205108, 4134.10256383, 4131.41025614, 4130.25640998, 4138.97435877, 4156.15384595, 4141.53846133, 4107.56410229, 4136.66666646, 4127.69230742,10.0
4118.33333306, 4120.51282024, 4137.82051262, 4164.74358954, 4146.79487159, 4129.48717921, 4134.61538434, 4146.15384595, 4165.76923056, 4148.84615364, 4137.30769210, 4098.71794837, 4134.74358947, 4126.28205101,10.0
4143.71794851, 4139.99999980, 4159.35897415, 4180.64102551, 4166.53846133, 4159.61538441, 4172.56410243, 4172.30769217, 4190.12820499, 4163.58974339, 4155.76923056, 4120.25640998, 4152.69230749, 4127.43589716,10.0
4142.05128185, 4136.28205108, 4153.33333313, 4174.10256397, 4158.97435877, 4148.84615364, 4153.84615364, 4142.17948697, 4143.33333313, 4149.35897415, 4144.61538441, 4118.71794844, 4138.97435877, 4128.84615357,10.0
4105.12820485, 4109.10256383, 4118.71794844, 4145.89743569, 4125.38461511, 4109.61538434, 4097.17948684, 4100.64102530, 4101.28205094, 4116.53846126, 4108.46153819, 4082.69230735, 4108.58974332, 4128.97435870,10.0
4083.71794837, 4094.48717914, 4096.53846119, 4130.76923050, 4114.99999973, 4101.28205094, 4083.07692273, 4096.92307658, 4103.07692280, 4103.71794844, 4093.46153812, 4062.82051241, 4101.53846119, 4128.46153819,10.0
4097.56410222, 4103.58974332, 4110.51282024, 4140.76923056, 4129.35897408, 4114.48717921, 4103.84615357, 4109.10256383, 4111.41025614, 4114.87179460, 4108.71794844, 4082.43589709, 4116.02564075, 4128.07692280,10.0
4125.51282024, 4126.15384588, 4144.35897415, 4160.89743569, 4148.46153826, 4124.35897408, 4121.66666639, 4121.92307665, 4126.15384588, 4138.84615364, 4135.51282031, 4116.53846126, 4134.87179460, 4129.48717921,10.0
4144.74358954, 4148.20512800, 4168.97435884, 4175.38461525, 4166.41025621, 4134.10256383, 4137.69230749, 4137.82051262, 4149.23076903, 4161.28205108, 4160.38461518, 4138.07692287, 4151.66666646, 4129.74358947,10.0
4141.41025621, 4148.33333313, 4162.82051262, 4174.48717935, 4167.82051262, 4134.35897408, 4139.87179467, 4136.02564082, 4147.43589723, 4156.92307672, 4161.15384595, 4132.56410229, 4148.58974339, 4128.20512793,10.0
4132.05128178, 4141.79487159, 4151.15384595, 4170.51282038, 4158.20512800, 4129.61538434, 4131.02564075, 4130.51282024, 4138.97435877, 4145.38461518, 4144.61538441, 4120.12820485, 4135.76923056, 4128.07692280,10.0
4133.97435870, 4147.17948697, 4153.07692287, 4172.56410243, 4160.25641005, 4134.10256383, 4135.38461518, 4134.87179460, 4140.76923056, 4150.51282031, 4142.82051262, 4121.02564075, 4138.58974339, 4127.69230742,10.0
4126.53846126, 4137.43589723, 4143.58974339, 4162.69230749, 4156.92307672, 4127.05128178, 4134.99999973, 4130.76923050, 4130.12820485, 4142.17948697, 4139.23076903, 4112.17948691, 4135.76923056, 4127.30769203,10.0
4132.43589716, 4137.17948697, 4148.46153826, 4166.53846133, 4158.71794851, 4128.71794844, 4144.87179467, 4146.66666646, 4150.38461518, 4145.25641005, 4142.69230749, 4115.89743562, 4139.74358954, 4127.17948691,10.0
4159.74358954, 4162.17948697, 4177.30769217, 4189.10256397, 4178.33333320, 4152.69230749, 4172.17948704, 4175.51282038, 4190.76923063, 4171.66666653, 4162.30769210, 4140.38461518, 4160.76923056, 4125.76923050,10.0
4141.92307672, 4148.33333313, 4158.46153826, 4172.05128192, 4165.76923056, 4145.51282031, 4158.33333313, 4148.97435877, 4152.94871774, 4153.71794851, 4142.69230749, 4119.35897408, 4143.46153826, 4126.15384588,10.0
4090.25640991, 4103.71794844, 4104.99999973, 4131.92307665, 4128.84615357, 4108.58974332, 4112.17948691, 4098.33333299, 4083.33333299, 4103.71794844, 4099.99999966, 4068.20512779, 4099.48717914, 4128.07692280,10.0
4082.94871761, 4098.46153812, 4097.94871761, 4128.97435870, 4118.71794844, 4094.23076889, 4094.99999966, 4097.82051248, 4089.48717914, 4094.99999966, 4098.84615350, 4065.38461497, 4095.89743555, 4127.94871767,10.0
4114.35897408, 4124.35897408, 4126.41025614, 4151.15384595, 4130.64102537, 4104.87179460, 4108.58974332, 4118.71794844, 4121.41025614, 4116.28205101, 4124.48717921, 4102.43589709, 4125.76923050, 4126.53846126,10.0
4131.66666639, 4139.10256390, 4145.12820492, 4163.71794851, 4148.97435877, 4117.43589716, 4124.23076896, 4121.15384588, 4120.64102537, 4127.30769203, 4135.51282031, 4124.35897408, 4135.38461518, 4126.41025614,10.0
4134.48717921, 4146.41025621, 4154.61538441, 4170.38461525, 4172.05128192, 4134.10256383, 4137.82051262, 4125.51282024, 4125.64102537, 4131.41025614, 4138.97435877, 4129.87179460, 4128.71794844, 4129.35897408,10.0
4140.38461518, 4148.33333313, 4157.30769210, 4173.58974345, 4176.15384602, 4144.87179467, 4139.10256390, 4131.92307665, 4139.74358954, 4139.87179467, 4144.99999980, 4136.02564082, 4134.10256383, 4129.23076896,10.0
4144.87179467, 4142.43589723, 4153.20512800, 4167.17948697, 4158.20512800, 4138.71794851, 4130.38461511, 4126.02564075, 4138.20512800, 4145.25641005, 4145.12820492, 4139.10256390, 4140.76923056, 4126.53846126,10.0
4135.51282031, 4132.17948691, 4143.46153826, 4155.64102544, 4149.10256390, 4134.61538434, 4126.28205101, 4114.99999973, 4125.89743562, 4132.05128178, 4134.61538434, 4128.33333306, 4130.51282024, 4127.82051255,10.0
4120.38461511, 4125.51282024, 4132.30769203, 4146.53846133, 4149.74358954, 4137.30769210, 4121.02564075, 4117.05128178, 4123.84615357, 4122.82051255, 4123.97435870, 4114.74358947, 4120.89743562, 4127.94871767,10.0
4131.79487152, 4137.56410236, 4141.41025621, 4155.12820492, 4155.76923056, 4147.05128185, 4128.84615357, 4132.05128178, 4134.61538434, 4136.66666646, 4133.84615357, 4124.61538434, 4131.92307665, 4126.79487152,10.0
4149.74358954, 4151.41025621, 4157.30769210, 4169.99999986, 4165.76923056, 4151.02564082, 4147.94871774, 4142.30769210, 4144.61538441, 4143.46153826, 4144.74358954, 4142.82051262, 4140.38461518, 4125.89743562,10.0
4142.17948697, 4144.35897415, 4148.58974339, 4165.38461518, 4162.30769210, 4142.56410236, 4150.76923056, 4146.79487159, 4152.17948697, 4139.48717928, 4136.15384595, 4140.89743569, 4137.17948697, 4126.66666639,10.0
4116.66666639, 4120.25640998, 4116.02564075, 4141.66666646, 4142.69230749, 4133.07692280, 4132.17948691, 4129.48717921, 4136.41025621, 4128.71794844, 4117.30769203, 4115.25640998, 4122.17948691, 4128.71794844,10.0
4101.53846119, 4104.74358947, 4095.89743555, 4127.56410229, 4128.97435870, 4124.74358947, 4113.97435870, 4097.82051248, 4100.38461504, 4106.28205101, 4110.12820485, 4093.07692273, 4103.97435870, 4127.43589716,10.0
4114.10256383, 4118.07692280, 4111.53846126, 4141.66666646, 4136.41025621, 4123.84615357, 4114.74358947, 4101.41025607, 4096.28205094, 4107.30769203, 4123.20512793, 4104.61538434, 4111.15384588, 4126.53846126,10.0
4132.05128178, 4134.99999973, 4134.48717921, 4153.46153826, 4145.76923056, 4131.28205101, 4121.15384588, 4123.97435870, 4123.20512793, 4135.64102544, 4132.69230742, 4126.53846126, 4130.64102537, 4126.41025614,10.0
4138.46153826, 4137.05128185, 4144.23076903, 4155.12820492, 4151.41025621, 4139.10256390, 4127.82051255, 4123.97435870, 4135.64102544, 4144.87179467, 4134.74358947, 4133.58974332, 4136.92307672, 4127.05128178,10.0
4144.61538441, 4141.15384595, 4156.79487159, 4166.92307672, 4159.87179467, 4142.82051262, 4134.10256383, 4121.28205101, 4136.66666646, 4143.46153826, 4151.02564082, 4144.10256390, 4145.64102544, 4130.51282024,10.0
4148.20512800, 4145.51282031, 4165.76923056, 4169.35897422, 4158.71794851, 4141.02564082, 4130.64102537, 4129.23076896, 4139.99999980, 4150.12820492, 4162.05128185, 4154.35897415, 4151.92307672, 4130.38461511,10.0
4145.25641005, 4140.12820492, 4157.56410236, 4156.79487159, 4150.12820492, 4137.94871774, 4125.76923050, 4130.76923050, 4139.87179467, 4146.66666646, 4147.05128185, 4146.53846133, 4142.69230749, 4127.17948691,10.0
4141.53846133, 4135.76923056, 4148.58974339, 4151.53846133, 4144.87179467, 4136.02564082, 4125.51282024, 4119.87179460, 4126.15384588, 4136.53846133, 4132.69230742, 4133.46153819, 4132.69230742, 4127.30769203,10.0
4124.99999973, 4121.15384588, 4135.25640998, 4140.76923056, 4130.64102537, 4126.02564075, 4117.82051255, 4113.07692280, 4113.71794844, 4127.82051255, 4124.87179460, 4119.23076896, 4122.30769203, 4127.94871767,10.0
4122.69230742, 4120.12820485, 4135.25640998, 4137.94871774, 4131.66666639, 4129.74358947, 4131.92307665, 4144.48717928, 4152.05128185, 4139.61538441, 4126.92307665, 4124.99999973, 4129.35897408, 4126.02564075,10.0
4157.17948697, 4155.12820492, 4165.76923056, 4166.02564082, 4167.69230749, 4164.23076903, 4177.30769217, 4172.94871781, 4184.61538448, 4167.94871774, 4149.74358954, 4157.43589723, 4155.51282031, 4123.46153819,10.0
4143.58974339, 4141.15384595, 4147.56410236, 4156.41025621, 4156.79487159, 4153.33333313, 4156.92307672, 4130.89743562, 4130.76923050, 4140.76923056, 4135.76923056, 4139.10256390, 4134.35897408, 4124.48717921,10.0
4078.33333299, 4078.71794837, 4077.82051248, 4102.43589709, 4089.99999966, 4090.38461504, 4080.25640991, 4077.43589709, 4067.94871754, 4079.10256376, 4082.69230735, 4073.33333299, 4082.94871761, 4126.79487152,10.0
4072.43589709, 4077.56410222, 4070.76923043, 4102.94871767, 4088.84615350, 4085.64102530, 4080.25640991, 4089.35897402, 4083.20512786, 4085.89743555, 4081.28205094, 4067.05128164, 4091.02564068, 4126.53846126,10.0
4114.99999973, 4121.92307665, 4120.89743562, 4141.53846133, 4143.58974339, 4128.71794844, 4134.23076896, 4123.33333306, 4121.53846126, 4132.30769203, 4124.35897408, 4111.02564075, 4130.12820485, 4128.97435870,10.0
4122.05128178, 4127.17948691, 4129.61538434, 4140.12820492, 4149.74358954, 4129.74358947, 4134.48717921, 4127.43589716, 4128.84615357, 4134.61538434, 4135.38461518, 4121.02564075, 4134.35897408, 4129.10256383,10.0
4117.56410229, 4119.99999973, 4121.02564075, 4132.82051255, 4136.28205108, 4124.87179460, 4122.82051255, 4129.87179460, 4133.97435870, 4132.69230742, 4131.66666639, 4118.07692280, 4136.15384595, 4125.64102537,10.0
4119.23076896, 4123.71794844, 4128.46153819, 4139.23076903, 4136.28205108, 4133.97435870, 4130.12820485, 4129.10256383, 4131.92307665, 4143.58974339, 4136.66666646, 4124.10256383, 4139.74358954, 4127.43589716,10.0
4100.38461504, 4111.02564075, 4117.56410229, 4127.43589716, 4120.25640998, 4117.30769203, 4112.17948691, 4110.25640998, 4118.33333306, 4134.48717921, 4131.92307665, 4113.20512793, 4125.25640998, 4129.10256383,10.0
4099.74358940, 4110.38461511, 4112.56410229, 4124.61538434, 4122.05128178, 4123.46153819, 4121.92307665, 4124.10256383, 4133.97435870, 4136.53846133, 4131.66666639, 4110.64102537, 4127.43589716, 4128.33333306,10.0
4119.48717921, 4123.84615357, 4127.56410229, 4137.94871774, 4143.33333313, 4153.97435877, 4153.33333313, 4147.82051262, 4148.71794851, 4143.07692287, 4135.76923056, 4120.38461511, 4135.25640998, 4127.94871767,10.0
4113.84615357, 4120.76923050, 4127.56410229, 4136.53846133, 4137.69230749, 4139.35897415, 4130.51282024, 4121.28205101, 4121.66666639, 4126.02564075, 4127.43589716, 4117.43589716, 4122.05128178, 4127.82051255,10.0
4092.82051248, 4103.58974332, 4107.56410229, 4121.79487152, 4117.94871767, 4097.56410222, 4087.82051248, 4089.35897402, 4095.76923043, 4115.64102537, 4112.82051255, 4104.23076896, 4111.41025614, 4127.43589716,10.0
4087.43589709, 4095.64102530, 4096.66666632, 4114.23076896, 4112.30769203, 4090.38461504, 4088.71794837, 4097.69230735, 4101.02564068, 4117.30769203, 4108.07692280, 4097.17948684, 4112.30769203, 4124.23076896,10.0
4108.71794844, 4119.48717921, 4118.07692280, 4129.35897408, 4129.99999973, 4118.33333306, 4121.41025614, 4121.92307665, 4118.20512793, 4123.58974332, 4124.48717921, 4116.02564075, 4121.15384588, 4124.23076896,10.0
4129.35897408, 4141.92307672, 4142.56410236, 4148.20512800, 4150.12820492, 4135.25640998, 4140.51282031, 4133.84615357, 4133.33333306, 4139.61538441, 4137.82051262, 4138.58974339, 4129.87179460, 4128.33333306,10.0
4125.25640998, 4130.38461511, 4134.87179460, 4140.76923056, 4137.82051262, 4127.05128178, 4137.17948697, 4129.74358947, 4137.05128185, 4138.58974339, 4124.87179460, 4128.97435870, 4122.43589716, 4128.33333306,10.0
4118.20512793, 4116.79487152, 4119.48717921, 4127.82051255, 4117.82051255, 4118.97435870, 4127.69230742, 4118.97435870, 4122.43589716, 4116.02564075, 4111.79487152, 4113.33333306, 4112.43589716, 4125.76923050,10.0
4117.17948691, 4117.43589716, 4120.89743562, 4129.23076896, 4116.41025614, 4113.33333306, 4113.84615357, 4107.69230742, 4099.10256376, 4102.94871767, 4114.10256383, 4115.51282024, 4113.46153819, 4126.79487152,10.0
4112.56410229, 4112.82051255, 4122.05128178, 4127.82051255, 4113.58974332, 4107.69230742, 4110.76923050, 4111.28205101, 4106.41025614, 4107.17948691, 4115.76923050, 4111.66666639, 4115.12820485, 4129.74358947,10.0
4114.23076896, 4111.41025614, 4121.15384588, 4127.69230742, 4112.30769203, 4118.97435870, 4129.10256383, 4131.28205101, 4140.38461518, 4119.74358947, 4119.61538434, 4106.79487152, 4118.97435870, 4127.30769203,10.0
4107.94871767, 4108.58974332, 4111.28205101, 4124.87179460, 4110.51282024, 4118.84615357, 4119.87179460, 4117.30769203, 4119.23076896, 4113.71794844, 4113.46153819, 4102.30769196, 4110.64102537, 4124.74358947,10.0
4085.51282017, 4092.56410222, 4087.82051248, 4110.38461511, 4094.48717914, 4093.46153812, 4077.69230735, 4071.53846119, 4055.64102523, 4080.38461504, 4088.58974325, 4079.48717914, 4085.51282017, 4129.48717921,10.0
4083.97435863, 4094.99999966, 4087.82051248, 4109.99999973, 4093.97435863, 4091.15384581, 4074.48717914, 4072.05128171, 4056.92307651, 4071.92307658, 4084.48717914, 4074.87179453, 4086.53846119, 4131.15384588,10.0
4105.38461511, 4116.02564075, 4111.92307665, 4125.64102537, 4120.38461511, 4118.20512793, 4111.53846126, 4112.82051255, 4105.51282024, 4102.94871767, 4110.64102537, 4104.23076896, 4111.66666639, 4126.79487152,10.0
4114.35897408, 4123.33333306, 4120.89743562, 4132.43589716, 4128.46153819, 4129.48717921, 4130.76923050, 4130.12820485, 4120.51282024, 4120.51282024, 4124.74358947, 4120.51282024, 4120.12820485, 4126.66666639,10.0
4111.02564075, 4119.23076896, 4116.15384588, 4133.58974332, 4117.56410229, 4116.66666639, 4124.87179460, 4126.28205101, 4120.25640998, 4118.07692280, 4120.76923050, 4114.87179460, 4115.76923050, 4131.15384588,10.0
4116.28205101, 4121.28205101, 4121.92307665, 4141.41025621, 4125.51282024, 4112.05128178, 4122.30769203, 4128.33333306, 4132.43589716, 4127.56410229, 4126.79487152, 4120.25640998, 4120.76923050, 4131.53846126,10.0
4120.51282024, 4126.66666639, 4125.12820485, 4143.20512800, 4139.10256390, 4120.64102537, 4131.02564075, 4128.46153819, 4127.94871767, 4130.64102537, 4135.25640998, 4125.38461511, 4125.25640998, 4127.30769203,10.0
4112.43589716, 4120.51282024, 4110.25640998, 4129.99999973, 4129.61538434, 4122.56410229, 4136.28205108, 4127.56410229, 4122.05128178, 4118.46153819, 4123.07692280, 4107.82051255, 4116.53846126, 4126.02564075,10.0
4105.89743562, 4112.05128178, 4102.56410229, 4124.23076896, 4117.05128178, 4117.17948691, 4126.15384588, 4131.66666639, 4137.82051262, 4121.15384588, 4112.82051255, 4097.56410222, 4112.56410229, 4129.35897408,10.0
4106.02564075, 4111.15384588, 4111.41025614, 4132.30769203, 4121.79487152, 4109.35897408, 4111.02564075, 4122.69230742, 4130.25640998, 4125.64102537, 4118.97435870, 4106.41025614, 4116.02564075, 4129.99999973,10.0
4091.66666632, 4095.12820478, 4103.46153819, 4121.53846126, 4109.35897408, 4089.35897402, 4089.35897402, 4090.38461504, 4079.23076889, 4095.76923043, 4104.35897408, 4097.30769196, 4100.89743555, 4127.56410229,10.0
4080.12820478, 4080.25640991, 4093.07692273, 4106.92307665, 4089.10256376, 4079.48717914, 4079.48717914, 4076.41025607, 4060.51282010, 4076.66666632, 4086.53846119, 4086.53846119, 4088.46153812, 4126.02564075,10.0
4092.30769196, 4092.05128171, 4106.15384588, 4114.87179460, 4094.74358940, 4091.53846119, 4090.25640991, 4094.48717914, 4092.56410222, 4097.30769196, 4100.89743555, 4098.33333299, 4102.82051255, 4128.58974332,10.0
4108.20512793, 4109.10256383, 4122.56410229, 4126.15384588, 4110.51282024, 4107.17948691, 4110.25640998, 4111.79487152, 4111.02564075, 4116.53846126, 4119.99999973, 4113.07692280, 4119.87179460, 4131.02564075,10.0
4109.23076896, 4108.46153819, 4119.87179460, 4124.48717921, 4113.07692280, 4109.61538434, 4117.05128178, 4113.33333306, 4102.94871767, 4114.23076896, 4114.23076896, 4114.74358947, 4116.79487152, 4126.02564075,10.0
4100.51282017, 4098.07692273, 4102.82051255, 4116.41025614, 4103.71794844, 4096.02564068, 4102.94871767, 4105.25640998, 4094.23076889, 4100.38461504, 4097.82051248, 4103.84615357, 4104.35897408, 4125.89743562,10.0
4105.89743562, 4103.84615357, 4106.66666639, 4121.02564075, 4108.58974332, 4096.28205094, 4109.99999973, 4114.74358947, 4109.35897408, 4104.74358947, 4107.17948691, 4108.07692280, 4112.69230742, 4130.64102537,10.0
4130.12820485, 4126.92307665, 4137.82051262, 4144.48717928, 4134.99999973, 4118.84615357, 4140.12820492, 4136.28205108, 4137.82051262, 4136.92307672, 4137.56410236, 4136.79487159, 4137.05128185, 4127.30769203,10.0
4134.23076896, 4131.28205101, 4146.02564082, 4153.33333313, 4143.58974339, 4119.99999973, 4135.12820485, 4126.41025614, 4127.05128178, 4142.82051262, 4137.82051262, 4140.76923056, 4134.74358947, 4125.38461511,10.0
4114.10256383, 4116.02564075, 4125.76923050, 4136.53846133, 4129.35897408, 4104.48717921, 4109.23076896, 4106.66666639, 4104.48717921, 4119.35897408, 4110.76923050, 4114.23076896, 4113.71794844, 4127.94871767,10.0
4121.15384588, 4124.48717921, 4133.58974332, 4140.76923056, 4138.46153826, 4119.10256383, 4127.05128178, 4126.02564075, 4128.46153819, 4127.05128178, 4114.99999973, 4117.05128178, 4120.12820485, 4128.46153819,10.0
4146.92307672, 4145.12820492, 4157.56410236, 4161.79487159, 4163.20512800, 4142.56410236, 4153.33333313, 4145.64102544, 4154.10256390, 4148.58974339, 4137.43589723, 4141.92307672, 4136.15384595, 4127.43589716,10.0
4141.02564082, 4137.82051262, 4147.94871774, 4154.48717928, 4158.58974339, 4135.25640998, 4138.07692287, 4129.23076896, 4136.02564082, 4139.87179467, 4131.79487152, 4137.43589723, 4129.61538434, 4127.17948691,10.0
4123.71794844, 4126.02564075, 4133.20512793, 4141.41025621, 4145.38461518, 4118.46153819, 4118.07692280, 4117.43589716, 4120.64102537, 4129.48717921, 4122.69230742, 4121.02564075, 4124.10256383, 4129.74358947,10.0
4126.15384588, 4129.74358947, 4135.89743569, 4148.07692287, 4148.97435877, 4115.25640998, 4117.43589716, 4121.92307665, 4130.12820485, 4130.38461511, 4124.10256383, 4117.30769203, 4128.97435870, 4130.51282024,10.0
4137.43589723, 4135.89743569, 4141.79487159, 4156.66666646, 4154.74358954, 4126.66666639, 4130.64102537, 4128.46153819, 4140.25641005, 4132.17948691, 4125.64102537, 4121.41025614, 4134.61538434, 4127.94871767,10.0
4141.66666646, 4137.56410236, 4145.64102544, 4157.82051262, 4158.97435877, 4133.46153819, 4137.30769210, 4136.41025621, 4143.58974339, 4142.94871774, 4136.53846133, 4126.02564075, 4145.25641005, 4127.69230742,10.0
4147.43589723, 4143.97435877, 4156.15384595, 4163.33333313, 4169.99999986, 4133.07692280, 4143.58974339, 4147.94871774, 4156.79487159, 4160.51282031, 4152.43589723, 4132.30769203, 4156.79487159, 4127.17948691,10.0
4142.05128185, 4138.46153826, 4152.56410236, 4159.10256390, 4159.87179467, 4128.58974332, 4141.02564082, 4144.35897415, 4159.87179467, 4149.87179467, 4141.92307672, 4120.12820485, 4143.46153826, 4126.66666639,10.0
4124.48717921, 4122.43589716, 4134.48717921, 4147.69230749, 4136.28205108, 4121.79487152, 4120.25640998, 4125.38461511, 4137.17948697, 4127.17948691, 4121.28205101, 4102.30769196, 4125.25640998, 4128.33333306,10.0
4127.69230742, 4128.97435870, 4137.56410236, 4150.12820492, 4147.69230749, 4126.66666639, 4119.99999973, 4126.79487152, 4135.12820485, 4141.28205108, 4130.12820485, 4113.33333306, 4134.74358947, 4129.48717921,10.0
4143.71794851, 4143.58974339, 4148.71794851, 4159.48717928, 4171.66666653, 4138.33333313, 4142.56410236, 4141.92307672, 4155.64102544, 4163.33333313, 4149.23076903, 4128.97435870, 4148.46153826, 4128.20512793,10.0
4144.35897415, 4142.43589723, 4150.12820492, 4161.15384595, 4170.25641012, 4146.92307672, 4150.12820492, 4146.15384595, 4159.35897415, 4154.35897415, 4149.61538441, 4122.05128178, 4146.92307672, 4125.76923050,10.0
4140.51282031, 4145.12820492, 4152.43589723, 4159.99999980, 4163.46153826, 4158.84615364, 4148.46153826, 4145.25641005, 4155.38461518, 4142.82051262, 4142.05128185, 4112.30769203, 4139.74358954, 4126.28205101,10.0
4144.48717928, 4150.25641005, 4153.58974339, 4162.69230749, 4165.12820492, 4164.87179467, 4147.17948697, 4142.30769210, 4156.92307672, 4147.69230749, 4140.12820492, 4112.43589716, 4133.46153819, 4128.07692280,10.0
4144.48717928, 4140.76923056, 4150.25641005, 4161.53846133, 4164.10256390, 4160.89743569, 4135.89743569, 4131.41025614, 4144.99999980, 4142.94871774, 4140.64102544, 4111.79487152, 4134.74358947, 4126.92307665,10.0
4151.28205108, 4143.07692287, 4159.99999980, 4166.66666646, 4168.71794858, 4173.46153833, 4148.84615364, 4143.07692287, 4155.51282031, 4144.23076903, 4145.89743569, 4120.25640998, 4146.53846133, 4127.43589716,10.0
4163.71794851, 4158.20512800, 4174.10256397, 4179.87179474, 4171.66666653, 4179.61538448, 4161.41025621, 4162.43589723, 4186.02564089, 4162.56410236, 4155.38461518, 4136.92307672, 4153.71794851, 4127.56410229,10.0
4151.02564082, 4146.79487159, 4161.79487159, 4175.25641012, 4157.30769210, 4150.64102544, 4123.58974332, 4131.28205101, 4153.71794851, 4152.30769210, 4151.02564082, 4131.28205101, 4143.33333313, 4126.53846126,10.0
4129.61538434, 4127.30769203, 4141.79487159, 4158.07692287, 4144.35897415, 4132.82051255, 4097.82051248, 4096.66666632, 4104.10256383, 4123.07692280, 4136.79487159, 4114.61538434, 4132.56410229, 4125.64102537,10.0
4143.33333313, 4142.17948697, 4152.69230749, 4164.23076903, 4159.61538441, 4152.17948697, 4129.61538434, 4126.15384588, 4133.07692280, 4138.71794851, 4143.33333313, 4125.51282024, 4144.61538441, 4123.97435870,10.0
4167.82051262, 4163.97435877, 4174.87179474, 4183.58974345, 4180.76923063, 4168.58974345, 4156.53846133, 4164.10256390, 4180.12820499, 4173.58974345, 4161.92307672, 4147.82051262, 4161.79487159, 4127.43589716,10.0
4163.33333313, 4158.33333313, 4171.79487166, 4181.02564089, 4172.94871781, 4163.97435877, 4147.82051262, 4154.87179467, 4172.05128192, 4163.33333313, 4161.15384595, 4143.58974339, 4153.97435877, 4129.74358947,10.0
4156.79487159, 4153.58974339, 4161.92307672, 4174.74358961, 4166.28205108, 4164.87179467, 4147.82051262, 4143.97435877, 4160.12820492, 4149.48717928, 4158.71794851, 4138.33333313, 4144.99999980, 4126.28205101,10.0
4161.15384595, 4155.12820492, 4161.28205108, 4173.97435884, 4177.05128192, 4165.64102544, 4154.87179467, 4150.12820492, 4164.61538441, 4160.76923056, 4161.53846133, 4143.33333313, 4149.35897415, 4125.89743562,10.0
4151.79487159, 4140.76923056, 4151.79487159, 4163.84615364, 4171.92307679, 4156.15384595, 4145.89743569, 4144.10256390, 4154.61538441, 4157.05128185, 4148.20512800, 4130.89743562, 4141.28205108, 4127.30769203,10.0
4137.56410236, 4127.69230742, 4135.76923056, 4153.71794851, 4153.46153826, 4149.35897415, 4133.71794844, 4134.23076896, 4145.51282031, 4139.23076903, 4129.87179460, 4111.66666639, 4125.38461511, 4127.69230742,10.0
4137.82051262, 4130.76923050, 4137.17948697, 4156.53846133, 4153.07692287, 4154.48717928, 4140.51282031, 4138.46153826, 4150.76923056, 4134.61538434, 4132.17948691, 4111.92307665, 4129.23076896, 4127.82051255,10.0
4138.97435877, 4131.41025614, 4146.66666646, 4155.89743569, 4157.43589723, 4164.61538441, 4152.69230749, 4144.23076903, 4156.15384595, 4138.46153826, 4138.20512800, 4118.84615357, 4137.17948697, 4129.10256383,10.0
4125.89743562, 4117.17948691, 4133.07692280, 4140.64102544, 4136.79487159, 4154.23076903, 4129.99999973, 4127.69230742, 4139.99999980, 4131.15384588, 4125.89743562, 4110.25640998, 4126.28205101, 4128.07692280,10.0
4108.58974332, 4103.20512793, 4113.20512793, 4132.17948691, 4116.41025614, 4133.58974332, 4095.38461504, 4103.33333306, 4114.23076896, 4116.15384588, 4117.56410229, 4098.71794837, 4115.89743562, 4125.25640998,10.0
4109.35897408, 4105.25640998, 4118.71794844, 4136.15384595, 4122.82051255, 4134.48717921, 4097.30769196, 4106.28205101, 4115.64102537, 4116.53846126, 4126.15384588, 4103.46153819, 4125.89743562, 4127.56410229,10.0
4132.30769203, 4124.87179460, 4145.12820492, 4148.33333313, 4143.07692287, 4156.02564082, 4125.76923050, 4128.46153819, 4143.07692287, 4143.58974339, 4139.48717928, 4121.02564075, 4143.84615364, 4129.48717921,10.0
4154.35897415, 4147.56410236, 4164.61538441, 4168.71794858, 4160.89743569, 4176.79487166, 4147.82051262, 4146.66666646, 4168.20512807, 4173.20512807, 4154.87179467, 4139.74358954, 4157.94871774, 4126.79487152,10.0
4161.53846133, 4156.79487159, 4166.66666646, 4180.64102551, 4172.56410243, 4183.20512807, 4157.43589723, 4154.10256390, 4175.64102551, 4184.10256397, 4168.07692287, 4151.79487159, 4166.66666646, 4127.56410229,10.0
4145.76923056, 4140.12820492, 4153.20512800, 4160.38461518, 4160.25641005, 4164.87179467, 4144.74358954, 4144.35897415, 4165.76923056, 4169.74358961, 4155.38461518, 4140.38461518, 4150.76923056, 4128.97435870,10.0
4133.46153819, 4126.28205101, 4145.25641005, 4144.10256390, 4142.17948697, 4156.41025621, 4141.92307672, 4143.97435877, 4165.25641005, 4149.23076903, 4132.17948691, 4119.10256383, 4129.10256383, 4127.56410229,10.0
4153.46153826, 4147.05128185, 4159.99999980, 4163.97435877, 4160.89743569, 4180.64102551, 4173.46153833, 4167.43589723, 4178.20512807, 4155.64102544, 4139.23076903, 4128.71794844, 4141.92307672, 4127.69230742,10.0
4152.69230749, 4144.10256390, 4152.17948697, 4158.84615364, 4164.48717928, 4167.43589723, 4154.99999980, 4149.48717928, 4151.53846133, 4148.46153826, 4138.97435877, 4134.35897408, 4142.82051262, 4128.20512793,10.0
4124.99999973, 4106.92307665, 4124.10256383, 4127.30769203, 4127.43589716, 4130.51282024, 4101.02564068, 4102.05128171, 4106.66666639, 4118.46153819, 4120.89743562, 4114.48717921, 4118.84615357, 4127.17948691,10.0
4129.23076896, 4107.43589716, 4128.20512793, 4131.53846126, 4119.23076896, 4144.48717928, 4110.12820485, 4112.05128178, 4116.53846126, 4121.15384588, 4130.25640998, 4118.46153819, 4126.28205101, 4125.25640998,10.0
4151.41025621, 4132.56410229, 4148.84615364, 4148.97435877, 4142.43589723, 4167.69230749, 4137.30769210, 4139.35897415, 4146.79487159, 4145.89743569, 4150.38461518, 4143.97435877, 4148.07692287, 4124.74358947,10.0
4158.71794851, 4135.25640998, 4155.89743569, 4148.97435877, 4148.46153826, 4166.02564082, 4129.10256383, 4130.51282024, 4147.43589723, 4154.99999980, 4156.28205108, 4155.51282031, 4153.20512800, 4126.28205101,10.0
4167.94871774, 4141.92307672, 4166.02564082, 4158.97435877, 4148.97435877, 4173.20512807, 4132.43589716, 4132.69230742, 4149.99999980, 4161.79487159, 4168.84615371, 4166.41025621, 4159.61538441, 4126.28205101,10.0
4178.84615371, 4159.35897415, 4181.41025628, 4173.58974345, 4161.92307672, 4180.89743576, 4148.71794851, 4148.71794851, 4162.56410236, 4175.76923063, 4184.48717935, 4180.64102551, 4167.69230749, 4129.74358947,10.0
4167.56410236, 4149.87179467, 4164.99999980, 4157.30769210, 4158.46153826, 4172.05128192, 4146.28205108, 4144.87179467, 4165.64102544, 4176.28205115, 4170.25641012, 4165.38461518, 4153.84615364, 4129.48717921,10.0
4140.12820492, 4119.87179460, 4124.99999973, 4124.35897408, 4136.53846133, 4166.92307672, 4142.43589723, 4136.02564082, 4154.87179467, 4150.64102544, 4136.02564082, 4127.17948691, 4127.82051255, 4123.46153819,10.0
4115.89743562, 4103.84615357, 4105.64102537, 4108.58974332, 4119.99999973, 4154.35897415, 4128.33333306, 4126.41025614, 4131.79487152, 4122.69230742, 4119.74358947, 4106.02564075, 4119.10256383, 4124.87179460,10.0
4116.79487152, 4112.69230742, 4117.05128178, 4119.23076896, 4120.25640998, 4141.41025621, 4111.92307665, 4120.12820485, 4128.97435870, 4130.64102537, 4130.89743562, 4114.48717921, 4128.07692280, 4128.46153819,10.0
4133.20512793, 4123.46153819, 4127.43589716, 4130.38461511, 4128.97435870, 4152.69230749, 4122.82051255, 4134.99999973, 4149.99999980, 4149.23076903, 4139.23076903, 4126.28205101, 4131.28205101, 4129.99999973,10.0
4137.43589723, 4122.94871767, 4122.43589716, 4127.82051255, 4136.41025621, 4164.35897415, 4136.66666646, 4144.10256390, 4153.07692287, 4139.23076903, 4135.64102544, 4125.89743562, 4125.76923050, 4128.71794844,10.0
4126.28205101, 4116.79487152, 4118.71794844, 4124.10256383, 4134.87179460, 4152.56410236, 4124.74358947, 4123.46153819, 4133.20512793, 4127.94871767, 4134.61538434, 4122.82051255, 4126.92307665, 4127.94871767,10.0
4110.64102537, 4109.48717921, 4109.61538434, 4117.43589716, 4122.94871767, 4136.53846133, 4108.71794844, 4107.30769203, 4122.56410229, 4132.69230742, 4127.43589716, 4116.15384588, 4126.41025614, 4131.79487152,10.0
4115.89743562, 4115.25640998, 4109.48717921, 4116.15384588, 4126.41025614, 4143.97435877, 4114.74358947, 4122.56410229, 4134.35897408, 4145.51282031, 4127.30769203, 4118.71794844, 4128.07692280, 4131.41025614,10.0
4132.56410229, 4128.58974332, 4125.76923050, 4129.23076896, 4143.07692287, 4161.41025621, 4129.87179460, 4133.71794844, 4141.79487159, 4148.58974339, 4135.64102544, 4129.61538434, 4131.41025614, 4126.28205101,10.0
4130.25640998, 4126.66666639, 4126.41025614, 4134.23076896, 4143.07692287, 4159.48717928, 4129.61538434, 4121.53846126, 4131.28205101, 4132.05128178, 4127.56410229, 4124.35897408, 4122.43589716, 4125.12820485,10.0
4114.35897408, 4112.82051255, 4107.17948691, 4121.41025614, 4124.87179460, 4136.92307672, 4108.97435870, 4111.79487152, 4122.94871767, 4118.07692280, 4110.38461511, 4106.79487152, 4113.46153819, 4129.10256383,10.0
4106.92307665, 4109.23076896, 4096.41025607, 4112.30769203, 4112.82051255, 4139.23076903, 4110.76923050, 4114.23076896, 4120.12820485, 4118.46153819, 4104.23076896, 4098.46153812, 4111.28205101, 4129.48717921,10.0
