AF3,F7,F3,FC5,T7,P7,O1,O2,P8,T8,FC6,F4,F8,AF4,Label
4147.43589723, 4156.28205108, 4180.64102551, 3909.87179418, 4142.30769210, 4129.10256383, 4130.12820485, 4138.20512800, 4142.69230749, 4147.17948697, 4168.07692287, 4153.20512800, 4150.51282031, 4126.15384588,12.0
4111.92307665, 4121.66666639, 4141.79487159, 3834.74358884, 4105.76923050, 4092.43589709, 4087.30769196, 4100.64102530, 4115.38461511, 4108.20512793, 4123.58974332, 4118.20512793, 4114.99999973, 4127.17948691,12.0
4123.20512793, 4133.07692280, 4156.66666646, 3838.84615295, 4118.07692280, 4100.12820478, 4100.38461504, 4114.99999973, 4126.53846126, 4119.48717921, 4132.17948691, 4129.48717921, 4129.23076896, 4124.10256383,12.0
4143.33333313, 4150.76923056, 4180.51282038, 3850.76922994, 4140.38461518, 4123.84615357, 4127.30769203, 4138.33333313, 4142.43589723, 4135.89743569, 4152.30769210, 4151.92307672, 4145.12820492, 4123.46153819,12.0
4130.38461511, 4134.87179460, 4169.35897422, 3831.66666577, 4131.02564075, 4119.99999973, 4119.10256383, 4127.94871767, 4129.10256383, 4120.12820485, 4141.79487159, 4141.92307672, 4129.61538434, 4126.53846126,12.0
4124.23076896, 4126.66666639, 4165.38461518, 3818.84615295, 4122.17948691, 4108.46153819, 4110.64102537, 4121.92307665, 4121.66666639, 4112.17948691, 4131.15384588, 4134.10256383, 4124.99999973, 4125.76923050,12.0
4148.58974339, 4155.76923056, 4193.84615371, 3833.71794782, 4139.74358954, 4118.20512793, 4129.23076896, 4141.02564082, 4137.17948697, 4135.12820485, 4144.87179467, 4153.71794851, 4144.23076903, 4123.20512793,12.0
4147.05128185, 4159.74358954, 4192.82051269, 3825.76922987, 4140.51282031, 4122.17948691, 4129.61538434, 4138.20512800, 4134.48717921, 4134.35897408, 4138.20512800, 4150.25641005, 4137.30769210, 4122.30769203,12.0
4128.71794844, 4138.07692287, 4168.07692287, 3803.07692211, 4122.30769203, 4112.30769203, 4111.02564075, 4123.33333306, 4124.61538434, 4119.10256383, 4122.43589716, 4132.56410229, 4124.87179460, 4123.07692280,12.0
4130.38461511, 4133.84615357, 4165.12820492, 3802.43589647, 4112.69230742, 4101.92307658, 4101.28205094, 4123.46153819, 4131.15384588, 4121.15384588, 4128.33333306, 4138.07692287, 4134.99999973, 4125.12820485,12.0
4132.82051255, 4134.23076896, 4166.53846133, 3804.74358877, 4111.53846126, 4102.56410229, 4102.30769196, 4123.97435870, 4132.05128178, 4121.66666639, 4132.05128178, 4139.48717928, 4137.69230749, 4127.82051255,12.0
4136.15384595, 4141.02564082, 4171.53846140, 3805.12820416, 4124.61538434, 4119.99999973, 4119.87179460, 4129.74358947, 4133.58974332, 4130.76923050, 4139.35897415, 4141.79487159, 4139.23076903, 4127.82051255,12.0
4136.66666646, 4143.46153826, 4174.74358961, 3797.94871698, 4132.94871767, 4126.02564075, 4127.43589716, 4132.43589716, 4140.51282031, 4139.74358954, 4146.92307672, 4147.94871774, 4138.46153826, 4125.89743562,12.0
4124.48717921, 4129.48717921, 4161.79487159, 3764.35897332, 4119.87179460, 4108.97435870, 4108.20512793, 4121.53846126, 4136.41025621, 4127.17948691, 4135.12820485, 4136.66666646, 4129.10256383, 4126.92307665,12.0
4138.46153826, 4141.92307672, 4172.82051269, 3730.76922966, 4128.07692280, 4116.41025614, 4118.97435870, 4134.48717921, 4142.56410236, 4142.69230749, 4146.92307672, 4147.30769210, 4146.15384595, 4127.82051255,12.0
4162.30769210, 4167.82051262, 4196.92307679, 3703.46153728, 4152.82051262, 4145.25641005, 4152.30769210, 4158.71794851, 4156.53846133, 4173.07692294, 4171.79487166, 4170.12820499, 4162.17948697, 4123.58974332,12.0
4139.35897415, 4146.15384595, 4169.61538448, 3663.33333209, 4134.35897408, 4134.61538434, 4136.66666646, 4139.87179467, 4144.74358954, 4145.64102544, 4146.28205108, 4143.07692287, 4133.46153819, 4121.41025614,12.0
4114.61538434, 4122.43589716, 4141.02564082, 3653.97435773, 4110.12820485, 4109.99999973, 4107.05128178, 4118.97435870, 4129.74358947, 4113.46153819, 4116.66666639, 4115.25640998, 4113.71794844, 4124.74358947,12.0
4132.94871767, 4142.17948697, 4162.17948697, 3688.84615267, 4125.51282024, 4120.89743562, 4120.64102537, 4136.53846133, 4139.48717928, 4133.58974332, 4132.17948691, 4134.10256383, 4133.58974332, 4126.66666639,12.0
4139.10256390, 4144.74358954, 4171.41025628, 3708.46153728, 4128.33333306, 4127.82051255, 4127.94871767, 4138.97435877, 4143.84615364, 4142.05128185, 4140.25641005, 4138.84615364, 4139.10256390, 4125.51282024,12.0
4118.58974332, 4120.38461511, 4152.69230749, 3711.92307582, 4110.38461511, 4108.97435870, 4104.23076896, 4114.61538434, 4129.35897408, 4118.71794844, 4125.51282024, 4121.02564075, 4122.69230742, 4127.94871767,12.0
4124.35897408, 4125.38461511, 4161.66666646, 3745.51281947, 4122.05128178, 4110.89743562, 4107.94871767, 4121.15384588, 4129.10256383, 4123.33333306, 4132.05128178, 4129.87179460, 4126.79487152, 4129.74358947,12.0
4153.46153826, 4154.99999980, 4195.12820499, 3796.79487083, 4149.23076903, 4137.82051262, 4138.07692287, 4152.17948697, 4146.79487159, 4156.28205108, 4156.28205108, 4153.20512800, 4150.38461518, 4126.41025614,12.0
4152.17948697, 4153.84615364, 4194.61538448, 3811.28205038, 4143.71794851, 4134.35897408, 4130.12820485, 4142.05128185, 4146.28205108, 4153.84615364, 4152.17948697, 4148.33333313, 4145.25641005, 4125.38461511,12.0
4133.20512793, 4129.35897408, 4173.07692294, 3798.07692211, 4129.99999973, 4113.07692280, 4107.17948691, 4119.48717921, 4136.15384595, 4132.17948691, 4135.64102544, 4133.07692280, 4127.17948691, 4125.38461511,12.0
4136.66666646, 4124.23076896, 4172.43589730, 3790.76922980, 4131.92307665, 4117.94871767, 4116.53846126, 4129.61538434, 4138.58974339, 4137.05128185, 4140.38461518, 4135.76923056, 4135.89743569, 4125.12820485,12.0
4139.74358954, 4128.46153819, 4172.30769217, 3777.94871698, 4126.15384588, 4125.64102537, 4122.56410229, 4133.84615357, 4138.84615364, 4139.48717928, 4138.58974339, 4138.71794851, 4141.28205108, 4124.87179460,12.0
4138.46153826, 4133.71794844, 4166.79487159, 3766.15384512, 4127.30769203, 4127.05128178, 4120.25640998, 4131.15384588, 4141.66666646, 4135.51282031, 4128.33333306, 4136.28205108, 4131.53846126, 4123.07692280,12.0
4142.43589723, 4140.64102544, 4166.41025621, 3768.07692204, 4139.99999980, 4133.07692280, 4129.23076896, 4136.79487159, 4149.61538441, 4139.61538441, 4130.51282024, 4135.12820485, 4129.48717921, 4126.28205101,12.0
4134.87179460, 4135.64102544, 4159.74358954, 3768.58974255, 4132.94871767, 4128.84615357, 4124.74358947, 4133.07692280, 4144.10256390, 4134.61538434, 4128.07692280, 4127.56410229, 4127.69230742, 4129.74358947,12.0
4123.46153819, 4123.46153819, 4146.53846133, 3765.51281947, 4114.23076896, 4114.99999973, 4110.12820485, 4121.53846126, 4136.41025621, 4121.92307665, 4114.87179460, 4118.20512793, 4119.74358947, 4126.79487152,12.0
4120.12820485, 4114.74358947, 4142.94871774, 3770.51281947, 4107.17948691, 4106.66666639, 4105.12820485, 4116.15384588, 4137.69230749, 4116.79487152, 4112.43589716, 4115.64102537, 4118.58974332, 4124.10256383,12.0
4119.99999973, 4113.71794844, 4148.20512800, 3782.43589647, 4110.12820485, 4106.02564075, 4103.33333306, 4114.61538434, 4137.94871774, 4119.87179460, 4121.92307665, 4119.48717921, 4123.07692280, 4124.74358947,12.0
4117.69230742, 4113.20512793, 4146.28205108, 3789.35897339, 4113.84615357, 4108.07692280, 4102.69230742, 4113.20512793, 4136.02564082, 4120.51282024, 4122.05128178, 4118.07692280, 4119.61538434, 4123.20512793,12.0
4114.35897408, 4106.28205101, 4139.99999980, 3791.92307595, 4115.89743562, 4110.64102537, 4104.10256383, 4116.92307665, 4136.92307672, 4117.56410229, 4115.89743562, 4108.33333306, 4116.92307665, 4122.17948691,12.0
4122.56410229, 4115.12820485, 4154.10256390, 3807.30769141, 4124.61538434, 4118.07692280, 4110.64102537, 4129.87179460, 4144.87179467, 4128.97435870, 4129.23076896, 4117.82051255, 4131.66666639, 4128.33333306,12.0
4136.92307672, 4134.10256383, 4174.35897422, 3824.74358884, 4137.43589723, 4128.07692280, 4122.05128178, 4143.58974339, 4151.66666646, 4150.25641005, 4147.82051262, 4137.30769210, 4144.10256390, 4132.30769203,12.0
4123.97435870, 4118.97435870, 4161.15384595, 3813.97435807, 4129.23076896, 4121.41025614, 4112.69230742, 4126.53846126, 4141.41025621, 4133.97435870, 4131.66666639, 4122.17948691, 4122.69230742, 4124.61538434,12.0
4106.15384588, 4097.94871761, 4141.66666646, 3801.02564006, 4114.87179460, 4108.46153819, 4096.53846119, 4107.69230742, 4131.02564075, 4106.28205101, 4116.79487152, 4104.74358947, 4109.35897408, 4121.92307665,12.0
4116.41025614, 4111.41025614, 4153.20512800, 3807.56410166, 4119.35897408, 4111.79487152, 4103.71794844, 4120.89743562, 4138.07692287, 4123.33333306, 4136.79487159, 4121.92307665, 4127.94871767, 4130.51282024,12.0
4130.76923050, 4125.25640998, 4170.89743576, 3808.46153756, 4129.74358947, 4121.53846126, 4115.38461511, 4133.97435870, 4143.46153826, 4148.20512800, 4153.58974339, 4138.46153826, 4139.87179467, 4130.89743562,12.0
4127.43589716, 4117.69230742, 4167.69230749, 3798.33333236, 4127.05128178, 4115.76923050, 4107.69230742, 4128.33333306, 4139.99999980, 4142.43589723, 4146.02564082, 4133.07692280, 4134.87179460, 4124.10256383,12.0
4116.66666639, 4108.46153819, 4153.97435877, 3794.10256313, 4111.92307665, 4097.69230735, 4089.35897402, 4110.64102537, 4133.97435870, 4121.02564075, 4130.12820485, 4119.87179460, 4122.17948691, 4125.51282024,12.0
4119.10256383, 4114.87179460, 4155.89743569, 3815.12820423, 4111.79487152, 4101.79487145, 4091.15384581, 4104.48717921, 4129.99999973, 4116.66666639, 4129.61538434, 4118.84615357, 4117.43589716, 4129.35897408,12.0
4139.99999980, 4137.43589723, 4175.89743576, 3862.30769148, 4137.30769210, 4127.94871767, 4117.43589716, 4127.69230742, 4139.74358954, 4136.79487159, 4143.71794851, 4137.43589723, 4132.43589716, 4129.23076896,12.0
4140.64102544, 4140.25641005, 4175.12820499, 3892.82051206, 4139.23076903, 4121.79487152, 4113.58974332, 4132.94871767, 4142.69230749, 4138.07692287, 4138.20512800, 4141.15384595, 4134.61538434, 4126.66666639,12.0
4112.69230742, 4112.69230742, 4148.33333313, 3890.51281975, 4105.51282024, 4086.15384581, 4071.79487145, 4098.58974325, 4123.84615357, 4106.79487152, 4113.46153819, 4118.20512793, 4115.76923050, 4125.64102537,12.0
4110.89743562, 4106.79487152, 4143.84615364, 3903.46153770, 4099.48717914, 4085.76923043, 4066.53846113, 4087.56410222, 4120.12820485, 4097.43589709, 4112.30769203, 4115.51282024, 4116.15384588, 4127.82051255,12.0
4139.87179467, 4133.46153819, 4166.92307672, 3946.02564040, 4125.64102537, 4119.23076896, 4107.94871767, 4117.56410229, 4140.51282031, 4124.61538434, 4136.79487159, 4141.41025621, 4135.25640998, 4128.46153819,12.0
4138.46153826, 4133.20512793, 4163.07692287, 3968.71794810, 4126.92307665, 4124.10256383, 4115.76923050, 4120.64102537, 4140.12820492, 4124.10256383, 4133.20512793, 4142.82051262, 4128.97435870, 4126.53846126,12.0
4113.07692280, 4108.71794844, 4135.76923056, 3970.51281989, 4113.58974332, 4106.53846126, 4091.92307658, 4102.56410229, 4125.51282024, 4098.20512786, 4104.35897408, 4117.43589716, 4110.76923050, 4126.53846126,12.0
4109.61538434, 4106.79487152, 4135.25640998, 3988.97435842, 4118.84615357, 4108.97435870, 4092.43589709, 4105.38461511, 4130.89743562, 4104.23076896, 4100.12820478, 4110.25640998, 4112.56410229, 4129.48717921,12.0
4116.41025614, 4113.46153819, 4148.20512800, 4006.41025593, 4124.35897408, 4115.64102537, 4100.51282017, 4113.71794844, 4139.74358954, 4123.97435870, 4119.48717921, 4123.33333306, 4121.79487152, 4128.71794844,12.0
4117.82051255, 4108.20512793, 4147.69230749, 3993.71794817, 4120.38461511, 4110.12820485, 4098.97435863, 4117.69230742, 4137.82051262, 4126.15384588, 4134.61538434, 4133.71794844, 4127.56410229, 4125.25640998,12.0
4125.51282024, 4109.35897408, 4154.99999980, 3969.35897374, 4125.12820485, 4112.69230742, 4106.41025614, 4123.58974332, 4139.35897415, 4129.74358947, 4145.76923056, 4139.23076903, 4134.61538434, 4127.17948691,12.0
4128.97435870, 4111.15384588, 4163.07692287, 3935.76923008, 4126.79487152, 4114.74358947, 4109.87179460, 4122.82051255, 4142.69230749, 4138.33333313, 4153.33333313, 4141.41025621, 4137.56410236, 4128.84615357,12.0
4120.76923050, 4099.23076889, 4154.23076903, 3886.41025565, 4112.43589716, 4104.35897408, 4094.99999966, 4116.79487152, 4141.79487159, 4139.10256390, 4157.05128185, 4141.41025621, 4136.92307672, 4125.76923050,12.0
4119.48717921, 4095.64102530, 4152.05128185, 3846.53846071, 4107.43589716, 4103.07692280, 4091.41025607, 4114.87179460, 4137.94871774, 4140.38461518, 4166.92307672, 4142.30769210, 4143.07692287, 4124.87179460,12.0
4126.92307665, 4103.33333306, 4159.10256390, 3827.43589654, 4122.69230742, 4116.28205101, 4108.07692280, 4116.53846126, 4137.17948697, 4144.35897415, 4174.87179474, 4143.07692287, 4148.20512800, 4128.07692280,12.0
4129.99999973, 4100.89743555, 4156.53846133, 3816.15384525, 4128.84615357, 4122.30769203, 4116.41025614, 4123.58974332, 4148.58974339, 4149.99999980, 4171.92307679, 4143.84615364, 4147.56410236, 4128.58974332,12.0
4120.51282024, 4088.84615350, 4145.76923056, 3804.99999903, 4107.82051255, 4105.89743562, 4100.76923043, 4120.89743562, 4153.71794851, 4148.46153826, 4163.58974339, 4139.99999980, 4143.20512800, 4124.23076896,12.0
4114.10256383, 4089.23076889, 4140.64102544, 3804.74358877, 4097.17948684, 4093.97435863, 4090.64102530, 4106.41025614, 4144.61538441, 4136.79487159, 4156.66666646, 4133.58974332, 4135.38461518, 4122.56410229,12.0
4136.28205108, 4114.10256383, 4157.17948697, 3829.99999910, 4123.20512793, 4121.15384588, 4121.53846126, 4128.58974332, 4155.38461518, 4148.20512800, 4168.97435884, 4146.92307672, 4147.82051262, 4126.15384588,12.0
4156.92307672, 4129.99999973, 4172.05128192, 3859.10256327, 4142.30769210, 4144.23076903, 4146.92307672, 4156.79487159, 4171.41025628, 4169.48717935, 4186.79487166, 4163.84615364, 4167.94871774, 4126.41025614,12.0
4147.69230749, 4117.05128178, 4158.84615364, 3870.12820430, 4127.17948691, 4125.76923050, 4131.66666639, 4143.20512800, 4163.33333313, 4161.92307672, 4181.66666653, 4156.92307672, 4163.58974339, 4124.23076896,12.0
4134.48717921, 4100.89743555, 4141.15384595, 3876.15384539, 4109.74358947, 4109.23076896, 4118.20512793, 4127.05128178, 4155.38461518, 4149.74358954, 4168.71794858, 4146.15384595, 4149.10256390, 4126.28205101,12.0
4139.48717928, 4102.94871767, 4146.66666646, 3891.79487103, 4111.41025614, 4119.23076896, 4130.51282024, 4144.10256390, 4166.02564082, 4162.56410236, 4172.30769217, 4151.02564082, 4152.30769210, 4125.89743562,12.0
4150.25641005, 4110.89743562, 4158.97435877, 3912.30769162, 4119.48717921, 4126.66666639, 4140.64102544, 4163.58974339, 4172.17948704, 4175.51282038, 4186.41025628, 4160.38461518, 4162.30769210, 4122.94871767,12.0
4151.92307672, 4114.48717921, 4170.76923063, 3934.87179418, 4122.43589716, 4122.30769203, 4133.71794844, 4157.94871774, 4169.10256397, 4178.07692294, 4201.92307686, 4171.41025628, 4167.43589723, 4124.99999973,12.0
4145.38461518, 4113.20512793, 4180.76923063, 3951.53846092, 4117.94871767, 4121.15384588, 4123.97435870, 4145.25641005, 4168.71794858, 4177.94871781, 4209.99999993, 4180.12820499, 4166.92307672, 4127.05128178,12.0
4151.02564082, 4122.30769203, 4196.28205115, 3972.69230714, 4124.74358947, 4136.15384595, 4132.94871767, 4149.10256390, 4170.89743576, 4175.12820499, 4218.58974352, 4194.74358961, 4168.84615371, 4125.38461511,12.0
4166.15384595, 4136.66666646, 4222.05128199, 3997.05128150, 4135.76923056, 4143.07692287, 4138.84615364, 4155.89743569, 4168.07692287, 4173.58974345, 4235.89743590, 4219.48717942, 4176.28205115, 4123.84615357,12.0
4163.84615364, 4130.89743562, 4231.15384609, 4000.64102509, 4122.94871767, 4116.66666639, 4111.66666639, 4138.20512800, 4158.46153826, 4168.20512807, 4243.33333334, 4231.15384609, 4172.43589730, 4124.23076896,12.0
4162.94871774, 4131.41025614, 4237.82051282, 4016.41025593, 4118.33333306, 4099.74358940, 4091.66666632, 4123.97435870, 4153.84615364, 4168.58974345, 4245.51282052, 4235.51282052, 4169.35897422, 4126.41025614,12.0
4176.66666653, 4153.20512800, 4263.46153847, 4062.43589702, 4143.97435877, 4119.74358947, 4113.20512793, 4144.74358954, 4160.25641005, 4187.05128192, 4257.56410257, 4247.17948718, 4179.23076910, 4127.05128178,12.0
4165.25641005, 4144.48717928, 4257.69230770, 4071.41025607, 4145.38461518, 4127.69230742, 4126.41025614, 4153.97435877, 4163.33333313, 4190.64102551, 4251.41025641, 4233.71794865, 4174.74358961, 4124.99999973,12.0
4131.02564075, 4102.69230742, 4208.84615378, 4034.23076875, 4115.12820485, 4105.89743562, 4103.71794844, 4127.69230742, 4151.15384595, 4162.56410236, 4216.92307686, 4190.89743576, 4148.20512800, 4122.30769203,12.0
4125.76923050, 4094.48717914, 4185.25641012, 4027.05128157, 4111.15384588, 4100.64102530, 4093.46153812, 4111.66666639, 4138.71794851, 4145.89743569, 4198.33333320, 4172.05128192, 4140.25641005, 4126.66666639,12.0
4136.02564082, 4111.53846126, 4184.61538448, 4043.58974318, 4122.17948691, 4110.38461511, 4103.20512793, 4116.28205101, 4139.23076903, 4147.05128185, 4192.56410243, 4172.94871781, 4148.33333313, 4129.48717921,12.0
4124.48717921, 4106.28205101, 4164.61538441, 4033.07692259, 4119.48717921, 4107.43589716, 4103.33333306, 4118.97435870, 4142.30769210, 4137.94871774, 4170.76923063, 4154.74358954, 4141.15384595, 4124.99999973,12.0
4113.84615357, 4098.71794837, 4144.99999980, 4013.33333285, 4121.28205101, 4105.51282024, 4101.41025607, 4123.84615357, 4140.76923056, 4131.66666639, 4152.56410236, 4137.30769210, 4131.79487152, 4126.28205101,12.0
4118.58974332, 4102.05128171, 4136.15384595, 4005.12820465, 4121.66666639, 4107.82051255, 4106.79487152, 4127.17948691, 4139.74358954, 4133.07692280, 4144.74358954, 4134.35897408, 4130.38461511, 4127.56410229,12.0
4118.20512793, 4102.56410229, 4126.92307665, 3996.79487124, 4113.33333306, 4109.99999973, 4111.53846126, 4125.64102537, 4139.23076903, 4129.10256383, 4133.71794844, 4128.46153819, 4128.07692280, 4125.12820485,12.0
4116.28205101, 4102.05128171, 4124.10256383, 3991.92307637, 4115.12820485, 4116.53846126, 4115.64102537, 4130.38461511, 4135.51282031, 4128.58974332, 4132.69230742, 4123.58974332, 4127.17948691, 4127.17948691,12.0
4122.17948691, 4101.53846119, 4123.07692280, 3995.25640970, 4120.38461511, 4121.79487152, 4120.12820485, 4138.71794851, 4137.82051262, 4137.69230749, 4139.10256390, 4122.56410229, 4131.15384588, 4128.46153819,12.0
4102.30769196, 4080.64102530, 4090.89743555, 3979.74358919, 4096.92307658, 4101.15384581, 4096.53846119, 4122.43589716, 4136.41025621, 4123.97435870, 4110.38461511, 4098.84615350, 4117.17948691, 4126.66666639,12.0
4068.71794830, 4053.97435856, 4052.82051241, 3965.25640963, 4069.99999966, 4072.43589709, 4061.02564061, 4089.61538427, 4116.02564075, 4090.12820478, 4069.48717907, 4065.64102523, 4089.99999966, 4122.30769203,12.0
4071.53846119, 4056.28205087, 4055.76923036, 3987.94871740, 4076.92307658, 4073.07692273, 4059.74358933, 4079.99999966, 4106.66666639, 4083.97435863, 4071.15384581, 4061.66666625, 4086.02564068, 4122.94871767,12.0
4086.28205094, 4067.43589702, 4070.12820478, 4015.89743541, 4090.25640991, 4085.38461504, 4074.48717914, 4095.38461504, 4118.71794844, 4097.56410222, 4088.46153812, 4071.15384581, 4099.10256376, 4128.97435870,12.0
4081.53846119, 4069.74358940, 4067.56410215, 4031.66666618, 4091.15384581, 4087.05128171, 4075.51282017, 4103.20512793, 4120.12820485, 4099.48717914, 4084.99999966, 4068.33333292, 4102.56410229, 4128.46153819,12.0
4073.07692273, 4065.89743548, 4056.79487138, 4048.07692266, 4088.07692273, 4083.97435863, 4075.38461504, 4094.61538427, 4114.23076896, 4091.28205094, 4074.35897402, 4058.20512779, 4094.61538427, 4125.38461511,12.0
4059.99999959, 4050.25640984, 4034.10256362, 4056.28205087, 4074.48717914, 4075.76923043, 4069.10256369, 4085.38461504, 4114.10256383, 4073.71794837, 4056.15384574, 4040.76923036, 4081.28205094, 4123.46153819,12.0
4061.53846113, 4053.46153805, 4030.12820465, 4081.92307658, 4073.07692273, 4084.23076889, 4076.15384581, 4102.43589709, 4117.94871767, 4076.66666632, 4053.33333292, 4044.48717907, 4084.99999966, 4125.12820485,12.0
4094.10256376, 4081.79487145, 4062.69230728, 4131.79487152, 4098.33333299, 4116.92307665, 4115.89743562, 4139.99999980, 4133.97435870, 4116.02564075, 4084.74358940, 4079.23076889, 4113.33333306, 4130.12820485,12.0
4084.87179453, 4068.84615343, 4050.89743548, 4129.10256383, 4081.15384581, 4101.28205094, 4100.89743555, 4120.25640998, 4133.07692280, 4109.61538434, 4070.51282017, 4066.28205087, 4101.79487145, 4126.02564075,12.0
4031.66666618, 4020.51282003, 3995.38461483, 4087.56410222, 4026.53846106, 4043.84615343, 4029.74358926, 4056.92307651, 4102.82051255, 4050.38461497, 4013.07692259, 4013.84615336, 4054.35897395, 4124.48717921,12.0
4017.56410208, 4007.05128157, 3986.66666611, 4090.12820478, 4014.10256362, 4034.48717900, 4012.17948670, 4043.71794830, 4092.82051248, 4035.12820465, 4006.28205080, 4006.41025593, 4046.92307651, 4128.84615357,12.0
4034.48717900, 4025.12820465, 4014.48717900, 4118.46153819, 4033.84615336, 4055.64102523, 4035.12820465, 4064.10256369, 4108.33333306, 4057.17948677, 4035.89743541, 4027.69230721, 4069.35897395, 4126.15384588,12.0
4040.89743548, 4032.69230721, 4029.35897388, 4132.17948691, 4046.92307651, 4054.61538420, 4036.53846106, 4068.20512779, 4111.02564075, 4061.53846113, 4046.41025600, 4033.58974311, 4076.02564068, 4125.12820485,12.0
4046.53846113, 4031.41025593, 4038.07692266, 4147.69230749, 4050.64102523, 4049.87179446, 4034.48717900, 4068.46153805, 4104.99999973, 4052.05128164, 4045.89743548, 4036.02564054, 4070.25640991, 4127.69230742,12.0
4046.66666625, 4027.82051234, 4040.76923036, 4161.66666646, 4042.05128164, 4044.74358933, 4030.89743541, 4064.48717907, 4100.64102530, 4039.99999959, 4040.76923036, 4035.51282003, 4063.58974318, 4126.41025614,12.0
4042.69230728, 4032.17948670, 4040.64102523, 4183.58974345, 4039.87179446, 4038.71794830, 4028.20512772, 4063.97435856, 4104.23076896, 4044.35897395, 4041.53846113, 4036.41025593, 4068.33333292, 4124.61538434,12.0
4063.71794830, 4057.17948677, 4057.82051241, 4240.25641026, 4061.79487138, 4055.38461497, 4052.56410215, 4089.23076889, 4121.53846126, 4072.82051248, 4065.12820472, 4057.17948677, 4089.48717914, 4128.33333306,12.0
4066.79487138, 4057.82051241, 4050.76923036, 4281.41025648, 4060.51282010, 4054.48717907, 4051.92307651, 4087.94871761, 4120.51282024, 4070.38461504, 4062.30769189, 4056.53846113, 4086.41025607, 4132.56410229,12.0
4035.89743541, 4028.84615336, 4014.10256362, 4295.76923084, 4028.46153798, 4031.92307644, 4024.99999952, 4053.84615343, 4098.58974325, 4033.71794824, 4022.94871747, 4024.74358926, 4058.33333292, 4129.99999973,12.0
4027.82051234, 4025.12820465, 4003.07692252, 4334.61538483, 4021.15384567, 4039.61538420, 4034.10256362, 4054.61538420, 4097.43589709, 4023.58974311, 4007.69230721, 4013.97435849, 4053.84615343, 4127.69230742,12.0
4033.20512772, 4036.66666618, 4006.15384567, 4379.61538490, 4030.38461490, 4045.76923036, 4043.97435856, 4068.71794830, 4104.23076896, 4033.07692259, 4011.02564054, 4018.07692259, 4061.79487138, 4130.38461511,12.0
4022.56410208, 4026.53846106, 3992.56410201, 4398.20512856, 4018.71794824, 4023.07692259, 4021.41025593, 4055.51282010, 4094.10256376, 4026.53846106, 4001.02564047, 4007.69230721, 4051.66666625, 4130.64102537,12.0
4018.33333285, 4015.89743541, 3984.74358919, 4414.87179522, 4006.41025593, 4016.41025593, 4014.35897388, 4049.35897395, 4094.10256376, 4017.69230721, 3996.28205073, 4000.76923022, 4047.69230728, 4129.99999973,12.0
4022.94871747, 4022.30769183, 3984.23076868, 4441.02564145, 4013.46153798, 4032.82051234, 4030.51282003, 4058.20512779, 4100.89743555, 4014.35897388, 3996.92307637, 4002.17948663, 4053.33333292, 4127.69230742,12.0
4011.53846106, 4019.99999952, 3968.71794810, 4450.12820555, 4011.92307644, 4030.12820465, 4026.02564054, 4053.97435856, 4093.97435863, 4002.56410201, 3981.53846099, 3989.74358919, 4042.43589702, 4125.12820485,12.0
4004.48717900, 4012.56410208, 3961.41025579, 4443.20512863, 4000.64102509, 4017.43589695, 4014.61538413, 4052.94871754, 4091.28205094, 3998.84615329, 3973.33333278, 3983.97435842, 4038.84615343, 4128.46153819,12.0
4022.82051234, 4023.84615336, 3972.17948663, 4443.58974401, 4011.53846106, 4037.82051241, 4038.97435856, 4069.10256369, 4097.56410222, 4010.38461490, 3984.23076868, 3998.71794817, 4052.56410215, 4127.82051255,12.0
4034.61538413, 4035.76923029, 3976.41025586, 4444.48717991, 4025.51282003, 4057.17948677, 4057.94871754, 4070.12820478, 4094.99999966, 4015.25640977, 3986.15384560, 4011.02564054, 4054.10256369, 4126.53846126,12.0
4029.61538413, 4030.64102516, 3976.02564047, 4428.71794907, 4015.76923029, 4031.92307644, 4025.76923029, 4046.92307651, 4086.66666632, 4012.17948670, 3980.25640970, 4013.97435849, 4047.82051241, 4127.30769203,12.0
4016.79487131, 4013.71794824, 3981.15384560, 4395.38461567, 4000.25640970, 3997.69230714, 3986.41025586, 4025.64102516, 4078.33333299, 4005.25640977, 3978.07692252, 4006.28205080, 4041.66666625, 4124.23076896,12.0
4011.66666618, 4008.97435849, 4005.64102516, 4377.05128233, 4005.64102516, 4001.02564047, 3990.38461483, 4023.97435849, 4076.66666632, 4006.02564054, 3991.41025586, 4003.33333278, 4034.74358926, 4123.71794844,12.0
4031.15384567, 4026.92307644, 4064.99999959, 4394.61538490, 4029.35897388, 4023.20512772, 4014.35897388, 4036.66666618, 4083.58974325, 4026.41025593, 4032.43589695, 4024.35897388, 4041.53846113, 4123.84615357,12.0
4048.46153805, 4035.25640977, 4120.76923050, 4410.00000035, 4045.51282010, 4028.71794824, 4022.69230721, 4043.46153805, 4084.23076889, 4043.84615343, 4071.41025607, 4045.25640984, 4055.38461497, 4122.56410229,12.0
4045.64102523, 4030.25640977, 4136.15384595, 4408.84615420, 4049.48717907, 4032.05128157, 4027.82051234, 4049.35897395, 4084.74358940, 4049.35897395, 4080.38461504, 4045.12820472, 4060.25640984, 4124.74358947,12.0
4041.79487138, 4036.15384567, 4125.89743562, 4411.79487215, 4048.84615343, 4039.87179446, 4034.61538413, 4057.69230728, 4092.17948684, 4053.33333292, 4068.07692266, 4039.48717907, 4057.69230728, 4127.69230742,12.0
4038.46153805, 4038.97435856, 4096.79487145, 4409.23076958, 4040.76923036, 4035.76923029, 4033.33333285, 4051.92307651, 4090.25640991, 4047.82051241, 4045.76923036, 4032.56410208, 4051.02564061, 4126.53846126,12.0
4027.05128157, 4027.56410208, 4048.33333292, 4393.33333362, 4025.64102516, 4024.87179439, 4029.10256362, 4050.64102523, 4087.69230735, 4037.69230728, 4016.15384567, 4018.07692259, 4045.89743548, 4127.05128178,12.0
4019.48717900, 4021.79487131, 3997.30769176, 4374.23076951, 4011.15384567, 4017.17948670, 4022.30769183, 4056.02564061, 4093.33333299, 4036.66666618, 3990.12820458, 4005.25640977, 4044.61538420, 4129.10256383,12.0
4015.89743541, 4016.41025593, 3962.94871733, 4351.41025662, 3999.35897381, 4018.20512772, 4022.69230721, 4048.07692266, 4092.56410222, 4028.97435849, 3973.71794817, 3997.94871740, 4039.74358933, 4123.58974332,12.0
4007.82051234, 3999.48717894, 3950.38461476, 4320.00000014, 3992.17948663, 4023.46153798, 4031.41025593, 4036.28205080, 4086.02564068, 4009.99999952, 3961.92307630, 3987.94871740, 4029.10256362, 4121.28205101,12.0
3996.79487124, 3989.23076868, 3951.92307630, 4289.74358982, 3987.05128150, 4018.97435849, 4022.94871747, 4028.46153798, 4080.64102530, 3999.48717894, 3954.87179425, 3976.53846099, 4020.76923029, 4125.38461511,12.0
3989.99999945, 3987.30769176, 3963.46153784, 4266.79487187, 3980.64102509, 4001.28205073, 3996.41025586, 4016.15384567, 4074.23076889, 3998.46153791, 3958.46153784, 3974.74358919, 4017.94871747, 4123.33333306,12.0
4003.97435842, 3991.92307637, 3991.41025586, 4250.25641026, 3988.97435842, 3996.79487124, 3992.69230714, 4018.07692259, 4078.84615350, 4008.20512772, 3978.97435842, 3989.48717894, 4027.17948670, 4118.33333306,12.0
4032.17948670, 4013.07692259, 4035.89743541, 4239.10256411, 4015.25640977, 4011.79487131, 4015.38461490, 4043.33333292, 4090.64102530, 4029.74358926, 4014.48717900, 4016.41025593, 4048.20512779, 4119.10256383,12.0
4049.23076882, 4033.71794824, 4069.23076882, 4227.43589737, 4032.05128157, 4021.79487131, 4027.69230721, 4053.71794830, 4092.82051248, 4047.82051241, 4039.35897395, 4038.07692266, 4059.61538420, 4123.97435870,12.0
4054.74358933, 4039.87179446, 4074.74358940, 4206.66666660, 4035.51282003, 4027.17948670, 4030.51282003, 4055.38461497, 4097.17948684, 4057.17948677, 4042.82051241, 4044.87179446, 4061.66666625, 4127.43589716,12.0
4056.66666625, 4041.92307651, 4060.76923036, 4177.05128192, 4036.92307651, 4024.74358926, 4030.12820465, 4063.71794830, 4103.20512793, 4061.66666625, 4039.35897395, 4042.56410215, 4066.41025600, 4129.10256383,12.0
4057.69230728, 4046.53846113, 4047.56410215, 4154.87179467, 4034.99999952, 4022.56410208, 4031.28205080, 4064.99999959, 4097.69230735, 4062.82051241, 4034.87179439, 4041.79487138, 4067.43589702, 4127.69230742,12.0
4062.94871754, 4053.46153805, 4045.38461497, 4146.41025621, 4042.82051241, 4046.02564061, 4053.07692266, 4071.15384581, 4099.99999966, 4070.51282017, 4031.92307644, 4047.94871754, 4067.17948677, 4122.94871767,12.0
4058.20512779, 4053.84615343, 4038.97435856, 4135.89743569, 4053.46153805, 4062.94871754, 4064.23076882, 4070.89743555, 4107.17948691, 4073.46153812, 4027.17948670, 4046.28205087, 4063.97435856, 4124.87179460,12.0
4039.48717907, 4043.58974318, 4031.79487131, 4124.10256383, 4041.28205087, 4038.84615343, 4037.69230728, 4046.79487138, 4093.84615350, 4053.33333292, 4015.25640977, 4031.02564054, 4049.48717907, 4124.61538434,12.0
4037.56410215, 4040.38461497, 4044.87179446, 4128.84615357, 4029.10256362, 4018.07692259, 4018.97435849, 4036.02564054, 4082.30769196, 4043.20512779, 4015.38461490, 4028.20512772, 4044.61538420, 4119.35897408,12.0
4058.46153805, 4053.33333292, 4077.56410222, 4151.53846133, 4044.48717907, 4034.87179439, 4036.53846106, 4057.69230728, 4094.48717914, 4064.35897395, 4039.23076882, 4048.58974318, 4065.25640984, 4122.69230742,12.0
4078.71794837, 4072.30769196, 4114.10256383, 4184.23076910, 4071.02564068, 4057.56410215, 4058.07692266, 4074.61538427, 4104.99999973, 4085.38461504, 4071.15384581, 4076.02564068, 4085.89743555, 4123.58974332,12.0
4084.74358940, 4083.33333299, 4134.23076896, 4209.87179481, 4080.76923043, 4062.17948677, 4065.64102523, 4075.25640991, 4106.02564075, 4089.61538427, 4085.64102530, 4086.66666632, 4084.48717914, 4121.41025614,12.0
4081.53846119, 4078.33333299, 4126.53846126, 4215.38461532, 4077.69230735, 4061.41025600, 4069.35897395, 4082.05128171, 4108.46153819, 4089.87179453, 4080.25640991, 4076.41025607, 4078.84615350, 4123.46153819,12.0
4072.17948684, 4064.99999959, 4102.17948684, 4209.74358968, 4071.15384581, 4060.38461497, 4065.25640984, 4079.10256376, 4104.48717921, 4081.66666632, 4066.41025600, 4060.51282010, 4075.51282017, 4125.25640998,12.0
4075.64102530, 4073.71794837, 4093.46153812, 4217.05128199, 4079.87179453, 4068.46153805, 4073.58974325, 4079.99999966, 4104.48717921, 4085.76923043, 4070.12820478, 4066.41025600, 4082.05128171, 4127.94871767,12.0
4089.48717914, 4092.17948684, 4092.05128171, 4219.87179481, 4094.10256376, 4082.94871761, 4096.15384581, 4104.23076896, 4115.38461511, 4111.66666639, 4084.99999966, 4082.69230735, 4094.87179453, 4125.64102537,12.0
4067.56410215, 4068.46153805, 4056.66666625, 4183.46153833, 4070.89743555, 4071.15384581, 4082.69230735, 4093.97435863, 4107.94871767, 4100.51282017, 4062.30769189, 4060.12820472, 4080.12820478, 4126.53846126,12.0
4034.23076875, 4035.51282003, 4020.51282003, 4143.84615364, 4041.02564061, 4042.56410215, 4045.38461497, 4052.30769189, 4088.97435863, 4064.48717907, 4027.17948670, 4028.84615336, 4055.51282010, 4129.48717921,12.0
4046.92307651, 4049.99999959, 4037.43589702, 4144.87179467, 4055.89743548, 4043.33333292, 4047.56410215, 4057.56410215, 4094.10256376, 4073.33333299, 4039.35897395, 4043.07692266, 4064.48717907, 4124.48717921,12.0
4072.17948684, 4077.05128171, 4069.35897395, 4153.58974339, 4085.12820478, 4062.30769189, 4070.25640991, 4086.79487145, 4106.66666639, 4103.07692280, 4073.07692273, 4068.33333292, 4086.02564068, 4124.87179460,12.0
4063.07692266, 4067.05128164, 4063.33333292, 4126.79487152, 4077.30769196, 4059.99999959, 4065.64102523, 4079.61538427, 4101.92307658, 4095.38461504, 4070.12820478, 4057.30769189, 4076.79487145, 4125.76923050,12.0
4054.48717907, 4053.58974318, 4053.71794830, 4096.66666632, 4062.82051241, 4053.58974318, 4059.87179446, 4066.02564061, 4097.94871761, 4079.10256376, 4056.15384574, 4048.07692266, 4063.20512779, 4121.92307665,12.0
4080.64102530, 4076.53846119, 4077.56410222, 4099.23076889, 4082.94871761, 4071.92307658, 4082.94871761, 4085.38461504, 4106.41025614, 4093.97435863, 4074.35897402, 4076.28205094, 4082.30769196, 4122.94871767,12.0
4106.02564075, 4100.38461504, 4097.94871761, 4099.74358940, 4109.35897408, 4095.12820478, 4110.25640998, 4111.79487152, 4114.23076896, 4117.94871767, 4096.28205094, 4100.64102530, 4104.10256383, 4125.12820485,12.0
4093.84615350, 4087.17948684, 4082.43589709, 4063.84615343, 4097.82051248, 4084.74358940, 4100.89743555, 4103.20512793, 4107.69230742, 4111.41025614, 4085.12820478, 4087.56410222, 4094.87179453, 4126.66666639,12.0
4070.51282017, 4064.10256369, 4061.15384574, 4023.20512772, 4069.35897395, 4053.20512779, 4069.87179453, 4076.92307658, 4097.05128171, 4088.07692273, 4066.02564061, 4065.38461497, 4075.64102530, 4124.99999973,12.0
4083.20512786, 4076.92307658, 4076.28205094, 4017.69230721, 4082.82051248, 4058.46153805, 4076.41025607, 4086.41025607, 4102.94871767, 4103.97435870, 4085.76923043, 4077.82051248, 4090.51282017, 4122.30769203,12.0
4105.64102537, 4096.66666632, 4103.58974332, 4017.43589695, 4109.61538434, 4082.82051248, 4100.51282017, 4106.79487152, 4113.46153819, 4131.28205101, 4115.12820485, 4099.87179453, 4112.30769203, 4126.15384588,12.0
4100.76923043, 4089.23076889, 4109.10256383, 4000.25640970, 4104.99999973, 4081.41025607, 4095.89743555, 4092.56410222, 4106.02564075, 4121.15384588, 4114.61538434, 4097.17948684, 4103.20512793, 4128.97435870,12.0
4094.35897402, 4083.58974325, 4106.15384588, 3985.89743535, 4094.74358940, 4074.87179453, 4091.28205094, 4079.61538427, 4099.61538427, 4106.79487152, 4107.82051255, 4089.74358940, 4091.53846119, 4124.48717921,12.0
4099.23076889, 4091.79487145, 4107.30769203, 3979.99999945, 4104.48717921, 4080.76923043, 4099.23076889, 4087.56410222, 4104.61538434, 4112.56410229, 4111.92307665, 4091.92307658, 4096.92307658, 4126.66666639,12.0
4107.69230742, 4101.02564068, 4111.02564075, 3978.71794817, 4120.51282024, 4091.79487145, 4105.89743562, 4096.66666632, 4109.23076896, 4122.56410229, 4118.97435870, 4100.12820478, 4104.74358947, 4132.17948691,12.0
4111.41025614, 4100.38461504, 4104.99999973, 3968.71794810, 4119.10256383, 4098.84615350, 4112.82051255, 4098.07692273, 4109.74358947, 4125.25640998, 4118.46153819, 4104.10256383, 4104.74358947, 4127.56410229,12.0
4095.64102530, 4086.66666632, 4081.28205094, 3944.23076861, 4100.12820478, 4083.33333299, 4102.05128171, 4083.97435863, 4104.35897408, 4113.20512793, 4100.51282017, 4088.97435863, 4094.23076889, 4123.97435870,12.0
4087.82051248, 4084.74358940, 4071.79487145, 3933.71794803, 4095.25640991, 4069.48717907, 4091.79487145, 4086.15384581, 4107.94871767, 4110.76923050, 4091.53846119, 4077.05128171, 4091.92307658, 4128.20512793,12.0
4097.82051248, 4093.46153812, 4083.33333299, 3942.43589681, 4111.15384588, 4083.97435863, 4109.87179460, 4106.28205101, 4116.02564075, 4127.17948691, 4104.74358947, 4086.92307658, 4100.25640991, 4129.10256383,12.0
4089.87179453, 4083.46153812, 4078.07692273, 3937.30769162, 4109.23076896, 4089.87179453, 4116.92307665, 4101.53846119, 4108.46153819, 4126.66666639, 4104.10256383, 4086.79487145, 4091.66666632, 4123.46153819,12.0
4084.99999966, 4077.82051248, 4075.89743555, 3935.51281982, 4100.38461504, 4081.41025607, 4107.05128178, 4101.15384581, 4106.92307665, 4126.66666639, 4101.15384581, 4083.46153812, 4091.02564068, 4123.46153819,12.0
4096.79487145, 4089.61538427, 4088.46153812, 3948.20512758, 4103.07692280, 4084.10256376, 4112.69230742, 4110.89743562, 4114.48717921, 4135.76923056, 4109.61538434, 4088.97435863, 4105.51282024, 4129.48717921,12.0
4089.61538427, 4083.71794837, 4082.05128171, 3943.71794810, 4098.07692273, 4083.46153812, 4115.38461511, 4095.89743555, 4102.43589709, 4117.82051255, 4096.79487145, 4083.07692273, 4092.30769196, 4127.69230742,12.0
4079.99999966, 4072.82051248, 4073.46153812, 3939.99999938, 4096.92307658, 4080.64102530, 4110.12820485, 4087.30769196, 4089.87179453, 4098.58974325, 4081.53846119, 4076.79487145, 4076.92307658, 4122.30769203,12.0
4089.35897402, 4081.66666632, 4077.69230735, 3952.94871733, 4108.84615357, 4089.35897402, 4116.02564075, 4097.05128171, 4096.79487145, 4103.33333306, 4089.87179453, 4077.30769196, 4088.07692273, 4123.20512793,12.0
4094.48717914, 4090.38461504, 4081.53846119, 3963.97435835, 4114.10256383, 4091.28205094, 4117.82051255, 4093.84615350, 4099.99999966, 4108.71794844, 4098.07692273, 4081.41025607, 4097.69230735, 4125.12820485,12.0
4099.87179453, 4097.82051248, 4090.89743555, 3978.20512765, 4117.43589716, 4088.07692273, 4118.20512793, 4093.46153812, 4099.87179453, 4114.87179460, 4100.51282017, 4094.61538427, 4101.15384581, 4127.82051255,12.0
4118.20512793, 4114.48717921, 4109.10256383, 4001.92307637, 4132.43589716, 4099.10256376, 4130.89743562, 4111.41025614, 4106.53846126, 4129.35897408, 4114.10256383, 4111.53846126, 4115.12820485, 4127.94871767,12.0
4135.89743569, 4131.79487152, 4126.66666639, 4024.87179439, 4143.84615364, 4112.17948691, 4142.69230749, 4132.17948691, 4116.66666639, 4147.82051262, 4136.02564082, 4128.46153819, 4131.53846126, 4123.58974332,12.0
4129.23076896, 4126.28205101, 4123.97435870, 4027.94871747, 4130.89743562, 4099.23076889, 4135.12820485, 4130.76923050, 4118.20512793, 4152.43589723, 4137.05128185, 4129.74358947, 4126.66666639, 4124.61538434,12.0
4102.30769196, 4098.46153812, 4096.66666632, 4016.15384567, 4103.71794844, 4073.97435863, 4110.89743562, 4097.94871761, 4101.02564068, 4129.48717921, 4112.43589716, 4105.38461511, 4107.05128178, 4126.41025614,12.0
4096.53846119, 4092.56410222, 4087.43589709, 4025.89743541, 4098.58974325, 4072.94871761, 4104.35897408, 4085.64102530, 4092.56410222, 4119.87179460, 4107.56410229, 4097.94871761, 4107.30769203, 4123.97435870,12.0
4108.58974332, 4106.02564075, 4104.10256383, 4055.76923036, 4113.97435870, 4083.71794837, 4118.84615357, 4108.58974332, 4104.74358947, 4134.35897408, 4122.30769203, 4114.74358947, 4118.58974332, 4123.07692280,12.0
4114.10256383, 4110.38461511, 4113.84615357, 4080.25640991, 4124.61538434, 4095.64102530, 4135.38461518, 4117.94871767, 4109.87179460, 4136.28205108, 4122.30769203, 4119.48717921, 4115.12820485, 4124.61538434,12.0
4125.76923050, 4117.82051255, 4122.69230742, 4112.17948691, 4138.71794851, 4116.28205101, 4150.38461518, 4114.87179460, 4104.10256383, 4133.07692280, 4120.76923050, 4122.82051255, 4114.23076896, 4123.58974332,12.0
4126.79487152, 4121.28205101, 4121.66666639, 4143.71794851, 4146.15384595, 4121.92307665, 4154.48717928, 4119.23076896, 4103.07692280, 4133.97435870, 4120.76923050, 4123.46153819, 4116.79487152, 4123.58974332,12.0
4112.56410229, 4112.05128178, 4107.94871767, 4160.76923056, 4136.53846133, 4114.35897408, 4152.56410236, 4124.10256383, 4104.61538434, 4128.84615357, 4113.71794844, 4111.28205101, 4111.53846126, 4125.38461511,12.0
4115.25640998, 4111.53846126, 4113.71794844, 4189.48717935, 4133.07692280, 4114.61538434, 4153.07692287, 4117.82051255, 4101.66666632, 4126.41025614, 4118.20512793, 4113.33333306, 4112.82051255, 4125.12820485,12.0
4119.87179460, 4113.46153819, 4118.07692280, 4223.97435891, 4135.76923056, 4107.43589716, 4140.51282031, 4102.30769196, 4093.07692273, 4127.69230742, 4123.20512793, 4120.12820485, 4115.12820485, 4127.05128178,12.0
4117.05128178, 4110.51282024, 4108.71794844, 4249.35897436, 4135.76923056, 4105.89743562, 4143.97435877, 4111.79487152, 4094.35897402, 4133.58974332, 4118.71794844, 4116.41025614, 4112.69230742, 4126.92307665,12.0
4126.41025614, 4120.76923050, 4114.23076896, 4283.58974366, 4141.66666646, 4127.69230742, 4173.46153833, 4138.07692287, 4105.76923050, 4147.43589723, 4125.89743562, 4120.76923050, 4120.64102537, 4122.43589716,12.0
4126.66666639, 4124.87179460, 4117.69230742, 4319.10256425, 4143.46153826, 4127.82051255, 4170.51282038, 4129.74358947, 4103.97435870, 4153.84615364, 4134.74358947, 4123.20512793, 4127.30769203, 4123.84615357,12.0
4108.84615357, 4108.97435870, 4099.35897402, 4337.43589765, 4130.89743562, 4100.25640991, 4140.64102544, 4110.25640998, 4095.51282017, 4150.64102544, 4129.35897408, 4112.82051255, 4121.66666639, 4126.15384588,12.0
4101.28205094, 4101.79487145, 4091.66666632, 4361.15384637, 4123.07692280, 4097.17948684, 4142.17948697, 4114.61538434, 4095.76923043, 4145.51282031, 4123.84615357, 4109.99999973, 4115.12820485, 4121.92307665,12.0
4109.74358947, 4109.35897408, 4102.69230742, 4406.02564138, 4133.33333306, 4116.02564075, 4156.79487159, 4113.84615357, 4094.35897402, 4139.48717928, 4128.07692280, 4119.74358947, 4117.30769203, 4123.97435870,12.0
4119.99999973, 4114.35897408, 4106.79487152, 4450.64102606, 4140.38461518, 4117.69230742, 4149.61538441, 4105.76923050, 4086.02564068, 4137.82051262, 4131.28205101, 4125.51282024, 4120.64102537, 4129.23076896,12.0
4125.51282024, 4115.51282024, 4105.51282024, 4485.76923126, 4135.51282031, 4107.94871767, 4145.51282031, 4108.33333306, 4082.82051248, 4136.02564082, 4127.56410229, 4126.53846126, 4118.33333306, 4125.89743562,12.0
4136.41025621, 4127.69230742, 4119.61538434, 4530.89743653, 4143.07692287, 4114.10256383, 4163.07692287, 4121.92307665, 4092.94871761, 4137.94871774, 4132.82051255, 4142.82051262, 4123.33333306, 4125.25640998,12.0
4152.17948697, 4145.51282031, 4141.53846133, 4585.89743660, 4162.30769210, 4130.12820485, 4177.05128192, 4140.38461518, 4102.94871767, 4152.30769210, 4149.35897415, 4162.69230749, 4135.38461518, 4127.17948691,12.0
4156.15384595, 4147.30769210, 4148.07692287, 4627.30769308, 4164.10256390, 4131.92307665, 4171.92307679, 4140.25641005, 4098.97435863, 4156.66666646, 4154.35897415, 4163.20512800, 4136.02564082, 4123.07692280,12.0
4152.82051262, 4142.94871774, 4148.84615364, 4654.87179571, 4158.46153826, 4127.56410229, 4165.64102544, 4125.38461511, 4092.82051248, 4149.48717928, 4147.43589723, 4158.84615364, 4128.84615357, 4123.46153819,12.0
4141.66666646, 4131.66666639, 4140.12820492, 4668.33333424, 4151.15384595, 4118.58974332, 4155.89743569, 4119.48717921, 4091.53846119, 4138.84615364, 4132.17948691, 4146.53846133, 4117.43589716, 4128.84615357,12.0
4120.76923050, 4112.30769203, 4119.23076896, 4680.64102655, 4137.05128185, 4103.58974332, 4134.87179460, 4112.56410229, 4084.23076889, 4124.61538434, 4116.92307665, 4125.64102537, 4105.89743562, 4127.05128178,12.0
4119.35897408, 4115.38461511, 4121.79487152, 4714.23077021, 4140.51282031, 4106.02564075, 4135.89743569, 4106.41025614, 4080.12820478, 4128.58974332, 4125.51282024, 4129.23076896, 4111.66666639, 4123.33333306,12.0
4126.66666639, 4128.33333306, 4133.07692280, 4741.66666771, 4154.10256390, 4117.43589716, 4153.07692287, 4111.92307665, 4085.25640991, 4142.56410236, 4139.61538441, 4139.35897415, 4119.35897408, 4125.51282024,12.0
4107.69230742, 4114.23076896, 4113.84615357, 4741.41025746, 4146.66666646, 4109.99999973, 4148.07692287, 4109.35897408, 4082.69230735, 4136.02564082, 4126.66666639, 4122.30769203, 4108.84615357, 4128.20512793,12.0
4088.46153812, 4095.25640991, 4088.84615350, 4740.76923182, 4132.43589716, 4100.89743555, 4137.05128185, 4096.41025607, 4074.48717914, 4122.17948691, 4108.84615357, 4104.61538434, 4098.97435863, 4127.17948691,12.0
4105.76923050, 4107.43589716, 4098.71794837, 4757.82051387, 4143.46153826, 4118.71794844, 4154.10256390, 4112.43589716, 4084.35897402, 4137.69230749, 4122.05128178, 4118.20512793, 4112.94871767, 4122.43589716,12.0
4134.61538434, 4130.64102537, 4117.69230742, 4777.05128317, 4166.66666646, 4144.48717928, 4182.82051269, 4149.23076903, 4104.61538434, 4166.66666646, 4146.41025621, 4142.05128185, 4134.74358947, 4121.28205101,12.0
4129.61538434, 4127.94871767, 4104.48717921, 4769.10256522, 4159.99999980, 4144.23076903, 4182.94871781, 4148.07692287, 4100.64102530, 4156.15384595, 4133.84615357, 4133.84615357, 4126.02564075, 4125.38461511,12.0
4114.74358947, 4116.41025614, 4088.20512786, 4746.92307797, 4139.87179467, 4126.53846126, 4163.84615364, 4125.25640998, 4084.74358940, 4130.38461511, 4113.97435870, 4116.66666639, 4108.84615357, 4125.51282024,12.0
4132.94871767, 4129.48717921, 4109.74358947, 4746.28205233, 4149.23076903, 4127.05128178, 4168.58974345, 4136.53846133, 4092.94871761, 4146.28205108, 4139.35897415, 4139.48717928, 4124.48717921, 4124.10256383,12.0
4143.46153826, 4139.61538441, 4124.61538434, 4736.28205233, 4156.02564082, 4133.84615357, 4177.17948704, 4146.92307672, 4101.15384581, 4159.48717928, 4154.10256390, 4154.35897415, 4134.35897408, 4124.99999973,12.0
4116.53846126, 4115.64102537, 4096.79487145, 4688.33333424, 4130.89743562, 4115.76923050, 4158.20512800, 4123.07692280, 4087.69230735, 4129.74358947, 4119.23076896, 4122.17948691, 4110.76923050, 4124.23076896,12.0
4118.58974332, 4113.58974332, 4095.12820478, 4666.02564193, 4137.05128185, 4114.23076896, 4159.48717928, 4124.87179460, 4088.71794837, 4130.12820485, 4119.99999973, 4122.56410229, 4115.25640998, 4124.23076896,12.0
4153.84615364, 4144.99999980, 4131.66666639, 4682.82051373, 4172.69230756, 4138.07692287, 4182.17948704, 4150.64102544, 4103.97435870, 4164.61538441, 4161.53846133, 4162.43589723, 4144.35897415, 4125.89743562,12.0
4143.71794851, 4134.61538434, 4122.82051255, 4663.58974450, 4163.84615364, 4131.41025614, 4170.89743576, 4134.35897408, 4096.92307658, 4151.92307672, 4148.58974339, 4151.28205108, 4128.46153819, 4127.94871767,12.0
4116.53846126, 4108.07692280, 4090.38461504, 4621.41025718, 4143.84615364, 4119.74358947, 4160.76923056, 4116.92307665, 4089.74358940, 4127.30769203, 4114.87179460, 4121.92307665, 4105.64102537, 4128.84615357,12.0
4126.41025614, 4124.61538434, 4097.94871761, 4615.00000077, 4161.92307672, 4139.99999980, 4184.35897422, 4135.51282031, 4101.66666632, 4143.46153826, 4127.17948691, 4134.35897408, 4121.02564075, 4128.33333306,12.0
4141.79487159, 4147.56410236, 4113.71794844, 4617.94871872, 4177.94871781, 4151.02564082, 4196.66666653, 4148.33333313, 4110.12820485, 4162.94871774, 4145.12820492, 4148.71794851, 4134.61538434, 4128.07692280,12.0
4130.12820485, 4134.10256383, 4097.94871761, 4584.23076993, 4160.25641005, 4131.92307665, 4176.02564089, 4132.43589716, 4103.46153819, 4152.05128185, 4130.76923050, 4135.51282031, 4121.79487152, 4125.51282024,12.0
4106.92307665, 4108.20512793, 4072.17948684, 4533.97435960, 4135.64102544, 4107.82051255, 4146.15384595, 4112.17948691, 4089.23076889, 4124.87179460, 4111.28205101, 4119.61538434, 4107.43589716, 4124.23076896,12.0
4113.71794844, 4114.74358947, 4079.23076889, 4514.48718005, 4137.05128185, 4107.94871767, 4145.89743569, 4119.48717921, 4086.53846119, 4126.41025614, 4123.84615357, 4130.89743562, 4116.79487152, 4127.94871767,12.0
4152.17948697, 4152.05128185, 4118.58974332, 4519.74359030, 4165.64102544, 4138.20512800, 4182.30769217, 4148.58974339, 4101.41025607, 4161.15384595, 4159.99999980, 4162.56410236, 4143.20512800, 4128.07692280,12.0
4177.17948704, 4176.66666653, 4146.41025621, 4511.79487235, 4187.05128192, 4158.46153826, 4200.12820499, 4160.25641005, 4111.41025614, 4182.05128192, 4184.10256397, 4182.94871781, 4158.07692287, 4127.05128178,12.0
4167.69230749, 4166.66666646, 4139.35897415, 4476.79487229, 4176.02564089, 4141.41025621, 4177.43589730, 4145.51282031, 4099.23076889, 4170.64102551, 4176.92307679, 4175.38461525, 4151.79487159, 4126.79487152,12.0
4157.43589723, 4155.76923056, 4126.79487152, 4440.76923119, 4161.92307672, 4127.94871767, 4168.46153833, 4138.46153826, 4086.79487145, 4157.82051262, 4162.17948697, 4163.71794851, 4144.48717928, 4124.99999973,12.0
4162.56410236, 4162.43589723, 4129.99999973, 4421.92307727, 4165.89743569, 4141.28205108, 4185.76923063, 4145.51282031, 4087.94871761, 4156.02564082, 4158.84615364, 4165.38461518, 4140.89743569, 4127.17948691,12.0
4165.64102544, 4166.92307672, 4133.33333306, 4400.64102599, 4169.61538448, 4148.84615364, 4190.51282038, 4150.38461518, 4090.12820478, 4152.82051262, 4155.12820492, 4166.92307672, 4135.12820485, 4131.41025614,12.0
4162.30769210, 4162.30769210, 4127.05128178, 4369.48717977, 4163.33333313, 4140.89743569, 4178.97435884, 4147.94871774, 4085.12820478, 4145.76923056, 4148.46153826, 4166.02564082, 4133.33333306, 4129.10256383,12.0
4155.51282031, 4155.25641005, 4113.84615357, 4344.10256431, 4163.33333313, 4140.12820492, 4178.58974345, 4139.35897415, 4077.94871761, 4135.51282031, 4141.15384595, 4158.97435877, 4130.25640998, 4124.61538434,12.0
4156.41025621, 4157.30769210, 4113.20512793, 4332.94871816, 4175.25641012, 4152.30769210, 4193.71794858, 4144.61538441, 4080.76923043, 4137.94871774, 4144.74358954, 4154.87179467, 4130.76923050, 4128.46153819,12.0
4158.07692287, 4159.23076903, 4120.25640998, 4323.97435912, 4173.07692294, 4147.30769210, 4189.74358961, 4147.69230749, 4081.92307658, 4146.79487159, 4149.99999980, 4158.97435877, 4136.28205108, 4130.64102537,12.0
4156.28205108, 4154.48717928, 4119.87179460, 4316.28205142, 4164.74358954, 4133.20512793, 4174.61538448, 4140.64102544, 4077.30769196, 4152.56410236, 4152.82051262, 4165.89743569, 4139.74358954, 4125.51282024,12.0
4155.12820492, 4151.53846133, 4116.41025614, 4306.92307707, 4170.64102551, 4140.12820492, 4179.48717935, 4143.71794851, 4077.94871761, 4157.56410236, 4156.28205108, 4168.33333320, 4137.82051262, 4126.28205101,12.0
4144.23076903, 4144.48717928, 4103.84615357, 4280.00000007, 4165.64102544, 4141.28205108, 4178.84615371, 4144.48717928, 4078.71794837, 4152.82051262, 4147.94871774, 4155.89743569, 4127.43589716, 4133.07692280,12.0
4132.30769203, 4133.33333306, 4089.99999966, 4246.28205129, 4143.33333313, 4119.99999973, 4158.46153826, 4129.35897408, 4074.61538427, 4145.76923056, 4135.76923056, 4143.33333313, 4119.35897408, 4131.79487152,12.0
4136.66666646, 4134.87179460, 4092.43589709, 4225.25641019, 4139.23076903, 4117.43589716, 4153.97435877, 4127.17948691, 4074.23076889, 4148.20512800, 4137.94871774, 4148.46153826, 4125.64102537, 4125.64102537,12.0
4153.58974339, 4151.66666646, 4105.76923050, 4218.07692301, 4162.94871774, 4146.28205108, 4176.66666653, 4149.87179467, 4084.87179453, 4162.43589723, 4157.82051262, 4166.41025621, 4140.38461518, 4126.53846126,12.0
4155.38461518, 4152.82051262, 4101.41025607, 4201.28205122, 4172.30769217, 4153.97435877, 4180.89743576, 4149.87179467, 4088.97435863, 4167.69230749, 4159.61538441, 4164.99999980, 4140.12820492, 4128.84615357,12.0
4138.33333313, 4135.76923056, 4083.46153812, 4173.07692294, 4152.82051262, 4129.74358947, 4158.84615364, 4128.97435870, 4082.05128171, 4156.02564082, 4138.20512800, 4144.99999980, 4127.69230742, 4128.58974332,12.0
4131.79487152, 4133.97435870, 4083.33333299, 4162.94871774, 4141.15384595, 4119.99999973, 4152.82051262, 4135.12820485, 4083.07692273, 4154.61538441, 4133.07692280, 4141.02564082, 4127.30769203, 4126.66666639,12.0
4146.41025621, 4146.28205108, 4101.66666632, 4173.84615371, 4155.51282031, 4138.84615364, 4170.51282038, 4155.64102544, 4093.20512786, 4167.05128185, 4148.84615364, 4154.61538441, 4138.97435877, 4125.25640998,12.0
4164.35897415, 4156.53846133, 4122.82051255, 4189.61538448, 4173.58974345, 4152.56410236, 4181.66666653, 4152.94871774, 4093.20512786, 4169.61538448, 4162.56410236, 4168.33333320, 4148.33333313, 4127.30769203,12.0
4170.76923063, 4164.99999980, 4137.82051262, 4201.79487173, 4176.92307679, 4150.51282031, 4179.99999986, 4147.82051262, 4086.79487145, 4162.30769210, 4165.76923056, 4176.28205115, 4148.07692287, 4128.07692280,12.0
4164.74358954, 4160.76923056, 4136.41025621, 4198.33333320, 4166.02564082, 4146.66666646, 4176.92307679, 4156.92307672, 4086.53846119, 4156.15384595, 4159.23076903, 4171.28205115, 4139.23076903, 4126.53846126,12.0
4145.76923056, 4137.56410236, 4115.38461511, 4180.25641012, 4151.15384595, 4136.79487159, 4160.51282031, 4143.46153826, 4077.43589709, 4136.15384595, 4136.92307672, 4150.12820492, 4120.64102537, 4127.43589716,12.0
4137.17948697, 4134.61538434, 4109.10256383, 4183.33333320, 4152.82051262, 4131.92307665, 4144.48717928, 4124.35897408, 4066.66666625, 4126.15384588, 4127.56410229, 4139.48717928, 4115.76923050, 4128.97435870,12.0
4157.30769210, 4162.43589723, 4133.46153819, 4215.12820506, 4172.05128192, 4147.05128185, 4156.66666646, 4138.97435877, 4077.17948684, 4151.02564082, 4148.84615364, 4158.33333313, 4137.43589723, 4126.66666639,12.0
4172.17948704, 4172.30769217, 4146.66666646, 4231.28205122, 4181.92307679, 4162.17948697, 4177.17948704, 4155.25641005, 4089.23076889, 4171.02564089, 4162.82051262, 4174.10256397, 4148.71794851, 4126.28205101,12.0
4154.35897415, 4151.41025621, 4127.69230742, 4220.25641019, 4168.20512807, 4155.89743569, 4170.76923063, 4145.89743569, 4084.87179453, 4161.79487159, 4151.28205108, 4159.48717928, 4133.97435870, 4130.76923050,12.0
4133.20512793, 4138.07692287, 4110.38461511, 4214.61538455, 4151.92307672, 4144.48717928, 4153.20512800, 4140.25641005, 4082.43589709, 4157.82051262, 4142.69230749, 4144.99999980, 4128.58974332, 4128.84615357,12.0
4139.99999980, 4147.43589723, 4117.43589716, 4231.53846147, 4154.10256390, 4143.20512800, 4157.56410236, 4146.28205108, 4087.69230735, 4168.46153833, 4149.48717928, 4153.20512800, 4139.74358954, 4123.46153819,12.0
4161.92307672, 4162.30769210, 4134.61538434, 4260.89743590, 4169.35897422, 4147.82051262, 4169.87179474, 4147.69230749, 4091.15384581, 4174.10256397, 4160.64102544, 4166.53846133, 4149.74358954, 4126.15384588,12.0
4165.38461518, 4164.61538441, 4139.35897415, 4279.23076930, 4169.10256397, 4151.92307672, 4168.97435884, 4152.94871774, 4094.35897402, 4174.48717935, 4164.61538441, 4163.84615364, 4153.46153826, 4126.79487152,12.0
4148.07692287, 4152.30769210, 4128.07692280, 4280.76923084, 4149.87179467, 4152.17948697, 4165.12820492, 4158.84615364, 4094.74358940, 4168.46153833, 4153.33333313, 4151.15384595, 4146.53846133, 4126.28205101,12.0
4147.43589723, 4150.25641005, 4129.10256383, 4299.74358989, 4147.43589723, 4151.15384595, 4165.64102544, 4155.76923056, 4090.76923043, 4162.69230749, 4151.66666646, 4155.89743569, 4140.25641005, 4127.17948691,12.0
4160.76923056, 4160.89743569, 4141.79487159, 4334.87179508, 4157.82051262, 4145.38461518, 4159.74358954, 4147.69230749, 4085.12820478, 4159.61538441, 4161.15384595, 4165.51282031, 4141.28205108, 4122.94871767,12.0
4153.20512800, 4156.02564082, 4136.41025621, 4346.28205149, 4150.76923056, 4139.10256390, 4150.25641005, 4139.99999980, 4081.28205094, 4146.79487159, 4146.02564082, 4151.92307672, 4135.25640998, 4122.82051255,12.0
4143.97435877, 4149.99999980, 4131.28205101, 4353.07692329, 4144.61538441, 4138.71794851, 4151.53846133, 4138.58974339, 4082.94871761, 4138.33333313, 4135.12820485, 4143.84615364, 4133.07692280, 4127.05128178,12.0
4160.89743569, 4165.38461518, 4151.53846133, 4380.89743618, 4163.20512800, 4145.76923056, 4161.66666646, 4147.69230749, 4088.97435863, 4152.94871774, 4160.25641005, 4166.02564082, 4146.92307672, 4124.74358947,12.0
4161.53846133, 4164.74358954, 4155.51282031, 4386.28205156, 4164.48717928, 4144.87179467, 4155.51282031, 4147.17948697, 4084.99999966, 4154.35897415, 4163.84615364, 4167.05128185, 4145.64102544, 4122.69230742,12.0
4147.94871774, 4152.43589723, 4139.48717928, 4376.15384644, 4151.41025621, 4141.15384595, 4147.43589723, 4137.17948697, 4079.23076889, 4142.30769210, 4144.61538441, 4151.02564082, 4136.41025621, 4125.89743562,12.0
4162.82051262, 4170.38461525, 4148.97435877, 4397.94871830, 4171.66666653, 4155.89743569, 4165.89743569, 4149.87179467, 4088.07692273, 4160.12820492, 4156.79487159, 4164.35897415, 4150.12820492, 4125.76923050,12.0
4160.51282031, 4174.10256397, 4146.92307672, 4408.84615420, 4177.94871781, 4156.41025621, 4167.05128185, 4156.02564082, 4091.02564068, 4169.48717935, 4162.69230749, 4163.71794851, 4147.43589723, 4123.71794844,12.0
4132.43589716, 4144.74358954, 4117.94871767, 4390.12820541, 4150.51282031, 4137.69230749, 4142.05128185, 4139.35897415, 4083.33333299, 4150.12820492, 4140.76923056, 4140.25641005, 4127.94871767, 4126.92307665,12.0
4132.56410229, 4134.99999973, 4116.02564075, 4388.84615413, 4141.92307672, 4133.58974332, 4141.92307672, 4138.46153826, 4084.23076889, 4150.89743569, 4135.89743569, 4142.56410236, 4132.43589716, 4127.43589716,12.0
4150.76923056, 4147.69230749, 4138.58974339, 4402.05128240, 4152.17948697, 4142.17948697, 4154.10256390, 4151.41025621, 4090.12820478, 4171.66666653, 4152.05128185, 4161.02564082, 4147.30769210, 4124.48717921,12.0
4151.66666646, 4147.30769210, 4143.07692287, 4398.97435933, 4148.46153826, 4138.07692287, 4138.33333313, 4144.87179467, 4088.07692273, 4169.99999986, 4160.25641005, 4163.71794851, 4143.33333313, 4126.41025614,12.0
4144.99999980, 4133.97435870, 4132.82051255, 4387.43589772, 4140.38461518, 4131.15384588, 4126.02564075, 4130.51282024, 4083.46153812, 4158.97435877, 4155.89743569, 4157.94871774, 4135.25640998, 4129.23076896,12.0
4144.87179467, 4131.66666639, 4132.56410229, 4383.58974387, 4144.10256390, 4138.20512800, 4139.48717928, 4136.15384595, 4085.51282017, 4166.28205108, 4149.87179467, 4153.71794851, 4138.58974339, 4128.07692280,12.0
4147.30769210, 4140.51282031, 4138.58974339, 4379.23076951, 4144.48717928, 4142.43589723, 4147.30769210, 4147.43589723, 4089.10256376, 4168.20512807, 4150.38461518, 4154.35897415, 4141.28205108, 4125.89743562,12.0
4146.28205108, 4136.79487159, 4137.05128185, 4363.33333355, 4136.15384595, 4138.46153826, 4143.07692287, 4141.41025621, 4087.17948684, 4151.66666646, 4147.94871774, 4153.58974339, 4137.56410236, 4123.71794844,12.0
4149.48717928, 4134.10256383, 4139.99999980, 4350.38461560, 4140.76923056, 4147.94871774, 4156.79487159, 4140.51282031, 4085.51282017, 4146.28205108, 4147.05128185, 4153.58974339, 4138.71794851, 4126.15384588,12.0
4155.64102544, 4144.74358954, 4146.92307672, 4337.30769252, 4154.61538441, 4159.87179467, 4169.87179474, 4153.97435877, 4089.35897402, 4154.74358954, 4151.15384595, 4160.76923056, 4143.46153826, 4129.48717921,12.0
4138.58974339, 4131.66666639, 4130.76923050, 4295.25641033, 4139.61538441, 4141.79487159, 4141.02564082, 4142.05128185, 4086.66666632, 4143.84615364, 4134.61538434, 4146.92307672, 4131.53846126, 4126.41025614,12.0
4115.51282024, 4110.38461511, 4111.28205101, 4255.64102564, 4116.02564075, 4118.71794844, 4109.99999973, 4116.28205101, 4079.61538427, 4131.28205101, 4117.69230742, 4123.33333306, 4118.58974332, 4123.07692280,12.0
4130.25640998, 4129.61538434, 4127.94871767, 4256.92307693, 4133.84615357, 4138.46153826, 4133.84615357, 4131.66666639, 4086.66666632, 4151.79487159, 4136.41025621, 4138.33333313, 4134.48717921, 4124.35897408,12.0
4151.02564082, 4151.53846133, 4145.64102544, 4254.74358975, 4153.71794851, 4157.69230749, 4160.51282031, 4155.51282031, 4097.94871761, 4170.51282038, 4159.61538441, 4163.84615364, 4152.17948697, 4124.74358947,12.0
4149.35897415, 4145.12820492, 4144.61538441, 4233.97435898, 4144.74358954, 4141.28205108, 4142.69230749, 4143.07692287, 4095.76923043, 4165.38461518, 4163.20512800, 4160.89743569, 4150.38461518, 4123.20512793,12.0
4146.02564082, 4141.53846133, 4147.82051262, 4222.43589737, 4139.61538441, 4125.38461511, 4121.66666639, 4126.53846126, 4088.84615350, 4160.89743569, 4162.30769210, 4154.23076903, 4144.61538441, 4125.76923050,12.0
4144.48717928, 4148.33333313, 4147.17948697, 4209.74358968, 4141.92307672, 4130.64102537, 4124.87179460, 4130.38461511, 4087.43589709, 4162.05128185, 4159.87179467, 4156.15384595, 4142.30769210, 4126.28205101,12.0
4139.10256390, 4148.33333313, 4139.61538441, 4192.05128192, 4138.97435877, 4133.71794844, 4128.97435870, 4131.53846126, 4088.97435863, 4157.82051262, 4153.58974339, 4151.66666646, 4138.33333313, 4122.56410229,12.0
4141.15384595, 4144.61538441, 4143.07692287, 4186.28205115, 4140.89743569, 4127.94871767, 4125.64102537, 4127.30769203, 4089.99999966, 4153.84615364, 4156.53846133, 4149.48717928, 4138.20512800, 4124.23076896,12.0
4150.51282031, 4149.35897415, 4155.38461518, 4187.69230756, 4145.89743569, 4133.71794844, 4131.28205101, 4137.82051262, 4090.12820478, 4156.28205108, 4162.94871774, 4156.41025621, 4142.82051262, 4127.30769203,12.0
4160.89743569, 4161.15384595, 4160.25641005, 4192.43589730, 4153.20512800, 4149.48717928, 4147.82051262, 4151.92307672, 4092.56410222, 4160.38461518, 4163.46153826, 4160.64102544, 4147.17948697, 4126.02564075,12.0
4167.30769210, 4169.61538448, 4159.10256390, 4196.28205115, 4161.41025621, 4155.89743569, 4157.69230749, 4152.17948697, 4095.38461504, 4165.12820492, 4159.74358954, 4160.64102544, 4150.76923056, 4124.23076896,12.0
4161.28205108, 4165.76923056, 4153.84615364, 4184.87179474, 4155.12820492, 4149.87179467, 4151.28205108, 4144.99999980, 4089.48717914, 4156.53846133, 4151.15384595, 4158.07692287, 4144.35897415, 4124.74358947,12.0
4154.23076903, 4160.38461518, 4144.74358954, 4170.12820499, 4147.05128185, 4147.56410236, 4141.92307672, 4140.12820492, 4083.58974325, 4140.51282031, 4142.94871774, 4154.35897415, 4135.76923056, 4126.53846126,12.0
4155.64102544, 4159.48717928, 4137.05128185, 4160.64102544, 4150.25641005, 4151.15384595, 4139.99999980, 4131.15384588, 4083.07692273, 4138.84615364, 4136.92307672, 4149.48717928, 4135.89743569, 4125.89743562,12.0
4154.48717928, 4155.64102544, 4134.23076896, 4144.99999980, 4149.74358954, 4144.74358954, 4129.74358947, 4119.61538434, 4078.07692273, 4141.41025621, 4137.05128185, 4145.76923056, 4136.15384595, 4123.97435870,12.0
4141.41025621, 4147.69230749, 4129.99999973, 4121.53846126, 4143.71794851, 4132.43589716, 4113.33333306, 4115.12820485, 4071.53846119, 4137.69230749, 4134.61538434, 4139.10256390, 4128.97435870, 4123.84615357,12.0
4131.79487152, 4141.15384595, 4123.20512793, 4105.51282024, 4146.15384595, 4128.71794844, 4113.46153819, 4114.87179460, 4072.17948684, 4139.87179467, 4127.94871767, 4131.15384588, 4124.74358947, 4126.41025614,12.0
4139.35897415, 4142.94871774, 4128.07692280, 4102.30769196, 4151.53846133, 4137.94871774, 4128.46153819, 4123.71794844, 4079.10256376, 4150.12820492, 4136.15384595, 4133.84615357, 4133.33333306, 4129.10256383,12.0
4139.35897415, 4146.41025621, 4134.48717921, 4094.74358940, 4149.74358954, 4142.43589723, 4134.99999973, 4134.48717921, 4086.28205094, 4155.12820492, 4145.89743569, 4136.66666646, 4138.46153826, 4125.64102537,12.0
4133.20512793, 4146.28205108, 4135.89743569, 4085.76923043, 4154.61538441, 4146.53846133, 4140.64102544, 4142.82051262, 4092.30769196, 4163.84615364, 4148.58974339, 4136.28205108, 4139.23076903, 4124.23076896,12.0
4139.48717928, 4142.82051262, 4138.97435877, 4080.25640991, 4162.56410236, 4158.07692287, 4156.15384595, 4156.53846133, 4099.10256376, 4176.66666653, 4152.30769210, 4142.43589723, 4142.56410236, 4127.94871767,12.0
4152.82051262, 4146.79487159, 4146.53846133, 4078.33333299, 4163.71794851, 4163.20512800, 4163.20512800, 4162.05128185, 4104.99999973, 4178.33333320, 4158.33333313, 4152.17948697, 4148.46153826, 4126.02564075,12.0
4164.10256390, 4163.33333313, 4158.07692287, 4084.61538427, 4164.48717928, 4157.56410236, 4159.23076903, 4153.58974339, 4102.69230742, 4175.89743576, 4166.28205108, 4161.15384595, 4156.66666646, 4124.87179460,12.0
4162.05128185, 4163.33333313, 4156.53846133, 4083.58974325, 4165.51282031, 4152.69230749, 4153.58974339, 4146.15384595, 4097.43589709, 4173.97435884, 4163.07692287, 4158.58974339, 4153.33333313, 4128.46153819,12.0
4141.79487159, 4139.48717928, 4137.05128185, 4064.23076882, 4152.56410236, 4146.53846133, 4143.97435877, 4143.71794851, 4094.87179453, 4162.43589723, 4144.10256390, 4142.30769210, 4136.92307672, 4126.92307665,12.0
4129.74358947, 4128.46153819, 4127.17948691, 4053.33333292, 4134.99999973, 4134.61538434, 4131.53846126, 4132.17948691, 4088.84615350, 4146.41025621, 4130.64102537, 4132.30769203, 4129.35897408, 4124.10256383,12.0
4148.84615364, 4149.48717928, 4150.76923056, 4080.12820478, 4148.20512800, 4140.25641005, 4138.71794851, 4130.76923050, 4090.89743555, 4158.20512800, 4150.38461518, 4148.46153826, 4145.51282031, 4125.89743562,12.0
4155.38461518, 4158.84615364, 4163.71794851, 4101.66666632, 4161.66666646, 4150.25641005, 4151.92307672, 4139.23076903, 4098.33333299, 4174.61538448, 4163.71794851, 4157.69230749, 4149.74358954, 4128.58974332,12.0
4140.89743569, 4145.38461518, 4147.56410236, 4102.30769196, 4150.51282031, 4145.38461518, 4152.30769210, 4139.48717928, 4098.71794837, 4164.48717928, 4149.10256390, 4140.89743569, 4137.56410236, 4128.58974332,12.0
4145.76923056, 4150.76923056, 4144.99999980, 4122.05128178, 4153.46153826, 4146.28205108, 4157.69230749, 4145.12820492, 4102.69230742, 4161.41025621, 4146.28205108, 4139.61538441, 4144.23076903, 4123.84615357,12.0
4151.15384595, 4159.10256390, 4144.61538441, 4145.64102544, 4160.25641005, 4147.56410236, 4159.48717928, 4145.89743569, 4104.10256383, 4162.94871774, 4144.74358954, 4145.89743569, 4148.20512800, 4122.43589716,12.0
4143.07692287, 4150.12820492, 4131.66666639, 4157.69230749, 4150.76923056, 4145.64102544, 4155.64102544, 4140.89743569, 4100.38461504, 4153.84615364, 4131.41025614, 4136.66666646, 4139.87179467, 4128.46153819,12.0
4141.92307672, 4146.92307672, 4125.89743562, 4172.43589730, 4149.99999980, 4147.56410236, 4159.99999980, 4147.17948697, 4102.82051255, 4148.20512800, 4124.35897408, 4132.05128178, 4139.23076903, 4129.23076896,12.0
4138.58974339, 4146.41025621, 4121.41025614, 4178.33333320, 4148.33333313, 4136.02564082, 4153.58974339, 4143.33333313, 4100.89743555, 4144.61538441, 4123.84615357, 4130.64102537, 4138.07692287, 4125.25640998,12.0
4131.53846126, 4141.02564082, 4116.92307665, 4176.66666653, 4136.28205108, 4123.71794844, 4141.15384595, 4133.20512793, 4096.53846119, 4143.20512800, 4123.97435870, 4127.05128178, 4134.74358947, 4127.30769203,12.0
4146.15384595, 4154.87179467, 4135.12820485, 4196.53846140, 4147.82051262, 4144.35897415, 4155.51282031, 4145.76923056, 4107.69230742, 4161.66666646, 4139.48717928, 4140.76923056, 4144.74358954, 4129.35897408,12.0
4157.94871774, 4161.79487159, 4142.94871774, 4205.76923070, 4156.02564082, 4153.84615364, 4161.41025621, 4151.92307672, 4113.07692280, 4171.15384602, 4148.20512800, 4149.74358954, 4148.58974339, 4128.07692280,12.0
4143.97435877, 4141.79487159, 4121.02564075, 4181.41025628, 4136.41025621, 4133.07692280, 4139.74358954, 4137.94871774, 4105.38461511, 4155.76923056, 4131.92307665, 4133.71794844, 4139.61538441, 4126.28205101,12.0
4137.30769210, 4137.43589723, 4113.46153819, 4167.43589723, 4133.84615357, 4134.99999973, 4139.87179467, 4143.84615364, 4108.71794844, 4153.97435877, 4128.71794844, 4127.82051255, 4141.15384595, 4126.79487152,12.0
4138.07692287, 4144.10256390, 4115.64102537, 4161.02564082, 4142.30769210, 4150.25641005, 4154.23076903, 4149.99999980, 4111.79487152, 4154.23076903, 4131.28205101, 4130.76923050, 4139.10256390, 4127.56410229,12.0
4138.20512800, 4142.69230749, 4111.41025614, 4146.28205108, 4140.89743569, 4150.25641005, 4156.53846133, 4145.64102544, 4108.58974332, 4152.43589723, 4130.25640998, 4128.97435870, 4137.94871774, 4124.48717921,12.0
4148.07692287, 4147.17948697, 4118.71794844, 4133.84615357, 4149.35897415, 4153.97435877, 4164.99999980, 4166.41025621, 4118.71794844, 4169.35897422, 4142.30769210, 4136.79487159, 4151.66666646, 4123.46153819,12.0
4145.25641005, 4145.64102544, 4117.69230742, 4102.30769196, 4155.38461518, 4156.28205108, 4170.12820499, 4179.35897422, 4123.97435870, 4173.33333320, 4143.97435877, 4132.69230742, 4146.92307672, 4127.05128178,12.0
4124.87179460, 4131.79487152, 4098.20512786, 4052.56410215, 4139.99999980, 4142.82051262, 4153.58974339, 4152.30769210, 4108.71794844, 4149.74358954, 4124.74358947, 4111.92307665, 4128.20512793, 4129.48717921,12.0
4133.07692280, 4145.12820492, 4105.12820485, 4030.38461490, 4147.30769210, 4148.07692287, 4157.43589723, 4145.12820492, 4107.43589716, 4149.23076903, 4132.43589716, 4122.56410229, 4138.46153826, 4125.25640998,12.0
4159.10256390, 4171.02564089, 4130.64102537, 4019.99999952, 4176.02564089, 4167.30769210, 4179.87179474, 4168.33333320, 4121.92307665, 4177.43589730, 4157.17948697, 4147.94871774, 4155.76923056, 4121.66666639,12.0
4148.33333313, 4156.66666646, 4119.74358947, 3968.71794810, 4162.30769210, 4152.30769210, 4164.48717928, 4156.02564082, 4113.07692280, 4169.10256397, 4143.07692287, 4134.87179460, 4141.79487159, 4126.02564075,12.0
4129.10256383, 4137.05128185, 4102.94871767, 3915.51281982, 4134.99999973, 4132.17948691, 4141.02564082, 4130.89743562, 4097.05128171, 4141.92307672, 4124.87179460, 4121.53846126, 4128.71794844, 4127.56410229,12.0
4145.25641005, 4152.94871774, 4121.79487152, 3906.02564033, 4150.64102544, 4146.66666646, 4160.38461518, 4151.02564082, 4110.25640998, 4157.56410236, 4141.41025621, 4144.23076903, 4143.20512800, 4123.97435870,12.0
4162.17948697, 4170.89743576, 4137.82051262, 3906.28205059, 4167.94871774, 4159.99999980, 4180.76923063, 4171.66666653, 4121.66666639, 4186.15384602, 4158.33333313, 4159.35897415, 4156.28205108, 4125.51282024,12.0
4146.15384595, 4156.92307672, 4117.05128178, 3882.17948642, 4144.99999980, 4142.30769210, 4161.92307672, 4151.41025621, 4107.56410229, 4171.28205115, 4146.28205108, 4143.07692287, 4147.69230749, 4128.97435870,12.0
4129.99999973, 4136.53846133, 4095.89743555, 3859.87179404, 4126.41025614, 4129.48717921, 4147.43589723, 4138.58974339, 4100.25640991, 4146.15384595, 4132.30769203, 4131.02564075, 4138.07692287, 4127.17948691,12.0
4141.92307672, 4145.64102544, 4104.99999973, 3874.35897360, 4144.61538441, 4140.76923056, 4163.07692287, 4157.30769210, 4108.46153819, 4158.33333313, 4142.94871774, 4143.33333313, 4147.69230749, 4125.51282024,12.0
4159.61538441, 4165.76923056, 4120.64102537, 3908.97435828, 4165.25641005, 4158.97435877, 4182.05128192, 4171.28205115, 4113.71794844, 4175.51282038, 4155.38461518, 4160.51282031, 4159.35897415, 4127.30769203,12.0
4164.23076903, 4169.99999986, 4122.82051255, 3938.58974297, 4168.33333320, 4163.97435877, 4179.48717935, 4169.74358961, 4113.33333306, 4172.94871781, 4155.89743569, 4166.92307672, 4158.46153826, 4128.33333306,12.0
4151.02564082, 4156.15384595, 4107.94871767, 3954.99999938, 4156.02564082, 4146.41025621, 4153.97435877, 4148.46153826, 4102.17948684, 4156.53846133, 4146.41025621, 4154.74358954, 4145.64102544, 4124.35897408,12.0
4132.30769203, 4141.66666646, 4089.10256376, 3970.25640963, 4141.15384595, 4131.92307665, 4132.94871767, 4119.74358947, 4086.53846119, 4136.66666646, 4130.12820485, 4136.66666646, 4132.05128178, 4121.79487152,12.0
4130.25640998, 4143.33333313, 4090.25640991, 4009.48717900, 4142.82051262, 4136.79487159, 4135.38461518, 4120.76923050, 4086.28205094, 4129.87179460, 4126.15384588, 4134.99999973, 4132.82051255, 4123.97435870,12.0
4146.66666646, 4160.38461518, 4106.53846126, 4066.66666625, 4163.33333313, 4151.15384595, 4155.12820492, 4145.38461518, 4098.33333299, 4144.48717928, 4143.33333313, 4148.33333313, 4144.35897415, 4126.28205101,12.0
4155.51282031, 4166.02564082, 4111.28205101, 4106.66666639, 4173.07692294, 4158.71794851, 4164.48717928, 4156.15384595, 4105.25640998, 4161.92307672, 4152.17948697, 4155.38461518, 4150.25641005, 4124.74358947,12.0
4138.97435877, 4144.99999980, 4095.89743555, 4119.87179460, 4154.61538441, 4143.58974339, 4143.71794851, 4144.61538441, 4101.53846119, 4156.28205108, 4136.92307672, 4142.82051262, 4144.74358954, 4122.94871767,12.0
4129.87179460, 4139.10256390, 4093.97435863, 4147.69230749, 4150.25641005, 4136.53846133, 4132.69230742, 4142.17948697, 4097.69230735, 4148.71794851, 4136.15384595, 4135.76923056, 4143.33333313, 4126.28205101,12.0
4146.53846133, 4158.07692287, 4115.51282024, 4194.10256397, 4169.74358961, 4157.82051262, 4154.99999980, 4159.87179467, 4104.61538434, 4163.20512800, 4156.41025621, 4153.07692287, 4152.82051262, 4128.84615357,12.0
4151.41025621, 4156.02564082, 4122.30769203, 4217.30769224, 4167.17948697, 4159.74358954, 4157.82051262, 4161.66666646, 4106.41025614, 4170.51282038, 4158.71794851, 4161.15384595, 4152.82051262, 4126.53846126,12.0
4139.99999980, 4139.99999980, 4111.28205101, 4226.02564096, 4152.17948697, 4140.38461518, 4135.25640998, 4142.82051262, 4095.38461504, 4155.51282031, 4141.92307672, 4149.99999980, 4140.89743569, 4122.82051255,12.0
4149.10256390, 4149.99999980, 4114.10256383, 4253.33333334, 4162.56410236, 4151.28205108, 4142.69230749, 4143.20512800, 4097.17948684, 4152.82051262, 4139.99999980, 4156.79487159, 4143.46153826, 4125.51282024,12.0
4167.17948697, 4166.66666646, 4125.51282024, 4289.23076930, 4176.41025628, 4166.15384595, 4161.15384595, 4159.10256390, 4110.64102537, 4171.66666653, 4153.20512800, 4176.02564089, 4159.99999980, 4128.71794844,12.0
4162.17948697, 4157.69230749, 4119.87179460, 4311.66666681, 4168.84615371, 4158.46153826, 4153.58974339, 4154.35897415, 4107.94871767, 4173.07692294, 4152.56410236, 4171.92307679, 4160.51282031, 4123.84615357,12.0
4155.38461518, 4151.15384595, 4110.51282024, 4332.43589765, 4166.79487159, 4161.79487159, 4144.48717928, 4139.35897415, 4100.12820478, 4157.05128185, 4140.12820492, 4161.92307672, 4148.97435877, 4125.12820485,12.0
4154.99999980, 4152.05128185, 4108.46153819, 4351.41025662, 4170.25641012, 4160.25641005, 4141.28205108, 4137.30769210, 4101.28205094, 4154.48717928, 4134.87179460, 4160.64102544, 4144.99999980, 4130.51282024,12.0
4151.53846133, 4145.38461518, 4108.58974332, 4368.20512849, 4165.51282031, 4143.71794851, 4139.99999980, 4147.82051262, 4103.97435870, 4163.07692287, 4140.38461518, 4158.33333313, 4147.30769210, 4127.05128178,12.0
4161.66666646, 4152.17948697, 4120.25640998, 4398.71794907, 4169.35897422, 4152.30769210, 4154.48717928, 4163.07692287, 4110.38461511, 4174.74358961, 4154.48717928, 4168.33333320, 4158.20512800, 4124.23076896,12.0
4172.69230756, 4164.87179467, 4128.58974332, 4423.07692343, 4175.76923063, 4166.79487159, 4165.25641005, 4166.79487159, 4116.28205101, 4181.79487166, 4161.28205108, 4177.69230756, 4164.99999980, 4127.43589716,12.0
4158.97435877, 4154.87179467, 4114.48717921, 4427.69230804, 4164.10256390, 4150.51282031, 4151.02564082, 4159.99999980, 4111.66666639, 4175.51282038, 4147.43589723, 4162.05128185, 4154.23076903, 4126.66666639,12.0
4139.10256390, 4134.61538434, 4093.71794837, 4434.48717991, 4145.25641005, 4135.12820485, 4137.30769210, 4154.35897415, 4105.51282024, 4159.23076903, 4131.02564075, 4145.76923056, 4142.56410236, 4122.69230742,12.0
4146.79487159, 4140.12820492, 4097.94871761, 4460.89743632, 4150.12820492, 4155.25641005, 4153.07692287, 4160.38461518, 4113.71794844, 4162.17948697, 4139.61538441, 4157.82051262, 4151.79487159, 4123.97435870,12.0
4166.15384595, 4159.35897415, 4117.82051255, 4496.15384664, 4167.94871774, 4171.79487166, 4170.38461525, 4172.56410243, 4123.20512793, 4185.76923063, 4159.48717928, 4174.87179474, 4168.71794858, 4127.30769203,12.0
4155.76923056, 4151.41025621, 4108.07692280, 4515.38461594, 4160.89743569, 4150.38461518, 4150.25641005, 4157.17948697, 4111.28205101, 4178.84615371, 4147.94871774, 4163.58974339, 4157.30769210, 4126.15384588,12.0
4140.89743569, 4136.53846133, 4092.69230735, 4528.20512876, 4153.58974339, 4138.33333313, 4130.12820485, 4134.10256383, 4098.97435863, 4155.76923056, 4132.17948691, 4150.51282031, 4140.64102544, 4123.46153819,12.0
4156.92307672, 4147.05128185, 4108.97435870, 4555.64102627, 4172.43589730, 4157.43589723, 4150.64102544, 4144.99999980, 4111.15384588, 4165.51282031, 4152.69230749, 4164.23076903, 4154.74358954, 4126.28205101,12.0
4168.84615371, 4156.53846133, 4124.48717921, 4582.56410326, 4180.12820499, 4164.48717928, 4167.05128185, 4159.74358954, 4120.89743562, 4179.23076910, 4170.64102551, 4177.30769217, 4165.76923056, 4130.64102537,12.0
4154.48717928, 4143.58974339, 4116.53846126, 4593.71794942, 4164.48717928, 4149.23076903, 4149.48717928, 4148.84615364, 4111.53846126, 4168.58974345, 4157.82051262, 4168.20512807, 4149.61538441, 4127.43589716,12.0
4146.02564082, 4137.56410236, 4113.71794844, 4608.58974436, 4162.69230749, 4140.76923056, 4132.17948691, 4139.74358954, 4108.84615357, 4162.43589723, 4151.79487159, 4159.74358954, 4142.43589723, 4126.02564075,12.0
4149.87179467, 4145.76923056, 4116.79487152, 4629.48718032, 4166.28205108, 4141.53846133, 4130.89743562, 4140.64102544, 4114.35897408, 4168.07692287, 4158.33333313, 4160.38461518, 4149.10256390, 4129.74358947,12.0
4146.53846133, 4144.10256390, 4109.23076896, 4644.87179571, 4157.05128185, 4142.05128185, 4134.87179460, 4141.92307672, 4115.38461511, 4163.71794851, 4152.17948697, 4155.64102544, 4147.17948697, 4129.48717921,12.0
4144.35897415, 4135.76923056, 4103.33333306, 4665.25641116, 4154.99999980, 4143.46153826, 4136.02564082, 4147.05128185, 4114.23076896, 4157.43589723, 4142.69230749, 4149.61538441, 4142.17948697, 4126.15384588,12.0
4151.15384595, 4135.76923056, 4104.10256383, 4697.43589841, 4161.28205108, 4141.28205108, 4130.38461511, 4149.48717928, 4114.61538434, 4156.41025621, 4146.02564082, 4153.71794851, 4143.46153826, 4126.28205101,12.0
4156.41025621, 4145.89743569, 4102.69230742, 4732.30769335, 4161.15384595, 4145.89743569, 4134.74358947, 4151.92307672, 4117.30769203, 4157.82051262, 4152.56410236, 4160.12820492, 4147.94871774, 4129.74358947,12.0
4154.61538441, 4152.94871774, 4096.41025607, 4756.79487284, 4160.89743569, 4159.87179467, 4147.94871774, 4158.84615364, 4120.76923050, 4161.66666646, 4152.17948697, 4156.15384595, 4151.66666646, 4129.74358947,12.0
4150.38461518, 4148.33333313, 4089.10256376, 4772.30769342, 4162.94871774, 4160.12820492, 4143.58974339, 4155.76923056, 4117.82051255, 4159.74358954, 4145.51282031, 4149.99999980, 4148.58974339, 4127.56410229,12.0
4149.48717928, 4142.82051262, 4087.94871761, 4788.33333445, 4160.38461518, 4146.41025621, 4132.17948691, 4144.10256390, 4112.69230742, 4153.97435877, 4140.76923056, 4150.51282031, 4143.71794851, 4126.79487152,12.0
4150.51282031, 4144.23076903, 4089.99999966, 4800.76923195, 4159.87179467, 4143.97435877, 4136.02564082, 4148.07692287, 4119.10256383, 4158.33333313, 4143.71794851, 4152.69230749, 4146.92307672, 4127.17948691,12.0
4149.99999980, 4145.51282031, 4088.07692273, 4803.33333452, 4163.84615364, 4154.10256390, 4142.56410236, 4160.76923056, 4125.25640998, 4166.28205108, 4144.99999980, 4149.87179467, 4149.99999980, 4128.97435870,12.0
4138.58974339, 4133.71794844, 4080.25640991, 4794.35897554, 4153.46153826, 4142.82051262, 4130.25640998, 4146.28205108, 4114.87179460, 4154.99999980, 4130.76923050, 4137.17948697, 4138.71794851, 4127.69230742,12.0
4127.30769203, 4121.92307665, 4077.56410222, 4780.00000112, 4143.33333313, 4130.76923050, 4122.69230742, 4131.53846126, 4105.89743562, 4140.25641005, 4123.58974332, 4130.38461511, 4128.58974332, 4126.66666639,12.0
4133.97435870, 4124.10256383, 4081.28205094, 4766.02564214, 4149.87179467, 4143.58974339, 4134.35897408, 4143.84615364, 4111.53846126, 4145.89743569, 4136.15384595, 4139.10256390, 4135.12820485, 4129.74358947,12.0
4140.89743569, 4126.92307665, 4081.28205094, 4748.20512925, 4149.48717928, 4146.28205108, 4137.69230749, 4153.33333313, 4116.66666639, 4154.10256390, 4140.12820492, 4143.58974339, 4144.35897415, 4130.51282024,12.0
4139.87179467, 4128.46153819, 4084.61538427, 4722.05128303, 4143.58974339, 4143.20512800, 4139.23076903, 4153.07692287, 4115.76923050, 4152.94871774, 4134.99999973, 4143.58974339, 4146.41025621, 4130.12820485,12.0
4141.53846133, 4131.66666639, 4089.87179453, 4683.07692398, 4146.66666646, 4148.07692287, 4144.10256390, 4153.58974339, 4114.61538434, 4150.89743569, 4140.12820492, 4147.05128185, 4145.64102544, 4128.97435870,12.0
4142.30769210, 4129.61538434, 4087.94871761, 4636.41025725, 4144.10256390, 4141.92307672, 4136.79487159, 4150.12820492, 4114.74358947, 4150.76923056, 4145.89743569, 4145.89743569, 4146.02564082, 4127.17948691,12.0
4144.35897415, 4131.66666639, 4091.53846119, 4600.38461615, 4142.43589723, 4130.12820485, 4129.99999973, 4148.58974339, 4118.71794844, 4159.35897415, 4148.46153826, 4148.84615364, 4152.82051262, 4127.05128178,12.0
4154.48717928, 4143.71794851, 4103.58974332, 4578.71794942, 4153.33333313, 4134.74358947, 4141.02564082, 4154.35897415, 4122.05128178, 4171.28205115, 4155.76923056, 4161.28205108, 4162.05128185, 4124.87179460,12.0
4163.46153826, 4148.46153826, 4109.48717921, 4563.46153916, 4162.82051262, 4146.66666646, 4152.56410236, 4154.99999980, 4118.97435870, 4170.38461525, 4160.51282031, 4164.87179467, 4161.53846133, 4124.48717921,12.0
4163.97435877, 4147.56410236, 4112.05128178, 4560.51282114, 4168.84615371, 4150.64102544, 4153.46153826, 4158.46153826, 4122.82051255, 4171.28205115, 4161.66666646, 4163.46153826, 4158.84615364, 4128.20512793,12.0
4150.51282031, 4140.12820492, 4103.07692280, 4560.12820576, 4160.51282031, 4142.56410236, 4149.35897415, 4161.15384595, 4126.15384588, 4169.99999986, 4148.71794851, 4155.25641005, 4151.66666646, 4128.07692280,12.0
4136.53846133, 4130.51282024, 4086.92307658, 4559.87179550, 4145.89743569, 4137.56410236, 4149.61538441, 4155.12820492, 4118.46153819, 4155.38461518, 4129.74358947, 4138.97435877, 4138.58974339, 4125.38461511,12.0
4141.92307672, 4133.84615357, 4090.25640991, 4578.71794942, 4156.92307672, 4152.56410236, 4162.43589723, 4160.89743569, 4121.41025614, 4154.10256390, 4133.58974332, 4137.94871774, 4141.02564082, 4128.20512793,12.0
4140.64102544, 4131.15384588, 4091.66666632, 4591.15384685, 4166.79487159, 4158.20512800, 4164.35897415, 4164.23076903, 4127.82051255, 4157.43589723, 4132.05128178, 4137.43589723, 4143.46153826, 4128.07692280,12.0
4131.02564075, 4125.89743562, 4082.56410222, 4584.87179557, 4157.17948697, 4147.05128185, 4155.51282031, 4157.05128185, 4121.79487152, 4150.89743569, 4120.51282024, 4129.10256383, 4135.51282031, 4122.69230742,12.0
4143.07692287, 4139.74358954, 4090.25640991, 4587.69230839, 4157.43589723, 4150.38461518, 4158.46153826, 4162.17948697, 4123.20512793, 4156.92307672, 4132.82051255, 4137.30769210, 4140.25641005, 4124.48717921,12.0
4146.92307672, 4140.51282031, 4093.58974325, 4581.66666737, 4158.84615364, 4149.35897415, 4150.76923056, 4154.87179467, 4125.76923050, 4163.71794851, 4141.66666646, 4141.66666646, 4148.46153826, 4128.20512793,12.0
4133.84615357, 4126.15384588, 4082.94871761, 4559.48718012, 4150.89743569, 4134.35897408, 4131.53846126, 4132.56410229, 4116.92307665, 4157.17948697, 4131.15384588, 4133.33333306, 4146.41025621, 4126.53846126,12.0
4135.38461518, 4130.25640998, 4082.17948684, 4547.43589807, 4148.97435877, 4128.20512793, 4125.64102537, 4133.07692280, 4116.15384588, 4155.51282031, 4127.94871767, 4132.56410229, 4141.92307672, 4126.28205101,12.0
4134.74358947, 4135.51282031, 4079.23076889, 4536.15384678, 4146.53846133, 4125.25640998, 4126.53846126, 4139.35897415, 4118.33333306, 4150.12820492, 4125.89743562, 4128.46153819, 4133.46153819, 4128.07692280,12.0
4133.07692280, 4135.76923056, 4082.56410222, 4528.84615441, 4156.41025621, 4132.17948691, 4134.10256383, 4134.35897408, 4115.25640998, 4146.15384595, 4124.74358947, 4127.43589716, 4132.69230742, 4128.07692280,12.0
4149.10256390, 4144.74358954, 4101.28205094, 4534.48718012, 4170.76923063, 4146.02564082, 4146.02564082, 4139.74358954, 4119.87179460, 4156.79487159, 4137.82051262, 4142.94871774, 4145.38461518, 4127.94871767,12.0
4154.23076903, 4142.69230749, 4100.38461504, 4528.71794928, 4158.97435877, 4139.87179467, 4145.89743569, 4149.10256390, 4123.20512793, 4154.87179467, 4141.66666646, 4143.97435877, 4146.92307672, 4127.17948691,12.0
4145.64102544, 4136.41025621, 4085.12820478, 4517.30769287, 4154.74358954, 4133.97435870, 4144.99999980, 4148.07692287, 4118.20512793, 4142.82051262, 4133.07692280, 4131.02564075, 4137.69230749, 4127.56410229,12.0
4141.79487159, 4139.23076903, 4079.61538427, 4516.53846210, 4167.56410236, 4140.64102544, 4148.58974339, 4146.79487159, 4118.33333306, 4143.97435877, 4126.28205101, 4126.53846126, 4133.20512793, 4128.71794844,12.0
4144.99999980, 4146.79487159, 4085.25640991, 4522.82051338, 4171.02564089, 4147.17948697, 4153.07692287, 4153.84615364, 4123.97435870, 4154.99999980, 4128.33333306, 4131.41025614, 4137.05128185, 4126.66666639,12.0
4158.71794851, 4156.66666646, 4102.05128171, 4535.64102627, 4177.17948704, 4158.97435877, 4168.33333320, 4159.23076903, 4125.51282024, 4164.35897415, 4144.35897415, 4145.76923056, 4147.94871774, 4125.89743562,12.0
4158.07692287, 4144.61538441, 4101.53846119, 4528.07692364, 4176.79487166, 4161.79487159, 4169.48717935, 4151.28205108, 4118.97435870, 4155.76923056, 4140.12820492, 4143.33333313, 4143.58974339, 4126.41025614,12.0
4129.99999973, 4116.92307665, 4071.79487145, 4498.07692364, 4150.25641005, 4134.61538434, 4138.71794851, 4137.56410236, 4114.10256383, 4138.20512800, 4114.35897408, 4117.82051255, 4125.12820485, 4125.64102537,12.0
4117.56410229, 4114.74358947, 4063.33333292, 4495.89743639, 4136.92307672, 4116.02564075, 4122.56410229, 4136.02564082, 4116.28205101, 4138.58974339, 4114.87179460, 4111.53846126, 4127.56410229, 4125.64102537,12.0
4136.02564082, 4133.97435870, 4089.87179453, 4526.79487235, 4156.92307672, 4135.76923056, 4144.61538441, 4144.35897415, 4113.97435870, 4151.92307672, 4134.23076896, 4130.12820485, 4144.10256390, 4125.64102537,12.0
4151.15384595, 4145.38461518, 4109.61538434, 4554.10256473, 4173.33333320, 4153.71794851, 4164.35897415, 4152.30769210, 4112.69230742, 4160.51282031, 4142.17948697, 4143.84615364, 4149.10256390, 4126.53846126,12.0
4142.82051262, 4137.82051262, 4102.69230742, 4560.64102627, 4165.51282031, 4143.97435877, 4153.97435877, 4151.66666646, 4116.79487152, 4156.02564082, 4137.94871774, 4140.64102544, 4144.61538441, 4126.79487152,12.0
4128.07692280, 4125.51282024, 4090.76923043, 4554.10256473, 4151.66666646, 4132.82051255, 4143.20512800, 4145.64102544, 4113.20512793, 4147.69230749, 4129.74358947, 4131.79487152, 4138.84615364, 4125.76923050,12.0
4138.84615364, 4138.20512800, 4101.53846119, 4565.00000070, 4159.61538441, 4143.33333313, 4155.12820492, 4155.64102544, 4113.58974332, 4159.35897415, 4137.30769210, 4141.15384595, 4146.53846133, 4127.17948691,12.0
4155.38461518, 4155.76923056, 4110.51282024, 4584.61538531, 4170.12820499, 4151.28205108, 4162.43589723, 4165.25641005, 4120.76923050, 4168.97435884, 4149.35897415, 4154.99999980, 4155.76923056, 4127.94871767,12.0
4146.28205108, 4144.23076903, 4095.51282017, 4575.51282121, 4162.69230749, 4146.02564082, 4159.74358954, 4161.28205108, 4118.84615357, 4154.87179467, 4138.33333313, 4144.87179467, 4146.02564082, 4125.12820485,12.0
4142.56410236, 4139.48717928, 4089.48717914, 4558.97435960, 4159.61538441, 4144.10256390, 4161.15384595, 4162.05128185, 4113.33333306, 4150.64102544, 4128.33333306, 4137.05128185, 4140.38461518, 4123.71794844,12.0
4150.76923056, 4151.79487159, 4097.17948684, 4552.82051345, 4161.02564082, 4141.02564082, 4151.28205108, 4153.97435877, 4110.89743562, 4157.82051262, 4132.56410229, 4144.74358954, 4148.33333313, 4127.69230742,12.0
4143.58974339, 4140.76923056, 4091.02564068, 4524.23076979, 4147.05128185, 4129.99999973, 4127.43589716, 4136.15384595, 4106.02564075, 4152.30769210, 4127.30769203, 4141.15384595, 4147.05128185, 4129.23076896,12.0
4127.30769203, 4117.82051255, 4078.84615350, 4477.43589793, 4129.61538434, 4117.17948691, 4115.12820485, 4132.05128178, 4102.82051255, 4141.28205108, 4116.15384588, 4128.58974332, 4137.30769210, 4125.38461511,12.0
4127.94871767, 4125.76923050, 4087.56410222, 4456.41025683, 4136.15384595, 4118.58974332, 4127.43589716, 4144.74358954, 4106.41025614, 4143.97435877, 4123.84615357, 4132.82051255, 4140.25641005, 4125.12820485,12.0
4148.84615364, 4152.94871774, 4111.66666639, 4452.05128247, 4158.97435877, 4136.15384595, 4145.51282031, 4157.17948697, 4112.82051255, 4166.02564082, 4147.43589723, 4154.35897415, 4156.66666646, 4129.87179460,12.0
4153.71794851, 4146.41025621, 4108.84615357, 4414.61538497, 4161.53846133, 4137.05128185, 4140.89743569, 4153.33333313, 4108.33333306, 4170.89743576, 4147.30769210, 4154.99999980, 4155.89743569, 4130.51282024,12.0
4136.15384595, 4122.17948691, 4083.97435863, 4358.33333355, 4143.58974339, 4123.20512793, 4132.43589716, 4152.56410236, 4104.87179460, 4153.71794851, 4124.35897408, 4134.87179460, 4141.28205108, 4126.41025614,12.0
4142.30769210, 4138.46153826, 4096.28205094, 4342.94871816, 4154.10256390, 4139.35897415, 4152.82051262, 4167.56410236, 4114.35897408, 4160.51282031, 4130.12820485, 4143.07692287, 4150.38461518, 4125.25640998,12.0
4164.74358954, 4166.66666646, 4126.79487152, 4349.87179508, 4177.05128192, 4159.35897415, 4163.20512800, 4167.82051262, 4113.20512793, 4174.35897422, 4151.66666646, 4166.66666646, 4165.38461518, 4128.58974332,12.0
4148.33333313, 4148.20512800, 4109.23076896, 4316.41025655, 4159.23076903, 4138.20512800, 4134.87179460, 4141.28205108, 4099.23076889, 4151.02564082, 4134.35897408, 4151.66666646, 4146.15384595, 4129.35897408,12.0
4122.30769203, 4124.87179460, 4083.20512786, 4277.05128212, 4139.10256390, 4120.25640998, 4121.53846126, 4130.89743562, 4098.07692273, 4131.79487152, 4111.02564075, 4127.69230742, 4123.97435870, 4127.69230742,12.0
4130.51282024, 4132.56410229, 4090.25640991, 4276.15384623, 4148.07692287, 4127.05128178, 4131.79487152, 4140.12820492, 4101.02564068, 4140.64102544, 4115.89743562, 4133.84615357, 4130.51282024, 4128.33333306,12.0
4139.87179467, 4138.33333313, 4095.89743555, 4280.76923084, 4152.94871774, 4131.92307665, 4133.71794844, 4142.56410236, 4100.51282017, 4145.38461518, 4122.69230742, 4143.46153826, 4140.76923056, 4128.71794844,12.0
4134.87179460, 4134.87179460, 4092.94871761, 4276.66666674, 4146.53846133, 4129.99999973, 4133.58974332, 4150.76923056, 4107.43589716, 4147.69230749, 4125.64102537, 4143.46153826, 4141.92307672, 4128.07692280,12.0
4138.20512800, 4139.87179467, 4098.71794837, 4288.07692315, 4150.76923056, 4131.53846126, 4132.82051255, 4156.02564082, 4110.76923050, 4151.53846133, 4135.64102544, 4146.53846133, 4143.33333313, 4127.43589716,12.0
4147.94871774, 4146.02564082, 4104.48717921, 4305.25641040, 4153.46153826, 4132.94871767, 4128.84615357, 4145.76923056, 4103.20512793, 4147.94871774, 4141.53846133, 4152.17948697, 4147.30769210, 4128.07692280,12.0
4140.51282031, 4137.94871774, 4094.87179453, 4304.48717963, 4140.38461518, 4128.58974332, 4126.92307665, 4132.05128178, 4095.64102530, 4136.79487159, 4130.64102537, 4148.58974339, 4141.66666646, 4128.33333306,12.0
4131.66666639, 4135.64102544, 4089.61538427, 4305.89743604, 4138.07692287, 4127.43589716, 4130.76923050, 4134.87179460, 4097.43589709, 4134.35897408, 4128.33333306, 4145.76923056, 4137.17948697, 4126.28205101,12.0
4140.89743569, 4143.58974339, 4094.10256376, 4319.87179501, 4149.74358954, 4129.99999973, 4133.07692280, 4146.41025621, 4103.97435870, 4144.74358954, 4139.99999980, 4150.51282031, 4146.28205108, 4127.69230742,12.0
4155.51282031, 4149.48717928, 4099.35897402, 4333.84615406, 4154.61538441, 4134.87179460, 4138.84615364, 4147.43589723, 4103.33333306, 4149.99999980, 4143.20512800, 4158.71794851, 4153.07692287, 4130.76923050,12.0
4163.84615364, 4151.66666646, 4105.51282024, 4340.51282073, 4148.71794851, 4136.02564082, 4143.07692287, 4143.46153826, 4100.64102530, 4148.71794851, 4144.23076903, 4167.05128185, 4152.56410236, 4129.99999973,12.0
4151.79487159, 4140.12820492, 4092.05128171, 4327.94871809, 4136.92307672, 4124.23076896, 4127.43589716, 4136.02564082, 4098.07692273, 4138.97435877, 4137.17948697, 4153.84615364, 4142.30769210, 4127.94871767,12.0
4127.17948691, 4124.23076896, 4066.79487138, 4309.35897450, 4125.51282024, 4110.12820485, 4110.38461511, 4128.46153819, 4090.89743555, 4127.05128178, 4117.30769203, 4129.74358947, 4128.46153819, 4127.17948691,12.0
4128.46153819, 4130.25640998, 4072.94871761, 4309.87179501, 4125.25640998, 4111.53846126, 4115.89743562, 4131.53846126, 4091.92307658, 4134.74358947, 4124.23076896, 4137.94871774, 4133.71794844, 4127.43589716,12.0
4154.10256390, 4149.99999980, 4102.30769196, 4317.05128219, 4141.53846133, 4128.46153819, 4135.25640998, 4151.28205108, 4106.15384588, 4159.87179467, 4159.48717928, 4164.99999980, 4156.41025621, 4129.99999973,12.0
4156.41025621, 4147.56410236, 4099.74358940, 4300.89743604, 4147.17948697, 4134.87179460, 4138.97435877, 4161.53846133, 4108.71794844, 4159.23076903, 4158.46153826, 4161.02564082, 4157.94871774, 4127.56410229,12.0
4141.79487159, 4137.56410236, 4080.64102530, 4279.23076930, 4138.33333313, 4126.53846126, 4128.58974332, 4142.17948697, 4095.25640991, 4135.12820485, 4132.30769203, 4144.61538441, 4142.05128185, 4123.97435870,12.0
4142.17948697, 4142.94871774, 4086.66666632, 4280.64102571, 4139.23076903, 4121.15384588, 4125.64102537, 4130.25640998, 4092.05128171, 4133.33333306, 4137.56410236, 4147.56410236, 4139.74358954, 4130.51282024,12.0
4137.43589723, 4144.23076903, 4088.97435863, 4286.92307700, 4144.74358954, 4126.66666639, 4131.15384588, 4141.53846133, 4099.10256376, 4138.20512800, 4138.58974339, 4145.12820492, 4136.92307672, 4131.53846126,12.0
4131.92307665, 4143.07692287, 4081.92307658, 4290.12820520, 4145.12820492, 4133.33333306, 4135.12820485, 4145.38461518, 4098.58974325, 4132.05128178, 4123.71794844, 4140.64102544, 4131.41025614, 4125.76923050,12.0
4144.87179467, 4151.92307672, 4089.87179453, 4305.64102578, 4146.92307672, 4126.53846126, 4130.64102537, 4134.48717921, 4093.46153812, 4134.10256383, 4131.41025614, 4151.02564082, 4137.17948697, 4126.79487152,12.0
4152.56410236, 4159.10256390, 4100.12820478, 4333.07692329, 4152.17948697, 4120.38461511, 4127.05128178, 4131.66666639, 4092.94871761, 4140.64102544, 4143.46153826, 4156.15384595, 4143.71794851, 4129.23076896,12.0
4145.25641005, 4155.38461518, 4097.17948684, 4356.02564124, 4151.02564082, 4122.43589716, 4128.71794844, 4135.25640998, 4096.66666632, 4137.30769210, 4137.43589723, 4151.53846133, 4139.99999980, 4129.10256383,12.0
4141.92307672, 4151.92307672, 4094.48717914, 4370.38461567, 4144.48717928, 4122.30769203, 4127.30769203, 4135.25640998, 4098.84615350, 4139.48717928, 4137.30769210, 4154.61538441, 4137.17948697, 4127.43589716,12.0
4149.35897415, 4158.46153826, 4102.43589709, 4388.33333362, 4148.07692287, 4126.15384588, 4127.05128178, 4140.25641005, 4101.15384581, 4151.92307672, 4151.66666646, 4165.12820492, 4146.79487159, 4127.05128178,12.0
4155.25641005, 4164.10256390, 4108.84615357, 4406.92307727, 4153.46153826, 4129.35897408, 4128.20512793, 4142.82051262, 4101.41025607, 4151.66666646, 4155.76923056, 4169.61538448, 4152.17948697, 4130.12820485,12.0
4150.25641005, 4160.25641005, 4104.10256383, 4411.02564138, 4143.84615364, 4124.35897408, 4123.07692280, 4132.94871767, 4097.05128171, 4137.82051262, 4145.12820492, 4161.28205108, 4143.58974339, 4131.02564075,12.0
4139.87179467, 4156.79487159, 4092.30769196, 4408.97435933, 4137.05128185, 4124.23076896, 4122.17948691, 4129.48717921, 4097.05128171, 4131.66666639, 4134.23076896, 4147.17948697, 4137.82051262, 4127.43589716,12.0
4145.12820492, 4164.10256390, 4094.48717914, 4429.35897471, 4149.35897415, 4134.35897408, 4138.46153826, 4146.02564082, 4104.23076896, 4146.28205108, 4140.76923056, 4150.64102544, 4147.56410236, 4126.28205101,12.0
4153.33333313, 4164.74358954, 4102.94871767, 4457.05128247, 4147.82051262, 4128.33333306, 4141.79487159, 4152.43589723, 4106.53846126, 4156.53846133, 4151.28205108, 4162.69230749, 4154.23076903, 4130.25640998,12.0
4136.79487159, 4148.84615364, 4089.61538427, 4470.51282100, 4125.64102537, 4109.23076896, 4119.74358947, 4131.66666639, 4098.20512786, 4141.15384595, 4136.92307672, 4151.15384595, 4141.53846133, 4131.15384588,12.0
4141.53846133, 4159.74358954, 4088.71794837, 4504.74359030, 4142.56410236, 4131.79487152, 4139.61538441, 4143.84615364, 4105.89743562, 4148.71794851, 4138.07692287, 4151.92307672, 4145.51282031, 4125.89743562,12.0
4173.46153833, 4191.79487166, 4113.84615357, 4555.76923140, 4181.28205115, 4168.20512807, 4184.61538448, 4183.97435884, 4122.69230742, 4179.87179474, 4163.58974339, 4176.92307679, 4166.92307672, 4124.61538434,12.0
4159.87179467, 4176.02564089, 4106.41025614, 4562.43589813, 4164.87179467, 4138.84615364, 4153.20512800, 4164.99999980, 4108.58974332, 4161.41025621, 4151.28205108, 4166.15384595, 4155.64102544, 4128.71794844,12.0
4126.02564075, 4146.28205108, 4083.33333299, 4551.15384678, 4135.12820485, 4098.33333299, 4103.07692280, 4126.15384588, 4089.87179453, 4129.99999973, 4126.41025614, 4139.10256390, 4132.69230742, 4129.23076896,12.0
4144.23076903, 4167.30769210, 4104.99999973, 4574.48718019, 4156.41025621, 4124.87179460, 4133.07692280, 4148.20512800, 4102.05128171, 4153.07692287, 4148.20512800, 4154.23076903, 4145.25641005, 4127.82051255,12.0
4161.15384595, 4180.25641012, 4122.30769203, 4582.30769301, 4172.82051269, 4147.69230749, 4157.17948697, 4165.76923056, 4109.74358947, 4166.02564082, 4160.76923056, 4165.38461518, 4154.35897415, 4128.20512793,12.0
4138.46153826, 4157.05128185, 4103.97435870, 4550.38461601, 4149.61538441, 4123.07692280, 4124.10256383, 4136.28205108, 4095.12820478, 4138.20512800, 4134.99999973, 4146.28205108, 4136.79487159, 4125.25640998,12.0
4134.87179460, 4155.25641005, 4101.53846119, 4527.43589800, 4142.82051262, 4124.35897408, 4125.64102537, 4133.97435870, 4095.64102530, 4133.84615357, 4134.23076896, 4148.20512800, 4137.56410236, 4126.66666639,12.0
4149.87179467, 4165.51282031, 4112.05128178, 4510.76923133, 4153.84615364, 4145.12820492, 4149.48717928, 4154.99999980, 4107.17948691, 4148.07692287, 4150.64102544, 4160.89743569, 4150.51282031, 4132.43589716,12.0
4151.28205108, 4159.87179467, 4108.33333306, 4480.00000049, 4148.58974339, 4133.46153819, 4136.15384595, 4143.07692287, 4103.58974332, 4147.94871774, 4146.28205108, 4156.41025621, 4149.61538441, 4129.61538434,12.0
4149.23076903, 4156.28205108, 4101.92307658, 4446.15384657, 4138.20512800, 4115.89743562, 4120.25640998, 4125.89743562, 4094.99999966, 4144.23076903, 4137.17948697, 4152.05128185, 4144.99999980, 4124.10256383,12.0
4145.89743569, 4151.53846133, 4100.76923043, 4412.17948753, 4135.25640998, 4119.74358947, 4128.46153819, 4132.43589716, 4095.12820478, 4141.79487159, 4137.17948697, 4150.64102544, 4140.64102544, 4127.30769203,12.0
4147.56410236, 4149.48717928, 4108.84615357, 4391.53846182, 4143.46153826, 4134.10256383, 4145.25641005, 4145.51282031, 4100.38461504, 4144.48717928, 4144.48717928, 4153.71794851, 4144.23076903, 4130.25640998,12.0
4159.35897415, 4164.10256390, 4123.71794844, 4395.64102592, 4154.74358954, 4140.25641005, 4151.15384595, 4153.97435877, 4103.33333306, 4157.05128185, 4154.99999980, 4166.79487159, 4154.48717928, 4128.58974332,12.0
4153.84615364, 4161.53846133, 4117.69230742, 4388.71794900, 4149.23076903, 4129.61538434, 4136.15384595, 4157.56410236, 4104.35897408, 4159.61538441, 4150.12820492, 4162.69230749, 4149.10256390, 4126.41025614,12.0
4135.12820485, 4140.12820492, 4095.38461504, 4364.87179508, 4137.17948697, 4116.79487152, 4121.28205101, 4148.97435877, 4100.64102530, 4145.38461518, 4134.10256383, 4140.76923056, 4134.74358947, 4125.76923050,12.0
4137.94871774, 4142.82051262, 4095.12820478, 4366.66666695, 4141.15384595, 4124.61538434, 4133.20512793, 4141.02564082, 4097.05128171, 4135.64102544, 4133.97435870, 4140.64102544, 4137.43589723, 4127.82051255,12.0
4150.64102544, 4155.12820492, 4104.61538434, 4388.20512849, 4148.07692287, 4136.28205108, 4143.84615364, 4144.61538441, 4096.41025607, 4139.35897415, 4138.71794851, 4152.69230749, 4147.94871774, 4127.56410229,12.0
4159.87179467, 4154.35897415, 4103.20512793, 4400.51282086, 4146.15384595, 4129.35897408, 4137.56410236, 4144.23076903, 4096.41025607, 4147.82051262, 4138.20512800, 4154.35897415, 4152.43589723, 4125.12820485,12.0
4172.82051269, 4157.82051262, 4106.66666639, 4412.94871830, 4150.64102544, 4126.66666639, 4142.17948697, 4142.43589723, 4099.61538427, 4150.25641005, 4143.58974339, 4158.71794851, 4153.97435877, 4126.02564075,12.0
4178.20512807, 4163.46153826, 4115.89743562, 4431.53846196, 4151.41025621, 4132.56410229, 4149.87179467, 4143.33333313, 4101.02564068, 4143.07692287, 4145.25641005, 4164.87179467, 4149.87179467, 4127.94871767,12.0
4173.58974345, 4160.38461518, 4118.46153819, 4446.28205170, 4142.17948697, 4129.99999973, 4145.25641005, 4138.46153826, 4096.28205094, 4138.71794851, 4138.84615364, 4163.07692287, 4144.99999980, 4128.97435870,12.0
4171.15384602, 4158.97435877, 4120.51282024, 4466.53846203, 4143.07692287, 4127.56410229, 4144.35897415, 4138.07692287, 4093.07692273, 4146.66666646, 4142.17948697, 4163.58974339, 4147.56410236, 4128.20512793,12.0
4154.61538441, 4152.17948697, 4112.17948691, 4490.00000049, 4143.97435877, 4129.48717921, 4144.61538441, 4140.25641005, 4094.74358940, 4146.28205108, 4136.92307672, 4152.17948697, 4138.84615364, 4127.82051255,12.0
4131.53846126, 4139.10256390, 4095.64102530, 4512.30769287, 4136.53846133, 4131.28205101, 4141.79487159, 4139.99999980, 4096.41025607, 4136.41025621, 4121.53846126, 4135.51282031, 4125.64102537, 4128.71794844,12.0
4131.28205101, 4141.15384595, 4105.12820485, 4553.46153909, 4138.97435877, 4134.61538434, 4145.76923056, 4147.94871774, 4098.58974325, 4144.35897415, 4132.56410229, 4139.35897415, 4137.30769210, 4125.64102537,12.0
4130.76923050, 4143.07692287, 4118.71794844, 4600.76923154, 4138.46153826, 4126.15384588, 4135.89743569, 4147.05128185, 4094.10256376, 4148.97435877, 4145.89743569, 4140.76923056, 4144.99999980, 4124.74358947,12.0
4118.84615357, 4136.41025621, 4111.28205101, 4635.25641109, 4127.94871767, 4112.30769203, 4115.38461511, 4132.30769203, 4086.02564068, 4135.12820485, 4133.33333306, 4133.71794844, 4131.02564075, 4129.10256383,12.0
4119.74358947, 4141.53846133, 4113.20512793, 4672.30769321, 4134.61538434, 4121.28205101, 4123.33333306, 4135.38461518, 4091.66666632, 4136.28205108, 4132.56410229, 4138.97435877, 4132.69230742, 4128.84615357,12.0
4121.41025614, 4148.58974339, 4122.56410229, 4711.92307790, 4149.74358954, 4138.97435877, 4141.41025621, 4151.79487159, 4103.46153819, 4153.07692287, 4148.84615364, 4144.48717928, 4147.82051262, 4126.53846126,12.0
4111.79487152, 4143.46153826, 4118.20512793, 4737.05128310, 4148.71794851, 4135.12820485, 4131.02564075, 4145.38461518, 4102.82051255, 4151.66666646, 4148.71794851, 4140.12820492, 4144.48717928, 4127.56410229,12.0
4113.84615357, 4142.82051262, 4115.25640998, 4752.82051387, 4146.53846133, 4125.89743562, 4116.15384588, 4126.41025614, 4092.94871761, 4138.07692287, 4139.99999980, 4142.05128185, 4136.66666646, 4129.87179460,12.0
4122.17948691, 4145.89743569, 4113.97435870, 4760.76923188, 4146.02564082, 4126.53846126, 4117.17948691, 4123.07692280, 4088.07692273, 4131.15384588, 4133.84615357, 4145.51282031, 4135.25640998, 4130.76923050,12.0
4105.76923050, 4130.89743562, 4091.28205094, 4746.79487284, 4129.61538434, 4116.41025614, 4109.48717921, 4122.69230742, 4085.76923043, 4121.53846126, 4115.12820485, 4128.97435870, 4126.15384588, 4129.23076896,12.0
4091.15384581, 4123.33333306, 4081.53846119, 4738.20512925, 4124.74358947, 4109.48717921, 4103.46153819, 4123.07692280, 4086.53846119, 4123.07692280, 4109.23076896, 4117.94871767, 4125.64102537, 4127.30769203,12.0
4113.71794844, 4141.66666646, 4106.53846126, 4750.89743694, 4143.71794851, 4125.76923050, 4118.84615357, 4137.69230749, 4098.58974325, 4148.58974339, 4135.51282031, 4138.97435877, 4142.17948697, 4128.84615357,12.0
4111.02564075, 4141.79487159, 4110.51282024, 4739.10256515, 4138.84615364, 4128.33333306, 4119.48717921, 4142.56410236, 4103.84615357, 4155.89743569, 4142.30769210, 4151.15384595, 4142.43589723, 4128.84615357,12.0
4038.07692266, 4117.56410229, 4081.66666632, 4693.33333431, 4114.99999973, 4108.97435870, 4099.61538427, 4124.87179460, 4091.79487145, 4127.05128178, 4113.58974332, 4126.41025614, 4122.56410229, 4125.89743562,12.0
3987.56410201, 4124.87179460, 4085.89743555, 4673.97435988, 4127.05128178, 4114.35897408, 4113.58974332, 4135.12820485, 4095.89743555, 4128.07692280, 4113.33333306, 4123.20512793, 4128.84615357, 4127.56410229,12.0
3997.94871740, 4146.02564082, 4112.43589716, 4675.51282142, 4148.07692287, 4135.89743569, 4141.15384595, 4160.51282031, 4110.12820485, 4157.56410236, 4135.64102544, 4147.43589723, 4148.07692287, 4128.46153819,12.0
3990.51281996, 4133.84615357, 4101.79487145, 4639.48718032, 4132.56410229, 4129.10256383, 4126.66666639, 4142.82051262, 4097.94871761, 4137.69230749, 4117.69230742, 4140.25641005, 4131.28205101, 4127.05128178,12.0
3970.51281989, 4125.25640998, 4088.46153812, 4596.66666743, 4121.92307665, 4114.10256383, 4100.51282017, 4119.99999973, 4086.15384581, 4105.64102537, 4099.74358940, 4124.99999973, 4115.25640998, 4129.35897408,12.0
3980.76923022, 4136.79487159, 4100.38461504, 4583.20512890, 4136.79487159, 4121.41025614, 4111.15384588, 4132.69230742, 4098.71794837, 4123.46153819, 4120.51282024, 4132.69230742, 4131.66666639, 4131.41025614,12.0
3987.94871740, 4137.43589723, 4102.17948684, 4566.92307762, 4146.28205108, 4134.23076896, 4129.99999973, 4139.74358954, 4102.94871767, 4142.05128185, 4128.20512793, 4134.74358947, 4137.82051262, 4129.10256383,12.0
3976.02564047, 4124.48717921, 4090.25640991, 4532.30769294, 4137.43589723, 4124.74358947, 4121.41025614, 4131.92307665, 4093.20512786, 4127.30769203, 4112.30769203, 4122.56410229, 4124.99999973, 4128.46153819,12.0
3974.48717894, 4120.64102537, 4088.71794837, 4505.76923133, 4128.33333306, 4113.33333306, 4111.41025614, 4139.48717928, 4095.64102530, 4122.94871767, 4109.87179460, 4116.66666639, 4124.23076896, 4129.74358947,12.0
3987.30769176, 4135.38461518, 4100.89743555, 4501.53846210, 4141.92307672, 4128.84615357, 4123.84615357, 4149.23076903, 4106.02564075, 4145.38461518, 4123.71794844, 4127.30769203, 4134.87179460, 4131.15384588,12.0
3995.51281996, 4144.99999980, 4106.15384588, 4494.87179536, 4159.87179467, 4141.53846133, 4135.89743569, 4152.69230749, 4109.48717921, 4162.30769210, 4131.79487152, 4137.30769210, 4143.20512800, 4132.05128178,12.0
3989.23076868, 4133.33333306, 4096.28205094, 4468.46153895, 4151.02564082, 4127.82051255, 4127.17948691, 4154.10256390, 4106.28205101, 4150.38461518, 4125.38461511, 4128.20512793, 4136.53846133, 4129.10256383,12.0
3974.48717894, 4115.64102537, 4078.46153812, 4435.76923119, 4127.43589716, 4109.74358947, 4109.23076896, 4138.33333313, 4097.69230735, 4117.94871767, 4105.25640998, 4106.92307665, 4114.35897408, 4128.58974332,12.0
3976.79487124, 4118.20512793, 4078.97435863, 4425.51282086, 4128.07692280, 4116.66666639, 4110.25640998, 4124.87179460, 4093.84615350, 4106.92307665, 4096.41025607, 4104.99999973, 4107.94871767, 4132.82051255,12.0
3987.82051227, 4129.74358947, 4090.25640991, 4425.00000035, 4142.30769210, 4128.07692280, 4120.76923050, 4128.07692280, 4094.99999966, 4112.82051255, 4103.84615357, 4116.02564075, 4117.05128178, 4131.79487152,12.0
3986.02564047, 4129.10256383, 4089.87179453, 4410.25641061, 4139.48717928, 4120.25640998, 4113.33333306, 4126.15384588, 4095.51282017, 4110.76923050, 4106.15384588, 4117.69230742, 4118.97435870, 4126.28205101,12.0
3989.61538406, 4127.43589716, 4094.61538427, 4393.33333362, 4131.66666639, 4111.66666639, 4104.23076896, 4121.02564075, 4095.64102530, 4114.87179460, 4109.87179460, 4121.53846126, 4122.94871767, 4128.58974332,12.0
4006.66666618, 4135.51282031, 4109.10256383, 4383.46153874, 4137.56410236, 4123.58974332, 4122.94871767, 4131.28205101, 4097.17948684, 4125.12820485, 4118.46153819, 4133.33333306, 4132.30769203, 4133.71794844,12.0
4016.66666618, 4143.07692287, 4111.02564075, 4374.74359003, 4147.17948697, 4134.99999973, 4135.89743569, 4138.46153826, 4099.35897402, 4129.10256383, 4120.51282024, 4138.46153826, 4133.84615357, 4129.23076896,12.0
4015.51282003, 4140.64102544, 4103.46153819, 4361.92307714, 4141.53846133, 4125.12820485, 4121.79487152, 4142.56410236, 4109.99999973, 4138.46153826, 4125.25640998, 4137.82051262, 4137.30769210, 4124.74358947,12.0
4001.79487124, 4126.15384588, 4090.51282017, 4334.61538483, 4120.64102537, 4107.94871767, 4100.89743555, 4134.48717921, 4111.28205101, 4133.84615357, 4118.46153819, 4125.64102537, 4129.61538434, 4128.71794844,12.0
3982.56410201, 4111.15384588, 4076.15384581, 4309.10256425, 4112.30769203, 4100.76923043, 4088.20512786, 4106.15384588, 4094.87179453, 4104.35897408, 4093.58974325, 4107.17948691, 4108.33333306, 4129.87179460,12.0
4000.76923022, 4127.05128178, 4095.64102530, 4320.64102578, 4137.94871774, 4116.41025614, 4103.33333306, 4113.97435870, 4098.46153812, 4113.33333306, 4108.71794844, 4126.02564075, 4121.28205101, 4125.64102537,12.0
4034.23076875, 4154.10256390, 4128.71794844, 4341.02564124, 4159.10256390, 4132.82051255, 4125.64102537, 4148.20512800, 4118.58974332, 4152.43589723, 4149.99999980, 4155.76923056, 4150.64102544, 4125.51282024,12.0
4022.30769183, 4146.92307672, 4115.64102537, 4332.17948732, 4147.69230749, 4126.92307665, 4118.46153819, 4143.33333313, 4119.23076896, 4151.92307672, 4143.07692287, 4138.71794851, 4141.41025621, 4129.74358947,12.0
4000.76923022, 4133.46153819, 4093.20512786, 4328.33333348, 4139.48717928, 4120.38461511, 4106.41025614, 4126.41025614, 4112.30769203, 4135.64102544, 4117.94871767, 4116.15384588, 4121.02564075, 4130.38461511,12.0
4018.20512772, 4148.33333313, 4112.30769203, 4349.35897457, 4150.51282031, 4129.35897408, 4122.30769203, 4143.20512800, 4119.99999973, 4148.97435877, 4130.38461511, 4130.51282024, 4131.41025614, 4126.28205101,12.0
4034.61538413, 4157.82051262, 4128.97435870, 4359.35897457, 4153.20512800, 4133.84615357, 4133.20512793, 4156.41025621, 4127.56410229, 4164.35897415, 4145.38461518, 4142.30769210, 4144.74358954, 4125.12820485,12.0
4023.20512772, 4143.33333313, 4113.84615357, 4345.64102585, 4142.30769210, 4127.05128178, 4122.30769203, 4147.17948697, 4122.56410229, 4154.61538441, 4131.53846126, 4129.61538434, 4136.41025621, 4129.99999973,12.0
4012.69230721, 4130.51282024, 4099.61538427, 4327.30769245, 4132.56410229, 4124.61538434, 4116.92307665, 4143.71794851, 4120.25640998, 4140.51282031, 4116.53846126, 4117.82051255, 4125.38461511, 4129.10256383,12.0
4011.28205080, 4125.89743562, 4098.20512786, 4312.43589758, 4125.51282024, 4113.58974332, 4109.23076896, 4142.05128185, 4122.56410229, 4135.76923056, 4114.35897408, 4112.94871767, 4122.17948691, 4124.35897408,12.0
4019.23076875, 4128.58974332, 4105.51282024, 4303.71794886, 4121.92307665, 4099.61538427, 4098.46153812, 4136.41025621, 4125.25640998, 4140.76923056, 4123.46153819, 4119.48717921, 4128.33333306, 4126.66666639,12.0
4037.69230728, 4139.99999980, 4124.23076896, 4297.82051289, 4129.23076896, 4111.79487152, 4108.20512793, 4143.46153826, 4131.66666639, 4150.12820492, 4140.38461518, 4138.97435877, 4140.38461518, 4128.58974332,12.0
4045.76923036, 4144.61538441, 4135.76923056, 4282.82051289, 4141.79487159, 4132.17948691, 4123.58974332, 4157.30769210, 4136.79487159, 4155.12820492, 4147.69230749, 4149.61538441, 4146.02564082, 4125.64102537,12.0
4036.28205080, 4138.58974339, 4128.84615357, 4257.82051282, 4143.84615364, 4130.38461511, 4120.51282024, 4155.76923056, 4136.28205108, 4155.89743569, 4142.43589723, 4142.82051262, 4143.07692287, 4126.02564075,12.0
4033.97435849, 4138.84615364, 4122.94871767, 4235.64102564, 4139.87179467, 4126.66666639, 4121.02564075, 4149.99999980, 4137.82051262, 4156.66666646, 4137.56410236, 4135.64102544, 4141.66666646, 4130.25640998,12.0
4038.97435856, 4143.97435877, 4118.84615357, 4214.87179481, 4141.66666646, 4130.25640998, 4128.97435870, 4148.84615364, 4140.25641005, 4151.79487159, 4132.05128178, 4136.28205108, 4138.71794851, 4129.10256383,12.0
4032.17948670, 4137.17948697, 4106.92307665, 4190.76923063, 4141.28205108, 4126.79487152, 4120.25640998, 4139.23076903, 4135.25640998, 4141.79487159, 4121.41025614, 4133.33333306, 4130.51282024, 4125.76923050,12.0
4024.23076875, 4127.05128178, 4095.12820478, 4175.12820499, 4132.69230742, 4118.07692280, 4103.33333306, 4124.10256383, 4131.66666639, 4133.46153819, 4112.30769203, 4124.74358947, 4126.28205101, 4128.07692280,12.0
4023.58974311, 4128.84615357, 4088.20512786, 4173.46153833, 4126.53846126, 4112.30769203, 4097.05128171, 4117.05128178, 4132.82051255, 4123.46153819, 4105.51282024, 4118.84615357, 4122.94871767, 4129.10256383,12.0
4025.12820465, 4132.43589716, 4088.07692273, 4180.76923063, 4126.92307665, 4115.25640998, 4102.30769196, 4116.79487152, 4129.23076896, 4111.92307665, 4098.97435863, 4116.92307665, 4115.25640998, 4125.12820485,12.0
4026.15384567, 4128.07692280, 4094.74358940, 4192.43589730, 4123.46153819, 4115.89743562, 4100.51282017, 4113.07692280, 4122.82051255, 4103.84615357, 4101.41025607, 4118.33333306, 4114.35897408, 4124.23076896,12.0
4025.25640977, 4117.56410229, 4098.84615350, 4198.07692294, 4115.89743562, 4105.89743562, 4090.76923043, 4110.38461511, 4122.05128178, 4100.89743555, 4109.61538434, 4118.71794844, 4119.35897408, 4127.05128178,12.0
4026.41025593, 4109.48717921, 4096.28205094, 4191.53846140, 4112.17948691, 4105.51282024, 4094.74358940, 4116.92307665, 4126.53846126, 4104.61538434, 4113.07692280, 4117.94871767, 4122.05128178, 4128.71794844,12.0
4038.33333292, 4116.92307665, 4099.10256376, 4184.23076910, 4116.41025614, 4123.07692280, 4111.41025614, 4132.43589716, 4133.58974332, 4113.97435870, 4114.48717921, 4123.07692280, 4125.25640998, 4127.82051255,12.0
4052.56410215, 4133.58974332, 4107.17948691, 4179.48717935, 4127.17948691, 4133.46153819, 4125.38461511, 4144.61538441, 4139.61538441, 4121.79487152, 4117.17948691, 4132.43589716, 4129.35897408, 4124.48717921,12.0
4055.38461497, 4140.64102544, 4103.46153819, 4164.99999980, 4137.30769210, 4134.61538434, 4133.07692280, 4145.25641005, 4140.51282031, 4127.82051255, 4121.66666639, 4133.46153819, 4133.20512793, 4124.61538434,12.0
4051.92307651, 4135.38461518, 4094.10256376, 4145.76923056, 4132.82051255, 4131.41025614, 4127.43589716, 4139.87179467, 4137.69230749, 4129.99999973, 4121.41025614, 4126.66666639, 4133.33333306, 4127.05128178,12.0
4051.66666625, 4130.51282024, 4092.82051248, 4138.46153826, 4119.10256383, 4117.30769203, 4110.64102537, 4134.99999973, 4138.20512800, 4124.87179460, 4118.97435870, 4126.41025614, 4130.51282024, 4124.61538434,12.0
4051.66666625, 4129.99999973, 4092.17948684, 4143.71794851, 4117.82051255, 4112.82051255, 4106.28205101, 4136.28205108, 4141.28205108, 4123.71794844, 4122.69230742, 4131.15384588, 4132.05128178, 4124.48717921,12.0
4055.89743548, 4139.48717928, 4097.30769196, 4158.84615364, 4133.58974332, 4129.61538434, 4121.28205101, 4142.82051262, 4142.43589723, 4136.79487159, 4133.58974332, 4136.79487159, 4140.25641005, 4129.10256383,12.0
4060.38461497, 4144.99999980, 4106.02564075, 4172.05128192, 4141.28205108, 4134.99999973, 4124.23076896, 4144.48717928, 4145.76923056, 4145.64102544, 4137.56410236, 4136.92307672, 4141.66666646, 4129.10256383,12.0
4048.46153805, 4128.58974332, 4090.89743555, 4168.07692287, 4124.87179460, 4119.61538434, 4109.35897408, 4137.82051262, 4144.74358954, 4127.56410229, 4120.76923050, 4122.82051255, 4127.43589716, 4124.99999973,12.0
4053.71794830, 4130.64102537, 4087.30769196, 4180.38461525, 4128.71794844, 4129.61538434, 4122.69230742, 4144.35897415, 4144.74358954, 4123.07692280, 4121.79487152, 4129.74358947, 4130.89743562, 4126.28205101,12.0
4081.02564068, 4153.46153826, 4116.15384588, 4211.02564096, 4154.10256390, 4150.76923056, 4149.35897415, 4158.33333313, 4152.56410236, 4149.48717928, 4145.76923056, 4156.53846133, 4151.53846133, 4128.46153819,12.0
4072.30769196, 4141.02564082, 4109.23076896, 4207.82051275, 4139.23076903, 4131.15384588, 4128.46153819, 4141.66666646, 4144.74358954, 4139.74358954, 4133.84615357, 4147.69230749, 4139.87179467, 4128.33333306,12.0
4048.71794830, 4120.12820485, 4079.10256376, 4189.99999986, 4112.43589716, 4111.79487152, 4101.15384581, 4116.66666639, 4129.87179460, 4100.64102530, 4101.41025607, 4125.12820485, 4114.61538434, 4128.20512793,12.0
4072.69230735, 4140.76923056, 4099.23076889, 4207.17948711, 4129.87179460, 4131.41025614, 4123.97435870, 4134.23076896, 4141.28205108, 4112.05128178, 4117.30769203, 4144.61538441, 4130.64102537, 4127.43589716,12.0
4088.07692273, 4148.58974339, 4114.48717921, 4212.30769224, 4134.23076896, 4130.12820485, 4127.56410229, 4148.33333313, 4152.17948697, 4134.48717921, 4136.66666646, 4157.82051262, 4144.61538441, 4127.69230742,12.0
4068.71794830, 4131.53846126, 4092.82051248, 4191.79487166, 4110.25640998, 4112.82051255, 4103.84615357, 4130.89743562, 4142.17948697, 4118.20512793, 4121.02564075, 4139.74358954, 4129.74358947, 4128.46153819,12.0
4077.30769196, 4143.84615364, 4100.25640991, 4196.66666653, 4126.41025614, 4132.05128178, 4118.20512793, 4133.46153819, 4142.43589723, 4124.23076896, 4129.35897408, 4144.87179467, 4134.48717921, 4128.58974332,12.0
4085.64102530, 4153.20512800, 4113.58974332, 4198.97435884, 4145.38461518, 4140.89743569, 4127.69230742, 4146.92307672, 4151.79487159, 4146.02564082, 4144.87179467, 4153.20512800, 4142.43589723, 4128.07692280,12.0
4061.28205087, 4133.20512793, 4094.48717914, 4172.05128192, 4123.33333306, 4115.51282024, 4101.79487145, 4135.76923056, 4146.53846133, 4135.25640998, 4129.74358947, 4135.51282031, 4128.71794844, 4127.17948691,12.0
4053.46153805, 4128.71794844, 4090.76923043, 4160.76923056, 4116.41025614, 4114.23076896, 4096.41025607, 4124.61538434, 4140.25641005, 4127.05128178, 4126.15384588, 4127.94871767, 4124.99999973, 4127.94871767,12.0
4063.84615343, 4138.84615364, 4102.17948684, 4161.92307672, 4133.46153819, 4131.41025614, 4111.02564075, 4131.92307665, 4144.35897415, 4137.94871774, 4138.07692287, 4134.87179460, 4132.69230742, 4127.56410229,12.0
4053.97435856, 4127.94871767, 4083.33333299, 4138.97435877, 4125.64102537, 4128.33333306, 4106.53846126, 4132.56410229, 4146.02564082, 4132.94871767, 4122.56410229, 4120.89743562, 4120.76923050, 4127.43589716,12.0
4041.92307651, 4116.92307665, 4060.76923036, 4115.51282024, 4111.53846126, 4128.33333306, 4105.38461511, 4125.64102537, 4140.89743569, 4117.17948691, 4097.69230735, 4100.89743555, 4107.43589716, 4127.05128178,12.0
4051.53846113, 4127.43589716, 4068.20512779, 4115.89743562, 4120.89743562, 4133.58974332, 4109.48717921, 4122.30769203, 4133.58974332, 4110.12820485, 4099.61538427, 4105.89743562, 4112.69230742, 4127.30769203,12.0
4047.43589702, 4121.66666639, 4062.94871754, 4095.64102530, 4115.25640998, 4109.48717921, 4083.58974325, 4107.56410229, 4124.99999973, 4096.79487145, 4094.99999966, 4103.20512793, 4107.05128178, 4127.30769203,12.0
4030.51282003, 4100.76923043, 4042.94871754, 4050.89743548, 4093.97435863, 4087.17948684, 4063.07692266, 4100.51282017, 4123.33333306, 4085.38461504, 4077.17948684, 4085.12820478, 4093.46153812, 4126.15384588,12.0
4041.28205087, 4109.10256383, 4056.15384574, 4022.69230721, 4103.84615357, 4105.12820485, 4082.56410222, 4115.38461511, 4132.94871767, 4097.69230735, 4081.92307658, 4092.17948684, 4099.99999966, 4127.17948691,12.0
4068.20512779, 4131.28205101, 4087.30769196, 3995.51281996, 4131.92307665, 4124.74358947, 4107.05128178, 4129.61538434, 4143.71794851, 4119.10256383, 4105.51282024, 4118.58974332, 4118.58974332, 4128.07692280,12.0
4073.33333299, 4129.23076896, 4092.30769196, 3936.66666598, 4133.84615357, 4118.58974332, 4109.74358947, 4131.02564075, 4140.12820492, 4124.61538434, 4117.30769203, 4125.89743562, 4122.05128178, 4125.38461511,12.0
4072.43589709, 4127.30769203, 4089.61538427, 3871.28205045, 4125.51282024, 4120.76923050, 4113.97435870, 4137.05128185, 4138.84615364, 4127.43589716, 4118.58974332, 4125.89743562, 4121.66666639, 4125.38461511,12.0
4087.69230735, 4143.58974339, 4103.84615357, 3833.46153756, 4134.61538434, 4138.20512800, 4131.15384588, 4151.53846133, 4151.53846133, 4140.12820492, 4131.15384588, 4142.69230749, 4134.35897408, 4130.12820485,12.0
4096.79487145, 4146.66666646, 4109.99999973, 3810.89743500, 4142.43589723, 4139.61538441, 4132.05128178, 4148.58974339, 4154.74358954, 4140.51282031, 4138.46153826, 4153.97435877, 4138.33333313, 4129.74358947,12.0
4090.89743555, 4134.87179460, 4100.38461504, 3785.64102467, 4131.79487152, 4128.84615357, 4113.71794844, 4134.99999973, 4143.84615364, 4129.23076896, 4126.41025614, 4148.58974339, 4130.12820485, 4125.64102537,12.0
4091.53846119, 4135.89743569, 4101.41025607, 3769.87179383, 4124.99999973, 4134.10256383, 4118.84615357, 4137.43589723, 4145.12820492, 4130.51282024, 4120.64102537, 4146.15384595, 4128.46153819, 4126.66666639,12.0
