AF3,F7,F3,FC5,T7,P7,O1,O2,P8,T8,FC6,F4,F8,AF4,Label
4142.17948697, 4145.12820492, 4141.53846133, 4171.41025628, 4138.97435877, 4133.84615357, 4152.43589723, 4138.07692287, 4125.38461511, 4126.41025614, 4124.10256383, 4141.92307672, 4135.25640998, 4127.56410229,10.0
4152.82051262, 4156.28205108, 4156.53846133, 4181.28205115, 4159.87179467, 4144.74358954, 4164.23076903, 4149.61538441, 4142.43589723, 4141.02564082, 4139.48717928, 4156.53846133, 4151.66666646, 4125.12820485,10.0
4121.41025614, 4125.51282024, 4123.33333306, 4149.48717928, 4135.12820485, 4128.58974332, 4134.23076896, 4122.94871767, 4117.17948691, 4119.48717921, 4115.51282024, 4125.76923050, 4129.74358947, 4126.15384588,10.0
4097.94871761, 4101.28205094, 4093.46153812, 4120.89743562, 4099.61538427, 4112.17948691, 4112.30769203, 4105.25640998, 4097.05128171, 4099.10256376, 4089.10256376, 4096.41025607, 4103.46153819, 4129.10256383,10.0
4105.25640998, 4106.15384588, 4100.64102530, 4127.30769203, 4111.41025614, 4119.61538434, 4119.87179460, 4114.48717921, 4106.15384588, 4105.89743562, 4092.43589709, 4101.41025607, 4111.41025614, 4127.69230742,10.0
4101.53846119, 4104.48717921, 4101.02564068, 4128.07692280, 4122.56410229, 4118.71794844, 4106.28205101, 4106.53846126, 4102.82051255, 4104.48717921, 4091.41025607, 4099.35897402, 4115.12820485, 4127.30769203,10.0
4090.51282017, 4097.17948684, 4091.79487145, 4117.17948691, 4107.69230742, 4102.17948684, 4081.66666632, 4092.43589709, 4089.74358940, 4097.30769196, 4085.76923043, 4090.38461504, 4105.25640998, 4129.23076896,10.0
4105.64102537, 4109.61538434, 4107.82051255, 4127.82051255, 4114.99999973, 4105.38461511, 4097.05128171, 4105.76923050, 4099.87179453, 4107.69230742, 4098.84615350, 4106.28205101, 4114.48717921, 4128.20512793,10.0
4118.84615357, 4120.25640998, 4121.41025614, 4137.30769210, 4130.64102537, 4119.10256383, 4119.23076896, 4116.53846126, 4109.87179460, 4112.56410229, 4104.35897408, 4117.69230742, 4119.48717921, 4126.66666639,10.0
4108.46153819, 4113.58974332, 4107.30769203, 4126.41025614, 4119.61538434, 4116.02564075, 4116.41025614, 4111.41025614, 4103.07692280, 4105.64102537, 4092.82051248, 4103.07692280, 4106.28205101, 4127.94871767,10.0
4110.25640998, 4121.66666639, 4108.58974332, 4130.51282024, 4123.33333306, 4115.64102537, 4127.82051255, 4118.97435870, 4112.43589716, 4118.20512793, 4101.28205094, 4105.76923050, 4115.51282024, 4128.33333306,10.0
4117.30769203, 4135.25640998, 4123.46153819, 4143.33333313, 4142.56410236, 4122.30769203, 4135.89743569, 4120.76923050, 4126.28205101, 4131.92307665, 4115.51282024, 4121.66666639, 4129.35897408, 4125.89743562,10.0
4110.89743562, 4130.89743562, 4120.89743562, 4141.92307672, 4140.38461518, 4125.12820485, 4125.38461511, 4118.46153819, 4124.23076896, 4123.71794844, 4112.43589716, 4118.46153819, 4120.12820485, 4125.76923050,10.0
4108.46153819, 4124.35897408, 4119.23076896, 4139.61538441, 4129.99999973, 4126.53846126, 4125.38461511, 4124.99999973, 4119.10256383, 4117.69230742, 4107.56410229, 4112.94871767, 4113.58974332, 4128.33333306,10.0
4107.82051255, 4121.79487152, 4123.46153819, 4139.99999980, 4120.64102537, 4114.35897408, 4112.94871767, 4108.46153819, 4103.84615357, 4110.12820485, 4101.92307658, 4112.82051255, 4113.97435870, 4128.20512793,10.0
4115.64102537, 4131.53846126, 4136.15384595, 4152.56410236, 4124.10256383, 4110.51282024, 4111.92307665, 4099.99999966, 4099.87179453, 4106.41025614, 4111.66666639, 4128.58974332, 4121.02564075, 4125.25640998,10.0
4135.76923056, 4152.82051262, 4169.61538448, 4179.61538448, 4141.79487159, 4130.25640998, 4144.35897415, 4132.94871767, 4127.94871767, 4130.89743562, 4149.61538441, 4170.76923063, 4144.10256390, 4125.64102537,10.0
4141.79487159, 4156.53846133, 4194.10256397, 4185.12820499, 4138.33333313, 4127.82051255, 4134.99999973, 4136.15384595, 4133.46153819, 4144.99999980, 4174.61538448, 4197.56410243, 4152.56410236, 4126.28205101,10.0
4136.66666646, 4147.94871774, 4196.28205115, 4183.71794858, 4122.17948691, 4105.64102537, 4095.38461504, 4098.33333299, 4101.79487145, 4128.20512793, 4178.20512807, 4194.10256397, 4144.10256390, 4126.15384588,10.0
4150.89743569, 4163.71794851, 4214.35897429, 4210.51282045, 4138.97435877, 4117.43589716, 4113.46153819, 4100.76923043, 4099.35897402, 4129.87179460, 4196.66666653, 4208.46153840, 4158.71794851, 4127.69230742,10.0
4165.51282031, 4178.58974345, 4236.92307693, 4224.48717942, 4153.33333313, 4135.89743569, 4143.33333313, 4122.56410229, 4115.25640998, 4139.61538441, 4205.12820506, 4225.64102558, 4166.92307672, 4127.43589716,10.0
4162.05128185, 4170.51282038, 4235.25641026, 4211.02564096, 4138.33333313, 4121.92307665, 4124.61538434, 4112.94871767, 4104.74358947, 4126.02564075, 4188.33333320, 4218.84615378, 4149.23076903, 4124.23076896,10.0
4167.17948697, 4173.84615371, 4235.25641026, 4214.10256404, 4141.41025621, 4118.33333306, 4120.12820485, 4110.12820485, 4105.38461511, 4127.56410229, 4193.58974345, 4223.46153840, 4154.99999980, 4123.71794844,10.0
4170.51282038, 4180.38461525, 4236.02564103, 4220.89743583, 4155.76923056, 4135.51282031, 4136.92307672, 4121.66666639, 4120.76923050, 4142.05128185, 4206.41025634, 4233.07692301, 4170.51282038, 4126.53846126,10.0
4154.87179467, 4167.82051262, 4219.74358968, 4207.43589737, 4143.84615364, 4132.05128178, 4126.66666639, 4117.30769203, 4116.53846126, 4133.33333306, 4189.35897422, 4216.15384609, 4160.38461518, 4125.51282024,10.0
4150.64102544, 4163.84615364, 4208.97435891, 4198.84615371, 4133.84615357, 4123.33333306, 4121.92307665, 4112.56410229, 4110.89743562, 4126.92307665, 4176.53846140, 4201.92307686, 4155.76923056, 4124.87179460,10.0
4155.25641005, 4169.35897422, 4203.07692301, 4194.48717935, 4143.58974339, 4130.89743562, 4140.89743569, 4124.74358947, 4123.46153819, 4137.82051262, 4177.94871781, 4198.20512807, 4162.30769210, 4124.99999973,10.0
4148.84615364, 4165.25641005, 4191.92307679, 4187.43589730, 4147.94871774, 4136.79487159, 4146.41025621, 4137.43589723, 4139.23076903, 4143.07692287, 4169.48717935, 4186.28205115, 4157.30769210, 4123.46153819,10.0
4143.20512800, 4157.69230749, 4184.23076910, 4182.56410243, 4138.07692287, 4129.99999973, 4132.56410229, 4127.05128178, 4134.99999973, 4137.43589723, 4159.99999980, 4176.53846140, 4152.43589723, 4125.12820485,10.0
4132.30769203, 4145.25641005, 4167.05128185, 4165.51282031, 4121.28205101, 4112.82051255, 4116.92307665, 4104.10256383, 4112.69230742, 4119.35897408, 4147.82051262, 4162.30769210, 4145.76923056, 4126.66666639,10.0
4122.05128178, 4134.99999973, 4148.58974339, 4149.61538441, 4118.46153819, 4106.28205101, 4112.43589716, 4104.99999973, 4108.20512793, 4109.87179460, 4133.20512793, 4144.10256390, 4131.02564075, 4126.53846126,10.0
4125.89743562, 4136.66666646, 4145.12820492, 4147.82051262, 4117.43589716, 4113.07692280, 4116.92307665, 4114.87179460, 4118.71794844, 4117.30769203, 4128.20512793, 4138.58974339, 4126.15384588, 4123.97435870,10.0
4128.33333306, 4139.61538441, 4142.43589723, 4149.74358954, 4110.25640998, 4115.38461511, 4117.30769203, 4103.84615357, 4111.92307665, 4116.02564075, 4129.10256383, 4140.25641005, 4128.71794844, 4122.30769203,10.0
4119.35897408, 4137.69230749, 4133.33333306, 4148.84615364, 4121.53846126, 4116.92307665, 4115.12820485, 4097.94871761, 4103.58974332, 4107.17948691, 4123.84615357, 4136.79487159, 4126.15384588, 4124.48717921,10.0
4111.41025614, 4134.35897408, 4129.74358947, 4142.69230749, 4136.92307672, 4120.25640998, 4117.69230742, 4109.61538434, 4113.58974332, 4108.71794844, 4121.15384588, 4131.41025614, 4124.87179460, 4126.79487152,10.0
4107.05128178, 4124.74358947, 4121.79487152, 4130.12820485, 4124.99999973, 4114.48717921, 4115.64102537, 4108.33333306, 4108.84615357, 4104.35897408, 4114.23076896, 4123.20512793, 4119.10256383, 4127.17948691,10.0
4108.84615357, 4123.58974332, 4115.25640998, 4129.10256383, 4114.87179460, 4114.61538434, 4118.33333306, 4103.46153819, 4098.20512786, 4096.66666632, 4103.33333306, 4119.61538434, 4114.87179460, 4124.48717921,10.0
4127.56410229, 4144.61538441, 4128.07692280, 4143.58974339, 4135.12820485, 4130.12820485, 4135.25640998, 4120.25640998, 4120.51282024, 4114.10256383, 4118.20512793, 4130.89743562, 4128.97435870, 4121.79487152,10.0
4133.97435870, 4147.69230749, 4128.20512793, 4141.28205108, 4139.74358954, 4129.87179460, 4132.94871767, 4126.66666639, 4137.17948697, 4126.15384588, 4132.17948691, 4132.82051255, 4135.89743569, 4123.58974332,10.0
4114.61538434, 4126.28205101, 4107.69230742, 4123.07692280, 4120.25640998, 4116.66666639, 4114.10256383, 4110.89743562, 4123.20512793, 4114.61538434, 4118.20512793, 4121.53846126, 4125.12820485, 4123.58974332,10.0
4099.74358940, 4116.66666639, 4097.56410222, 4113.71794844, 4113.20512793, 4118.97435870, 4118.71794844, 4110.38461511, 4116.53846126, 4111.02564075, 4104.61538434, 4115.38461511, 4119.74358947, 4121.53846126,10.0
4106.28205101, 4123.71794844, 4104.10256383, 4119.35897408, 4120.51282024, 4128.20512793, 4134.48717921, 4126.41025614, 4127.05128178, 4119.48717921, 4109.99999973, 4116.41025614, 4124.10256383, 4124.99999973,10.0
4124.87179460, 4136.02564082, 4115.51282024, 4130.51282024, 4124.23076896, 4129.87179460, 4132.05128178, 4125.38461511, 4131.92307665, 4124.99999973, 4121.28205101, 4127.43589716, 4130.76923050, 4127.05128178,10.0
4124.99999973, 4136.41025621, 4113.46153819, 4123.46153819, 4118.20512793, 4121.92307665, 4117.94871767, 4109.61538434, 4119.74358947, 4116.41025614, 4117.17948691, 4127.43589716, 4129.10256383, 4123.33333306,10.0
4107.05128178, 4122.43589716, 4099.61538427, 4106.41025614, 4116.66666639, 4119.48717921, 4118.20512793, 4111.28205101, 4111.15384588, 4106.28205101, 4105.51282024, 4110.12820485, 4120.89743562, 4124.87179460,10.0
4108.84615357, 4121.41025614, 4099.61538427, 4110.76923050, 4124.61538434, 4133.33333306, 4143.97435877, 4133.46153819, 4129.23076896, 4114.87179460, 4108.97435870, 4106.66666639, 4125.51282024, 4129.10256383,10.0
4119.61538434, 4128.33333306, 4107.30769203, 4118.58974332, 4122.43589716, 4135.76923056, 4149.99999980, 4135.89743569, 4138.33333313, 4121.41025614, 4114.61538434, 4113.58974332, 4133.58974332, 4129.99999973,10.0
4112.17948691, 4121.15384588, 4102.05128171, 4108.71794844, 4110.38461511, 4116.79487152, 4117.94871767, 4109.23076896, 4111.28205101, 4108.07692280, 4101.28205094, 4105.89743562, 4124.10256383, 4127.82051255,10.0
4118.58974332, 4129.74358947, 4107.56410229, 4114.48717921, 4123.58974332, 4123.07692280, 4122.69230742, 4119.48717921, 4116.92307665, 4114.99999973, 4104.48717921, 4108.46153819, 4123.84615357, 4126.41025614,10.0
4133.07692280, 4147.94871774, 4120.51282024, 4128.71794844, 4145.38461518, 4150.12820492, 4160.25641005, 4153.84615364, 4157.05128185, 4139.10256390, 4128.71794844, 4124.61538434, 4139.35897415, 4127.94871767,10.0
4115.38461511, 4134.35897408, 4111.41025614, 4114.23076896, 4135.51282031, 4146.28205108, 4149.23076903, 4138.33333313, 4148.20512800, 4135.76923056, 4125.51282024, 4118.71794844, 4135.76923056, 4126.66666639,10.0
4099.99999966, 4119.35897408, 4103.33333306, 4098.20512786, 4123.46153819, 4135.38461518, 4125.76923050, 4113.97435870, 4117.82051255, 4123.46153819, 4108.84615357, 4106.02564075, 4124.74358947, 4126.53846126,10.0
4116.02564075, 4131.92307665, 4115.64102537, 4107.05128178, 4136.92307672, 4145.89743569, 4139.23076903, 4125.25640998, 4126.41025614, 4128.33333306, 4113.58974332, 4113.84615357, 4131.53846126, 4127.94871767,10.0
4131.28205101, 4143.84615364, 4128.20512793, 4117.30769203, 4146.28205108, 4147.94871774, 4144.10256390, 4132.05128178, 4140.89743569, 4132.05128178, 4122.43589716, 4124.61538434, 4138.33333313, 4126.02564075,10.0
4134.99999973, 4145.25641005, 4132.56410229, 4119.10256383, 4143.33333313, 4139.10256390, 4137.43589723, 4126.79487152, 4136.53846133, 4129.74358947, 4119.87179460, 4126.79487152, 4136.53846133, 4126.28205101,10.0
4137.05128185, 4144.87179467, 4131.92307665, 4116.79487152, 4144.23076903, 4141.66666646, 4145.64102544, 4130.12820485, 4133.33333306, 4130.25640998, 4114.48717921, 4126.41025614, 4137.82051262, 4128.71794844,10.0
4135.12820485, 4142.17948697, 4125.76923050, 4110.51282024, 4139.87179467, 4141.66666646, 4147.05128185, 4134.87179460, 4133.84615357, 4132.69230742, 4115.25640998, 4123.46153819, 4139.48717928, 4127.94871767,10.0
4138.71794851, 4142.56410236, 4127.94871767, 4111.66666639, 4135.51282031, 4136.41025621, 4148.46153826, 4138.58974339, 4138.71794851, 4139.35897415, 4122.82051255, 4128.20512793, 4142.43589723, 4124.23076896,10.0
4150.51282031, 4146.66666646, 4138.07692287, 4119.23076896, 4146.02564082, 4140.25641005, 4159.48717928, 4143.07692287, 4147.82051262, 4146.79487159, 4127.05128178, 4136.28205108, 4147.05128185, 4122.94871767,10.0
4149.61538441, 4143.07692287, 4135.76923056, 4114.48717921, 4141.15384595, 4136.79487159, 4146.15384595, 4135.12820485, 4141.92307672, 4139.99999980, 4118.33333306, 4128.07692280, 4141.79487159, 4126.53846126,10.0
4137.43589723, 4132.17948691, 4120.12820485, 4102.05128171, 4113.58974332, 4124.10256383, 4119.74358947, 4123.58974332, 4125.76923050, 4120.12820485, 4103.07692280, 4115.64102537, 4128.97435870, 4127.30769203,10.0
4142.43589723, 4132.30769203, 4116.53846126, 4100.89743555, 4119.61538434, 4127.30769203, 4128.58974332, 4123.84615357, 4127.30769203, 4119.99999973, 4097.69230735, 4118.33333306, 4126.53846126, 4122.94871767,10.0
4156.28205108, 4140.12820492, 4128.97435870, 4107.05128178, 4147.17948697, 4138.20512800, 4150.25641005, 4131.53846126, 4144.10256390, 4140.38461518, 4106.02564075, 4126.79487152, 4135.89743569, 4122.94871767,10.0
4144.48717928, 4128.84615357, 4122.43589716, 4097.05128171, 4133.84615357, 4129.23076896, 4139.48717928, 4128.97435870, 4142.56410236, 4131.66666639, 4100.64102530, 4114.74358947, 4131.15384588, 4127.30769203,10.0
4124.23076896, 4106.02564075, 4103.46153819, 4077.30769196, 4109.87179460, 4120.64102537, 4122.69230742, 4116.79487152, 4127.69230742, 4110.76923050, 4093.97435863, 4101.02564068, 4120.89743562, 4126.15384588,10.0
4128.07692280, 4101.02564068, 4108.84615357, 4070.12820478, 4120.25640998, 4129.23076896, 4128.46153819, 4117.05128178, 4133.58974332, 4129.35897408, 4122.82051255, 4115.76923050, 4136.53846133, 4125.25640998,10.0
4136.53846133, 4100.25640991, 4118.71794844, 4064.10256369, 4123.20512793, 4127.17948691, 4131.53846126, 4123.33333306, 4146.15384595, 4155.25641005, 4154.23076903, 4128.97435870, 4156.41025621, 4129.48717921,10.0
4129.99999973, 4090.12820478, 4110.76923050, 4052.17948677, 4109.48717921, 4121.79487152, 4130.51282024, 4127.43589716, 4145.89743569, 4154.48717928, 4157.43589723, 4123.20512793, 4153.71794851, 4128.33333306,10.0
4131.02564075, 4095.51282017, 4111.92307665, 4053.84615343, 4117.43589716, 4135.38461518, 4148.46153826, 4136.66666646, 4148.58974339, 4155.76923056, 4163.46153826, 4125.89743562, 4153.58974339, 4122.82051255,10.0
4129.87179460, 4098.07692273, 4110.38461511, 4052.43589702, 4116.41025614, 4132.94871767, 4145.76923056, 4129.10256383, 4138.97435877, 4147.82051262, 4160.64102544, 4121.41025614, 4151.02564082, 4123.46153819,10.0
4114.48717921, 4084.87179453, 4093.07692273, 4039.99999959, 4100.12820478, 4114.87179460, 4126.15384588, 4118.84615357, 4126.41025614, 4132.17948691, 4139.87179467, 4101.92307658, 4135.89743569, 4127.43589716,10.0
4123.84615357, 4097.94871761, 4102.43589709, 4049.99999959, 4112.30769203, 4126.02564075, 4142.56410236, 4140.89743569, 4154.35897415, 4155.25641005, 4150.38461518, 4114.74358947, 4143.46153826, 4127.05128178,10.0
4141.02564082, 4114.23076896, 4119.61538434, 4065.51282010, 4126.28205101, 4132.17948691, 4145.51282031, 4146.02564082, 4170.76923063, 4173.58974345, 4169.99999986, 4137.43589723, 4157.05128185, 4123.71794844,10.0
4124.10256383, 4090.51282017, 4102.05128171, 4047.94871754, 4106.02564075, 4105.64102537, 4105.64102537, 4112.17948691, 4129.48717921, 4144.35897415, 4152.17948697, 4117.94871767, 4141.92307672, 4126.79487152,10.0
4115.51282024, 4079.87179453, 4092.30769196, 4035.38461490, 4096.66666632, 4103.20512793, 4103.46153819, 4105.51282024, 4112.94871767, 4130.12820485, 4138.33333313, 4101.15384581, 4132.82051255, 4130.38461511,10.0
4133.58974332, 4101.92307658, 4109.35897408, 4048.20512779, 4112.43589716, 4123.33333306, 4135.12820485, 4128.33333306, 4143.07692287, 4151.02564082, 4146.02564082, 4115.89743562, 4143.46153826, 4122.30769203,10.0
4133.20512793, 4102.17948684, 4109.61538434, 4050.89743548, 4107.82051255, 4117.17948691, 4130.38461511, 4132.69230742, 4149.23076903, 4152.82051262, 4144.48717928, 4116.28205101, 4143.71794851, 4119.23076896,10.0
4120.64102537, 4094.99999966, 4103.07692280, 4049.74358933, 4100.76923043, 4108.20512793, 4121.15384588, 4131.02564075, 4145.89743569, 4148.58974339, 4144.87179467, 4108.97435870, 4139.61538441, 4129.10256383,10.0
4118.46153819, 4099.48717914, 4105.25640998, 4056.53846113, 4110.12820485, 4116.41025614, 4133.33333306, 4131.02564075, 4156.92307672, 4155.38461518, 4146.53846133, 4112.17948691, 4138.20512800, 4131.66666639,10.0
4108.97435870, 4090.25640991, 4089.10256376, 4048.71794830, 4104.35897408, 4119.99999973, 4136.28205108, 4124.10256383, 4152.43589723, 4145.25641005, 4131.79487152, 4101.02564068, 4127.94871767, 4126.92307665,10.0
4100.89743555, 4081.79487145, 4074.87179453, 4036.92307651, 4096.28205094, 4118.84615357, 4137.05128185, 4131.53846126, 4151.79487159, 4137.43589723, 4122.94871767, 4087.56410222, 4123.33333306, 4126.41025614,10.0
4103.46153819, 4086.02564068, 4082.69230735, 4039.10256369, 4103.97435870, 4116.15384588, 4135.51282031, 4139.48717928, 4164.23076903, 4144.10256390, 4123.84615357, 4089.10256376, 4126.28205101, 4128.46153819,10.0
4104.99999973, 4087.56410222, 4086.02564068, 4042.56410215, 4106.92307665, 4114.48717921, 4127.94871767, 4130.64102537, 4157.94871774, 4145.76923056, 4121.92307665, 4097.05128171, 4126.28205101, 4129.23076896,10.0
4104.99999973, 4087.82051248, 4081.15384581, 4039.74358933, 4101.79487145, 4124.87179460, 4134.87179460, 4122.43589716, 4144.87179467, 4139.99999980, 4123.07692280, 4099.61538427, 4121.28205101, 4125.51282024,10.0
4104.61538434, 4091.28205094, 4084.61538427, 4038.20512779, 4105.76923050, 4132.69230742, 4144.74358954, 4124.10256383, 4146.15384595, 4135.76923056, 4124.61538434, 4097.05128171, 4118.07692280, 4125.25640998,10.0
4102.05128171, 4089.35897402, 4088.20512786, 4037.56410215, 4107.43589716, 4123.84615357, 4135.64102544, 4125.51282024, 4143.07692287, 4128.58974332, 4120.25640998, 4095.89743555, 4118.84615357, 4128.58974332,10.0
4100.38461504, 4082.30769196, 4080.38461504, 4030.64102516, 4098.20512786, 4114.87179460, 4123.07692280, 4124.87179460, 4128.84615357, 4113.71794844, 4109.23076896, 4091.53846119, 4110.51282024, 4124.87179460,10.0
4093.84615350, 4072.43589709, 4068.84615343, 4017.56410208, 4087.94871761, 4104.23076896, 4110.38461511, 4120.51282024, 4120.12820485, 4102.17948684, 4093.97435863, 4079.48717914, 4097.05128171, 4124.74358947,10.0
4083.07692273, 4064.87179446, 4063.97435856, 4013.58974311, 4079.87179453, 4090.51282017, 4093.97435863, 4108.71794844, 4116.41025614, 4099.87179453, 4089.74358940, 4071.41025607, 4096.02564068, 4126.53846126,10.0
4086.92307658, 4073.46153812, 4070.12820478, 4024.48717900, 4082.69230735, 4094.10256376, 4100.25640991, 4112.94871767, 4123.58974332, 4110.51282024, 4099.48717914, 4080.38461504, 4105.12820485, 4128.07692280,10.0
4092.05128171, 4083.71794837, 4075.89743555, 4031.66666618, 4093.07692273, 4104.10256383, 4118.20512793, 4124.61538434, 4137.94871774, 4119.74358947, 4099.48717914, 4087.82051248, 4106.15384588, 4130.76923050,10.0
4085.38461504, 4080.89743555, 4070.76923043, 4028.97435849, 4094.10256376, 4101.79487145, 4116.53846126, 4115.64102537, 4131.02564075, 4114.35897408, 4092.82051248, 4084.87179453, 4097.56410222, 4126.66666639,10.0
4082.43589709, 4077.17948684, 4070.38461504, 4026.66666618, 4085.89743555, 4095.38461504, 4105.25640998, 4107.05128178, 4112.17948691, 4105.76923050, 4094.99999966, 4088.58974325, 4095.51282017, 4126.79487152,10.0
4090.64102530, 4083.58974325, 4086.15384581, 4034.99999952, 4088.84615350, 4103.46153819, 4114.23076896, 4116.15384588, 4121.41025614, 4111.92307665, 4105.38461511, 4103.71794844, 4103.71794844, 4128.20512793,10.0
4106.41025614, 4097.56410222, 4107.43589716, 4054.87179446, 4104.99999973, 4118.84615357, 4135.76923056, 4126.92307665, 4145.64102544, 4127.05128178, 4119.74358947, 4123.07692280, 4114.10256383, 4127.30769203,10.0
4108.84615357, 4101.28205094, 4107.43589716, 4061.79487138, 4102.56410229, 4108.07692280, 4122.30769203, 4120.76923050, 4139.48717928, 4121.15384588, 4115.89743562, 4125.12820485, 4112.05128178, 4126.66666639,10.0
4101.92307658, 4094.87179453, 4095.89743555, 4054.48717907, 4085.89743555, 4089.23076889, 4097.69230735, 4111.28205101, 4124.35897408, 4108.71794844, 4097.69230735, 4113.33333306, 4104.87179460, 4120.89743562,10.0
4113.20512793, 4105.64102537, 4111.92307665, 4062.30769189, 4097.94871761, 4108.97435870, 4128.46153819, 4122.56410229, 4142.43589723, 4124.23076896, 4111.28205101, 4126.28205101, 4118.20512793, 4128.07692280,10.0
4128.33333306, 4120.12820485, 4132.17948691, 4078.71794837, 4118.20512793, 4130.25640998, 4159.35897415, 4137.05128185, 4167.30769210, 4142.17948697, 4135.12820485, 4147.43589723, 4137.30769210, 4131.28205101,10.0
4111.92307665, 4103.46153819, 4110.51282024, 4060.76923036, 4095.64102530, 4102.94871767, 4120.38461511, 4122.56410229, 4151.53846133, 4120.38461511, 4107.17948691, 4121.79487152, 4117.82051255, 4122.69230742,10.0
4086.41025607, 4081.15384581, 4083.58974325, 4033.07692259, 4070.89743555, 4081.66666632, 4088.20512786, 4102.94871767, 4120.76923050, 4090.76923043, 4069.61538420, 4087.94871761, 4090.25640991, 4127.82051255,10.0
4091.28205094, 4089.99999966, 4089.48717914, 4043.20512779, 4085.25640991, 4099.23076889, 4107.05128178, 4105.25640998, 4117.56410229, 4089.23076889, 4075.12820478, 4094.10256376, 4095.64102530, 4127.56410229,10.0
4097.94871761, 4100.38461504, 4095.89743555, 4055.76923036, 4092.56410222, 4103.07692280, 4107.43589716, 4108.71794844, 4123.33333306, 4091.79487145, 4085.89743555, 4100.64102530, 4101.66666632, 4125.89743562,10.0
4087.69230735, 4092.17948684, 4091.53846119, 4046.79487138, 4080.51282017, 4086.92307658, 4086.92307658, 4102.69230742, 4116.79487152, 4083.97435863, 4080.89743555, 4091.92307658, 4091.41025607, 4128.71794844,10.0
4086.15384581, 4089.48717914, 4091.28205094, 4046.92307651, 4079.87179453, 4085.51282017, 4088.20512786, 4099.23076889, 4110.64102537, 4079.74358940, 4080.51282017, 4091.28205094, 4087.30769196, 4125.25640998,10.0
4096.53846119, 4095.51282017, 4091.66666632, 4057.56410215, 4086.79487145, 4097.30769196, 4106.66666639, 4111.02564075, 4126.53846126, 4087.69230735, 4083.07692273, 4099.61538427, 4093.84615350, 4128.20512793,10.0
4107.56410229, 4102.94871767, 4098.33333299, 4061.41025600, 4096.02564068, 4106.66666639, 4122.05128178, 4127.43589716, 4149.99999980, 4104.61538434, 4084.10256376, 4107.05128178, 4099.74358940, 4129.99999973,10.0
4113.58974332, 4110.76923050, 4106.02564075, 4062.17948677, 4104.74358947, 4111.79487152, 4125.51282024, 4131.15384588, 4157.94871774, 4116.02564075, 4094.23076889, 4115.64102537, 4108.20512793, 4127.43589716,10.0
4107.17948691, 4109.10256383, 4098.20512786, 4062.82051241, 4097.69230735, 4111.66666639, 4120.38461511, 4124.99999973, 4154.74358954, 4114.23076896, 4100.76923043, 4114.99999973, 4114.61538434, 4125.89743562,10.0
4106.28205101, 4109.35897408, 4096.92307658, 4068.84615343, 4096.92307658, 4115.12820485, 4129.10256383, 4128.84615357, 4158.33333313, 4117.69230742, 4099.99999966, 4110.89743562, 4114.61538434, 4125.12820485,10.0
4118.58974332, 4116.28205101, 4110.38461511, 4075.89743555, 4113.58974332, 4122.82051255, 4138.20512800, 4128.20512793, 4159.61538441, 4124.87179460, 4104.48717921, 4118.46153819, 4115.25640998, 4127.56410229,10.0
4108.07692280, 4106.15384588, 4098.33333299, 4066.02564061, 4096.28205094, 4111.15384588, 4111.79487152, 4100.51282017, 4135.25640998, 4106.15384588, 4093.84615350, 4109.23076896, 4102.05128171, 4124.99999973,10.0
4080.51282017, 4087.17948684, 4069.99999966, 4049.87179446, 4063.97435856, 4088.07692273, 4075.25640991, 4075.89743555, 4104.99999973, 4077.05128171, 4066.02564061, 4084.99999966, 4081.66666632, 4124.61538434,10.0
4079.10256376, 4086.66666632, 4069.99999966, 4051.92307651, 4076.15384581, 4082.17948684, 4067.43589702, 4074.23076889, 4095.12820478, 4071.92307658, 4057.56410215, 4082.43589709, 4079.10256376, 4126.79487152,10.0
4089.23076889, 4094.35897402, 4077.69230735, 4061.02564061, 4094.99999966, 4088.97435863, 4076.28205094, 4075.38461504, 4097.56410222, 4074.61538427, 4065.89743548, 4087.94871761, 4081.79487145, 4124.61538434,10.0
4087.05128171, 4093.07692273, 4074.48717914, 4060.89743548, 4088.97435863, 4088.46153812, 4081.15384581, 4078.97435863, 4100.25640991, 4069.61538420, 4069.48717907, 4085.64102530, 4080.38461504, 4126.28205101,10.0
4087.69230735, 4092.05128171, 4082.05128171, 4061.53846113, 4086.79487145, 4084.23076889, 4085.38461504, 4090.12820478, 4106.79487152, 4075.51282017, 4074.99999966, 4088.33333299, 4085.51282017, 4126.28205101,10.0
4088.71794837, 4091.53846119, 4085.64102530, 4059.61538420, 4086.92307658, 4087.94871761, 4089.23076889, 4095.12820478, 4108.71794844, 4080.64102530, 4075.25640991, 4088.07692273, 4085.76923043, 4125.76923050,10.0
4085.64102530, 4094.48717914, 4076.79487145, 4060.25640984, 4079.99999966, 4091.02564068, 4090.12820478, 4094.74358940, 4104.48717921, 4077.30769196, 4071.66666632, 4084.10256376, 4084.74358940, 4127.05128178,10.0
4088.97435863, 4102.69230742, 4078.84615350, 4072.56410222, 4083.97435863, 4093.71794837, 4099.48717914, 4104.61538434, 4113.20512793, 4082.82051248, 4076.28205094, 4087.05128171, 4092.17948684, 4123.07692280,10.0
4085.25640991, 4095.25640991, 4076.02564068, 4069.10256369, 4088.84615350, 4096.02564068, 4104.74358947, 4105.51282024, 4117.56410229, 4082.69230735, 4070.12820478, 4080.51282017, 4087.17948684, 4123.20512793,10.0
4082.56410222, 4092.30769196, 4069.61538420, 4062.56410215, 4089.61538427, 4098.84615350, 4104.35897408, 4099.87179453, 4118.71794844, 4083.46153812, 4071.92307658, 4077.82051248, 4086.28205094, 4126.15384588,10.0
4091.02564068, 4105.38461511, 4078.07692273, 4070.38461504, 4094.87179453, 4104.61538434, 4111.79487152, 4105.76923050, 4126.15384588, 4094.61538427, 4087.82051248, 4087.05128171, 4099.48717914, 4126.79487152,10.0
4079.61538427, 4097.43589709, 4071.41025607, 4064.23076882, 4085.38461504, 4098.84615350, 4101.92307658, 4097.56410222, 4110.25640998, 4081.53846119, 4069.87179453, 4074.10256376, 4089.87179453, 4128.07692280,10.0
4063.84615343, 4080.89743555, 4056.92307651, 4053.33333292, 4074.48717914, 4088.84615350, 4078.33333299, 4077.30769196, 4084.74358940, 4058.84615343, 4044.35897395, 4058.07692266, 4070.12820478, 4126.53846126,10.0
4080.12820478, 4093.07692273, 4068.58974318, 4065.25640984, 4086.41025607, 4094.23076889, 4082.56410222, 4083.97435863, 4101.02564068, 4073.84615350, 4062.30769189, 4074.23076889, 4082.43589709, 4125.76923050,10.0
4091.02564068, 4103.33333306, 4078.33333299, 4077.56410222, 4098.20512786, 4103.46153819, 4097.43589709, 4102.94871767, 4129.74358947, 4097.56410222, 4079.35897402, 4086.66666632, 4098.33333299, 4126.53846126,10.0
4079.74358940, 4094.23076889, 4068.07692266, 4077.94871761, 4092.82051248, 4102.94871767, 4095.25640991, 4100.51282017, 4123.20512793, 4095.89743555, 4073.07692273, 4076.92307658, 4096.15384581, 4126.79487152,10.0
4077.82051248, 4097.69230735, 4072.94871761, 4084.10256376, 4092.30769196, 4102.17948684, 4097.56410222, 4097.17948684, 4118.84615357, 4094.35897402, 4080.25640991, 4082.30769196, 4102.17948684, 4128.33333306,10.0
4077.69230735, 4100.64102530, 4084.10256376, 4086.41025607, 4094.10256376, 4098.20512786, 4099.48717914, 4098.84615350, 4125.25640998, 4093.20512786, 4082.43589709, 4090.64102530, 4099.74358940, 4124.48717921,10.0
4074.10256376, 4092.69230735, 4078.71794837, 4079.23076889, 4087.30769196, 4093.58974325, 4094.61538427, 4092.56410222, 4113.58974332, 4081.66666632, 4070.12820478, 4082.30769196, 4087.30769196, 4122.94871767,10.0
4085.89743555, 4099.87179453, 4082.17948684, 4085.89743555, 4090.38461504, 4100.76923043, 4107.30769203, 4096.79487145, 4108.46153819, 4080.89743555, 4075.51282017, 4085.64102530, 4094.87179453, 4126.92307665,10.0
4088.97435863, 4105.89743562, 4086.92307658, 4090.51282017, 4095.51282017, 4103.97435870, 4113.33333306, 4104.87179460, 4114.61538434, 4078.84615350, 4073.97435863, 4086.41025607, 4091.28205094, 4127.17948691,10.0
4067.30769189, 4088.71794837, 4065.51282010, 4071.15384581, 4082.56410222, 4094.74358940, 4089.48717914, 4094.74358940, 4101.92307658, 4058.84615343, 4045.12820472, 4064.87179446, 4064.87179446, 4128.20512793,10.0
4056.02564061, 4076.41025607, 4049.35897395, 4059.48717907, 4070.25640991, 4093.97435863, 4079.87179453, 4082.56410222, 4083.33333299, 4046.02564061, 4029.87179439, 4055.38461497, 4054.87179446, 4126.66666639,10.0
4068.20512779, 4086.79487145, 4062.69230728, 4067.43589702, 4078.07692273, 4103.07692280, 4099.87179453, 4093.84615350, 4094.74358940, 4058.97435856, 4043.97435856, 4066.53846113, 4068.20512779, 4125.38461511,10.0
4074.10256376, 4089.35897402, 4071.66666632, 4068.71794830, 4085.38461504, 4105.38461511, 4106.79487152, 4102.05128171, 4108.33333306, 4072.82051248, 4057.17948677, 4069.61538420, 4076.53846119, 4129.35897408,10.0
4073.33333299, 4084.87179453, 4070.51282017, 4070.64102530, 4084.99999966, 4111.02564075, 4102.94871767, 4094.74358940, 4103.84615357, 4078.07692273, 4059.74358933, 4070.76923043, 4084.87179453, 4129.74358947,10.0
4085.38461504, 4099.61538427, 4084.48717914, 4084.99999966, 4091.28205094, 4122.56410229, 4115.12820485, 4103.33333306, 4110.51282024, 4095.51282017, 4069.48717907, 4084.61538427, 4104.23076896, 4126.66666639,10.0
4096.66666632, 4114.61538434, 4098.07692273, 4093.71794837, 4103.97435870, 4124.48717921, 4120.51282024, 4113.84615357, 4124.87179460, 4110.12820485, 4084.35897402, 4094.61538427, 4113.71794844, 4123.71794844,10.0
4094.99999966, 4111.28205101, 4098.20512786, 4094.35897402, 4106.92307665, 4119.48717921, 4109.10256383, 4109.35897408, 4129.61538434, 4110.64102537, 4092.69230735, 4094.23076889, 4112.69230742, 4123.71794844,10.0
4101.28205094, 4119.99999973, 4106.41025614, 4106.41025614, 4106.66666639, 4122.94871767, 4117.17948691, 4112.82051255, 4138.33333313, 4119.87179460, 4104.10256383, 4100.89743555, 4124.61538434, 4125.89743562,10.0
4111.92307665, 4137.56410236, 4116.66666639, 4119.10256383, 4119.61538434, 4126.41025614, 4125.25640998, 4113.07692280, 4137.69230749, 4124.23076896, 4109.61538434, 4108.20512793, 4132.69230742, 4126.02564075,10.0
4098.58974325, 4124.35897408, 4100.25640991, 4110.25640998, 4124.74358947, 4112.69230742, 4099.10256376, 4091.53846119, 4106.41025614, 4097.30769196, 4084.35897402, 4092.82051248, 4110.51282024, 4125.76923050,10.0
4085.51282017, 4110.12820485, 4086.41025607, 4101.66666632, 4112.94871767, 4101.66666632, 4078.58974325, 4086.53846119, 4090.64102530, 4078.71794837, 4063.07692266, 4076.28205094, 4094.48717914, 4125.38461511,10.0
4098.84615350, 4119.87179460, 4096.79487145, 4105.12820485, 4107.30769203, 4109.61538434, 4095.64102530, 4108.07692280, 4108.58974332, 4090.38461504, 4073.97435863, 4081.66666632, 4102.43589709, 4125.51282024,10.0
4104.61538434, 4113.46153819, 4098.71794837, 4098.97435863, 4110.38461511, 4118.33333306, 4114.74358947, 4113.46153819, 4113.71794844, 4092.56410222, 4079.99999966, 4085.38461504, 4101.41025607, 4125.76923050,10.0
4096.79487145, 4100.38461504, 4091.53846119, 4090.76923043, 4105.51282024, 4113.33333306, 4110.64102537, 4099.74358940, 4102.05128171, 4082.43589709, 4067.82051241, 4077.82051248, 4092.82051248, 4127.43589716,10.0
4104.87179460, 4107.82051255, 4097.82051248, 4097.05128171, 4101.53846119, 4110.51282024, 4106.28205101, 4094.48717914, 4099.61538427, 4084.10256376, 4063.20512779, 4081.02564068, 4092.82051248, 4131.66666639,10.0
4117.05128178, 4108.84615357, 4105.25640998, 4100.25640991, 4104.99999973, 4116.79487152, 4110.12820485, 4101.02564068, 4109.87179460, 4090.64102530, 4064.35897395, 4089.87179453, 4095.89743555, 4129.61538434,10.0
4120.64102537, 4106.28205101, 4110.51282024, 4098.97435863, 4104.48717921, 4121.66666639, 4118.07692280, 4110.89743562, 4126.53846126, 4100.89743555, 4073.97435863, 4095.38461504, 4103.20512793, 4123.20512793,10.0
4121.66666639, 4114.10256383, 4121.79487152, 4101.53846119, 4104.74358947, 4118.46153819, 4123.71794844, 4110.51282024, 4128.07692280, 4108.97435870, 4088.71794837, 4104.61538434, 4110.51282024, 4123.20512793,10.0
4120.89743562, 4116.41025614, 4128.07692280, 4105.51282024, 4110.64102537, 4121.28205101, 4133.58974332, 4106.28205101, 4113.20512793, 4108.46153819, 4093.33333299, 4111.66666639, 4111.79487152, 4125.89743562,10.0
4119.48717921, 4111.02564075, 4123.46153819, 4107.30769203, 4110.25640998, 4130.76923050, 4138.84615364, 4109.10256383, 4111.41025614, 4111.79487152, 4093.20512786, 4108.58974332, 4113.58974332, 4126.79487152,10.0
4108.20512793, 4098.46153812, 4114.23076896, 4098.20512786, 4097.94871761, 4119.23076896, 4115.12820485, 4100.89743555, 4110.25640998, 4109.35897408, 4086.79487145, 4097.69230735, 4108.33333306, 4124.23076896,10.0
4097.17948684, 4087.56410222, 4108.97435870, 4087.43589709, 4091.02564068, 4098.46153812, 4091.02564068, 4090.51282017, 4099.87179453, 4096.15384581, 4077.56410222, 4091.02564068, 4102.43589709, 4122.56410229,10.0
4105.12820485, 4093.33333299, 4116.53846126, 4093.20512786, 4096.92307658, 4098.07692273, 4095.38461504, 4099.35897402, 4103.84615357, 4099.10256376, 4084.48717914, 4098.58974325, 4110.12820485, 4126.53846126,10.0
4124.61538434, 4106.53846126, 4132.69230742, 4106.66666639, 4107.56410229, 4109.48717921, 4111.92307665, 4112.56410229, 4120.51282024, 4118.07692280, 4099.74358940, 4118.20512793, 4122.56410229, 4127.05128178,10.0
4131.02564075, 4107.56410229, 4141.66666646, 4109.48717921, 4103.33333306, 4111.92307665, 4121.92307665, 4122.17948691, 4129.87179460, 4123.97435870, 4103.07692280, 4131.66666639, 4126.41025614, 4124.99999973,10.0
4123.20512793, 4102.05128171, 4141.15384595, 4104.87179460, 4085.64102530, 4108.84615357, 4125.25640998, 4125.38461511, 4127.56410229, 4117.30769203, 4099.61538427, 4125.76923050, 4121.92307665, 4126.66666639,10.0
4131.53846126, 4113.84615357, 4148.71794851, 4114.48717921, 4101.02564068, 4117.94871767, 4134.48717921, 4126.15384588, 4128.84615357, 4124.99999973, 4109.35897408, 4128.58974332, 4125.51282024, 4126.66666639,10.0
4152.43589723, 4129.99999973, 4162.30769210, 4128.46153819, 4136.79487159, 4133.33333306, 4146.92307672, 4132.94871767, 4140.38461518, 4139.10256390, 4125.12820485, 4146.79487159, 4137.05128185, 4126.28205101,10.0
4144.23076903, 4118.07692280, 4150.64102544, 4119.61538434, 4127.82051255, 4127.17948691, 4134.10256383, 4126.28205101, 4139.23076903, 4128.71794844, 4117.30769203, 4138.33333313, 4130.12820485, 4126.66666639,10.0
4115.64102537, 4093.20512786, 4118.58974332, 4096.53846119, 4097.56410222, 4109.35897408, 4108.97435870, 4098.58974325, 4108.71794844, 4097.05128171, 4087.05128171, 4102.56410229, 4101.15384581, 4125.38461511,10.0
4106.79487152, 4092.05128171, 4106.02564075, 4091.92307658, 4101.41025607, 4112.05128178, 4114.61538434, 4088.84615350, 4086.53846119, 4084.61538427, 4076.15384581, 4088.46153812, 4088.07692273, 4125.76923050,10.0
4103.58974332, 4090.89743555, 4101.41025607, 4094.10256376, 4100.89743555, 4109.23076896, 4113.46153819, 4094.35897402, 4088.07692273, 4085.89743555, 4074.61538427, 4083.33333299, 4087.43589709, 4128.71794844,10.0
4089.61538427, 4079.61538427, 4088.84615350, 4085.38461504, 4081.79487145, 4090.25640991, 4083.71794837, 4084.23076889, 4082.56410222, 4074.74358940, 4056.79487138, 4065.76923036, 4076.66666632, 4128.20512793,10.0
4094.48717914, 4091.15384581, 4095.38461504, 4092.43589709, 4091.92307658, 4092.43589709, 4083.46153812, 4081.15384581, 4078.84615350, 4073.97435863, 4057.05128164, 4073.84615350, 4080.12820478, 4124.99999973,10.0
4118.33333306, 4110.76923050, 4118.20512793, 4109.87179460, 4113.46153819, 4111.02564075, 4110.51282024, 4098.07692273, 4094.23076889, 4093.46153812, 4080.25640991, 4102.43589709, 4099.87179453, 4126.79487152,10.0
4129.23076896, 4114.48717921, 4129.10256383, 4113.07692280, 4113.58974332, 4114.61538434, 4112.17948691, 4107.17948691, 4106.53846126, 4106.15384588, 4092.56410222, 4112.69230742, 4110.89743562, 4127.30769203,10.0
4129.61538434, 4119.10256383, 4133.33333306, 4117.69230742, 4113.07692280, 4115.64102537, 4112.94871767, 4112.05128178, 4111.41025614, 4112.69230742, 4095.51282017, 4114.74358947, 4114.10256383, 4125.38461511,10.0
4136.79487159, 4129.87179460, 4143.71794851, 4130.76923050, 4124.87179460, 4130.76923050, 4134.48717921, 4125.51282024, 4122.43589716, 4125.89743562, 4105.76923050, 4124.74358947, 4122.69230742, 4127.30769203,10.0
4138.33333313, 4126.53846126, 4148.33333313, 4131.66666639, 4131.53846126, 4133.20512793, 4128.71794844, 4121.02564075, 4115.51282024, 4126.15384588, 4111.28205101, 4127.43589716, 4125.51282024, 4128.84615357,10.0
4124.99999973, 4109.23076896, 4136.66666646, 4115.12820485, 4117.17948691, 4116.28205101, 4108.97435870, 4103.20512793, 4087.82051248, 4104.61538434, 4100.38461504, 4113.84615357, 4110.12820485, 4128.33333306,10.0
4123.97435870, 4111.02564075, 4138.71794851, 4116.53846126, 4108.84615357, 4119.23076896, 4124.99999973, 4111.15384588, 4092.94871761, 4104.99999973, 4102.69230742, 4119.61538434, 4109.10256383, 4125.89743562,10.0
4131.28205101, 4124.23076896, 4155.12820492, 4132.94871767, 4120.38461511, 4132.94871767, 4135.64102544, 4121.02564075, 4114.35897408, 4124.61538434, 4116.02564075, 4139.23076903, 4122.30769203, 4125.64102537,10.0
4122.69230742, 4118.46153819, 4149.35897415, 4128.20512793, 4125.25640998, 4123.20512793, 4117.05128178, 4108.46153819, 4103.97435870, 4121.02564075, 4111.15384588, 4131.02564075, 4115.76923050, 4128.33333306,10.0
4116.28205101, 4110.38461511, 4137.69230749, 4119.35897408, 4124.23076896, 4115.89743562, 4116.41025614, 4108.71794844, 4098.33333299, 4117.43589716, 4106.53846126, 4119.61538434, 4110.76923050, 4128.33333306,10.0
4116.66666639, 4110.64102537, 4136.02564082, 4118.97435870, 4122.69230742, 4118.97435870, 4116.92307665, 4114.99999973, 4111.92307665, 4122.82051255, 4110.25640998, 4121.15384588, 4117.69230742, 4126.66666639,10.0
4111.15384588, 4103.97435870, 4128.84615357, 4111.02564075, 4112.82051255, 4108.20512793, 4096.41025607, 4099.99999966, 4108.46153819, 4113.33333306, 4101.92307658, 4110.51282024, 4113.46153819, 4125.25640998,10.0
4115.51282024, 4101.28205094, 4128.07692280, 4108.46153819, 4108.33333306, 4102.17948684, 4099.10256376, 4098.46153812, 4102.69230742, 4110.25640998, 4097.05128171, 4103.20512793, 4109.10256383, 4124.23076896,10.0
4131.92307665, 4112.82051255, 4141.79487159, 4122.69230742, 4121.53846126, 4116.53846126, 4125.76923050, 4122.94871767, 4119.61538434, 4126.41025614, 4111.79487152, 4119.99999973, 4121.28205101, 4125.38461511,10.0
4129.61538434, 4113.84615357, 4140.64102544, 4124.99999973, 4128.46153819, 4123.46153819, 4129.23076896, 4129.74358947, 4128.84615357, 4127.17948691, 4114.87179460, 4123.20512793, 4123.07692280, 4125.64102537,10.0
4117.69230742, 4105.38461511, 4128.07692280, 4114.99999973, 4120.25640998, 4118.84615357, 4118.07692280, 4110.76923050, 4109.48717921, 4112.69230742, 4103.46153819, 4111.15384588, 4112.05128178, 4122.94871767,10.0
4131.28205101, 4112.56410229, 4137.56410236, 4124.74358947, 4121.15384588, 4123.46153819, 4127.30769203, 4110.89743562, 4103.20512793, 4116.15384588, 4110.12820485, 4123.33333306, 4117.17948691, 4122.94871767,10.0
4147.43589723, 4126.53846126, 4149.87179467, 4139.74358954, 4127.94871767, 4130.76923050, 4141.41025621, 4136.53846133, 4128.20512793, 4128.58974332, 4120.51282024, 4138.33333313, 4126.66666639, 4125.64102537,10.0
4138.20512800, 4126.66666639, 4140.64102544, 4130.64102537, 4124.87179460, 4128.84615357, 4133.46153819, 4137.94871774, 4131.41025614, 4124.48717921, 4109.35897408, 4126.53846126, 4120.89743562, 4127.05128178,10.0
4127.43589716, 4116.79487152, 4129.10256383, 4118.07692280, 4122.56410229, 4124.48717921, 4119.23076896, 4112.94871767, 4105.51282024, 4113.84615357, 4099.74358940, 4110.51282024, 4113.33333306, 4126.79487152,10.0
4138.97435877, 4122.82051255, 4142.82051262, 4128.33333306, 4131.28205101, 4124.10256383, 4119.23076896, 4111.66666639, 4111.92307665, 4126.02564075, 4118.46153819, 4124.99999973, 4124.48717921, 4125.64102537,10.0
4140.51282031, 4127.30769203, 4155.12820492, 4132.94871767, 4122.17948691, 4114.61538434, 4112.69230742, 4121.28205101, 4128.84615357, 4138.58974339, 4128.33333306, 4136.41025621, 4130.76923050, 4127.30769203,10.0
4115.64102537, 4108.58974332, 4133.07692280, 4113.46153819, 4100.25640991, 4099.48717914, 4092.17948684, 4102.69230742, 4105.12820485, 4118.20512793, 4104.61538434, 4112.05128178, 4109.87179460, 4126.53846126,10.0
4106.15384588, 4102.69230742, 4115.25640998, 4107.43589716, 4111.53846126, 4106.66666639, 4095.76923043, 4095.76923043, 4089.35897402, 4105.51282024, 4092.82051248, 4098.20512786, 4097.69230735, 4122.69230742,10.0
4109.87179460, 4109.23076896, 4121.02564075, 4115.64102537, 4130.12820485, 4119.99999973, 4112.30769203, 4116.02564075, 4109.48717921, 4117.94871767, 4097.43589709, 4107.56410229, 4106.15384588, 4124.87179460,10.0
4105.89743562, 4104.35897408, 4124.99999973, 4114.99999973, 4120.12820485, 4114.48717921, 4113.07692280, 4118.33333306, 4116.28205101, 4119.48717921, 4090.25640991, 4107.56410229, 4105.51282024, 4127.69230742,10.0
4114.61538434, 4109.48717921, 4128.84615357, 4119.48717921, 4114.74358947, 4111.79487152, 4114.23076896, 4108.84615357, 4102.30769196, 4110.76923050, 4087.56410222, 4108.58974332, 4102.43589709, 4125.38461511,10.0
4130.12820485, 4126.02564075, 4139.87179467, 4129.48717921, 4127.30769203, 4121.79487152, 4123.07692280, 4113.46153819, 4104.87179460, 4111.79487152, 4099.61538427, 4123.84615357, 4110.51282024, 4123.07692280,10.0
4122.82051255, 4119.48717921, 4136.66666646, 4123.97435870, 4124.61538434, 4120.76923050, 4121.66666639, 4115.76923050, 4111.41025614, 4110.25640998, 4097.82051248, 4123.46153819, 4110.64102537, 4126.15384588,10.0
4108.33333306, 4101.79487145, 4119.23076896, 4112.56410229, 4109.48717921, 4108.97435870, 4112.17948691, 4107.82051255, 4099.10256376, 4100.76923043, 4083.84615350, 4110.64102537, 4103.20512793, 4129.10256383,10.0
4119.35897408, 4112.56410229, 4128.71794844, 4123.84615357, 4110.89743562, 4113.97435870, 4117.56410229, 4111.79487152, 4096.15384581, 4108.07692280, 4098.20512786, 4125.12820485, 4112.30769203, 4127.30769203,10.0
4134.61538434, 4129.87179460, 4150.12820492, 4139.10256390, 4124.74358947, 4128.07692280, 4127.82051255, 4117.56410229, 4103.46153819, 4121.79487152, 4118.97435870, 4143.46153826, 4124.35897408, 4125.76923050,10.0
4131.79487152, 4126.92307665, 4145.12820492, 4136.79487159, 4122.43589716, 4120.12820485, 4118.46153819, 4112.82051255, 4104.61538434, 4121.79487152, 4112.94871767, 4136.66666646, 4120.51282024, 4124.48717921,10.0
4133.58974332, 4124.74358947, 4138.84615364, 4134.87179460, 4112.94871767, 4107.69230742, 4107.82051255, 4115.51282024, 4115.38461511, 4127.17948691, 4115.25640998, 4135.64102544, 4124.10256383, 4125.12820485,10.0
4138.20512800, 4128.71794844, 4148.97435877, 4139.48717928, 4119.23076896, 4112.69230742, 4106.02564075, 4113.97435870, 4122.82051255, 4134.99999973, 4133.33333306, 4147.30769210, 4135.25640998, 4125.89743562,10.0
4129.48717921, 4124.61538434, 4146.66666646, 4134.61538434, 4125.89743562, 4114.87179460, 4100.51282017, 4098.07692273, 4108.07692280, 4127.30769203, 4129.74358947, 4142.82051262, 4130.25640998, 4124.10256383,10.0
4130.25640998, 4122.56410229, 4134.61538434, 4128.20512793, 4129.10256383, 4114.87179460, 4107.30769203, 4098.33333299, 4105.89743562, 4123.58974332, 4117.17948691, 4135.25640998, 4120.89743562, 4125.12820485,10.0
4140.12820492, 4128.97435870, 4134.61538434, 4132.30769203, 4135.89743569, 4126.02564075, 4126.41025614, 4116.79487152, 4123.71794844, 4132.05128178, 4121.41025614, 4143.07692287, 4122.05128178, 4126.02564075,10.0
4126.66666639, 4118.33333306, 4129.23076896, 4122.56410229, 4128.84615357, 4124.99999973, 4121.41025614, 4122.30769203, 4124.48717921, 4125.25640998, 4112.30769203, 4137.17948697, 4119.23076896, 4125.38461511,10.0
4116.92307665, 4110.51282024, 4125.25640998, 4113.33333306, 4117.69230742, 4116.28205101, 4108.84615357, 4119.61538434, 4117.05128178, 4119.61538434, 4098.97435863, 4127.94871767, 4110.64102537, 4126.15384588,10.0
4133.46153819, 4129.10256383, 4140.51282031, 4129.23076896, 4124.35897408, 4125.89743562, 4123.20512793, 4127.56410229, 4128.97435870, 4138.20512800, 4114.74358947, 4144.35897415, 4117.82051255, 4126.41025614,10.0
4138.46153826, 4136.02564082, 4142.94871774, 4134.99999973, 4130.64102537, 4135.89743569, 4135.76923056, 4131.92307665, 4138.07692287, 4146.28205108, 4125.51282024, 4149.74358954, 4125.25640998, 4125.76923050,10.0
4124.74358947, 4120.51282024, 4123.97435870, 4118.33333306, 4123.97435870, 4132.69230742, 4131.66666639, 4128.58974332, 4127.05128178, 4132.82051255, 4111.28205101, 4131.92307665, 4116.28205101, 4125.76923050,10.0
4121.66666639, 4116.28205101, 4118.58974332, 4114.87179460, 4124.87179460, 4129.99999973, 4130.51282024, 4127.43589716, 4117.30769203, 4127.82051255, 4104.23076896, 4128.46153819, 4111.53846126, 4124.61538434,10.0
4131.02564075, 4127.43589716, 4132.17948691, 4128.71794844, 4131.92307665, 4130.12820485, 4134.10256383, 4125.89743562, 4119.48717921, 4134.10256383, 4114.23076896, 4139.48717928, 4120.25640998, 4123.97435870,10.0
4142.43589723, 4137.05128185, 4149.87179467, 4140.76923056, 4138.33333313, 4134.35897408, 4138.33333313, 4129.23076896, 4129.10256383, 4144.61538441, 4131.66666639, 4152.43589723, 4134.87179460, 4125.64102537,10.0
4146.15384595, 4139.61538441, 4155.51282031, 4142.94871774, 4139.35897415, 4137.17948697, 4136.53846133, 4130.12820485, 4131.28205101, 4148.97435877, 4138.46153826, 4157.94871774, 4137.05128185, 4129.23076896,10.0
4138.46153826, 4137.56410236, 4147.56410236, 4137.94871774, 4140.25641005, 4138.58974339, 4136.41025621, 4124.10256383, 4119.48717921, 4137.69230749, 4128.58974332, 4150.12820492, 4126.53846126, 4129.10256383,10.0
4135.51282031, 4138.33333313, 4147.43589723, 4141.15384595, 4145.38461518, 4143.97435877, 4142.94871774, 4123.84615357, 4112.17948691, 4130.51282024, 4125.76923050, 4150.12820492, 4121.15384588, 4125.25640998,10.0
4135.76923056, 4139.10256390, 4147.94871774, 4144.48717928, 4134.74358947, 4142.43589723, 4136.92307672, 4131.92307665, 4115.76923050, 4136.41025621, 4130.64102537, 4157.43589723, 4120.51282024, 4125.76923050,10.0
4126.28205101, 4133.97435870, 4135.38461518, 4134.74358947, 4124.99999973, 4132.82051255, 4121.02564075, 4135.76923056, 4119.99999973, 4138.20512800, 4126.15384588, 4151.79487159, 4117.69230742, 4126.92307665,10.0
4116.92307665, 4125.51282024, 4122.05128178, 4121.41025614, 4132.69230742, 4122.56410229, 4109.35897408, 4123.07692280, 4107.56410229, 4124.35897408, 4111.28205101, 4134.35897408, 4107.05128178, 4125.64102537,10.0
4123.84615357, 4130.38461511, 4131.53846126, 4128.46153819, 4139.99999980, 4123.07692280, 4113.33333306, 4113.58974332, 4096.92307658, 4120.76923050, 4113.33333306, 4138.46153826, 4108.07692280, 4125.38461511,10.0
4131.15384588, 4139.35897415, 4147.30769210, 4141.41025621, 4133.46153819, 4134.61538434, 4125.51282024, 4120.76923050, 4104.10256383, 4131.02564075, 4127.17948691, 4156.79487159, 4118.71794844, 4125.64102537,10.0
4117.94871767, 4122.69230742, 4134.35897408, 4127.94871767, 4114.48717921, 4131.15384588, 4119.10256383, 4121.79487152, 4100.89743555, 4123.20512793, 4116.66666639, 4146.92307672, 4109.48717921, 4125.64102537,10.0
4111.66666639, 4107.94871767, 4121.66666639, 4115.38461511, 4105.25640998, 4114.74358947, 4104.23076896, 4110.25640998, 4093.84615350, 4114.23076896, 4104.61538434, 4131.53846126, 4102.43589709, 4124.87179460,10.0
4131.41025614, 4128.97435870, 4138.97435877, 4129.35897408, 4118.33333306, 4120.25640998, 4116.28205101, 4118.07692280, 4108.97435870, 4129.61538434, 4123.46153819, 4145.51282031, 4118.07692280, 4125.51282024,10.0
4146.92307672, 4145.89743569, 4151.15384595, 4140.51282031, 4130.64102537, 4135.64102544, 4134.23076896, 4136.28205108, 4126.53846126, 4142.56410236, 4138.71794851, 4159.23076903, 4124.23076896, 4127.43589716,10.0
4141.66666646, 4135.25640998, 4139.23076903, 4134.87179460, 4122.94871767, 4132.30769203, 4132.30769203, 4134.99999973, 4122.82051255, 4139.48717928, 4133.58974332, 4148.84615364, 4115.51282024, 4127.94871767,10.0
4141.02564082, 4136.02564082, 4140.89743569, 4138.33333313, 4125.25640998, 4136.15384595, 4139.74358954, 4138.20512800, 4127.94871767, 4150.89743569, 4141.79487159, 4148.20512800, 4124.61538434, 4128.20512793,10.0
4132.30769203, 4133.97435870, 4138.97435877, 4135.38461518, 4127.82051255, 4137.17948697, 4141.15384595, 4141.41025621, 4133.20512793, 4153.84615364, 4137.43589723, 4141.53846133, 4126.15384588, 4126.02564075,10.0
4116.28205101, 4119.61538434, 4122.43589716, 4121.15384588, 4117.69230742, 4124.23076896, 4127.82051255, 4132.05128178, 4120.51282024, 4137.17948697, 4114.10256383, 4121.92307665, 4111.53846126, 4122.43589716,10.0
4125.76923050, 4128.71794844, 4126.15384588, 4129.35897408, 4129.87179460, 4128.58974332, 4132.94871767, 4132.43589716, 4121.66666639, 4141.02564082, 4116.02564075, 4125.25640998, 4114.61538434, 4124.23076896,10.0
4126.92307665, 4130.25640998, 4124.35897408, 4134.99999973, 4136.79487159, 4137.43589723, 4136.15384595, 4130.38461511, 4121.92307665, 4141.28205108, 4113.84615357, 4121.41025614, 4111.66666639, 4126.66666639,10.0
4106.02564075, 4111.92307665, 4106.66666639, 4120.12820485, 4123.20512793, 4129.35897408, 4120.89743562, 4122.17948691, 4107.82051255, 4123.84615357, 4098.58974325, 4102.56410229, 4096.79487145, 4127.94871767,10.0
4108.07692280, 4118.33333306, 4118.07692280, 4121.02564075, 4127.30769203, 4125.12820485, 4115.25640998, 4132.30769203, 4113.84615357, 4129.87179460, 4110.12820485, 4113.97435870, 4103.97435870, 4129.35897408,10.0
4138.71794851, 4142.43589723, 4148.58974339, 4142.94871774, 4139.74358954, 4138.84615364, 4131.92307665, 4147.69230749, 4136.15384595, 4154.87179467, 4136.28205108, 4149.74358954, 4126.79487152, 4128.46153819,10.0
4158.46153826, 4148.07692287, 4160.76923056, 4154.48717928, 4141.02564082, 4150.64102544, 4147.56410236, 4147.30769210, 4138.07692287, 4157.56410236, 4145.89743569, 4163.58974339, 4135.64102544, 4128.33333306,10.0
4153.33333313, 4141.79487159, 4158.20512800, 4146.53846133, 4148.20512800, 4152.05128185, 4145.25641005, 4144.35897415, 4126.79487152, 4146.02564082, 4142.94871774, 4157.17948697, 4130.64102537, 4128.07692280,10.0
4145.12820492, 4138.46153826, 4154.23076903, 4139.35897415, 4156.79487159, 4153.20512800, 4142.43589723, 4143.58974339, 4120.76923050, 4142.30769210, 4134.10256383, 4153.97435877, 4123.33333306, 4127.05128178,10.0
4151.66666646, 4145.12820492, 4159.35897415, 4147.30769210, 4156.28205108, 4159.74358954, 4151.28205108, 4143.71794851, 4123.46153819, 4147.30769210, 4136.28205108, 4159.99999980, 4127.17948691, 4124.74358947,10.0
4163.07692287, 4155.76923056, 4172.69230756, 4154.87179467, 4156.28205108, 4163.71794851, 4155.38461518, 4147.05128185, 4134.23076896, 4160.64102544, 4152.30769210, 4166.79487159, 4139.87179467, 4123.07692280,10.0
4163.58974339, 4151.41025621, 4172.94871781, 4147.82051262, 4155.38461518, 4159.35897415, 4152.56410236, 4149.99999980, 4141.53846133, 4168.20512807, 4153.46153826, 4162.43589723, 4142.69230749, 4125.38461511,10.0
4154.74358954, 4138.84615364, 4157.05128185, 4138.71794851, 4152.05128185, 4153.84615364, 4152.94871774, 4147.56410236, 4136.66666646, 4164.74358954, 4139.35897415, 4150.64102544, 4132.82051255, 4126.41025614,10.0
4140.76923056, 4129.35897408, 4138.84615364, 4129.99999973, 4146.53846133, 4145.12820492, 4141.92307672, 4138.71794851, 4123.33333306, 4154.48717928, 4130.64102537, 4139.10256390, 4122.43589716, 4125.76923050,10.0
4132.94871767, 4123.46153819, 4131.28205101, 4121.92307665, 4137.17948697, 4132.69230742, 4128.58974332, 4131.02564075, 4113.20512793, 4147.94871774, 4128.46153819, 4136.28205108, 4120.51282024, 4126.66666639,10.0
4143.71794851, 4128.46153819, 4140.38461518, 4131.28205101, 4139.23076903, 4134.87179460, 4137.82051262, 4132.30769203, 4116.15384588, 4152.56410236, 4131.92307665, 4145.12820492, 4127.05128178, 4126.53846126,10.0
4151.79487159, 4136.41025621, 4147.43589723, 4143.46153826, 4144.61538441, 4142.82051262, 4141.66666646, 4134.74358947, 4118.20512793, 4153.20512800, 4136.41025621, 4145.38461518, 4130.76923050, 4125.76923050,10.0
4141.79487159, 4135.38461518, 4139.99999980, 4140.64102544, 4139.48717928, 4134.74358947, 4126.66666639, 4132.56410229, 4109.23076896, 4142.56410236, 4134.99999973, 4136.02564082, 4124.48717921, 4126.92307665,10.0
4136.41025621, 4132.56410229, 4139.10256390, 4139.23076903, 4146.53846133, 4129.10256383, 4127.56410229, 4135.12820485, 4109.10256383, 4139.99999980, 4133.46153819, 4135.76923056, 4119.35897408, 4125.38461511,10.0
4139.48717928, 4130.76923050, 4140.89743569, 4139.48717928, 4152.30769210, 4137.05128185, 4136.02564082, 4141.28205108, 4120.64102537, 4144.99999980, 4134.35897408, 4138.20512800, 4119.23076896, 4123.58974332,10.0
4134.74358947, 4129.48717921, 4134.10256383, 4134.35897408, 4136.66666646, 4137.56410236, 4132.69230742, 4139.23076903, 4124.35897408, 4143.46153826, 4135.25640998, 4131.53846126, 4117.82051255, 4124.99999973,10.0
4137.94871774, 4137.43589723, 4134.10256383, 4136.02564082, 4139.35897415, 4140.12820492, 4139.23076903, 4138.07692287, 4128.20512793, 4146.15384595, 4138.71794851, 4132.56410229, 4119.74358947, 4125.12820485,10.0
4148.58974339, 4143.58974339, 4139.74358954, 4139.99999980, 4156.02564082, 4148.84615364, 4145.89743569, 4145.38461518, 4138.07692287, 4154.99999980, 4141.92307672, 4138.71794851, 4122.30769203, 4125.25640998,10.0
4146.28205108, 4134.74358947, 4137.05128185, 4133.84615357, 4149.23076903, 4144.99999980, 4131.79487152, 4146.15384595, 4139.74358954, 4153.97435877, 4145.38461518, 4134.35897408, 4124.61538434, 4124.99999973,10.0
4142.82051262, 4125.38461511, 4133.33333306, 4132.05128178, 4138.84615364, 4142.05128185, 4127.94871767, 4138.58974339, 4134.99999973, 4152.30769210, 4148.97435877, 4132.56410229, 4127.82051255, 4124.99999973,10.0
4140.12820492, 4120.64102537, 4125.38461511, 4131.28205101, 4139.48717928, 4146.53846133, 4139.35897415, 4130.38461511, 4123.71794844, 4145.76923056, 4138.33333313, 4129.74358947, 4119.87179460, 4127.56410229,10.0
4127.69230742, 4109.87179460, 4104.99999973, 4112.05128178, 4128.71794844, 4138.46153826, 4128.58974332, 4121.41025614, 4104.35897408, 4120.89743562, 4113.97435870, 4109.10256383, 4099.61538427, 4129.48717921,10.0
4130.89743562, 4108.07692280, 4105.25640998, 4104.48717921, 4126.92307665, 4137.82051262, 4120.76923050, 4126.41025614, 4102.94871767, 4114.87179460, 4112.43589716, 4106.02564075, 4101.66666632, 4126.66666639,10.0
4156.79487159, 4128.46153819, 4130.12820485, 4124.74358947, 4148.71794851, 4152.56410236, 4143.46153826, 4144.35897415, 4120.76923050, 4140.12820492, 4134.23076896, 4135.51282031, 4124.87179460, 4124.87179460,10.0
4168.46153833, 4141.66666646, 4140.76923056, 4134.74358947, 4153.33333313, 4150.76923056, 4150.12820492, 4148.33333313, 4125.51282024, 4148.84615364, 4139.61538441, 4149.48717928, 4131.41025614, 4126.92307665,10.0
4165.12820492, 4137.56410236, 4141.79487159, 4132.43589716, 4144.10256390, 4141.53846133, 4135.64102544, 4140.51282031, 4123.20512793, 4138.71794851, 4133.71794844, 4144.87179467, 4127.05128178, 4125.64102537,10.0
4167.69230749, 4138.07692287, 4147.82051262, 4138.20512800, 4150.51282031, 4148.71794851, 4137.82051262, 4136.92307672, 4127.43589716, 4143.71794851, 4139.61538441, 4152.17948697, 4131.15384588, 4125.89743562,10.0
4168.07692287, 4141.92307672, 4149.35897415, 4143.71794851, 4158.20512800, 4152.94871774, 4148.20512800, 4139.99999980, 4128.97435870, 4156.79487159, 4151.53846133, 4160.38461518, 4139.48717928, 4127.05128178,10.0
4161.28205108, 4140.51282031, 4145.76923056, 4142.82051262, 4154.48717928, 4147.82051262, 4147.17948697, 4145.76923056, 4132.69230742, 4157.30769210, 4155.89743569, 4154.99999980, 4140.51282031, 4126.66666639,10.0
4156.79487159, 4141.28205108, 4142.82051262, 4142.43589723, 4151.79487159, 4149.99999980, 4147.05128185, 4143.71794851, 4136.92307672, 4153.71794851, 4152.43589723, 4147.05128185, 4135.64102544, 4127.17948691,10.0
4154.23076903, 4141.15384595, 4135.64102544, 4143.58974339, 4153.20512800, 4147.82051262, 4136.92307672, 4128.20512793, 4131.41025614, 4152.56410236, 4148.71794851, 4144.74358954, 4132.69230742, 4126.92307665,10.0
4143.97435877, 4128.20512793, 4122.69230742, 4135.38461518, 4139.87179467, 4132.05128178, 4109.35897408, 4117.56410229, 4120.51282024, 4141.02564082, 4141.66666646, 4137.17948697, 4126.66666639, 4127.05128178,10.0
4130.51282024, 4114.61538434, 4112.17948691, 4122.82051255, 4118.84615357, 4123.20512793, 4101.79487145, 4120.25640998, 4110.51282024, 4123.58974332, 4130.89743562, 4126.15384588, 4117.05128178, 4126.79487152,10.0
4129.61538434, 4116.66666639, 4115.12820485, 4121.92307665, 4115.12820485, 4127.05128178, 4113.33333306, 4122.30769203, 4108.84615357, 4122.82051255, 4130.12820485, 4129.48717921, 4117.56410229, 4125.89743562,10.0
4139.99999980, 4124.61538434, 4131.66666639, 4132.43589716, 4124.99999973, 4131.02564075, 4119.35897408, 4123.97435870, 4119.35897408, 4138.20512800, 4144.87179467, 4144.87179467, 4130.76923050, 4128.97435870,10.0
4143.58974339, 4125.76923050, 4139.35897415, 4136.28205108, 4117.17948691, 4132.94871767, 4123.71794844, 4128.84615357, 4129.35897408, 4144.10256390, 4152.17948697, 4148.46153826, 4133.58974332, 4129.99999973,10.0
4135.12820485, 4120.38461511, 4126.92307665, 4128.33333306, 4108.07692280, 4133.46153819, 4126.53846126, 4132.30769203, 4127.69230742, 4136.92307672, 4138.46153826, 4132.69230742, 4121.53846126, 4127.05128178,10.0
4130.89743562, 4119.87179460, 4117.43589716, 4128.84615357, 4128.07692280, 4134.23076896, 4129.23076896, 4135.64102544, 4130.51282024, 4139.10256390, 4131.02564075, 4121.79487152, 4118.46153819, 4127.05128178,10.0
4136.28205108, 4127.43589716, 4121.28205101, 4139.48717928, 4147.05128185, 4142.82051262, 4137.56410236, 4144.99999980, 4147.94871774, 4155.25641005, 4142.56410236, 4126.66666639, 4128.71794844, 4128.71794844,10.0
4141.66666646, 4132.43589716, 4126.15384588, 4140.89743569, 4143.71794851, 4149.74358954, 4143.46153826, 4150.76923056, 4158.84615364, 4163.07692287, 4152.05128185, 4134.10256383, 4133.97435870, 4127.05128178,10.0
4131.92307665, 4125.25640998, 4118.33333306, 4128.07692280, 4137.94871774, 4140.89743569, 4130.89743562, 4135.89743569, 4141.02564082, 4146.53846133, 4139.99999980, 4128.33333306, 4126.79487152, 4125.89743562,10.0
4118.97435870, 4115.89743562, 4108.84615357, 4119.99999973, 4135.38461518, 4129.35897408, 4113.71794844, 4115.51282024, 4115.12820485, 4127.56410229, 4128.33333306, 4118.97435870, 4119.48717921, 4127.56410229,10.0
4126.02564075, 4123.33333306, 4114.87179460, 4130.64102537, 4134.61538434, 4133.97435870, 4119.10256383, 4116.79487152, 4116.02564075, 4132.69230742, 4139.74358954, 4127.69230742, 4123.07692280, 4127.69230742,10.0
4145.12820492, 4139.10256390, 4128.20512793, 4147.05128185, 4144.74358954, 4142.17948697, 4133.71794844, 4128.20512793, 4131.66666639, 4145.51282031, 4153.84615364, 4144.48717928, 4131.53846126, 4126.02564075,10.0
4144.23076903, 4137.82051262, 4126.79487152, 4145.51282031, 4142.43589723, 4132.30769203, 4120.76923050, 4119.10256383, 4120.89743562, 4133.84615357, 4140.38461518, 4139.74358954, 4123.58974332, 4126.53846126,10.0
4124.10256383, 4122.17948691, 4113.58974332, 4129.35897408, 4123.33333306, 4114.74358947, 4095.76923043, 4103.20512793, 4099.35897402, 4109.35897408, 4120.51282024, 4126.02564075, 4106.66666639, 4127.82051255,10.0
4128.97435870, 4117.82051255, 4119.61538434, 4131.66666639, 4123.71794844, 4117.30769203, 4105.38461511, 4112.30769203, 4109.99999973, 4114.61538434, 4132.82051255, 4136.15384595, 4116.79487152, 4126.79487152,10.0
4150.25641005, 4128.58974332, 4137.69230749, 4145.25641005, 4136.41025621, 4134.61538434, 4132.94871767, 4128.71794844, 4129.10256383, 4134.48717921, 4154.23076903, 4153.97435877, 4137.43589723, 4127.30769203,10.0
4152.05128185, 4137.94871774, 4139.74358954, 4146.66666646, 4137.82051262, 4138.20512800, 4138.33333313, 4129.74358947, 4128.71794844, 4142.94871774, 4158.07692287, 4158.71794851, 4141.28205108, 4126.28205101,10.0
4141.53846133, 4131.02564075, 4124.99999973, 4137.69230749, 4134.23076896, 4127.43589716, 4127.56410229, 4126.15384588, 4125.89743562, 4141.28205108, 4147.17948697, 4152.05128185, 4132.05128178, 4124.23076896,10.0
4137.94871774, 4120.25640998, 4113.20512793, 4130.38461511, 4132.94871767, 4123.97435870, 4124.99999973, 4134.35897408, 4133.07692280, 4139.10256390, 4137.94871774, 4139.35897415, 4125.89743562, 4127.82051255,10.0
4144.23076903, 4128.84615357, 4117.56410229, 4135.12820485, 4128.46153819, 4137.30769210, 4138.97435877, 4142.56410236, 4139.99999980, 4145.64102544, 4145.12820492, 4137.30769210, 4132.17948691, 4127.94871767,10.0
4147.56410236, 4136.79487159, 4118.58974332, 4142.69230749, 4126.02564075, 4140.38461518, 4138.46153826, 4132.94871767, 4134.87179460, 4146.92307672, 4149.48717928, 4137.56410236, 4133.20512793, 4125.38461511,10.0
4138.84615364, 4128.71794844, 4107.94871767, 4140.38461518, 4135.51282031, 4123.97435870, 4118.71794844, 4122.05128178, 4122.30769203, 4135.76923056, 4136.79487159, 4124.99999973, 4121.41025614, 4126.15384588,10.0
4130.51282024, 4131.15384588, 4105.64102537, 4138.84615364, 4148.71794851, 4122.05128178, 4118.71794844, 4131.41025614, 4125.89743562, 4129.74358947, 4129.61538434, 4119.10256383, 4119.48717921, 4127.82051255,10.0
4133.58974332, 4142.82051262, 4115.64102537, 4146.15384595, 4155.12820492, 4135.51282031, 4126.66666639, 4139.23076903, 4138.46153826, 4139.23076903, 4140.64102544, 4126.92307665, 4131.66666639, 4129.48717921,10.0
4130.76923050, 4140.12820492, 4114.87179460, 4146.79487159, 4152.17948697, 4138.33333313, 4117.17948691, 4125.38461511, 4129.87179460, 4141.02564082, 4140.89743569, 4123.97435870, 4127.43589716, 4129.35897408,10.0
4127.30769203, 4136.15384595, 4105.64102537, 4140.51282031, 4149.87179467, 4133.84615357, 4118.33333306, 4120.89743562, 4123.46153819, 4133.97435870, 4132.56410229, 4118.20512793, 4116.92307665, 4127.94871767,10.0
4135.64102544, 4140.76923056, 4108.07692280, 4142.43589723, 4155.25641005, 4135.76923056, 4134.61538434, 4132.30769203, 4136.15384595, 4139.74358954, 4139.10256390, 4127.82051255, 4124.35897408, 4126.02564075,10.0
4137.05128185, 4137.17948697, 4113.97435870, 4141.28205108, 4152.56410236, 4136.79487159, 4133.07692280, 4137.56410236, 4145.25641005, 4149.23076903, 4146.15384595, 4132.69230742, 4133.46153819, 4125.51282024,10.0
4136.28205108, 4133.46153819, 4117.17948691, 4134.23076896, 4142.17948697, 4138.97435877, 4130.38461511, 4141.15384595, 4151.02564082, 4156.28205108, 4151.79487159, 4134.48717921, 4136.92307672, 4126.15384588,10.0
4144.61538441, 4139.99999980, 4120.12820485, 4136.28205108, 4143.71794851, 4142.94871774, 4144.74358954, 4143.20512800, 4150.51282031, 4155.25641005, 4156.02564082, 4142.43589723, 4134.74358947, 4126.53846126,10.0
4155.76923056, 4151.66666646, 4124.23076896, 4147.94871774, 4154.99999980, 4143.84615364, 4155.51282031, 4144.10256390, 4146.28205108, 4150.76923056, 4153.20512800, 4146.92307672, 4135.12820485, 4127.43589716,10.0
4160.89743569, 4157.69230749, 4134.10256383, 4155.12820492, 4160.12820492, 4149.23076903, 4155.64102544, 4147.94871774, 4151.66666646, 4155.76923056, 4156.53846133, 4151.66666646, 4142.69230749, 4126.79487152,10.0
4151.53846133, 4145.76923056, 4130.25640998, 4145.89743569, 4152.94871774, 4147.69230749, 4143.84615364, 4145.76923056, 4149.10256390, 4155.25641005, 4156.41025621, 4149.74358954, 4140.12820492, 4126.79487152,10.0
4144.10256390, 4138.84615364, 4119.87179460, 4140.76923056, 4147.94871774, 4143.20512800, 4143.58974339, 4142.69230749, 4133.20512793, 4147.30769210, 4146.41025621, 4143.46153826, 4133.33333306, 4127.94871767,10.0
4156.66666646, 4155.25641005, 4134.35897408, 4156.53846133, 4158.07692287, 4153.84615364, 4163.71794851, 4148.84615364, 4137.94871774, 4153.33333313, 4153.33333313, 4153.84615364, 4141.15384595, 4127.17948691,10.0
4161.28205108, 4161.28205108, 4145.64102544, 4160.64102544, 4164.35897415, 4154.74358954, 4156.28205108, 4144.61538441, 4145.89743569, 4155.51282031, 4161.92307672, 4158.46153826, 4142.82051262, 4125.25640998,10.0
4133.84615357, 4139.48717928, 4117.17948691, 4138.84615364, 4142.43589723, 4131.66666639, 4117.30769203, 4118.58974332, 4122.30769203, 4128.33333306, 4133.71794844, 4127.82051255, 4119.48717921, 4124.23076896,10.0
4113.97435870, 4128.84615357, 4095.25640991, 4128.71794844, 4124.23076896, 4120.89743562, 4109.35897408, 4111.53846126, 4108.46153819, 4118.20512793, 4114.10256383, 4107.17948691, 4111.41025614, 4123.58974332,10.0
4128.07692280, 4143.97435877, 4112.30769203, 4141.28205108, 4142.82051262, 4136.92307672, 4131.41025614, 4127.43589716, 4127.05128178, 4143.46153826, 4139.48717928, 4124.48717921, 4131.02564075, 4128.07692280,10.0
4143.71794851, 4156.41025621, 4128.71794844, 4152.05128185, 4167.82051262, 4147.56410236, 4137.05128185, 4135.38461518, 4146.53846133, 4162.05128185, 4162.69230749, 4141.53846133, 4146.15384595, 4131.92307665,10.0
4140.51282031, 4155.51282031, 4126.92307665, 4154.74358954, 4169.23076910, 4146.28205108, 4141.02564082, 4140.89743569, 4156.15384595, 4165.12820492, 4162.17948697, 4142.94871774, 4145.51282031, 4127.43589716,10.0
4129.23076896, 4145.64102544, 4120.38461511, 4148.07692287, 4151.15384595, 4143.33333313, 4143.97435877, 4141.28205108, 4150.76923056, 4155.38461518, 4153.58974339, 4136.28205108, 4134.48717921, 4126.15384588,10.0
4120.89743562, 4133.20512793, 4111.53846126, 4133.58974332, 4133.97435870, 4131.66666639, 4127.43589716, 4126.02564075, 4127.94871767, 4134.87179460, 4140.76923056, 4126.28205101, 4123.46153819, 4130.64102537,10.0
4126.53846126, 4134.61538434, 4112.05128178, 4138.58974339, 4138.46153826, 4127.43589716, 4120.25640998, 4123.46153819, 4122.82051255, 4135.12820485, 4140.64102544, 4130.64102537, 4129.10256383, 4132.05128178,10.0
4139.23076903, 4150.38461518, 4131.53846126, 4160.12820492, 4157.30769210, 4143.20512800, 4139.23076903, 4141.41025621, 4145.12820492, 4158.33333313, 4161.28205108, 4151.15384595, 4145.64102544, 4126.66666639,10.0
4136.79487159, 4156.02564082, 4140.76923056, 4163.20512800, 4159.61538441, 4152.05128185, 4153.33333313, 4148.33333313, 4152.69230749, 4162.30769210, 4168.20512807, 4156.02564082, 4146.66666646, 4124.10256383,10.0
4118.97435870, 4141.02564082, 4119.23076896, 4145.89743569, 4141.15384595, 4136.02564082, 4139.48717928, 4136.92307672, 4132.43589716, 4138.58974339, 4142.56410236, 4136.02564082, 4129.87179460, 4127.30769203,10.0
4115.64102537, 4136.41025621, 4111.92307665, 4140.76923056, 4139.48717928, 4127.94871767, 4127.43589716, 4131.79487152, 4122.82051255, 4129.87179460, 4132.82051255, 4131.41025614, 4124.99999973, 4127.05128178,10.0
4139.61538441, 4154.48717928, 4137.56410236, 4153.46153826, 4158.33333313, 4143.20512800, 4141.02564082, 4139.74358954, 4137.30769210, 4146.53846133, 4158.33333313, 4153.58974339, 4142.17948697, 4127.82051255,10.0
4153.84615364, 4161.15384595, 4151.02564082, 4160.25641005, 4162.94871774, 4148.20512800, 4150.38461518, 4140.64102544, 4149.23076903, 4155.89743569, 4169.35897422, 4167.05128185, 4153.33333313, 4129.35897408,10.0
4134.74358947, 4141.92307672, 4136.66666646, 4148.84615364, 4144.10256390, 4130.64102537, 4125.12820485, 4123.84615357, 4134.99999973, 4138.46153826, 4147.43589723, 4152.56410236, 4139.48717928, 4128.07692280,10.0
4119.99999973, 4131.15384588, 4126.53846126, 4135.89743569, 4130.25640998, 4116.66666639, 4097.30769196, 4109.61538434, 4112.05128178, 4120.38461511, 4131.92307665, 4141.28205108, 4127.69230742, 4127.69230742,10.0
4131.15384588, 4135.89743569, 4127.17948691, 4137.05128185, 4132.69230742, 4119.74358947, 4103.20512793, 4109.99999973, 4108.71794844, 4119.35897408, 4134.87179460, 4147.69230749, 4129.99999973, 4127.94871767,10.0
4140.76923056, 4140.38461518, 4127.56410229, 4141.66666646, 4134.74358947, 4126.41025614, 4122.05128178, 4116.66666639, 4120.12820485, 4124.61538434, 4134.74358947, 4148.33333313, 4132.69230742, 4128.33333306,10.0
4142.05128185, 4150.89743569, 4138.97435877, 4148.46153826, 4144.87179467, 4132.94871767, 4134.48717921, 4128.71794844, 4138.84615364, 4137.69230749, 4141.92307672, 4152.82051262, 4140.38461518, 4126.02564075,10.0
4141.79487159, 4153.33333313, 4141.92307672, 4151.41025621, 4155.89743569, 4139.10256390, 4137.94871774, 4134.35897408, 4144.10256390, 4145.76923056, 4147.43589723, 4157.05128185, 4142.30769210, 4125.38461511,10.0
4128.07692280, 4134.87179460, 4121.28205101, 4138.71794851, 4146.41025621, 4132.82051255, 4132.43589716, 4129.99999973, 4131.02564075, 4133.97435870, 4129.74358947, 4137.56410236, 4126.15384588, 4127.82051255,10.0
4121.15384588, 4129.35897408, 4117.30769203, 4134.48717921, 4136.79487159, 4127.69230742, 4137.94871774, 4141.66666646, 4143.71794851, 4134.87179460, 4126.02564075, 4126.41025614, 4127.43589716, 4128.46153819,10.0
4139.74358954, 4149.23076903, 4140.12820492, 4149.87179467, 4147.82051262, 4142.94871774, 4158.07692287, 4156.15384595, 4170.76923063, 4161.02564082, 4149.35897415, 4144.61538441, 4150.38461518, 4126.79487152,10.0
4137.82051262, 4145.89743569, 4134.87179460, 4147.30769210, 4138.97435877, 4145.51282031, 4149.87179467, 4140.38461518, 4155.64102544, 4157.30769210, 4146.79487159, 4143.71794851, 4145.64102544, 4127.17948691,10.0
4110.12820485, 4119.10256383, 4107.82051255, 4125.76923050, 4108.71794844, 4126.02564075, 4118.33333306, 4116.79487152, 4122.05128178, 4120.25640998, 4118.33333306, 4116.66666639, 4120.12820485, 4127.43589716,10.0
4117.43589716, 4126.02564075, 4120.89743562, 4131.41025614, 4122.82051255, 4130.25640998, 4125.64102537, 4124.61538434, 4129.74358947, 4119.10256383, 4123.46153819, 4122.82051255, 4127.05128178, 4126.66666639,10.0
4141.02564082, 4149.99999980, 4144.74358954, 4149.10256390, 4160.12820492, 4150.51282031, 4148.20512800, 4139.10256390, 4147.56410236, 4142.43589723, 4145.51282031, 4149.10256390, 4146.53846133, 4127.69230742,10.0
4144.23076903, 4154.99999980, 4145.12820492, 4153.07692287, 4167.43589723, 4153.97435877, 4140.89743569, 4136.15384595, 4143.97435877, 4143.33333313, 4152.56410236, 4154.99999980, 4146.66666646, 4128.20512793,10.0
4159.23076903, 4162.94871774, 4158.84615364, 4168.46153833, 4166.66666646, 4157.43589723, 4144.10256390, 4140.38461518, 4151.02564082, 4148.46153826, 4163.58974339, 4167.94871774, 4154.35897415, 4128.20512793,10.0
4175.38461525, 4176.28205115, 4176.41025628, 4181.15384602, 4178.07692294, 4167.56410236, 4165.25641005, 4146.02564082, 4158.97435877, 4161.92307672, 4171.79487166, 4182.05128192, 4165.89743569, 4127.82051255,10.0
4157.82051262, 4166.41025621, 4159.87179467, 4165.25641005, 4173.46153833, 4160.12820492, 4155.25641005, 4137.69230749, 4142.17948697, 4148.46153826, 4155.12820492, 4162.43589723, 4149.23076903, 4127.30769203,10.0
4138.84615364, 4148.33333313, 4138.58974339, 4150.38461518, 4156.28205108, 4147.94871774, 4136.02564082, 4135.38461518, 4133.71794844, 4135.76923056, 4141.15384595, 4139.48717928, 4131.41025614, 4125.12820485,10.0
4151.02564082, 4151.02564082, 4146.02564082, 4154.87179467, 4161.66666646, 4156.15384595, 4153.97435877, 4146.28205108, 4150.51282031, 4149.87179467, 4151.15384595, 4145.89743569, 4142.94871774, 4122.69230742,10.0
4163.20512800, 4157.94871774, 4152.43589723, 4154.74358954, 4170.76923063, 4160.89743569, 4168.71794858, 4148.58974339, 4153.46153826, 4158.33333313, 4159.61538441, 4151.79487159, 4151.92307672, 4124.87179460,10.0
4159.23076903, 4154.87179467, 4144.87179467, 4149.74358954, 4163.84615364, 4148.84615364, 4149.48717928, 4139.23076903, 4145.12820492, 4155.64102544, 4157.30769210, 4147.17948697, 4146.41025621, 4126.41025614,10.0
4154.61538441, 4146.28205108, 4137.43589723, 4147.43589723, 4150.38461518, 4142.30769210, 4136.53846133, 4138.71794851, 4146.79487159, 4153.46153826, 4149.23076903, 4144.61538441, 4142.17948697, 4127.43589716,10.0
4150.25641005, 4137.30769210, 4132.56410229, 4142.43589723, 4143.20512800, 4145.12820492, 4142.56410236, 4141.92307672, 4143.46153826, 4147.17948697, 4139.87179467, 4138.33333313, 4138.58974339, 4127.56410229,10.0
4148.97435877, 4135.89743569, 4132.94871767, 4140.89743569, 4143.20512800, 4139.99999980, 4138.97435877, 4138.20512800, 4141.02564082, 4146.28205108, 4146.41025621, 4137.82051262, 4140.51282031, 4124.87179460,10.0
4157.82051262, 4142.94871774, 4143.97435877, 4148.33333313, 4145.25641005, 4131.53846126, 4128.33333306, 4131.15384588, 4144.87179467, 4153.71794851, 4161.79487159, 4149.87179467, 4152.94871774, 4125.12820485,10.0
4167.69230749, 4147.43589723, 4156.41025621, 4156.41025621, 4147.05128185, 4131.66666639, 4125.51282024, 4128.07692280, 4144.48717928, 4156.79487159, 4167.82051262, 4157.69230749, 4158.97435877, 4128.07692280,10.0
4167.69230749, 4144.35897415, 4155.64102544, 4158.71794851, 4141.53846133, 4138.20512800, 4131.02564075, 4132.56410229, 4146.79487159, 4159.99999980, 4164.48717928, 4155.51282031, 4155.12820492, 4128.71794844,10.0
4156.92307672, 4139.48717928, 4144.99999980, 4153.20512800, 4136.28205108, 4138.33333313, 4136.15384595, 4135.12820485, 4147.69230749, 4156.15384595, 4155.38461518, 4149.99999980, 4151.66666646, 4125.25640998,10.0
4152.30769210, 4140.38461518, 4140.89743569, 4146.02564082, 4144.87179467, 4134.99999973, 4143.33333313, 4142.05128185, 4147.30769210, 4148.33333313, 4147.43589723, 4147.05128185, 4150.76923056, 4123.71794844,10.0
4160.89743569, 4142.94871774, 4147.56410236, 4147.56410236, 4157.05128185, 4138.97435877, 4154.61538441, 4148.97435877, 4151.66666646, 4154.10256390, 4152.82051262, 4148.46153826, 4153.84615364, 4126.15384588,10.0
4164.48717928, 4138.33333313, 4151.02564082, 4149.74358954, 4151.79487159, 4136.02564082, 4147.17948697, 4141.92307672, 4147.17948697, 4160.89743569, 4157.43589723, 4147.56410236, 4156.02564082, 4126.79487152,10.0
4159.74358954, 4136.28205108, 4145.89743569, 4145.51282031, 4139.35897415, 4127.43589716, 4135.12820485, 4139.35897415, 4142.05128185, 4158.46153826, 4152.82051262, 4143.07692287, 4154.23076903, 4126.79487152,10.0
4157.69230749, 4137.94871774, 4139.74358954, 4141.79487159, 4140.25641005, 4131.79487152, 4142.82051262, 4148.33333313, 4148.46153826, 4158.46153826, 4150.38461518, 4137.69230749, 4150.12820492, 4126.53846126,10.0
4155.25641005, 4132.05128178, 4137.17948697, 4141.15384595, 4141.15384595, 4130.89743562, 4144.61538441, 4145.25641005, 4143.07692287, 4155.89743569, 4148.97435877, 4133.97435870, 4145.51282031, 4125.64102537,10.0
4155.12820492, 4127.69230742, 4138.71794851, 4143.84615364, 4133.58974332, 4118.84615357, 4129.48717921, 4133.20512793, 4129.61538434, 4147.56410236, 4148.33333313, 4136.02564082, 4143.07692287, 4125.64102537,10.0
4163.58974339, 4135.25640998, 4145.25641005, 4149.10256390, 4137.05128185, 4125.38461511, 4129.23076896, 4138.97435877, 4139.74358954, 4154.35897415, 4155.76923056, 4143.46153826, 4147.94871774, 4125.51282024,10.0
4165.76923056, 4140.12820492, 4148.97435877, 4147.43589723, 4146.15384595, 4139.35897415, 4143.71794851, 4151.02564082, 4151.66666646, 4165.38461518, 4158.97435877, 4144.35897415, 4151.79487159, 4125.76923050,10.0
4157.94871774, 4136.66666646, 4147.94871774, 4144.10256390, 4144.87179467, 4136.66666646, 4141.53846133, 4142.56410236, 4140.38461518, 4159.23076903, 4155.38461518, 4140.89743569, 4148.46153826, 4126.02564075,10.0
4161.15384595, 4141.02564082, 4155.12820492, 4152.17948697, 4148.46153826, 4133.97435870, 4132.30769203, 4129.61538434, 4131.15384588, 4156.15384595, 4158.33333313, 4150.51282031, 4151.53846133, 4125.12820485,10.0
4159.99999980, 4138.97435877, 4152.56410236, 4151.92307672, 4148.20512800, 4131.79487152, 4126.02564075, 4128.71794844, 4129.35897408, 4151.92307672, 4152.56410236, 4148.46153826, 4146.92307672, 4124.61538434,10.0
4141.79487159, 4123.46153819, 4133.71794844, 4137.94871774, 4129.48717921, 4121.53846126, 4125.38461511, 4130.51282024, 4125.38461511, 4134.74358947, 4135.51282031, 4127.82051255, 4130.25640998, 4124.87179460,10.0
4130.89743562, 4118.97435870, 4126.02564075, 4136.02564082, 4123.07692280, 4116.66666639, 4128.71794844, 4131.79487152, 4123.84615357, 4129.23076896, 4128.84615357, 4117.82051255, 4127.17948691, 4126.66666639,10.0
4130.12820485, 4123.84615357, 4130.64102537, 4142.82051262, 4132.43589716, 4118.07692280, 4123.20512793, 4131.79487152, 4120.12820485, 4134.23076896, 4129.23076896, 4119.23076896, 4135.25640998, 4126.79487152,10.0
4129.61538434, 4124.48717921, 4134.23076896, 4144.74358954, 4131.66666639, 4121.41025614, 4123.46153819, 4128.07692280, 4112.43589716, 4130.38461511, 4128.46153819, 4121.02564075, 4133.97435870, 4125.76923050,10.0
4132.05128178, 4123.97435870, 4137.56410236, 4147.43589723, 4128.97435870, 4129.48717921, 4138.46153826, 4131.53846126, 4116.79487152, 4128.33333306, 4130.64102537, 4124.23076896, 4128.07692280, 4127.69230742,10.0
4144.61538441, 4135.76923056, 4152.17948697, 4160.76923056, 4142.43589723, 4137.17948697, 4150.38461518, 4147.17948697, 4140.76923056, 4148.07692287, 4141.79487159, 4140.38461518, 4140.25641005, 4127.17948691,10.0
4156.79487159, 4148.84615364, 4165.38461518, 4171.41025628, 4150.76923056, 4137.05128185, 4143.58974339, 4157.56410236, 4159.35897415, 4169.74358961, 4155.76923056, 4158.58974339, 4158.71794851, 4125.38461511,10.0
4146.15384595, 4138.71794851, 4149.10256390, 4158.07692287, 4138.46153826, 4124.10256383, 4125.12820485, 4141.66666646, 4142.94871774, 4152.56410236, 4146.41025621, 4148.46153826, 4149.10256390, 4127.56410229,10.0
4121.41025614, 4116.66666639, 4117.82051255, 4138.33333313, 4120.89743562, 4106.41025614, 4107.56410229, 4116.79487152, 4108.20512793, 4114.87179460, 4119.10256383, 4120.12820485, 4120.25640998, 4127.82051255,10.0
4122.56410229, 4115.76923050, 4119.35897408, 4141.92307672, 4119.48717921, 4107.69230742, 4108.84615357, 4119.48717921, 4111.28205101, 4114.61538434, 4118.46153819, 4118.58974332, 4120.76923050, 4126.53846126,10.0
4141.79487159, 4132.05128178, 4142.69230749, 4153.84615364, 4128.84615357, 4122.94871767, 4126.02564075, 4141.92307672, 4145.76923056, 4142.17948697, 4138.33333313, 4135.64102544, 4143.58974339, 4127.94871767,10.0
4138.84615364, 4131.92307665, 4139.48717928, 4151.66666646, 4124.87179460, 4120.25640998, 4121.92307665, 4138.97435877, 4148.33333313, 4144.10256390, 4138.71794851, 4133.58974332, 4144.10256390, 4127.05128178,10.0
4139.23076903, 4129.61538434, 4138.46153826, 4156.28205108, 4125.12820485, 4114.61538434, 4112.30769203, 4124.35897408, 4135.51282031, 4142.82051262, 4142.69230749, 4135.64102544, 4144.61538441, 4125.51282024,10.0
4156.66666646, 4140.38461518, 4158.97435877, 4173.07692294, 4140.64102544, 4128.58974332, 4128.20512793, 4131.41025614, 4146.15384595, 4162.17948697, 4162.94871774, 4152.05128185, 4160.25641005, 4125.51282024,10.0
4157.56410236, 4140.51282031, 4155.64102544, 4169.61538448, 4141.53846133, 4135.25640998, 4136.66666646, 4133.33333306, 4146.79487159, 4157.94871774, 4156.02564082, 4150.38461518, 4154.61538441, 4126.28205101,10.0
4140.25641005, 4127.30769203, 4130.51282024, 4153.97435877, 4121.28205101, 4121.02564075, 4115.64102537, 4121.28205101, 4127.94871767, 4131.41025614, 4127.56410229, 4131.41025614, 4132.05128178, 4125.64102537,10.0
4127.82051255, 4120.12820485, 4122.30769203, 4152.43589723, 4114.35897408, 4112.05128178, 4101.15384581, 4120.76923050, 4124.35897408, 4123.07692280, 4119.10256383, 4122.17948691, 4124.23076896, 4124.48717921,10.0
4114.61538434, 4109.74358947, 4113.33333306, 4141.66666646, 4111.02564075, 4110.51282024, 4099.61538427, 4123.71794844, 4128.20512793, 4121.15384588, 4115.38461511, 4112.56410229, 4118.97435870, 4125.38461511,10.0
4092.17948684, 4087.82051248, 4085.64102530, 4113.33333306, 4085.38461504, 4101.15384581, 4092.17948684, 4113.84615357, 4112.43589716, 4101.66666632, 4092.82051248, 4088.84615350, 4103.07692280, 4127.17948691,10.0
4092.30769196, 4091.02564068, 4083.07692273, 4112.43589716, 4089.35897402, 4103.46153819, 4102.69230742, 4116.66666639, 4110.25640998, 4098.84615350, 4087.69230735, 4084.10256376, 4104.23076896, 4127.30769203,10.0
4111.15384588, 4110.89743562, 4101.15384581, 4131.28205101, 4123.97435870, 4117.05128178, 4121.15384588, 4135.38461518, 4132.94871767, 4119.35897408, 4106.41025614, 4103.33333306, 4118.71794844, 4126.28205101,10.0
4109.48717921, 4106.02564075, 4097.17948684, 4124.35897408, 4121.66666639, 4116.79487152, 4116.79487152, 4134.99999973, 4136.66666646, 4123.33333306, 4106.66666639, 4105.76923050, 4118.58974332, 4126.66666639,10.0
4097.56410222, 4098.71794837, 4089.23076889, 4115.76923050, 4101.28205094, 4113.07692280, 4111.66666639, 4125.76923050, 4128.84615357, 4120.25640998, 4100.25640991, 4097.69230735, 4116.15384588, 4127.30769203,10.0
4102.05128171, 4108.20512793, 4097.17948684, 4130.12820485, 4108.71794844, 4115.12820485, 4115.51282024, 4126.66666639, 4138.33333313, 4128.46153819, 4111.79487152, 4104.87179460, 4123.71794844, 4125.64102537,10.0
4110.25640998, 4112.56410229, 4099.48717914, 4136.15384595, 4115.25640998, 4114.87179460, 4115.38461511, 4126.28205101, 4136.66666646, 4130.12820485, 4115.64102537, 4109.74358947, 4123.71794844, 4124.99999973,10.0
4106.28205101, 4106.53846126, 4092.30769196, 4125.76923050, 4107.56410229, 4109.87179460, 4109.87179460, 4117.43589716, 4120.51282024, 4118.84615357, 4106.92307665, 4099.74358940, 4113.97435870, 4126.02564075,10.0
4098.97435863, 4100.64102530, 4088.97435863, 4121.92307665, 4105.89743562, 4100.12820478, 4098.33333299, 4107.05128178, 4118.71794844, 4109.35897408, 4103.46153819, 4091.15384581, 4111.41025614, 4126.66666639,10.0
4097.69230735, 4097.69230735, 4087.82051248, 4125.12820485, 4104.23076896, 4098.07692273, 4095.38461504, 4107.56410229, 4123.46153819, 4110.89743562, 4101.92307658, 4092.82051248, 4111.15384588, 4125.25640998,10.0
4104.23076896, 4104.48717921, 4095.76923043, 4130.25640998, 4106.28205101, 4111.28205101, 4109.48717921, 4121.53846126, 4127.94871767, 4120.89743562, 4107.82051255, 4102.17948684, 4114.23076896, 4123.71794844,10.0
4105.76923050, 4107.17948691, 4099.99999966, 4126.66666639, 4107.05128178, 4110.76923050, 4112.82051255, 4125.25640998, 4132.94871767, 4117.69230742, 4112.17948691, 4104.48717921, 4116.79487152, 4126.15384588,10.0
4093.20512786, 4093.58974325, 4088.97435863, 4114.48717921, 4096.15384581, 4093.97435863, 4099.23076889, 4112.43589716, 4121.41025614, 4100.76923043, 4098.71794837, 4094.10256376, 4108.84615357, 4129.23076896,10.0
4087.43589709, 4087.43589709, 4087.43589709, 4116.41025614, 4091.15384581, 4097.17948684, 4099.23076889, 4109.48717921, 4103.71794844, 4096.15384581, 4092.69230735, 4090.51282017, 4104.35897408, 4126.28205101,10.0
4096.41025607, 4099.48717914, 4100.76923043, 4128.84615357, 4101.41025607, 4111.15384588, 4110.76923050, 4121.79487152, 4102.94871767, 4108.33333306, 4105.38461511, 4097.17948684, 4114.99999973, 4123.84615357,10.0
4102.17948684, 4109.99999973, 4107.43589716, 4134.10256383, 4111.02564075, 4112.94871767, 4117.56410229, 4131.28205101, 4112.05128178, 4122.56410229, 4115.51282024, 4100.12820478, 4126.92307665, 4125.25640998,10.0
4096.79487145, 4108.84615357, 4102.17948684, 4132.94871767, 4108.07692280, 4111.66666639, 4114.87179460, 4127.94871767, 4114.99999973, 4125.25640998, 4115.51282024, 4097.94871761, 4126.92307665, 4126.28205101,10.0
4100.64102530, 4112.30769203, 4108.07692280, 4139.10256390, 4108.84615357, 4114.74358947, 4111.66666639, 4121.02564075, 4113.33333306, 4122.82051255, 4119.99999973, 4103.58974332, 4126.53846126, 4126.41025614,10.0
4117.17948691, 4127.69230742, 4129.87179460, 4154.87179467, 4122.43589716, 4118.20512793, 4119.87179460, 4128.20512793, 4120.76923050, 4132.69230742, 4132.05128178, 4119.87179460, 4134.10256383, 4126.28205101,10.0
4115.12820485, 4122.43589716, 4128.71794844, 4151.92307672, 4119.99999973, 4109.87179460, 4110.25640998, 4127.69230742, 4119.35897408, 4131.79487152, 4128.20512793, 4117.30769203, 4128.58974332, 4126.15384588,10.0
4090.51282017, 4096.28205094, 4099.74358940, 4127.56410229, 4084.35897402, 4088.97435863, 4076.28205094, 4099.74358940, 4089.35897402, 4102.69230742, 4106.66666639, 4096.53846119, 4108.20512793, 4126.28205101,10.0
4088.20512786, 4094.10256376, 4099.23076889, 4127.17948691, 4073.71794837, 4083.71794837, 4072.30769196, 4088.33333299, 4079.23076889, 4094.23076889, 4107.69230742, 4102.17948684, 4111.53846126, 4125.25640998,10.0
4108.97435870, 4112.82051255, 4125.51282024, 4148.07692287, 4109.10256383, 4096.53846119, 4101.15384581, 4107.17948691, 4101.15384581, 4116.28205101, 4128.07692280, 4120.89743562, 4132.94871767, 4125.12820485,10.0
4106.92307665, 4110.25640998, 4118.97435870, 4143.46153826, 4121.41025614, 4099.10256376, 4106.66666639, 4112.94871767, 4105.25640998, 4116.53846126, 4121.79487152, 4108.71794844, 4125.89743562, 4126.41025614,10.0
4091.41025607, 4094.87179453, 4097.17948684, 4126.15384588, 4099.61538427, 4093.71794837, 4092.94871761, 4104.23076896, 4094.48717914, 4099.99999966, 4099.61538427, 4089.99999966, 4109.23076896, 4126.79487152,10.0
4091.66666632, 4096.41025607, 4097.56410222, 4129.10256383, 4098.33333299, 4100.38461504, 4101.53846119, 4111.02564075, 4102.43589709, 4103.20512793, 4101.28205094, 4093.71794837, 4112.82051255, 4127.17948691,10.0
4096.15384581, 4103.46153819, 4102.56410229, 4137.30769210, 4107.69230742, 4103.33333306, 4111.92307665, 4123.71794844, 4115.76923050, 4115.64102537, 4114.48717921, 4099.61538427, 4118.84615357, 4126.15384588,10.0
4106.53846126, 4113.46153819, 4111.92307665, 4144.74358954, 4104.87179460, 4104.23076896, 4113.84615357, 4134.48717921, 4132.05128178, 4127.82051255, 4124.87179460, 4106.79487152, 4126.28205101, 4127.05128178,10.0
4111.53846126, 4121.41025614, 4120.51282024, 4149.99999980, 4112.17948691, 4112.43589716, 4114.99999973, 4134.99999973, 4138.71794851, 4132.56410229, 4126.79487152, 4110.12820485, 4131.02564075, 4128.33333306,10.0
4090.51282017, 4106.15384588, 4099.35897402, 4136.02564082, 4113.58974332, 4106.92307665, 4097.30769196, 4113.97435870, 4110.51282024, 4109.61538434, 4107.43589716, 4088.58974325, 4111.15384588, 4127.17948691,10.0
4069.23076882, 4087.82051248, 4073.33333299, 4118.97435870, 4095.25640991, 4087.17948684, 4072.17948684, 4091.15384581, 4075.89743555, 4081.66666632, 4083.07692273, 4067.94871754, 4090.12820478, 4127.05128178,10.0
4070.38461504, 4093.58974325, 4078.84615350, 4121.92307665, 4089.35897402, 4083.58974325, 4073.58974325, 4089.74358940, 4068.58974318, 4078.84615350, 4080.38461504, 4073.46153812, 4095.12820478, 4127.30769203,10.0
4081.28205094, 4108.97435870, 4096.02564068, 4131.66666639, 4103.07692280, 4102.69230742, 4095.51282017, 4109.48717921, 4079.48717914, 4089.87179453, 4092.43589709, 4082.43589709, 4103.20512793, 4128.71794844,10.0
4090.89743555, 4113.84615357, 4107.17948691, 4135.51282031, 4114.35897408, 4114.99999973, 4099.35897402, 4123.46153819, 4088.71794837, 4099.74358940, 4103.46153819, 4087.69230735, 4107.69230742, 4128.07692280,10.0
4106.28205101, 4123.33333306, 4123.71794844, 4146.28205108, 4121.92307665, 4120.76923050, 4103.46153819, 4124.61538434, 4098.58974325, 4113.97435870, 4121.41025614, 4106.15384588, 4123.71794844, 4126.53846126,10.0
4125.76923050, 4141.02564082, 4142.43589723, 4163.20512800, 4134.35897408, 4134.87179460, 4129.35897408, 4133.84615357, 4116.41025614, 4132.05128178, 4143.84615364, 4130.64102537, 4141.15384595, 4127.94871767,10.0
4127.69230742, 4141.02564082, 4142.56410236, 4163.33333313, 4133.33333306, 4135.64102544, 4134.48717921, 4142.17948697, 4125.64102537, 4135.76923056, 4144.99999980, 4135.89743569, 4138.71794851, 4126.53846126,10.0
4114.48717921, 4121.41025614, 4127.30769203, 4147.30769210, 4118.07692280, 4121.41025614, 4115.38461511, 4136.41025621, 4115.12820485, 4121.53846126, 4129.74358947, 4119.74358947, 4125.76923050, 4125.64102537,10.0
4104.74358947, 4108.97435870, 4116.92307665, 4134.99999973, 4106.79487152, 4112.05128178, 4107.69230742, 4126.28205101, 4103.46153819, 4106.53846126, 4117.82051255, 4105.12820485, 4118.46153819, 4126.15384588,10.0
4111.41025614, 4127.94871767, 4130.89743562, 4142.69230749, 4121.28205101, 4120.25640998, 4107.94871767, 4115.51282024, 4105.76923050, 4116.92307665, 4128.58974332, 4105.12820485, 4127.56410229, 4126.41025614,10.0
4104.10256383, 4122.56410229, 4125.64102537, 4135.12820485, 4109.61538434, 4114.48717921, 4101.28205094, 4117.69230742, 4103.33333306, 4113.20512793, 4125.25640998, 4106.28205101, 4129.74358947, 4125.76923050,10.0
4113.07692280, 4122.56410229, 4132.69230742, 4141.53846133, 4115.12820485, 4119.61538434, 4113.84615357, 4123.84615357, 4111.53846126, 4118.84615357, 4132.30769203, 4111.66666639, 4133.46153819, 4126.15384588,10.0
4120.38461511, 4129.61538434, 4140.51282031, 4151.15384595, 4122.82051255, 4123.07692280, 4121.66666639, 4120.12820485, 4111.53846126, 4125.25640998, 4136.53846133, 4117.56410229, 4135.76923056, 4129.35897408,10.0
4109.74358947, 4125.76923050, 4131.15384588, 4140.25641005, 4113.71794844, 4115.51282024, 4107.05128178, 4110.12820485, 4097.69230735, 4116.02564075, 4127.56410229, 4110.51282024, 4127.69230742, 4129.23076896,10.0
4094.35897402, 4110.89743562, 4116.02564075, 4126.79487152, 4102.43589709, 4103.84615357, 4091.02564068, 4107.43589716, 4085.89743555, 4102.05128171, 4116.79487152, 4094.99999966, 4117.94871767, 4125.51282024,10.0
4093.97435863, 4111.28205101, 4118.46153819, 4135.51282031, 4106.53846126, 4108.71794844, 4099.10256376, 4115.64102537, 4093.20512786, 4106.28205101, 4120.51282024, 4098.46153812, 4120.76923050, 4126.15384588,10.0
4102.17948684, 4122.82051255, 4128.97435870, 4145.64102544, 4117.69230742, 4122.82051255, 4112.56410229, 4122.43589716, 4106.28205101, 4116.28205101, 4128.20512793, 4114.35897408, 4128.46153819, 4128.20512793,10.0
4107.94871767, 4127.94871767, 4133.58974332, 4145.38461518, 4124.23076896, 4129.87179460, 4118.20512793, 4125.25640998, 4109.74358947, 4117.17948691, 4128.71794844, 4117.30769203, 4131.66666639, 4127.94871767,10.0
4109.61538434, 4127.05128178, 4128.97435870, 4144.48717928, 4128.33333306, 4133.97435870, 4126.41025614, 4128.84615357, 4108.84615357, 4118.58974332, 4127.56410229, 4108.71794844, 4128.97435870, 4127.17948691,10.0
4105.89743562, 4122.43589716, 4119.87179460, 4137.69230749, 4129.74358947, 4135.64102544, 4128.71794844, 4130.76923050, 4113.33333306, 4120.64102537, 4121.92307665, 4100.64102530, 4126.28205101, 4127.69230742,10.0
4110.12820485, 4129.74358947, 4125.89743562, 4138.84615364, 4140.38461518, 4142.30769210, 4134.10256383, 4131.28205101, 4124.48717921, 4129.61538434, 4125.38461511, 4109.87179460, 4134.48717921, 4127.05128178,10.0
4120.51282024, 4135.89743569, 4133.46153819, 4147.94871774, 4144.23076903, 4153.46153826, 4148.20512800, 4134.61538434, 4131.15384588, 4139.10256390, 4136.92307672, 4122.17948691, 4141.02564082, 4124.87179460,10.0
4116.66666639, 4123.71794844, 4122.05128178, 4137.82051262, 4123.84615357, 4145.25641005, 4136.53846133, 4135.89743569, 4127.69230742, 4132.56410229, 4131.41025614, 4111.92307665, 4131.79487152, 4125.38461511,10.0
4107.82051255, 4113.58974332, 4116.66666639, 4123.71794844, 4113.20512793, 4125.64102537, 4109.23076896, 4130.64102537, 4119.61538434, 4123.33333306, 4121.15384588, 4103.07692280, 4127.17948691, 4126.92307665,10.0
4111.02564075, 4113.71794844, 4124.10256383, 4122.56410229, 4125.38461511, 4122.82051255, 4108.07692280, 4122.05128178, 4108.46153819, 4122.69230742, 4125.12820485, 4109.35897408, 4131.79487152, 4126.92307665,10.0
4111.28205101, 4110.76923050, 4119.10256383, 4118.84615357, 4127.43589716, 4124.48717921, 4115.89743562, 4115.76923050, 4102.30769196, 4117.69230742, 4126.66666639, 4106.53846126, 4126.92307665, 4127.69230742,10.0
4102.82051255, 4111.53846126, 4112.17948691, 4118.71794844, 4120.25640998, 4122.94871767, 4115.38461511, 4114.35897408, 4106.02564075, 4112.69230742, 4121.02564075, 4102.69230742, 4119.23076896, 4128.07692280,10.0
4106.02564075, 4117.43589716, 4115.76923050, 4126.02564075, 4124.48717921, 4125.51282024, 4120.89743562, 4119.99999973, 4109.74358947, 4117.05128178, 4121.15384588, 4109.87179460, 4121.53846126, 4127.05128178,10.0
4106.79487152, 4106.92307665, 4107.82051255, 4118.46153819, 4116.41025614, 4118.71794844, 4119.23076896, 4124.87179460, 4103.71794844, 4110.38461511, 4113.71794844, 4102.17948684, 4118.84615357, 4127.56410229,10.0
4108.07692280, 4107.94871767, 4105.51282024, 4118.20512793, 4111.53846126, 4116.66666639, 4118.20512793, 4124.99999973, 4102.69230742, 4107.94871767, 4109.99999973, 4098.20512786, 4115.64102537, 4128.97435870,10.0
4122.17948691, 4128.20512793, 4122.56410229, 4135.76923056, 4131.15384588, 4133.97435870, 4137.05128185, 4129.99999973, 4112.69230742, 4123.97435870, 4122.17948691, 4116.79487152, 4126.53846126, 4127.43589716,10.0
4120.12820485, 4120.38461511, 4119.99999973, 4127.69230742, 4129.87179460, 4132.43589716, 4134.61538434, 4128.20512793, 4113.20512793, 4122.82051255, 4119.99999973, 4112.94871767, 4125.64102537, 4126.53846126,10.0
4112.69230742, 4104.48717921, 4107.82051255, 4113.20512793, 4116.15384588, 4118.58974332, 4120.76923050, 4124.35897408, 4109.48717921, 4111.02564075, 4108.97435870, 4094.61538427, 4115.64102537, 4128.20512793,10.0
4126.28205101, 4114.48717921, 4120.76923050, 4124.87179460, 4125.12820485, 4131.02564075, 4137.30769210, 4139.61538441, 4123.58974332, 4121.92307665, 4113.20512793, 4104.61538434, 4122.56410229, 4127.56410229,10.0
4130.25640998, 4115.38461511, 4128.07692280, 4126.28205101, 4124.99999973, 4131.79487152, 4130.51282024, 4137.56410236, 4127.82051255, 4126.92307665, 4113.71794844, 4113.71794844, 4125.89743562, 4127.94871767,10.0
4114.99999973, 4098.07692273, 4112.82051255, 4109.87179460, 4103.46153819, 4101.28205094, 4085.64102530, 4102.30769196, 4099.23076889, 4107.69230742, 4102.82051255, 4102.82051255, 4112.30769203, 4128.58974332,10.0
4114.74358947, 4097.30769196, 4111.41025614, 4109.23076896, 4100.51282017, 4093.84615350, 4081.66666632, 4093.58974325, 4087.82051248, 4103.71794844, 4109.87179460, 4104.74358947, 4113.46153819, 4126.28205101,10.0
4128.20512793, 4109.74358947, 4125.12820485, 4119.48717921, 4116.66666639, 4113.07692280, 4116.79487152, 4124.48717921, 4115.76923050, 4119.74358947, 4128.07692280, 4122.05128178, 4128.71794844, 4126.53846126,10.0
4129.99999973, 4112.94871767, 4127.43589716, 4121.02564075, 4120.64102537, 4117.82051255, 4123.33333306, 4133.84615357, 4128.07692280, 4124.99999973, 4129.74358947, 4128.46153819, 4131.66666639, 4127.56410229,10.0
4131.53846126, 4116.15384588, 4128.58974332, 4125.25640998, 4122.82051255, 4118.46153819, 4122.69230742, 4123.84615357, 4119.23076896, 4126.15384588, 4132.82051255, 4128.58974332, 4135.89743569, 4125.64102537,10.0
4143.84615364, 4123.84615357, 4141.28205108, 4135.12820485, 4130.12820485, 4125.64102537, 4136.28205108, 4133.84615357, 4127.82051255, 4138.20512800, 4152.30769210, 4136.53846133, 4149.10256390, 4126.79487152,10.0
4143.71794851, 4118.46153819, 4140.12820492, 4130.89743562, 4118.46153819, 4120.89743562, 4136.79487159, 4141.79487159, 4139.61538441, 4144.10256390, 4156.92307672, 4139.48717928, 4149.74358954, 4128.84615357,10.0
4129.10256383, 4107.56410229, 4123.20512793, 4115.51282024, 4105.51282024, 4120.12820485, 4140.76923056, 4135.76923056, 4133.58974332, 4137.82051262, 4133.97435870, 4128.07692280, 4134.61538434, 4126.15384588,10.0
4126.92307665, 4108.71794844, 4121.28205101, 4116.15384588, 4119.10256383, 4122.56410229, 4140.64102544, 4128.20512793, 4122.30769203, 4129.10256383, 4123.20512793, 4117.82051255, 4126.53846126, 4123.46153819,10.0
4137.82051262, 4116.53846126, 4133.07692280, 4128.84615357, 4131.41025614, 4111.92307665, 4122.69230742, 4126.66666639, 4122.17948691, 4128.71794844, 4134.48717921, 4122.56410229, 4133.97435870, 4124.23076896,10.0
4138.71794851, 4116.66666639, 4131.15384588, 4130.38461511, 4120.76923050, 4107.56410229, 4111.53846126, 4123.71794844, 4121.28205101, 4132.82051255, 4138.97435877, 4127.30769203, 4137.82051262, 4125.64102537,10.0
4133.46153819, 4112.82051255, 4122.69230742, 4126.02564075, 4117.43589716, 4115.38461511, 4116.53846126, 4117.05128178, 4111.15384588, 4128.58974332, 4136.66666646, 4123.97435870, 4134.10256383, 4127.17948691,10.0
4136.79487159, 4117.94871767, 4126.66666639, 4129.87179460, 4128.97435870, 4117.17948691, 4120.25640998, 4119.35897408, 4112.43589716, 4130.51282024, 4144.74358954, 4124.99999973, 4135.25640998, 4128.97435870,10.0
4135.51282031, 4121.92307665, 4129.23076896, 4131.41025614, 4126.79487152, 4114.35897408, 4118.46153819, 4129.35897408, 4124.74358947, 4140.25641005, 4149.99999980, 4127.17948691, 4139.48717928, 4127.82051255,10.0
4127.17948691, 4116.92307665, 4120.89743562, 4123.97435870, 4117.17948691, 4114.74358947, 4117.82051255, 4129.74358947, 4124.48717921, 4134.61538434, 4140.89743569, 4119.10256383, 4133.97435870, 4125.89743562,10.0
4114.23076896, 4104.74358947, 4106.15384588, 4111.15384588, 4113.33333306, 4112.30769203, 4112.82051255, 4119.35897408, 4109.48717921, 4116.02564075, 4124.48717921, 4097.43589709, 4119.99999973, 4127.17948691,10.0
4107.94871767, 4108.33333306, 4102.69230742, 4112.30769203, 4119.99999973, 4115.38461511, 4122.56410229, 4121.41025614, 4114.10256383, 4120.25640998, 4120.89743562, 4087.05128171, 4120.76923050, 4126.79487152,10.0
4118.07692280, 4122.69230742, 4112.05128178, 4124.61538434, 4130.64102537, 4126.15384588, 4141.79487159, 4131.66666639, 4131.53846126, 4137.30769210, 4129.87179460, 4096.15384581, 4131.53846126, 4127.43589716,10.0
4118.71794844, 4112.30769203, 4104.23076896, 4116.53846126, 4124.87179460, 4117.56410229, 4131.79487152, 4132.05128178, 4127.82051255, 4126.79487152, 4124.48717921, 4095.51282017, 4126.41025614, 4129.61538434,10.0
4104.87179460, 4097.82051248, 4090.38461504, 4099.35897402, 4109.74358947, 4096.79487145, 4107.69230742, 4126.41025614, 4115.25640998, 4107.30769203, 4109.10256383, 4084.35897402, 4115.38461511, 4126.15384588,10.0
4102.30769196, 4104.61538434, 4095.38461504, 4099.99999966, 4107.43589716, 4095.25640991, 4105.12820485, 4115.38461511, 4107.82051255, 4105.76923050, 4104.87179460, 4083.07692273, 4113.71794844, 4123.84615357,10.0
4108.84615357, 4110.76923050, 4101.92307658, 4106.53846126, 4110.76923050, 4105.89743562, 4115.25640998, 4107.17948691, 4102.17948684, 4110.76923050, 4105.25640998, 4089.48717914, 4112.69230742, 4125.38461511,10.0
4106.41025614, 4101.41025607, 4094.10256376, 4103.20512793, 4108.84615357, 4107.05128178, 4115.12820485, 4114.61538434, 4098.71794837, 4106.66666639, 4098.71794837, 4088.46153812, 4108.07692280, 4125.76923050,10.0
4112.69230742, 4105.76923050, 4100.12820478, 4107.82051255, 4118.71794844, 4101.92307658, 4112.82051255, 4120.89743562, 4104.48717921, 4106.41025614, 4100.12820478, 4093.58974325, 4112.69230742, 4126.79487152,10.0
4128.97435870, 4120.64102537, 4119.35897408, 4119.61538434, 4122.43589716, 4104.10256383, 4110.76923050, 4111.28205101, 4109.23076896, 4115.38461511, 4108.33333306, 4105.76923050, 4118.84615357, 4128.07692280,10.0
4124.99999973, 4116.79487152, 4115.25640998, 4114.23076896, 4107.17948691, 4109.74358947, 4110.38461511, 4109.61538434, 4106.15384588, 4114.35897408, 4103.97435870, 4099.61538427, 4112.69230742, 4128.33333306,10.0
4111.66666639, 4106.53846126, 4107.05128178, 4108.58974332, 4111.15384588, 4111.79487152, 4115.76923050, 4118.97435870, 4109.48717921, 4111.66666639, 4099.74358940, 4093.20512786, 4111.02564075, 4126.41025614,10.0
4114.87179460, 4109.61538434, 4116.53846126, 4116.66666639, 4129.61538434, 4108.07692280, 4112.69230742, 4116.53846126, 4113.71794844, 4119.61538434, 4106.66666639, 4103.33333306, 4114.74358947, 4126.28205101,10.0
4117.43589716, 4111.66666639, 4117.94871767, 4117.56410229, 4123.07692280, 4102.82051255, 4104.10256383, 4110.38461511, 4109.74358947, 4116.53846126, 4103.20512793, 4101.79487145, 4110.25640998, 4128.46153819,10.0
4108.84615357, 4104.35897408, 4108.33333306, 4108.46153819, 4110.64102537, 4102.17948684, 4107.30769203, 4112.56410229, 4104.48717921, 4104.35897408, 4094.48717914, 4088.46153812, 4106.53846126, 4126.41025614,10.0
4112.05128178, 4107.69230742, 4115.12820485, 4109.35897408, 4119.35897408, 4105.64102537, 4122.05128178, 4120.51282024, 4108.33333306, 4111.15384588, 4105.76923050, 4096.53846119, 4116.66666639, 4125.38461511,10.0
4114.61538434, 4111.66666639, 4121.15384588, 4111.15384588, 4121.15384588, 4108.33333306, 4126.41025614, 4124.10256383, 4112.30769203, 4118.71794844, 4114.48717921, 4107.56410229, 4121.41025614, 4126.41025614,10.0
4096.66666632, 4100.89743555, 4105.51282024, 4100.38461504, 4107.43589716, 4103.33333306, 4114.61538434, 4114.61538434, 4102.69230742, 4102.82051255, 4101.41025607, 4091.92307658, 4106.79487152, 4125.51282024,10.0
4083.46153812, 4091.79487145, 4096.53846119, 4092.82051248, 4101.02564068, 4095.51282017, 4100.76923043, 4099.61538427, 4081.41025607, 4085.25640991, 4089.23076889, 4073.20512786, 4093.07692273, 4127.69230742,10.0
4092.43589709, 4098.07692273, 4106.41025614, 4099.99999966, 4107.17948691, 4095.25640991, 4098.33333299, 4103.84615357, 4077.30769196, 4090.89743555, 4096.66666632, 4082.69230735, 4098.46153812, 4129.61538434,10.0
4092.43589709, 4098.07692273, 4106.41025614, 4099.99999966, 4107.17948691, 4095.25640991, 4098.33333299, 4103.84615357, 4077.30769196, 4090.89743555, 4096.66666632, 4082.69230735, 4098.46153812, 4129.61538434,10.0
4110.38461511, 4116.15384588, 4120.64102537, 4113.20512793, 4118.58974332, 4103.58974332, 4112.43589716, 4121.53846126, 4102.30769196, 4115.12820485, 4117.17948691, 4108.33333306, 4116.15384588, 4127.94871767,10.0
4112.82051255, 4123.33333306, 4123.20512793, 4114.61538434, 4125.64102537, 4113.84615357, 4124.74358947, 4121.66666639, 4108.97435870, 4123.07692280, 4124.74358947, 4111.53846126, 4121.15384588, 4126.79487152,10.0
4101.15384581, 4113.20512793, 4114.87179460, 4108.84615357, 4124.87179460, 4115.25640998, 4116.92307665, 4110.64102537, 4089.10256376, 4107.17948691, 4113.46153819, 4095.76923043, 4113.58974332, 4127.05128178,10.0
4099.87179453, 4105.51282024, 4114.61538434, 4108.58974332, 4116.92307665, 4101.92307658, 4094.23076889, 4106.28205101, 4081.41025607, 4101.92307658, 4109.61538434, 4091.41025607, 4109.48717921, 4127.30769203,10.0
4111.28205101, 4117.43589716, 4127.82051255, 4117.69230742, 4119.23076896, 4095.38461504, 4092.30769196, 4108.46153819, 4088.33333299, 4117.69230742, 4126.53846126, 4105.76923050, 4117.17948691, 4127.56410229,10.0
4115.51282024, 4126.28205101, 4134.10256383, 4123.97435870, 4127.43589716, 4105.64102537, 4111.41025614, 4108.46153819, 4087.43589709, 4124.87179460, 4136.15384595, 4115.25640998, 4127.69230742, 4127.56410229,10.0
4106.41025614, 4111.28205101, 4122.56410229, 4115.25640998, 4115.76923050, 4106.66666639, 4109.48717921, 4107.30769203, 4082.56410222, 4114.23076896, 4125.89743562, 4108.33333306, 4124.99999973, 4126.15384588,10.0
4104.10256383, 4106.41025614, 4119.87179460, 4111.53846126, 4105.12820485, 4099.23076889, 4101.15384581, 4112.94871767, 4090.89743555, 4113.58974332, 4122.82051255, 4106.41025614, 4123.71794844, 4125.12820485,10.0
4113.97435870, 4125.25640998, 4132.05128178, 4123.07692280, 4118.58974332, 4105.64102537, 4114.87179460, 4119.74358947, 4103.71794844, 4126.79487152, 4135.51282031, 4116.66666639, 4135.12820485, 4126.92307665,10.0
4113.07692280, 4126.79487152, 4130.51282024, 4124.61538434, 4128.58974332, 4114.87179460, 4128.07692280, 4119.74358947, 4105.38461511, 4127.94871767, 4138.46153826, 4115.12820485, 4134.74358947, 4128.84615357,10.0
4098.84615350, 4105.89743562, 4114.74358947, 4109.87179460, 4120.64102537, 4112.30769203, 4119.74358947, 4114.61538434, 4097.82051248, 4113.07692280, 4120.89743562, 4096.66666632, 4116.41025614, 4127.43589716,10.0
4100.12820478, 4109.10256383, 4114.99999973, 4108.97435870, 4120.76923050, 4106.02564075, 4113.84615357, 4110.89743562, 4095.25640991, 4107.05128178, 4109.99999973, 4095.64102530, 4112.69230742, 4126.53846126,10.0
4110.76923050, 4123.97435870, 4121.66666639, 4117.56410229, 4122.05128178, 4108.46153819, 4124.35897408, 4121.92307665, 4104.23076896, 4119.74358947, 4119.87179460, 4109.23076896, 4123.84615357, 4127.05128178,10.0
4099.99999966, 4110.38461511, 4106.41025614, 4107.82051255, 4105.38461511, 4110.76923050, 4123.84615357, 4131.53846126, 4106.41025614, 4118.20512793, 4117.94871767, 4100.64102530, 4117.30769203, 4127.56410229,10.0
4087.69230735, 4102.17948684, 4097.94871761, 4098.71794837, 4107.30769203, 4107.56410229, 4108.71794844, 4111.41025614, 4094.23076889, 4101.41025607, 4102.17948684, 4086.41025607, 4103.97435870, 4127.17948691,10.0
4098.20512786, 4118.58974332, 4112.69230742, 4106.92307665, 4120.76923050, 4106.79487152, 4103.07692280, 4091.79487145, 4083.33333299, 4101.66666632, 4103.33333306, 4095.76923043, 4109.48717921, 4126.53846126,10.0
4111.15384588, 4124.48717921, 4122.82051255, 4115.64102537, 4111.53846126, 4107.56410229, 4108.20512793, 4104.10256383, 4090.64102530, 4115.89743562, 4122.94871767, 4109.35897408, 4126.02564075, 4128.58974332,10.0
4110.89743562, 4115.64102537, 4120.25640998, 4112.30769203, 4105.89743562, 4103.71794844, 4107.05128178, 4113.84615357, 4096.92307658, 4120.25640998, 4130.12820485, 4108.20512793, 4126.53846126, 4129.87179460,10.0
4110.76923050, 4116.15384588, 4121.15384588, 4110.64102537, 4121.15384588, 4107.43589716, 4113.07692280, 4110.51282024, 4092.82051248, 4113.71794844, 4120.38461511, 4106.28205101, 4118.20512793, 4127.17948691,10.0
4119.23076896, 4123.58974332, 4128.07692280, 4117.05128178, 4127.94871767, 4116.15384588, 4125.64102537, 4119.10256383, 4102.69230742, 4115.89743562, 4118.97435870, 4111.92307665, 4124.74358947, 4125.51282024,10.0
4122.69230742, 4124.74358947, 4129.10256383, 4119.23076896, 4121.28205101, 4111.15384588, 4118.97435870, 4119.99999973, 4110.64102537, 4118.84615357, 4121.53846126, 4114.74358947, 4127.69230742, 4126.66666639,10.0
4115.12820485, 4118.84615357, 4119.99999973, 4112.05128178, 4118.46153819, 4108.58974332, 4116.92307665, 4116.28205101, 4102.30769196, 4111.41025614, 4105.25640998, 4109.35897408, 4114.35897408, 4128.46153819,10.0
4108.97435870, 4111.53846126, 4111.79487152, 4107.69230742, 4114.48717921, 4116.28205101, 4127.30769203, 4129.48717921, 4102.05128171, 4108.71794844, 4088.33333299, 4104.10256383, 4114.99999973, 4126.41025614,10.0
4109.61538434, 4108.07692280, 4111.79487152, 4107.69230742, 4106.79487152, 4110.38461511, 4120.12820485, 4133.33333306, 4109.61538434, 4116.02564075, 4101.53846119, 4103.58974332, 4129.35897408, 4125.76923050,10.0
4106.28205101, 4113.84615357, 4110.38461511, 4105.64102537, 4103.84615357, 4100.25640991, 4108.20512793, 4121.79487152, 4107.17948691, 4121.53846126, 4118.46153819, 4103.97435870, 4127.17948691, 4128.46153819,10.0
4101.41025607, 4118.97435870, 4104.48717921, 4106.15384588, 4112.05128178, 4105.25640998, 4114.48717921, 4120.25640998, 4104.87179460, 4116.53846126, 4116.41025614, 4102.17948684, 4117.94871767, 4128.71794844,10.0
4104.35897408, 4117.94871767, 4103.07692280, 4108.71794844, 4120.64102537, 4108.97435870, 4122.56410229, 4127.94871767, 4114.35897408, 4119.35897408, 4116.15384588, 4099.61538427, 4122.17948691, 4126.41025614,10.0
4102.05128171, 4113.71794844, 4098.97435863, 4103.20512793, 4110.64102537, 4100.25640991, 4112.82051255, 4117.82051255, 4111.02564075, 4123.58974332, 4112.94871767, 4093.33333299, 4122.05128178, 4126.15384588,10.0
4102.05128171, 4113.71794844, 4098.97435863, 4103.20512793, 4110.64102537, 4100.25640991, 4112.82051255, 4117.82051255, 4111.02564075, 4123.58974332, 4112.94871767, 4093.33333299, 4122.05128178, 4126.15384588,10.0
4100.64102530, 4117.05128178, 4097.94871761, 4102.82051255, 4110.25640998, 4104.35897408, 4115.51282024, 4111.15384588, 4103.07692280, 4122.17948691, 4108.46153819, 4094.99999966, 4117.17948691, 4129.61538434,10.0
4117.94871767, 4133.33333306, 4118.33333306, 4120.76923050, 4129.23076896, 4118.07692280, 4135.12820485, 4125.51282024, 4113.58974332, 4133.46153819, 4121.79487152, 4115.51282024, 4127.43589716, 4129.61538434,10.0
4126.02564075, 4137.05128185, 4129.48717921, 4127.30769203, 4129.10256383, 4104.10256383, 4121.15384588, 4123.07692280, 4110.89743562, 4133.07692280, 4126.79487152, 4122.43589716, 4131.92307665, 4125.38461511,10.0
4116.28205101, 4123.71794844, 4116.92307665, 4111.15384588, 4112.43589716, 4088.46153812, 4096.28205094, 4111.92307665, 4094.48717914, 4116.53846126, 4111.53846126, 4111.66666639, 4121.92307665, 4124.10256383,10.0
4125.76923050, 4124.99999973, 4124.48717921, 4111.92307665, 4106.66666639, 4100.76923043, 4111.41025614, 4122.82051255, 4102.94871767, 4124.61538434, 4118.20512793, 4122.43589716, 4127.82051255, 4124.74358947,10.0
4148.33333313, 4142.69230749, 4144.61538441, 4128.33333306, 4114.35897408, 4113.46153819, 4134.87179460, 4138.33333313, 4121.66666639, 4145.12820492, 4137.30769210, 4143.46153826, 4143.97435877, 4126.28205101,10.0
4143.84615364, 4140.89743569, 4132.69230742, 4123.84615357, 4123.71794844, 4114.87179460, 4132.94871767, 4132.82051255, 4111.28205101, 4134.61538434, 4127.05128178, 4134.74358947, 4141.79487159, 4128.20512793,10.0
4121.79487152, 4121.66666639, 4108.46153819, 4105.64102537, 4119.23076896, 4115.25640998, 4124.99999973, 4123.58974332, 4091.28205094, 4111.02564075, 4103.33333306, 4111.41025614, 4124.61538434, 4127.17948691,10.0
4117.56410229, 4118.84615357, 4107.69230742, 4102.94871767, 4110.76923050, 4112.05128178, 4121.66666639, 4127.30769203, 4092.82051248, 4110.76923050, 4102.05128171, 4106.41025614, 4118.58974332, 4127.94871767,10.0
4126.41025614, 4129.10256383, 4114.87179460, 4110.76923050, 4120.64102537, 4114.48717921, 4128.46153819, 4131.92307665, 4104.10256383, 4119.23076896, 4112.30769203, 4114.10256383, 4123.71794844, 4130.12820485,10.0
4126.66666639, 4130.25640998, 4116.53846126, 4112.05128178, 4133.84615357, 4122.56410229, 4135.25640998, 4131.92307665, 4108.97435870, 4118.33333306, 4108.46153819, 4116.79487152, 4123.71794844, 4128.07692280,10.0
4117.56410229, 4123.58974332, 4119.23076896, 4107.56410229, 4126.28205101, 4117.05128178, 4122.43589716, 4127.43589716, 4099.99999966, 4109.35897408, 4101.53846119, 4113.33333306, 4119.35897408, 4126.66666639,10.0
4116.28205101, 4130.51282024, 4125.25640998, 4110.12820485, 4121.15384588, 4113.46153819, 4120.51282024, 4126.53846126, 4094.23076889, 4108.71794844, 4107.17948691, 4113.20512793, 4123.07692280, 4127.05128178,10.0
4120.12820485, 4141.02564082, 4126.41025614, 4114.61538434, 4130.51282024, 4120.38461511, 4132.43589716, 4130.89743562, 4106.41025614, 4120.64102537, 4111.02564075, 4115.38461511, 4129.35897408, 4124.99999973,10.0
4112.05128178, 4130.64102537, 4114.99999973, 4109.35897408, 4126.41025614, 4108.71794844, 4111.28205101, 4121.02564075, 4106.02564075, 4119.61538434, 4103.33333306, 4107.30769203, 4121.15384588, 4123.84615357,10.0
4106.66666639, 4118.97435870, 4112.17948691, 4107.56410229, 4119.10256383, 4097.43589709, 4089.35897402, 4106.28205101, 4090.51282017, 4109.10256383, 4104.35897408, 4098.07692273, 4116.79487152, 4125.64102537,10.0
4109.23076896, 4124.61538434, 4120.12820485, 4112.17948691, 4120.76923050, 4111.79487152, 4108.71794844, 4115.51282024, 4097.17948684, 4117.05128178, 4114.48717921, 4099.74358940, 4127.05128178, 4127.30769203,10.0
4101.41025607, 4127.17948691, 4115.89743562, 4108.33333306, 4107.69230742, 4119.61538434, 4123.97435870, 4128.07692280, 4111.66666639, 4131.92307665, 4115.89743562, 4100.12820478, 4129.99999973, 4126.79487152,10.0
4089.99999966, 4117.43589716, 4105.38461511, 4097.69230735, 4090.51282017, 4111.15384588, 4112.43589716, 4119.35897408, 4099.61538427, 4124.61538434, 4112.17948691, 4093.46153812, 4123.97435870, 4126.02564075,10.0
4098.97435863, 4119.87179460, 4112.05128178, 4100.51282017, 4107.69230742, 4117.30769203, 4117.05128178, 4115.25640998, 4092.43589709, 4117.56410229, 4119.87179460, 4100.25640991, 4130.76923050, 4126.15384588,10.0
4124.74358947, 4137.56410236, 4130.89743562, 4118.84615357, 4139.48717928, 4134.74358947, 4144.61538441, 4133.58974332, 4115.25640998, 4136.28205108, 4140.25641005, 4123.20512793, 4149.35897415, 4125.76923050,10.0
4138.97435877, 4146.92307672, 4139.99999980, 4128.71794844, 4141.28205108, 4137.43589723, 4153.97435877, 4142.56410236, 4133.58974332, 4149.35897415, 4146.41025621, 4135.12820485, 4152.30769210, 4125.12820485,10.0
4129.61538434, 4140.25641005, 4131.92307665, 4124.10256383, 4127.56410229, 4128.84615357, 4140.76923056, 4134.35897408, 4129.74358947, 4136.02564082, 4128.07692280, 4127.69230742, 4139.87179467, 4126.02564075,10.0
4129.61538434, 4140.25641005, 4131.92307665, 4124.10256383, 4127.56410229, 4128.84615357, 4140.76923056, 4134.35897408, 4129.74358947, 4136.02564082, 4128.07692280, 4127.69230742, 4139.87179467, 4126.02564075,10.0
4117.56410229, 4133.46153819, 4123.20512793, 4117.43589716, 4123.84615357, 4124.87179460, 4132.69230742, 4128.97435870, 4117.56410229, 4117.43589716, 4112.17948691, 4119.48717921, 4131.79487152, 4127.17948691,10.0
4131.92307665, 4143.07692287, 4141.92307672, 4125.89743562, 4133.20512793, 4127.30769203, 4138.20512800, 4136.66666646, 4124.61538434, 4127.43589716, 4129.99999973, 4135.76923056, 4143.71794851, 4127.56410229,10.0
4155.89743569, 4157.94871774, 4166.53846133, 4139.35897415, 4147.94871774, 4138.07692287, 4150.51282031, 4146.79487159, 4149.35897415, 4151.53846133, 4155.51282031, 4160.76923056, 4159.48717928, 4127.82051255,10.0
4153.71794851, 4153.46153826, 4158.20512800, 4134.35897408, 4145.51282031, 4142.43589723, 4147.05128185, 4135.64102544, 4144.61538441, 4148.46153826, 4144.23076903, 4151.66666646, 4151.53846133, 4128.97435870,10.0
4134.48717921, 4136.41025621, 4139.10256390, 4119.48717921, 4130.25640998, 4124.74358947, 4119.48717921, 4114.87179460, 4116.41025614, 4130.25640998, 4124.23076896, 4128.07692280, 4137.30769210, 4127.82051255,10.0
4128.33333306, 4134.10256383, 4136.28205108, 4113.71794844, 4126.92307665, 4105.25640998, 4101.15384581, 4110.89743562, 4109.48717921, 4127.56410229, 4129.99999973, 4126.28205101, 4139.61538441, 4126.15384588,10.0
4139.35897415, 4141.15384595, 4139.48717928, 4118.71794844, 4133.33333306, 4114.48717921, 4118.97435870, 4124.10256383, 4121.41025614, 4138.20512800, 4140.64102544, 4131.41025614, 4148.97435877, 4127.56410229,10.0
4140.51282031, 4132.82051255, 4134.99999973, 4114.48717921, 4133.07692280, 4130.25640998, 4137.05128185, 4136.79487159, 4128.84615357, 4145.25641005, 4134.23076896, 4125.51282024, 4146.41025621, 4126.92307665,10.0
4124.23076896, 4113.84615357, 4117.30769203, 4097.17948684, 4117.82051255, 4118.07692280, 4126.92307665, 4134.61538434, 4124.35897408, 4137.30769210, 4116.41025614, 4111.79487152, 4131.28205101, 4126.15384588,10.0
4111.66666639, 4107.69230742, 4098.71794837, 4088.46153812, 4106.41025614, 4107.05128178, 4120.64102537, 4126.53846126, 4111.66666639, 4121.28205101, 4102.30769196, 4096.41025607, 4118.07692280, 4126.53846126,10.0
4118.71794844, 4114.10256383, 4105.51282024, 4096.66666632, 4112.69230742, 4115.89743562, 4128.33333306, 4126.79487152, 4110.64102537, 4117.43589716, 4107.30769203, 4094.48717914, 4119.61538434, 4126.79487152,10.0
4141.66666646, 4126.66666639, 4133.84615357, 4112.56410229, 4118.97435870, 4124.35897408, 4137.43589723, 4142.30769210, 4132.56410229, 4133.07692280, 4128.58974332, 4113.46153819, 4137.56410236, 4127.17948691,10.0
4156.79487159, 4138.97435877, 4150.51282031, 4122.94871767, 4122.69230742, 4132.94871767, 4152.05128185, 4152.05128185, 4146.28205108, 4147.43589723, 4136.79487159, 4129.99999973, 4149.10256390, 4127.05128178,10.0
4144.99999980, 4129.61538434, 4136.92307672, 4113.33333306, 4125.25640998, 4132.69230742, 4149.99999980, 4139.87179467, 4129.23076896, 4139.99999980, 4127.05128178, 4117.94871767, 4135.76923056, 4128.33333306,10.0
4122.05128178, 4106.02564075, 4114.23076896, 4094.35897402, 4116.53846126, 4109.23076896, 4118.97435870, 4117.56410229, 4111.92307665, 4123.84615357, 4113.07692280, 4093.97435863, 4119.99999973, 4130.51282024,10.0
4124.74358947, 4109.48717921, 4118.71794844, 4099.74358940, 4114.74358947, 4102.17948684, 4108.71794844, 4113.84615357, 4119.87179460, 4128.58974332, 4104.87179460, 4099.10256376, 4129.74358947, 4130.64102537,10.0
4138.84615364, 4123.71794844, 4131.02564075, 4115.76923050, 4124.99999973, 4117.43589716, 4119.61538434, 4124.35897408, 4127.94871767, 4144.74358954, 4111.79487152, 4116.02564075, 4142.30769210, 4128.71794844,10.0
4129.48717921, 4112.94871767, 4122.30769203, 4110.64102537, 4119.23076896, 4108.71794844, 4100.64102530, 4118.58974332, 4114.74358947, 4139.10256390, 4122.94871767, 4105.76923050, 4132.17948691, 4124.61538434,10.0
4116.15384588, 4103.33333306, 4111.66666639, 4101.15384581, 4109.74358947, 4098.20512786, 4086.66666632, 4107.94871767, 4101.66666632, 4122.43589716, 4122.30769203, 4091.02564068, 4119.87179460, 4121.41025614,10.0
4117.43589716, 4110.25640998, 4113.07692280, 4103.58974332, 4116.53846126, 4106.41025614, 4107.05128178, 4111.28205101, 4101.02564068, 4119.74358947, 4117.43589716, 4095.38461504, 4119.99999973, 4124.87179460,10.0
4119.23076896, 4109.74358947, 4114.74358947, 4102.17948684, 4116.02564075, 4106.79487152, 4119.23076896, 4117.69230742, 4104.23076896, 4123.97435870, 4118.84615357, 4098.58974325, 4121.28205101, 4130.38461511,10.0
4119.61538434, 4108.46153819, 4117.43589716, 4097.69230735, 4118.33333306, 4111.02564075, 4119.61538434, 4119.74358947, 4108.33333306, 4125.12820485, 4117.56410229, 4096.28205094, 4118.33333306, 4130.12820485,10.0
4124.74358947, 4117.05128178, 4122.94871767, 4103.46153819, 4125.12820485, 4120.76923050, 4124.23076896, 4120.25640998, 4110.76923050, 4122.69230742, 4110.12820485, 4100.64102530, 4114.87179460, 4124.48717921,10.0
4131.15384588, 4118.46153819, 4122.05128178, 4110.12820485, 4108.58974332, 4113.71794844, 4122.56410229, 4121.53846126, 4107.17948691, 4120.25640998, 4107.56410229, 4104.23076896, 4115.25640998, 4124.74358947,10.0
4130.89743562, 4109.99999973, 4117.69230742, 4106.66666639, 4102.30769196, 4107.69230742, 4117.82051255, 4122.05128178, 4102.30769196, 4121.15384588, 4109.48717921, 4103.84615357, 4118.58974332, 4129.35897408,10.0
4123.97435870, 4104.48717921, 4116.02564075, 4101.92307658, 4122.69230742, 4111.92307665, 4119.87179460, 4122.43589716, 4103.20512793, 4119.87179460, 4106.92307665, 4103.46153819, 4118.20512793, 4127.94871767,10.0
4127.17948691, 4112.30769203, 4122.43589716, 4108.46153819, 4127.17948691, 4112.30769203, 4123.71794844, 4125.51282024, 4107.69230742, 4118.46153819, 4109.48717921, 4110.12820485, 4118.07692280, 4126.41025614,10.0
4137.94871774, 4123.58974332, 4132.56410229, 4116.15384588, 4115.64102537, 4113.33333306, 4122.30769203, 4128.33333306, 4112.05128178, 4123.58974332, 4123.97435870, 4120.25640998, 4126.66666639, 4127.43589716,10.0
4134.48717921, 4118.71794844, 4129.87179460, 4107.43589716, 4109.99999973, 4108.71794844, 4109.74358947, 4123.20512793, 4111.92307665, 4126.92307665, 4127.30769203, 4118.20512793, 4130.25640998, 4127.30769203,10.0
4124.35897408, 4107.69230742, 4120.25640998, 4096.79487145, 4105.25640998, 4096.66666632, 4094.99999966, 4112.05128178, 4101.28205094, 4119.61538434, 4117.82051255, 4109.74358947, 4121.79487152, 4126.92307665,10.0
4126.53846126, 4111.79487152, 4122.05128178, 4106.66666639, 4108.97435870, 4098.84615350, 4098.84615350, 4111.02564075, 4096.41025607, 4116.66666639, 4119.99999973, 4112.69230742, 4122.17948691, 4124.23076896,10.0
4134.35897408, 4126.92307665, 4130.64102537, 4118.71794844, 4125.64102537, 4113.20512793, 4113.84615357, 4120.64102537, 4104.35897408, 4122.43589716, 4129.74358947, 4124.61538434, 4132.69230742, 4124.61538434,10.0
