AF3,F7,F3,FC5,T7,P7,O1,O2,P8,T8,FC6,F4,F8,AF4,Label
4124.61538434, 4116.92307665, 4114.10256383, 4111.02564075, 4099.61538427, 4107.05128178, 4108.84615357, 4131.92307665, 4138.07692287, 4135.38461518, 4127.69230742, 4102.30769196, 4124.61538434, 4120.64102537,12.0
4124.61538434, 4116.92307665, 4114.10256383, 4111.02564075, 4099.61538427, 4107.05128178, 4108.84615357, 4131.92307665, 4138.07692287, 4135.38461518, 4127.69230742, 4102.30769196, 4124.61538434, 4120.64102537,12.0
4121.92307665, 4126.79487152, 4117.56410229, 4117.05128178, 4114.35897408, 4114.74358947, 4117.43589716, 4137.43589723, 4140.76923056, 4114.23076896, 4131.28205101, 4101.28205094, 4132.30769203, 4120.38461511,12.0
4121.53846126, 4126.15384588, 4117.17948691, 4116.66666639, 4143.97435877, 4122.82051255, 4118.58974332, 4135.51282031, 4138.84615364, 4115.12820485, 4124.48717921, 4098.58974325, 4126.15384588, 4127.05128178,12.0
4120.89743562, 4119.87179460, 4117.30769203, 4110.89743562, 4135.76923056, 4119.23076896, 4112.30769203, 4134.23076896, 4142.05128185, 4165.76923056, 4111.66666639, 4097.43589709, 4110.25640998, 4123.84615357,12.0
4126.66666639, 4126.92307665, 4121.02564075, 4112.94871767, 4110.51282024, 4114.87179460, 4114.87179460, 4136.41025621, 4142.69230749, 4162.94871774, 4111.66666639, 4104.74358947, 4113.07692280, 4123.07692280,12.0
4139.35897415, 4134.61538434, 4123.46153819, 4118.58974332, 4121.41025614, 4122.56410229, 4128.71794844, 4140.64102544, 4139.10256390, 4103.58974332, 4126.28205101, 4116.92307665, 4133.07692280, 4125.38461511,12.0
4144.87179467, 4132.56410229, 4122.69230742, 4118.84615357, 4152.17948697, 4131.79487152, 4138.33333313, 4145.38461518, 4144.99999980, 4116.92307665, 4136.15384595, 4121.92307665, 4139.35897415, 4125.64102537,12.0
4146.15384595, 4138.71794851, 4130.64102537, 4123.33333306, 4149.99999980, 4133.33333306, 4139.99999980, 4153.20512800, 4158.46153826, 4179.99999986, 4143.71794851, 4129.61538434, 4134.48717921, 4125.64102537,12.0
4150.76923056, 4144.35897415, 4147.82051262, 4131.79487152, 4135.51282031, 4132.94871767, 4142.05128185, 4158.84615364, 4166.15384595, 4181.79487166, 4152.94871774, 4145.76923056, 4138.20512800, 4122.82051255,12.0
4158.46153826, 4142.82051262, 4158.97435877, 4131.79487152, 4146.15384595, 4133.58974332, 4143.71794851, 4153.46153826, 4158.97435877, 4147.30769210, 4157.05128185, 4157.43589723, 4146.66666646, 4126.66666639,12.0
4166.02564082, 4145.89743569, 4158.97435877, 4129.35897408, 4145.12820492, 4134.61538434, 4142.82051262, 4149.10256390, 4153.07692287, 4146.92307672, 4158.97435877, 4162.43589723, 4149.35897415, 4129.48717921,12.0
4158.58974339, 4142.69230749, 4146.79487159, 4126.92307665, 4119.61538434, 4131.15384588, 4136.92307672, 4150.25641005, 4156.92307672, 4153.33333313, 4152.17948697, 4156.41025621, 4142.56410236, 4123.71794844,12.0
4142.69230749, 4130.76923050, 4131.15384588, 4121.53846126, 4122.05128178, 4128.58974332, 4132.17948691, 4147.56410236, 4155.38461518, 4141.92307672, 4137.69230749, 4141.28205108, 4133.97435870, 4123.46153819,12.0
4140.38461518, 4131.02564075, 4126.02564075, 4117.43589716, 4146.53846133, 4129.87179460, 4130.51282024, 4142.56410236, 4150.12820492, 4148.07692287, 4133.46153819, 4136.92307672, 4132.05128178, 4124.61538434,12.0
4144.10256390, 4137.56410236, 4126.92307665, 4117.69230742, 4136.53846133, 4126.79487152, 4128.20512793, 4144.74358954, 4143.97435877, 4137.94871774, 4139.74358954, 4137.05128185, 4137.30769210, 4123.46153819,12.0
4135.51282031, 4128.97435870, 4124.61538434, 4116.41025614, 4121.15384588, 4120.76923050, 4122.94871767, 4143.97435877, 4136.66666646, 4110.51282024, 4139.48717928, 4126.66666639, 4137.30769210, 4122.56410229,12.0
4128.20512793, 4120.25640998, 4118.71794844, 4115.76923050, 4137.56410236, 4117.69230742, 4117.69230742, 4136.28205108, 4138.07692287, 4129.74358947, 4129.99999973, 4118.07692280, 4124.99999973, 4124.35897408,12.0
4128.33333306, 4122.56410229, 4109.99999973, 4113.33333306, 4130.51282024, 4120.64102537, 4117.69230742, 4135.76923056, 4143.20512800, 4163.07692287, 4122.82051255, 4114.23076896, 4116.53846126, 4128.71794844,12.0
4121.15384588, 4120.64102537, 4102.94871767, 4107.43589716, 4101.41025607, 4120.38461511, 4118.71794844, 4136.66666646, 4135.76923056, 4148.33333313, 4123.97435870, 4110.51282024, 4124.48717921, 4124.87179460,12.0
4122.82051255, 4122.56410229, 4106.92307665, 4109.10256383, 4112.82051255, 4119.61538434, 4119.87179460, 4134.23076896, 4130.38461511, 4113.58974332, 4123.84615357, 4113.58974332, 4129.35897408, 4121.92307665,12.0
4131.92307665, 4129.74358947, 4110.38461511, 4112.56410229, 4140.89743569, 4121.28205101, 4117.82051255, 4131.28205101, 4138.07692287, 4113.33333306, 4117.69230742, 4116.66666639, 4120.51282024, 4124.87179460,12.0
4120.25640998, 4121.28205101, 4099.61538427, 4105.38461511, 4131.41025614, 4117.69230742, 4113.07692280, 4128.84615357, 4135.38461518, 4134.48717921, 4114.10256383, 4104.61538434, 4112.43589716, 4124.48717921,12.0
4111.92307665, 4111.79487152, 4093.58974325, 4104.87179460, 4121.92307665, 4114.87179460, 4116.92307665, 4134.74358947, 4129.48717921, 4141.41025621, 4118.84615357, 4098.20512786, 4115.25640998, 4123.71794844,12.0
4118.58974332, 4118.71794844, 4099.87179453, 4110.89743562, 4129.74358947, 4116.15384588, 4120.12820485, 4140.38461518, 4134.10256383, 4129.61538434, 4124.48717921, 4109.23076896, 4121.92307665, 4118.97435870,12.0
4106.53846126, 4115.76923050, 4092.43589709, 4100.76923043, 4099.35897402, 4112.69230742, 4108.46153819, 4126.79487152, 4121.66666639, 4105.51282024, 4111.53846126, 4102.56410229, 4112.43589716, 4117.82051255,12.0
4089.99999966, 4106.15384588, 4077.43589709, 4088.84615350, 4077.82051248, 4104.10256383, 4099.99999966, 4114.74358947, 4101.15384581, 4093.20512786, 4094.74358940, 4086.41025607, 4099.99999966, 4121.92307665,12.0
4101.15384581, 4112.17948691, 4081.41025607, 4093.46153812, 4114.74358947, 4107.17948691, 4108.07692280, 4124.10256383, 4109.10256383, 4109.35897408, 4101.28205094, 4094.10256376, 4106.53846126, 4121.92307665,12.0
4114.74358947, 4117.05128178, 4091.66666632, 4101.28205094, 4139.23076903, 4116.92307665, 4112.82051255, 4132.94871767, 4127.43589716, 4133.58974332, 4111.41025614, 4105.38461511, 4113.97435870, 4124.61538434,12.0
4109.87179460, 4112.94871767, 4094.87179453, 4104.35897408, 4123.84615357, 4114.10256383, 4108.20512793, 4131.02564075, 4126.79487152, 4134.99999973, 4110.64102537, 4106.79487152, 4111.79487152, 4125.38461511,12.0
4110.64102537, 4114.23076896, 4100.76923043, 4107.43589716, 4117.56410229, 4107.69230742, 4104.74358947, 4132.05128178, 4122.94871767, 4119.48717921, 4116.53846126, 4113.20512793, 4114.74358947, 4123.84615357,12.0
4119.87179460, 4123.33333306, 4113.46153819, 4110.64102537, 4118.84615357, 4107.05128178, 4106.28205101, 4137.94871774, 4125.12820485, 4111.92307665, 4126.92307665, 4119.99999973, 4125.25640998, 4126.41025614,12.0
4120.64102537, 4128.07692280, 4120.25640998, 4109.74358947, 4111.15384588, 4108.20512793, 4110.64102537, 4137.30769210, 4125.12820485, 4110.64102537, 4125.38461511, 4121.79487152, 4127.17948691, 4127.94871767,12.0
4118.58974332, 4122.56410229, 4114.35897408, 4105.64102537, 4115.64102537, 4109.61538434, 4113.71794844, 4130.76923050, 4121.02564075, 4120.89743562, 4118.46153819, 4123.07692280, 4119.35897408, 4127.43589716,12.0
4114.87179460, 4111.92307665, 4105.51282024, 4100.38461504, 4119.48717921, 4108.58974332, 4112.82051255, 4124.74358947, 4118.71794844, 4138.20512800, 4117.30769203, 4118.33333306, 4112.69230742, 4122.82051255,12.0
4113.71794844, 4117.43589716, 4107.94871767, 4101.28205094, 4116.02564075, 4104.99999973, 4110.89743562, 4123.33333306, 4121.53846126, 4144.10256390, 4117.69230742, 4114.74358947, 4114.23076896, 4121.92307665,12.0
4114.10256383, 4127.56410229, 4113.97435870, 4107.82051255, 4117.69230742, 4105.51282024, 4107.56410229, 4121.79487152, 4113.58974332, 4122.94871767, 4116.02564075, 4116.53846126, 4119.35897408, 4126.15384588,12.0
4100.76923043, 4112.69230742, 4105.64102537, 4104.23076896, 4107.43589716, 4108.46153819, 4100.89743555, 4117.05128178, 4096.53846119, 4084.87179453, 4114.35897408, 4112.82051255, 4117.05128178, 4122.05128178,12.0
4089.87179453, 4100.38461504, 4098.71794837, 4099.48717914, 4098.20512786, 4108.58974332, 4100.64102530, 4120.76923050, 4097.94871761, 4087.30769196, 4113.71794844, 4111.53846126, 4111.92307665, 4121.66666639,12.0
4088.71794837, 4110.76923050, 4099.23076889, 4102.43589709, 4117.43589716, 4107.94871767, 4100.38461504, 4125.38461511, 4112.30769203, 4133.33333306, 4112.17948691, 4112.43589716, 4107.82051255, 4126.53846126,12.0
4083.97435863, 4112.94871767, 4093.07692273, 4104.10256383, 4131.15384588, 4103.33333306, 4088.84615350, 4121.79487152, 4113.46153819, 4135.51282031, 4109.61538434, 4101.79487145, 4104.23076896, 4122.82051255,12.0
4080.38461504, 4108.33333306, 4085.64102530, 4101.28205094, 4111.28205101, 4094.99999966, 4082.69230735, 4119.87179460, 4109.10256383, 4095.38461504, 4107.17948691, 4089.35897402, 4102.94871767, 4122.17948691,12.0
4081.53846119, 4116.15384588, 4084.87179453, 4099.87179453, 4100.51282017, 4090.25640991, 4088.58974325, 4119.48717921, 4111.79487152, 4094.35897402, 4104.74358947, 4089.99999966, 4104.48717921, 4123.71794844,12.0
4080.12820478, 4117.30769203, 4082.94871761, 4100.64102530, 4110.12820485, 4087.94871761, 4086.79487145, 4114.48717921, 4109.23076896, 4120.64102537, 4104.23076896, 4090.64102530, 4100.25640991, 4122.43589716,12.0
4079.10256376, 4106.92307665, 4073.20512786, 4097.30769196, 4104.74358947, 4082.56410222, 4077.82051248, 4109.10256383, 4098.97435863, 4115.89743562, 4105.89743562, 4083.46153812, 4093.33333299, 4122.43589716,12.0
4079.35897402, 4103.07692280, 4062.43589702, 4093.20512786, 4085.89743555, 4078.58974325, 4076.41025607, 4105.38461511, 4088.20512786, 4082.56410222, 4104.48717921, 4078.33333299, 4095.51282017, 4123.20512793,12.0
4078.33333299, 4104.10256383, 4062.56410215, 4090.25640991, 4088.46153812, 4083.07692273, 4082.05128171, 4107.94871767, 4087.69230735, 4077.94871761, 4097.43589709, 4078.20512786, 4099.10256376, 4125.51282024,12.0
4079.87179453, 4101.92307658, 4070.12820478, 4089.48717914, 4102.82051255, 4091.66666632, 4089.74358940, 4115.89743562, 4099.48717914, 4115.51282024, 4090.38461504, 4081.28205094, 4094.74358940, 4123.33333306,12.0
4081.02564068, 4100.51282017, 4072.69230735, 4092.56410222, 4090.12820478, 4092.43589709, 4092.43589709, 4115.76923050, 4100.76923043, 4122.17948691, 4084.99999966, 4082.43589709, 4092.69230735, 4122.05128178,12.0
4083.20512786, 4107.69230742, 4070.51282017, 4093.07692273, 4082.82051248, 4090.64102530, 4092.17948684, 4113.20512793, 4095.64102530, 4084.99999966, 4079.99999966, 4082.30769196, 4101.15384581, 4123.58974332,12.0
4093.46153812, 4114.35897408, 4076.66666632, 4094.35897402, 4113.71794844, 4100.89743555, 4101.28205094, 4120.12820485, 4102.69230742, 4079.87179453, 4087.30769196, 4092.56410222, 4109.74358947, 4122.17948691,12.0
4092.82051248, 4107.82051255, 4078.46153812, 4093.71794837, 4123.07692280, 4106.92307665, 4104.74358947, 4118.84615357, 4101.41025607, 4101.02564068, 4095.51282017, 4097.43589709, 4103.97435870, 4122.56410229,12.0
4074.48717914, 4091.79487145, 4069.35897395, 4081.02564068, 4086.41025607, 4092.69230735, 4092.82051248, 4109.10256383, 4088.58974325, 4090.89743555, 4093.84615350, 4087.30769196, 4098.20512786, 4122.05128178,12.0
4076.28205094, 4090.89743555, 4076.28205094, 4070.51282017, 4076.66666632, 4086.79487145, 4092.30769196, 4114.48717921, 4095.38461504, 4084.10256376, 4104.87179460, 4093.33333299, 4109.10256383, 4125.25640998,12.0
4094.74358940, 4097.43589709, 4090.89743555, 4068.33333292, 4099.99999966, 4094.87179453, 4100.38461504, 4124.10256383, 4111.02564075, 4107.94871767, 4128.33333306, 4115.12820485, 4118.46153819, 4127.94871767,12.0
4092.69230735, 4091.28205094, 4087.17948684, 4062.69230728, 4104.35897408, 4096.15384581, 4097.56410222, 4125.64102537, 4117.82051255, 4139.35897415, 4138.58974339, 4123.46153819, 4116.28205101, 4123.84615357,12.0
4089.87179453, 4095.25640991, 4083.71794837, 4062.17948677, 4098.20512786, 4098.07692273, 4101.53846119, 4131.53846126, 4122.05128178, 4138.84615364, 4140.64102544, 4126.41025614, 4122.17948691, 4125.38461511,12.0
4095.25640991, 4105.51282024, 4088.20512786, 4064.87179446, 4101.28205094, 4099.99999966, 4107.30769203, 4129.74358947, 4115.51282024, 4105.12820485, 4143.71794851, 4127.82051255, 4129.74358947, 4125.89743562,12.0
4090.25640991, 4095.51282017, 4083.71794837, 4061.28205087, 4107.30769203, 4099.61538427, 4103.97435870, 4124.10256383, 4111.28205101, 4111.66666639, 4143.71794851, 4118.58974332, 4125.89743562, 4122.56410229,12.0
4091.92307658, 4091.02564068, 4086.79487145, 4065.25640984, 4112.94871767, 4109.35897408, 4108.58974332, 4136.53846133, 4127.17948691, 4159.35897415, 4150.51282031, 4117.17948691, 4131.15384588, 4124.35897408,12.0
4103.46153819, 4110.64102537, 4107.05128178, 4082.43589709, 4124.23076896, 4116.41025614, 4113.46153819, 4141.15384595, 4138.33333313, 4174.23076910, 4162.82051262, 4132.69230742, 4145.12820492, 4126.92307665,12.0
4106.15384588, 4123.20512793, 4113.07692280, 4092.56410222, 4124.35897408, 4112.82051255, 4110.12820485, 4129.23076896, 4131.53846126, 4147.30769210, 4164.23076903, 4138.07692287, 4147.69230749, 4128.33333306,12.0
4106.53846126, 4123.46153819, 4112.56410229, 4094.10256376, 4113.58974332, 4121.02564075, 4122.43589716, 4141.41025621, 4138.07692287, 4134.61538434, 4169.48717935, 4138.71794851, 4152.17948697, 4124.87179460,12.0
4120.51282024, 4138.33333313, 4129.48717921, 4105.38461511, 4127.43589716, 4140.51282031, 4147.17948697, 4164.10256390, 4161.02564082, 4156.66666646, 4187.94871781, 4153.58974339, 4164.23076903, 4123.71794844,12.0
4140.38461518, 4157.94871774, 4143.07692287, 4122.17948691, 4166.28205108, 4151.28205108, 4161.28205108, 4169.99999986, 4175.38461525, 4191.79487166, 4201.66666660, 4167.43589723, 4171.02564089, 4128.20512793,12.0
4148.33333313, 4159.74358954, 4142.17948697, 4126.79487152, 4182.94871781, 4156.28205108, 4168.84615371, 4178.58974345, 4185.38461525, 4209.74358968, 4205.38461532, 4166.53846133, 4175.64102551, 4123.07692280,12.0
4152.17948697, 4157.69230749, 4142.43589723, 4124.87179460, 4167.69230749, 4163.07692287, 4181.28205115, 4190.38461525, 4192.82051269, 4199.99999986, 4208.46153840, 4162.30769210, 4182.05128192, 4120.12820485,12.0
4155.51282031, 4159.10256390, 4144.99999980, 4123.97435870, 4163.20512800, 4163.07692287, 4185.51282038, 4187.30769217, 4189.10256397, 4189.61538448, 4208.20512814, 4161.66666646, 4181.92307679, 4125.76923050,12.0
4155.25641005, 4152.94871774, 4147.43589723, 4121.02564075, 4168.97435884, 4162.56410236, 4176.79487166, 4181.15384602, 4182.17948704, 4186.02564089, 4202.82051275, 4164.23076903, 4171.66666653, 4124.10256383,12.0
4163.33333313, 4151.53846133, 4155.38461518, 4120.12820485, 4152.69230749, 4166.15384595, 4172.56410243, 4181.53846140, 4180.51282038, 4174.48717935, 4204.23076917, 4170.12820499, 4169.74358961, 4121.66666639,12.0
4166.79487159, 4156.28205108, 4157.82051262, 4120.12820485, 4138.71794851, 4158.71794851, 4171.41025628, 4175.64102551, 4179.48717935, 4161.02564082, 4208.07692301, 4172.30769217, 4176.15384602, 4122.82051255,12.0
4151.92307672, 4145.64102544, 4146.41025621, 4111.28205101, 4152.30769210, 4144.10256390, 4157.82051262, 4166.79487159, 4170.76923063, 4166.53846133, 4196.28205115, 4162.30769210, 4165.76923056, 4123.97435870,12.0
4142.56410236, 4130.89743562, 4142.05128185, 4103.97435870, 4163.58974339, 4141.15384595, 4141.02564082, 4162.69230749, 4165.76923056, 4194.35897422, 4183.20512807, 4157.30769210, 4151.53846133, 4124.48717921,12.0
4153.07692287, 4132.94871767, 4154.23076903, 4109.74358947, 4159.23076903, 4143.71794851, 4138.84615364, 4157.17948697, 4167.17948697, 4211.02564096, 4191.79487166, 4168.20512807, 4159.87179467, 4122.94871767,12.0
4163.33333313, 4138.07692287, 4163.46153826, 4113.07692280, 4158.84615364, 4142.05128185, 4147.56410236, 4154.99999980, 4164.87179467, 4193.84615371, 4197.30769217, 4176.66666653, 4170.12820499, 4125.38461511,12.0
4159.99999980, 4132.69230742, 4157.05128185, 4103.84615357, 4153.07692287, 4136.28205108, 4144.35897415, 4155.51282031, 4158.84615364, 4168.84615371, 4182.82051269, 4169.61538448, 4160.38461518, 4125.76923050,12.0
4150.25641005, 4126.02564075, 4143.20512800, 4095.12820478, 4130.12820485, 4127.56410229, 4136.02564082, 4152.69230749, 4150.38461518, 4159.23076903, 4172.05128192, 4153.71794851, 4149.99999980, 4121.79487152,12.0
4146.28205108, 4129.61538434, 4136.66666646, 4098.33333299, 4127.05128178, 4129.10256383, 4145.89743569, 4152.30769210, 4146.02564082, 4155.89743569, 4172.69230756, 4145.12820492, 4149.35897415, 4123.33333306,12.0
4152.05128185, 4138.71794851, 4142.56410236, 4108.07692280, 4149.48717928, 4139.99999980, 4158.84615364, 4158.20512800, 4150.64102544, 4162.05128185, 4173.58974345, 4150.25641005, 4150.38461518, 4126.28205101,12.0
4156.28205108, 4138.84615364, 4144.99999980, 4107.69230742, 4152.43589723, 4136.53846133, 4153.07692287, 4159.48717928, 4151.15384595, 4176.79487166, 4165.51282031, 4151.02564082, 4146.28205108, 4126.15384588,12.0
4151.02564082, 4131.41025614, 4138.07692287, 4099.99999966, 4146.79487159, 4124.74358947, 4141.28205108, 4153.07692287, 4141.92307672, 4166.15384595, 4156.15384595, 4141.02564082, 4142.05128185, 4121.15384588,12.0
4150.64102544, 4132.94871767, 4137.56410236, 4102.17948684, 4145.38461518, 4124.23076896, 4139.99999980, 4151.79487159, 4140.76923056, 4147.17948697, 4157.69230749, 4141.02564082, 4143.84615364, 4122.82051255,12.0
4150.76923056, 4133.58974332, 4137.05128185, 4103.58974332, 4124.23076896, 4126.66666639, 4137.56410236, 4151.66666646, 4145.64102544, 4161.28205108, 4158.58974339, 4144.99999980, 4141.53846133, 4128.97435870,12.0
4138.46153826, 4121.92307665, 4131.02564075, 4092.69230735, 4117.94871767, 4122.43589716, 4129.99999973, 4145.64102544, 4138.46153826, 4164.61538441, 4153.58974339, 4135.64102544, 4137.43589723, 4123.97435870,12.0
4126.79487152, 4112.94871767, 4123.71794844, 4082.94871761, 4134.35897408, 4116.92307665, 4124.10256383, 4139.99999980, 4127.69230742, 4142.69230749, 4145.64102544, 4120.25640998, 4134.35897408, 4123.20512793,12.0
4115.51282024, 4107.17948691, 4109.99999973, 4076.02564068, 4124.23076896, 4107.17948691, 4114.74358947, 4131.15384588, 4119.23076896, 4139.23076903, 4132.69230742, 4106.02564075, 4125.38461511, 4125.25640998,12.0
4108.71794844, 4102.82051255, 4100.38461504, 4073.46153812, 4111.79487152, 4103.84615357, 4109.61538434, 4125.51282024, 4115.38461511, 4141.41025621, 4124.61538434, 4095.64102530, 4119.35897408, 4122.43589716,12.0
4113.33333306, 4107.94871767, 4107.94871767, 4080.25640991, 4133.84615357, 4116.15384588, 4121.79487152, 4134.74358947, 4125.25640998, 4143.46153826, 4129.10256383, 4097.17948684, 4122.17948691, 4126.53846126,12.0
4108.07692280, 4106.41025614, 4106.02564075, 4077.05128171, 4130.38461511, 4114.87179460, 4127.69230742, 4138.71794851, 4129.61538434, 4145.25641005, 4129.35897408, 4099.48717914, 4121.28205101, 4124.10256383,12.0
4096.53846119, 4098.33333299, 4088.97435863, 4061.92307651, 4097.82051248, 4099.74358940, 4115.51282024, 4125.64102537, 4113.84615357, 4115.64102537, 4119.61538434, 4087.17948684, 4115.89743562, 4119.99999973,12.0
4098.97435863, 4099.99999966, 4087.17948684, 4061.66666625, 4098.33333299, 4102.69230742, 4115.38461511, 4124.23076896, 4107.82051255, 4098.71794837, 4114.99999973, 4081.41025607, 4116.15384588, 4124.23076896,12.0
4111.92307665, 4109.23076896, 4104.10256383, 4075.25640991, 4112.30769203, 4114.87179460, 4130.51282024, 4139.48717928, 4125.51282024, 4143.20512800, 4119.61538434, 4101.66666632, 4115.12820485, 4122.56410229,12.0
4121.53846126, 4112.43589716, 4117.69230742, 4076.41025607, 4114.99999973, 4113.33333306, 4131.53846126, 4143.84615364, 4134.74358947, 4162.30769210, 4126.15384588, 4119.74358947, 4120.76923050, 4123.46153819,12.0
4117.94871767, 4105.12820485, 4112.82051255, 4066.28205087, 4098.84615350, 4103.84615357, 4118.46153819, 4132.82051255, 4125.12820485, 4120.64102537, 4122.82051255, 4111.41025614, 4125.38461511, 4127.56410229,12.0
4114.87179460, 4105.64102537, 4112.82051255, 4069.48717907, 4090.51282017, 4110.64102537, 4122.17948691, 4131.92307665, 4123.07692280, 4108.97435870, 4121.28205101, 4107.94871767, 4120.51282024, 4125.89743562,12.0
4123.71794844, 4115.38461511, 4131.79487152, 4078.58974325, 4121.66666639, 4124.10256383, 4134.48717921, 4144.61538441, 4131.92307665, 4137.43589723, 4136.15384595, 4131.15384588, 4127.56410229, 4125.38461511,12.0
4129.10256383, 4117.94871767, 4139.48717928, 4079.35897402, 4143.58974339, 4114.48717921, 4119.74358947, 4137.56410236, 4129.61538434, 4152.94871774, 4140.76923056, 4138.71794851, 4134.48717921, 4124.48717921,12.0
4127.17948691, 4117.05128178, 4130.38461511, 4078.71794837, 4121.92307665, 4099.23076889, 4096.92307658, 4120.12820485, 4120.64102537, 4144.61538441, 4128.97435870, 4121.66666639, 4125.25640998, 4124.74358947,12.0
4121.79487152, 4110.51282024, 4122.69230742, 4073.07692273, 4096.92307658, 4098.33333299, 4094.61538427, 4121.02564075, 4119.87179460, 4139.23076903, 4124.87179460, 4112.82051255, 4121.15384588, 4124.99999973,12.0
4112.30769203, 4099.35897402, 4117.43589716, 4064.99999959, 4101.02564068, 4097.30769196, 4096.66666632, 4123.58974332, 4120.25640998, 4136.41025621, 4122.05128178, 4109.35897408, 4121.53846126, 4123.84615357,12.0
4103.58974332, 4094.74358940, 4105.38461511, 4060.76923036, 4099.99999966, 4090.12820478, 4088.20512786, 4113.84615357, 4106.15384588, 4102.17948684, 4109.99999973, 4096.41025607, 4114.35897408, 4126.15384588,12.0
4099.23076889, 4095.89743555, 4095.51282017, 4058.71794830, 4088.33333299, 4087.43589709, 4083.84615350, 4107.17948691, 4092.56410222, 4078.07692273, 4106.02564075, 4088.20512786, 4108.71794844, 4126.53846126,12.0
4092.30769196, 4089.23076889, 4088.58974325, 4053.20512779, 4090.25640991, 4084.23076889, 4082.56410222, 4108.07692280, 4093.58974325, 4100.76923043, 4099.10256376, 4080.64102530, 4099.61538427, 4126.28205101,12.0
4085.25640991, 4085.25640991, 4082.43589709, 4044.87179446, 4088.84615350, 4076.92307658, 4077.94871761, 4105.89743562, 4093.84615350, 4123.84615357, 4083.84615350, 4068.20512779, 4087.69230735, 4122.43589716,12.0
4085.51282017, 4091.92307658, 4080.76923043, 4046.28205087, 4077.94871761, 4078.20512786, 4081.28205094, 4105.64102537, 4093.33333299, 4109.35897408, 4083.58974325, 4069.10256369, 4088.58974325, 4121.53846126,12.0
4085.64102530, 4090.76923043, 4078.46153812, 4048.71794830, 4077.69230735, 4085.51282017, 4087.82051248, 4109.23076896, 4096.41025607, 4090.64102530, 4092.43589709, 4075.51282017, 4092.82051248, 4127.30769203,12.0
4080.64102530, 4082.56410222, 4075.25640991, 4045.12820472, 4095.51282017, 4085.64102530, 4083.58974325, 4107.56410229, 4093.20512786, 4090.12820478, 4088.20512786, 4069.35897395, 4089.87179453, 4123.20512793,12.0
4076.02564068, 4081.15384581, 4068.46153805, 4041.53846113, 4093.46153812, 4081.02564068, 4072.69230735, 4098.20512786, 4078.71794837, 4090.89743555, 4074.87179453, 4055.64102523, 4086.28205094, 4121.79487152,12.0
4067.05128164, 4079.74358940, 4060.38461497, 4040.38461497, 4068.46153805, 4078.07692273, 4068.20512779, 4092.05128171, 4073.33333299, 4087.30769196, 4073.33333299, 4051.53846113, 4084.48717914, 4128.07692280,12.0
4054.61538420, 4072.94871761, 4060.38461497, 4039.10256369, 4058.20512779, 4071.92307658, 4065.89743548, 4092.05128171, 4075.51282017, 4074.23076889, 4080.38461504, 4052.94871754, 4082.69230735, 4124.48717921,12.0
4054.23076882, 4073.58974325, 4065.76923036, 4036.79487131, 4065.38461497, 4066.15384574, 4062.05128164, 4090.51282017, 4065.76923036, 4067.69230728, 4075.51282017, 4053.46153805, 4080.64102530, 4123.07692280,12.0
4063.58974318, 4082.17948684, 4073.97435863, 4043.20512779, 4074.48717914, 4071.92307658, 4066.66666625, 4089.74358940, 4065.89743548, 4087.05128171, 4070.25640991, 4060.51282010, 4083.84615350, 4125.51282024,12.0
4063.20512779, 4083.46153812, 4077.17948684, 4049.61538420, 4078.58974325, 4073.84615350, 4068.20512779, 4090.89743555, 4075.25640991, 4105.25640998, 4071.79487145, 4065.51282010, 4085.64102530, 4126.41025614,12.0
4053.20512779, 4074.35897402, 4071.66666632, 4041.41025600, 4066.02564061, 4059.48717907, 4057.94871754, 4088.07692273, 4066.53846113, 4088.58974325, 4066.53846113, 4061.79487138, 4079.61538427, 4126.02564075,12.0
4056.28205087, 4073.71794837, 4070.64102530, 4039.35897395, 4054.61538420, 4059.10256369, 4056.79487138, 4089.23076889, 4056.92307651, 4059.61538420, 4061.79487138, 4065.25640984, 4078.33333299, 4122.82051255,12.0
4069.35897395, 4083.84615350, 4071.15384581, 4045.64102523, 4060.12820472, 4075.12820478, 4066.53846113, 4095.25640991, 4061.02564061, 4057.94871754, 4064.48717907, 4071.02564068, 4079.61538427, 4123.97435870,12.0
4061.66666625, 4079.10256376, 4058.33333292, 4038.97435856, 4070.64102530, 4066.15384574, 4058.58974318, 4087.30769196, 4058.71794830, 4063.46153805, 4057.05128164, 4059.23076882, 4070.38461504, 4122.94871767,12.0
4044.87179446, 4069.10256369, 4046.41025600, 4031.53846106, 4065.12820472, 4045.89743548, 4040.76923036, 4070.76923043, 4048.33333292, 4061.92307651, 4042.05128164, 4043.20512779, 4061.28205087, 4121.41025614,12.0
4041.15384574, 4070.25640991, 4046.53846113, 4033.20512772, 4049.74358933, 4048.33333292, 4040.64102523, 4069.99999966, 4046.41025600, 4067.94871754, 4041.66666625, 4041.79487138, 4064.10256369, 4124.61538434,12.0
4036.41025593, 4064.61538420, 4047.56410215, 4032.30769183, 4046.53846113, 4057.43589702, 4046.28205087, 4074.10256376, 4046.15384574, 4058.46153805, 4044.10256369, 4041.15384574, 4065.64102523, 4122.17948691,12.0
4032.56410208, 4063.07692266, 4046.28205087, 4032.69230721, 4050.51282010, 4058.58974318, 4046.92307651, 4072.82051248, 4043.71794830, 4030.76923029, 4037.05128164, 4033.33333285, 4061.92307651, 4122.30769203,12.0
4031.28205080, 4068.71794830, 4043.84615343, 4032.43589695, 4054.74358933, 4055.89743548, 4045.12820472, 4070.89743555, 4046.92307651, 4039.35897395, 4033.07692259, 4030.25640977, 4058.71794830, 4122.82051255,12.0
4021.15384567, 4057.17948677, 4036.28205080, 4023.71794824, 4038.20512779, 4049.61538420, 4038.33333292, 4066.28205087, 4045.25640984, 4057.82051241, 4025.12820465, 4026.02564054, 4053.46153805, 4120.51282024,12.0
4016.79487131, 4051.41025600, 4034.35897388, 4023.07692259, 4031.66666618, 4051.66666625, 4040.38461497, 4069.61538420, 4043.46153805, 4050.25640984, 4019.23076875, 4024.61538413, 4058.84615343, 4123.97435870,12.0
4030.25640977, 4070.51282017, 4049.61538420, 4037.43589702, 4067.30769189, 4059.48717907, 4051.53846113, 4077.17948684, 4050.76923036, 4051.92307651, 4031.28205080, 4037.05128164, 4067.05128164, 4125.64102537,12.0
4035.76923029, 4072.30769196, 4054.74358933, 4038.97435856, 4074.35897402, 4056.15384574, 4050.51282010, 4071.79487145, 4046.66666625, 4044.23076882, 4037.94871754, 4038.33333292, 4060.12820472, 4124.74358947,12.0
4029.23076875, 4055.25640984, 4043.71794830, 4027.69230721, 4043.46153805, 4051.41025600, 4043.97435856, 4065.51282010, 4039.99999959, 4033.20512772, 4031.53846106, 4026.28205080, 4053.71794830, 4123.07692280,12.0
4034.74358926, 4061.79487138, 4046.28205087, 4030.89743541, 4042.82051241, 4056.02564061, 4048.07692266, 4070.38461504, 4049.23076882, 4055.12820472, 4033.58974311, 4027.17948670, 4057.82051241, 4122.17948691,12.0
4035.25640977, 4070.51282017, 4051.66666625, 4037.43589702, 4065.25640984, 4056.02564061, 4047.56410215, 4069.99999966, 4049.99999959, 4066.41025600, 4033.07692259, 4030.76923029, 4054.48717907, 4122.43589716,12.0
4023.84615336, 4059.74358933, 4048.71794830, 4032.82051234, 4054.99999959, 4051.02564061, 4036.02564054, 4059.99999959, 4035.25640977, 4039.74358933, 4022.17948670, 4024.87179439, 4048.71794830, 4119.23076896,12.0
4028.71794824, 4058.84615343, 4051.02564061, 4030.25640977, 4035.51282003, 4051.28205087, 4033.97435849, 4058.84615343, 4032.05128157, 4021.41025593, 4020.25640977, 4024.48717900, 4050.89743548, 4123.71794844,12.0
4037.56410215, 4064.23076882, 4052.05128164, 4028.71794824, 4041.28205087, 4047.05128164, 4033.07692259, 4061.53846113, 4035.64102516, 4029.74358926, 4021.02564054, 4026.15384567, 4048.84615343, 4127.43589716,12.0
4033.46153798, 4061.41025600, 4048.33333292, 4026.02564054, 4049.74358933, 4037.56410215, 4021.28205080, 4053.97435856, 4029.35897388, 4027.30769183, 4013.07692259, 4020.76923029, 4043.07692266, 4121.53846126,12.0
4033.33333285, 4064.35897395, 4051.02564061, 4030.76923029, 4043.84615343, 4037.05128164, 4018.46153798, 4049.35897395, 4027.56410208, 4022.56410208, 4011.79487131, 4020.64102516, 4042.05128164, 4123.46153819,12.0
4045.51282010, 4073.71794837, 4062.69230728, 4041.41025600, 4034.61538413, 4044.23076882, 4029.48717900, 4057.43589702, 4038.20512779, 4038.58974318, 4026.66666618, 4033.97435849, 4052.94871754, 4127.05128178,12.0
4062.30769189, 4079.23076889, 4081.53846119, 4053.07692266, 4057.30769189, 4053.33333292, 4042.17948677, 4068.20512779, 4049.74358933, 4062.05128164, 4047.17948677, 4052.30769189, 4070.76923043, 4125.12820485,12.0
4062.82051241, 4079.61538427, 4092.17948684, 4054.35897395, 4073.20512786, 4058.33333292, 4050.51282010, 4072.17948684, 4056.41025600, 4068.07692266, 4051.66666625, 4057.69230728, 4070.64102530, 4122.94871767,12.0
4045.76923036, 4071.28205094, 4081.41025607, 4044.35897395, 4044.74358933, 4054.35897395, 4048.20512779, 4066.28205087, 4052.82051241, 4048.84615343, 4035.25640977, 4046.15384574, 4054.61538420, 4122.94871767,12.0
4038.58974318, 4061.15384574, 4070.51282017, 4035.38461490, 4026.02564054, 4047.17948677, 4036.41025593, 4056.79487138, 4040.64102523, 4022.69230721, 4023.84615336, 4038.84615343, 4054.23076882, 4127.17948691,12.0
4042.43589702, 4061.92307651, 4071.15384581, 4035.51282003, 4046.41025600, 4046.15384574, 4029.23076875, 4054.35897395, 4036.41025593, 4031.66666618, 4026.02564054, 4043.07692266, 4059.87179446, 4124.87179460,12.0
4040.38461497, 4068.58974318, 4070.25640991, 4042.43589702, 4062.69230728, 4048.46153805, 4028.97435849, 4055.89743548, 4043.84615343, 4067.94871754, 4025.76923029, 4046.66666625, 4052.17948677, 4122.05128178,12.0
4033.58974311, 4068.97435856, 4067.30769189, 4044.10256369, 4045.89743548, 4043.07692266, 4027.56410208, 4054.99999959, 4043.58974318, 4053.71794830, 4028.07692259, 4046.41025600, 4054.35897395, 4124.23076896,12.0
4041.66666625, 4072.94871761, 4074.61538427, 4049.23076882, 4036.15384567, 4045.89743548, 4036.41025593, 4062.17948677, 4044.87179446, 4026.15384567, 4043.71794830, 4052.05128164, 4066.53846113, 4124.61538434,12.0
4066.66666625, 4088.84615350, 4094.61538427, 4063.97435856, 4070.51282017, 4064.48717907, 4058.97435856, 4081.15384581, 4068.71794830, 4059.35897395, 4060.76923036, 4065.12820472, 4074.23076889, 4125.51282024,12.0
4078.58974325, 4099.48717914, 4104.87179460, 4071.66666632, 4098.84615350, 4077.30769196, 4076.41025607, 4092.30769196, 4088.71794837, 4084.61538427, 4062.94871754, 4070.76923043, 4080.12820478, 4123.07692280,12.0
4078.07692273, 4100.25640991, 4101.41025607, 4069.99999966, 4080.76923043, 4083.07692273, 4085.25640991, 4094.99999966, 4089.61538427, 4070.12820478, 4060.64102523, 4069.48717907, 4083.58974325, 4123.07692280,12.0
4093.97435863, 4113.84615357, 4117.17948691, 4080.12820478, 4081.28205094, 4095.38461504, 4097.94871761, 4109.10256383, 4100.76923043, 4090.12820478, 4077.30769196, 4083.33333299, 4097.05128171, 4127.30769203,12.0
4116.41025614, 4134.99999973, 4146.53846133, 4100.38461504, 4122.17948691, 4108.07692280, 4110.64102537, 4124.35897408, 4124.10256383, 4132.69230742, 4103.20512793, 4108.07692280, 4118.20512793, 4126.28205101,12.0
4122.69230742, 4136.02564082, 4155.25641005, 4105.64102537, 4135.51282031, 4111.53846126, 4113.20512793, 4122.30769203, 4127.43589716, 4127.05128178, 4109.99999973, 4115.38461511, 4118.84615357, 4125.51282024,12.0
4128.84615357, 4132.94871767, 4154.35897415, 4104.10256383, 4125.64102537, 4112.05128178, 4110.12820485, 4113.84615357, 4121.02564075, 4113.20512793, 4106.41025614, 4111.92307665, 4111.28205101, 4123.58974332,12.0
4140.51282031, 4142.69230749, 4159.48717928, 4108.71794844, 4127.69230742, 4111.28205101, 4107.56410229, 4112.56410229, 4123.58974332, 4127.94871767, 4109.87179460, 4114.74358947, 4115.64102537, 4123.46153819,12.0
4139.10256390, 4144.99999980, 4156.02564082, 4105.25640998, 4133.46153819, 4111.02564075, 4104.99999973, 4113.97435870, 4122.69230742, 4120.51282024, 4110.25640998, 4112.43589716, 4116.02564075, 4125.51282024,12.0
4137.30769210, 4137.69230749, 4155.76923056, 4097.94871761, 4139.10256390, 4116.41025614, 4109.99999973, 4119.10256383, 4131.15384588, 4119.87179460, 4113.20512793, 4113.46153819, 4115.76923050, 4122.17948691,12.0
4147.30769210, 4136.53846133, 4165.25641005, 4101.41025607, 4145.12820492, 4122.43589716, 4120.64102537, 4127.56410229, 4146.15384595, 4153.33333313, 4119.61538434, 4123.46153819, 4121.15384588, 4122.56410229,12.0
4144.74358954, 4135.64102544, 4162.17948697, 4100.64102530, 4125.76923050, 4119.10256383, 4116.15384588, 4125.89743562, 4136.02564082, 4145.38461518, 4113.97435870, 4121.15384588, 4117.82051255, 4123.58974332,12.0
4138.20512800, 4136.02564082, 4157.05128185, 4095.89743555, 4109.23076896, 4111.53846126, 4110.64102537, 4121.79487152, 4123.71794844, 4115.25640998, 4107.69230742, 4116.53846126, 4114.23076896, 4123.07692280,12.0
4144.87179467, 4143.07692287, 4163.33333313, 4099.10256376, 4135.89743569, 4118.20512793, 4122.94871767, 4129.99999973, 4138.46153826, 4142.43589723, 4113.71794844, 4124.74358947, 4119.87179460, 4123.97435870,12.0
4142.82051262, 4136.53846133, 4165.76923056, 4098.07692273, 4146.28205108, 4125.12820485, 4121.92307665, 4128.58974332, 4141.41025621, 4143.07692287, 4117.82051255, 4128.58974332, 4118.20512793, 4121.28205101,12.0
4138.46153826, 4126.53846126, 4158.20512800, 4090.89743555, 4125.64102537, 4115.64102537, 4101.15384581, 4115.25640998, 4123.84615357, 4101.79487145, 4112.82051255, 4123.84615357, 4112.69230742, 4122.69230742,12.0
4145.25641005, 4130.25640998, 4155.38461518, 4088.58974325, 4123.84615357, 4109.74358947, 4099.10256376, 4115.12820485, 4125.64102537, 4124.10256383, 4107.30769203, 4124.48717921, 4114.48717921, 4123.33333306,12.0
4144.35897415, 4129.87179460, 4156.15384595, 4090.51282017, 4134.23076896, 4115.25640998, 4110.51282024, 4118.97435870, 4133.46153819, 4154.48717928, 4104.74358947, 4125.12820485, 4111.28205101, 4123.97435870,12.0
4138.33333313, 4120.64102537, 4149.48717928, 4085.76923043, 4126.53846126, 4116.02564075, 4106.66666639, 4116.92307665, 4127.43589716, 4133.07692280, 4104.23076896, 4115.76923050, 4106.66666639, 4125.89743562,12.0
4134.99999973, 4116.41025614, 4140.25641005, 4077.17948684, 4117.05128178, 4112.56410229, 4098.84615350, 4116.28205101, 4125.51282024, 4127.94871767, 4104.61538434, 4107.17948691, 4106.53846126, 4121.15384588,12.0
4133.46153819, 4123.07692280, 4137.56410236, 4079.35897402, 4117.82051255, 4118.33333306, 4104.35897408, 4118.58974332, 4129.61538434, 4133.97435870, 4107.82051255, 4110.89743562, 4109.87179460, 4121.28205101,12.0
4133.33333306, 4123.46153819, 4140.38461518, 4082.17948684, 4111.66666639, 4118.46153819, 4107.94871767, 4116.66666639, 4128.20512793, 4110.38461511, 4106.15384588, 4112.69230742, 4109.99999973, 4123.84615357,12.0
4129.48717921, 4110.76923050, 4139.23076903, 4071.92307658, 4111.02564075, 4109.10256383, 4102.56410229, 4114.35897408, 4124.35897408, 4104.99999973, 4098.33333299, 4100.76923043, 4100.25640991, 4125.12820485,12.0
4128.71794844, 4109.35897408, 4135.64102544, 4067.43589702, 4118.58974332, 4115.12820485, 4112.56410229, 4123.20512793, 4127.43589716, 4127.30769203, 4101.92307658, 4093.97435863, 4101.15384581, 4128.07692280,12.0
4135.38461518, 4120.51282024, 4139.99999980, 4079.61538427, 4125.12820485, 4126.92307665, 4127.82051255, 4128.33333306, 4133.33333306, 4133.20512793, 4111.53846126, 4103.07692280, 4112.30769203, 4124.10256383,12.0
4133.58974332, 4117.82051255, 4141.41025621, 4079.61538427, 4119.10256383, 4119.35897408, 4115.25640998, 4118.97435870, 4125.38461511, 4123.07692280, 4104.23076896, 4102.56410229, 4105.64102537, 4124.74358947,12.0
4124.48717921, 4108.20512793, 4134.87179460, 4066.28205087, 4108.20512793, 4109.23076896, 4096.41025607, 4109.87179460, 4113.07692280, 4121.02564075, 4094.87179453, 4092.30769196, 4092.43589709, 4127.56410229,12.0
4118.33333306, 4107.17948691, 4135.12820485, 4064.23076882, 4104.48717921, 4105.38461511, 4093.33333299, 4106.02564075, 4111.92307665, 4122.56410229, 4096.53846119, 4089.99999966, 4092.82051248, 4122.69230742,12.0
4109.10256383, 4101.15384581, 4136.15384595, 4062.30769189, 4088.71794837, 4094.23076889, 4086.92307658, 4097.82051248, 4101.92307658, 4097.69230735, 4085.51282017, 4087.17948684, 4088.58974325, 4123.33333306,12.0
4100.76923043, 4092.17948684, 4127.30769203, 4055.25640984, 4085.51282017, 4083.58974325, 4076.28205094, 4090.38461504, 4091.02564068, 4085.38461504, 4077.05128171, 4084.99999966, 4079.99999966, 4124.87179460,12.0
4104.48717921, 4094.61538427, 4125.25640998, 4059.99999959, 4108.71794844, 4086.92307658, 4078.71794837, 4089.99999966, 4097.05128171, 4108.71794844, 4090.12820478, 4091.79487145, 4086.66666632, 4123.46153819,12.0
4109.48717921, 4101.02564068, 4133.97435870, 4064.61538420, 4106.79487152, 4094.10256376, 4087.17948684, 4093.97435863, 4099.35897402, 4105.76923050, 4095.76923043, 4095.64102530, 4092.94871761, 4122.05128178,12.0
4110.89743562, 4101.41025607, 4138.58974339, 4058.20512779, 4093.20512786, 4095.25640991, 4089.35897402, 4101.15384581, 4096.79487145, 4093.71794837, 4090.38461504, 4096.66666632, 4087.05128171, 4121.41025614,12.0
4109.23076896, 4096.02564068, 4136.41025621, 4050.51282010, 4099.61538427, 4090.76923043, 4086.92307658, 4102.30769196, 4098.58974325, 4106.28205101, 4088.07692273, 4097.43589709, 4085.89743555, 4123.07692280,12.0
4106.41025614, 4095.89743555, 4135.25640998, 4048.46153805, 4090.76923043, 4085.12820478, 4089.10256376, 4102.69230742, 4094.99999966, 4098.07692273, 4087.56410222, 4094.10256376, 4092.30769196, 4122.43589716,12.0
4114.87179460, 4105.51282024, 4139.99999980, 4056.92307651, 4089.10256376, 4089.99999966, 4097.30769196, 4105.51282024, 4093.33333299, 4092.69230735, 4091.92307658, 4095.76923043, 4094.74358940, 4124.10256383,12.0
4121.53846126, 4106.66666639, 4144.99999980, 4064.74358933, 4114.74358947, 4095.64102530, 4094.23076889, 4099.10256376, 4096.53846119, 4121.79487152, 4095.12820478, 4099.48717914, 4090.64102530, 4127.30769203,12.0
4115.25640998, 4100.89743555, 4146.15384595, 4061.15384574, 4101.28205094, 4089.48717914, 4083.84615350, 4094.10256376, 4093.71794837, 4104.74358947, 4091.28205094, 4101.15384581, 4093.97435863, 4124.10256383,12.0
4123.71794844, 4111.53846126, 4152.56410236, 4061.02564061, 4079.87179453, 4091.41025607, 4092.05128171, 4104.10256383, 4097.94871761, 4074.23076889, 4098.20512786, 4110.76923050, 4109.23076896, 4123.33333306,12.0
4131.41025614, 4114.35897408, 4154.35897415, 4062.43589702, 4105.64102537, 4097.56410222, 4098.97435863, 4107.69230742, 4106.28205101, 4111.92307665, 4104.74358947, 4113.07692280, 4111.28205101, 4123.33333306,12.0
4113.71794844, 4094.61538427, 4142.43589723, 4048.84615343, 4107.69230742, 4090.89743555, 4082.69230735, 4094.10256376, 4097.17948684, 4130.25640998, 4093.07692273, 4099.23076889, 4096.02564068, 4121.66666639,12.0
4108.84615357, 4095.51282017, 4138.97435877, 4039.35897395, 4086.79487145, 4089.74358940, 4076.92307658, 4092.56410222, 4091.79487145, 4101.28205094, 4088.07692273, 4094.61538427, 4089.10256376, 4124.99999973,12.0
4120.25640998, 4110.51282024, 4145.38461518, 4042.69230728, 4106.66666639, 4096.41025607, 4090.38461504, 4105.12820485, 4101.53846119, 4095.25640991, 4096.15384581, 4100.64102530, 4097.82051248, 4126.41025614,12.0
4114.87179460, 4101.53846119, 4139.61538441, 4037.30769189, 4106.79487152, 4088.84615350, 4090.12820478, 4112.43589716, 4101.02564068, 4092.69230735, 4092.94871761, 4093.97435863, 4100.76923043, 4128.07692280,12.0
4107.43589716, 4091.53846119, 4128.20512793, 4029.48717900, 4075.89743555, 4082.30769196, 4083.20512786, 4115.38461511, 4099.61538427, 4096.79487145, 4087.56410222, 4081.41025607, 4094.48717914, 4127.82051255,12.0
4114.87179460, 4099.23076889, 4132.17948691, 4034.61538413, 4091.79487145, 4091.53846119, 4091.92307658, 4121.66666639, 4111.28205101, 4122.05128178, 4093.58974325, 4080.89743555, 4098.58974325, 4122.43589716,12.0
4117.82051255, 4102.56410229, 4136.66666646, 4040.89743548, 4115.51282024, 4094.10256376, 4100.64102530, 4124.74358947, 4113.20512793, 4116.02564075, 4093.20512786, 4078.33333299, 4098.71794837, 4123.97435870,12.0
4107.56410229, 4096.66666632, 4128.46153819, 4036.15384567, 4097.94871761, 4087.43589709, 4095.76923043, 4113.97435870, 4103.46153819, 4100.76923043, 4084.74358940, 4069.61538420, 4085.64102530, 4125.25640998,12.0
4101.28205094, 4093.97435863, 4122.43589716, 4030.51282003, 4090.64102530, 4089.35897402, 4091.92307658, 4105.76923050, 4102.05128171, 4112.94871767, 4085.76923043, 4073.71794837, 4081.53846119, 4122.17948691,12.0
4101.53846119, 4091.79487145, 4124.23076896, 4025.89743541, 4091.53846119, 4087.05128171, 4088.20512786, 4106.02564075, 4098.46153812, 4101.41025607, 4089.23076889, 4080.76923043, 4088.84615350, 4121.66666639,12.0
4101.02564068, 4091.02564068, 4126.66666639, 4022.82051234, 4077.69230735, 4077.30769196, 4080.89743555, 4102.30769196, 4087.17948684, 4068.97435856, 4084.74358940, 4078.71794837, 4090.25640991, 4124.48717921,12.0
4106.79487152, 4097.30769196, 4133.20512793, 4035.38461490, 4091.28205094, 4081.92307658, 4084.74358940, 4102.05128171, 4092.30769196, 4091.02564068, 4080.89743555, 4086.28205094, 4083.58974325, 4128.07692280,12.0
4109.61538434, 4097.43589709, 4141.02564082, 4041.15384574, 4104.74358947, 4085.64102530, 4088.58974325, 4107.82051255, 4099.99999966, 4117.17948691, 4081.79487145, 4095.76923043, 4081.28205094, 4123.97435870,12.0
4104.74358947, 4096.41025607, 4137.69230749, 4028.71794824, 4075.25640991, 4074.99999966, 4084.23076889, 4107.82051255, 4089.74358940, 4070.89743555, 4081.79487145, 4091.92307658, 4083.71794837, 4119.48717921,12.0
4106.41025614, 4103.33333306, 4135.12820485, 4028.33333285, 4074.35897402, 4075.89743555, 4090.25640991, 4106.66666639, 4089.23076889, 4057.05128164, 4086.28205094, 4093.20512786, 4088.46153812, 4123.84615357,12.0
4110.64102537, 4107.05128178, 4140.25641005, 4039.74358933, 4118.20512793, 4090.89743555, 4099.35897402, 4112.43589716, 4105.51282024, 4120.51282024, 4096.53846119, 4100.64102530, 4089.99999966, 4125.89743562,12.0
4106.92307665, 4104.87179460, 4138.97435877, 4039.61538420, 4122.43589716, 4095.64102530, 4095.76923043, 4114.87179460, 4109.23076896, 4144.35897415, 4098.97435863, 4096.41025607, 4086.53846119, 4122.17948691,12.0
4106.66666639, 4106.28205101, 4133.84615357, 4037.94871754, 4096.02564068, 4093.84615350, 4092.94871761, 4111.28205101, 4100.38461504, 4109.48717921, 4096.02564068, 4090.89743555, 4086.92307658, 4119.87179460,12.0
4113.97435870, 4110.51282024, 4138.58974339, 4046.53846113, 4099.10256376, 4097.69230735, 4095.76923043, 4106.02564075, 4097.05128171, 4093.84615350, 4099.48717914, 4094.87179453, 4094.87179453, 4124.48717921,12.0
4119.61538434, 4118.07692280, 4146.66666646, 4053.71794830, 4114.61538434, 4099.48717914, 4095.12820478, 4103.58974332, 4097.17948684, 4102.69230742, 4110.64102537, 4104.87179460, 4106.15384588, 4127.94871767,12.0
4120.38461511, 4123.46153819, 4150.12820492, 4056.02564061, 4118.07692280, 4096.92307658, 4092.30769196, 4104.87179460, 4101.15384581, 4105.64102537, 4123.33333306, 4117.56410229, 4110.64102537, 4123.33333306,12.0
4118.07692280, 4117.94871767, 4152.17948697, 4053.71794830, 4107.43589716, 4093.20512786, 4088.46153812, 4103.71794844, 4101.41025607, 4108.07692280, 4123.84615357, 4118.58974332, 4110.12820485, 4123.20512793,12.0
4115.51282024, 4112.17948691, 4149.74358954, 4051.92307651, 4098.71794837, 4089.87179453, 4087.82051248, 4098.97435863, 4089.99999966, 4100.51282017, 4108.33333306, 4109.35897408, 4103.71794844, 4125.25640998,12.0
4115.76923050, 4113.58974332, 4142.30769210, 4054.48717907, 4102.69230742, 4089.23076889, 4091.15384581, 4099.10256376, 4084.74358940, 4090.76923043, 4095.89743555, 4104.35897408, 4092.17948684, 4123.84615357,12.0
4113.97435870, 4114.61538434, 4136.41025621, 4052.30769189, 4105.51282024, 4089.87179453, 4091.15384581, 4103.58974332, 4091.15384581, 4097.05128171, 4093.71794837, 4097.82051248, 4086.15384581, 4124.61538434,12.0
4106.41025614, 4114.48717921, 4135.25640998, 4048.33333292, 4108.46153819, 4089.10256376, 4091.15384581, 4103.97435870, 4096.79487145, 4110.25640998, 4093.71794837, 4093.07692273, 4087.82051248, 4122.82051255,12.0
4106.79487152, 4118.46153819, 4136.79487159, 4049.35897395, 4116.41025614, 4093.71794837, 4101.92307658, 4109.61538434, 4102.30769196, 4119.48717921, 4098.97435863, 4096.79487145, 4097.56410222, 4124.99999973,12.0
4114.48717921, 4119.87179460, 4135.76923056, 4048.97435856, 4108.71794844, 4100.64102530, 4108.71794844, 4118.07692280, 4105.64102537, 4111.53846126, 4108.97435870, 4097.43589709, 4104.74358947, 4127.30769203,12.0
4107.43589716, 4113.58974332, 4128.07692280, 4044.87179446, 4092.56410222, 4098.46153812, 4100.64102530, 4113.97435870, 4098.71794837, 4102.43589709, 4108.97435870, 4092.17948684, 4101.28205094, 4121.53846126,12.0
4094.10256376, 4106.41025614, 4117.69230742, 4038.58974318, 4092.69230735, 4090.38461504, 4095.38461504, 4106.66666639, 4093.20512786, 4109.23076896, 4099.35897402, 4088.20512786, 4093.33333299, 4123.58974332,12.0
4097.05128171, 4107.43589716, 4122.82051255, 4036.02564054, 4105.12820485, 4089.23076889, 4098.07692273, 4108.46153819, 4096.92307658, 4109.48717921, 4101.66666632, 4089.48717914, 4099.74358940, 4127.94871767,12.0
4111.66666639, 4115.12820485, 4137.94871774, 4048.97435856, 4127.05128178, 4099.61538427, 4103.20512793, 4113.20512793, 4099.99999966, 4108.58974332, 4118.46153819, 4102.30769196, 4114.74358947, 4124.87179460,12.0
4113.58974332, 4121.28205101, 4143.07692287, 4061.28205087, 4140.89743569, 4107.82051255, 4103.97435870, 4111.02564075, 4101.15384581, 4126.92307665, 4125.12820485, 4113.97435870, 4112.30769203, 4122.69230742,12.0
4105.25640998, 4125.38461511, 4141.41025621, 4059.99999959, 4118.33333306, 4102.30769196, 4096.92307658, 4105.89743562, 4101.66666632, 4131.66666639, 4122.30769203, 4113.97435870, 4105.64102537, 4120.38461511,12.0
4107.17948691, 4127.30769203, 4141.15384595, 4065.12820472, 4100.64102530, 4097.94871761, 4095.25640991, 4108.33333306, 4098.84615350, 4098.97435863, 4124.23076896, 4114.61538434, 4111.53846126, 4123.46153819,12.0
4114.10256383, 4126.79487152, 4139.23076903, 4074.23076889, 4120.25640998, 4101.41025607, 4099.35897402, 4111.92307665, 4098.71794837, 4093.84615350, 4127.43589716, 4123.07692280, 4117.69230742, 4124.61538434,12.0
4108.84615357, 4120.64102537, 4135.38461518, 4068.58974318, 4122.30769203, 4099.48717914, 4094.48717914, 4103.58974332, 4099.35897402, 4126.53846126, 4121.79487152, 4123.20512793, 4109.74358947, 4123.07692280,12.0
4093.58974325, 4111.41025614, 4128.58974332, 4056.15384574, 4103.97435870, 4094.61538427, 4087.43589709, 4097.82051248, 4088.33333299, 4108.71794844, 4111.02564075, 4110.76923050, 4099.10256376, 4124.99999973,12.0
4080.25640991, 4103.84615357, 4116.92307665, 4046.53846113, 4104.99999973, 4088.46153812, 4084.87179453, 4102.82051255, 4078.07692273, 4072.30769196, 4104.99999973, 4098.71794837, 4092.94871761, 4122.43589716,12.0
4077.69230735, 4102.30769196, 4109.61538434, 4044.61538420, 4099.48717914, 4078.33333299, 4079.74358940, 4099.61538427, 4077.69230735, 4085.38461504, 4100.25640991, 4093.20512786, 4087.82051248, 4123.07692280,12.0
4085.64102530, 4107.82051255, 4110.38461511, 4050.76923036, 4090.12820478, 4078.07692273, 4077.82051248, 4089.23076889, 4077.43589709, 4103.58974332, 4098.46153812, 4095.89743555, 4091.28205094, 4128.58974332,12.0
4085.64102530, 4104.87179460, 4107.43589716, 4046.41025600, 4097.43589709, 4082.05128171, 4079.74358940, 4088.33333299, 4072.17948684, 4077.30769196, 4097.69230735, 4095.51282017, 4093.97435863, 4128.07692280,12.0
4081.66666632, 4103.33333306, 4103.71794844, 4039.74358933, 4101.41025607, 4082.56410222, 4086.92307658, 4100.38461504, 4073.58974325, 4050.51282010, 4093.33333299, 4087.94871761, 4090.12820478, 4124.35897408,12.0
4086.66666632, 4114.61538434, 4109.10256383, 4051.02564061, 4109.23076896, 4093.46153812, 4102.05128171, 4111.53846126, 4091.41025607, 4091.79487145, 4095.64102530, 4091.15384581, 4087.05128171, 4120.89743562,12.0
4087.56410222, 4115.51282024, 4109.61538434, 4056.92307651, 4119.61538434, 4103.71794844, 4107.17948691, 4109.10256383, 4098.97435863, 4134.87179460, 4096.79487145, 4095.76923043, 4085.25640991, 4119.87179460,12.0
4082.17948684, 4101.41025607, 4099.35897402, 4040.64102523, 4091.79487145, 4090.25640991, 4095.51282017, 4102.69230742, 4083.71794837, 4095.12820478, 4089.74358940, 4088.33333299, 4086.41025607, 4122.94871767,12.0
4142.69230749, 4154.10256390, 4170.12820499, 4096.41025607, 4148.71794851, 4133.84615357, 4133.46153819, 4136.02564082, 4132.30769203, 4138.84615364, 4164.23076903, 4159.61538441, 4135.76923056, 4121.53846126,12.0
4168.33333320, 4166.41025621, 4189.61538448, 4104.48717921, 4172.94871781, 4152.30769210, 4159.99999980, 4157.82051262, 4153.58974339, 4143.71794851, 4183.46153833, 4177.30769217, 4150.12820492, 4123.84615357,12.0
4175.89743576, 4167.30769210, 4193.71794858, 4112.43589716, 4171.53846140, 4162.94871774, 4173.84615371, 4163.46153826, 4162.05128185, 4164.48717928, 4187.56410243, 4183.46153833, 4155.89743569, 4123.33333306,12.0
4173.20512807, 4169.23076910, 4187.30769217, 4109.99999973, 4162.82051262, 4160.76923056, 4168.07692287, 4163.71794851, 4163.20512800, 4187.82051269, 4178.20512807, 4178.46153833, 4148.71794851, 4122.17948691,12.0
4176.92307679, 4170.89743576, 4188.46153833, 4103.71794844, 4180.89743576, 4162.05128185, 4168.07692287, 4170.12820499, 4172.56410243, 4193.84615371, 4176.02564089, 4177.56410243, 4146.79487159, 4121.66666639,12.0
4177.05128192, 4162.30769210, 4189.35897422, 4101.41025607, 4181.41025628, 4164.74358954, 4171.02564089, 4171.66666653, 4174.61538448, 4168.97435884, 4178.58974345, 4178.71794858, 4149.61538441, 4123.33333306,12.0
4167.69230749, 4153.84615364, 4177.05128192, 4097.69230735, 4143.97435877, 4156.15384595, 4161.53846133, 4162.17948697, 4162.43589723, 4157.30769210, 4172.82051269, 4171.15384602, 4141.92307672, 4120.25640998,12.0
4169.74358961, 4154.74358954, 4169.74358961, 4096.02564068, 4142.43589723, 4149.99999980, 4153.20512800, 4153.58974339, 4157.17948697, 4168.84615371, 4169.23076910, 4168.33333320, 4140.64102544, 4119.99999973,12.0
4179.10256397, 4157.30769210, 4174.10256397, 4098.46153812, 4175.25641012, 4155.25641005, 4156.79487159, 4153.58974339, 4158.46153826, 4148.20512800, 4173.71794858, 4171.92307679, 4150.76923056, 4125.51282024,12.0
4181.92307679, 4163.33333313, 4180.76923063, 4103.97435870, 4175.38461525, 4157.43589723, 4161.66666646, 4155.89743569, 4159.87179467, 4136.41025621, 4179.10256397, 4172.56410243, 4152.30769210, 4124.48717921,12.0
4188.71794858, 4172.43589730, 4190.51282038, 4117.17948691, 4158.07692287, 4154.10256390, 4160.89743569, 4158.20512800, 4166.28205108, 4186.79487166, 4184.48717935, 4174.23076910, 4148.84615364, 4123.07692280,12.0
4190.25641012, 4164.87179467, 4188.46153833, 4119.61538434, 4164.35897415, 4148.07692287, 4149.74358954, 4153.58974339, 4163.07692287, 4213.97435891, 4179.48717935, 4166.92307672, 4146.02564082, 4123.71794844,12.0
4181.41025628, 4155.25641005, 4173.97435884, 4107.17948691, 4177.17948704, 4146.41025621, 4144.23076903, 4141.66666646, 4150.25641005, 4173.97435884, 4167.30769210, 4153.46153826, 4144.10256390, 4122.17948691,12.0
4183.71794858, 4162.94871774, 4172.17948704, 4109.48717921, 4174.61538448, 4155.89743569, 4162.56410236, 4148.07692287, 4152.17948697, 4151.15384595, 4167.05128185, 4150.51282031, 4146.92307672, 4125.76923050,12.0
4188.84615371, 4165.51282031, 4181.28205115, 4119.99999973, 4172.94871781, 4162.56410236, 4173.84615371, 4168.33333320, 4165.51282031, 4173.20512807, 4177.05128192, 4155.89743569, 4150.76923056, 4125.89743562,12.0
4180.51282038, 4156.92307672, 4174.48717935, 4114.35897408, 4173.97435884, 4153.84615364, 4159.23076903, 4166.15384595, 4163.58974339, 4182.69230756, 4176.66666653, 4155.38461518, 4146.92307672, 4123.20512793,12.0
4172.82051269, 4154.74358954, 4160.12820492, 4102.17948684, 4166.15384595, 4141.66666646, 4151.02564082, 4149.87179467, 4151.02564082, 4173.07692294, 4164.87179467, 4147.82051262, 4140.51282031, 4123.46153819,12.0
4173.33333320, 4156.53846133, 4162.94871774, 4100.38461504, 4134.48717921, 4142.82051262, 4156.66666646, 4149.87179467, 4146.53846133, 4162.69230749, 4164.35897415, 4147.17948697, 4143.33333313, 4120.38461511,12.0
4177.43589730, 4156.28205108, 4177.17948704, 4103.71794844, 4119.35897408, 4151.41025621, 4154.61538441, 4157.69230749, 4151.66666646, 4167.30769210, 4177.17948704, 4157.05128185, 4152.69230749, 4119.87179460,12.0
4182.30769217, 4157.56410236, 4188.33333320, 4105.64102537, 4163.84615364, 4154.35897415, 4152.30769210, 4161.02564082, 4161.41025621, 4186.41025628, 4184.23076910, 4169.74358961, 4155.64102544, 4121.53846126,12.0
4180.51282038, 4156.66666646, 4186.79487166, 4103.46153819, 4187.69230756, 4152.05128185, 4158.07692287, 4160.25641005, 4161.15384595, 4170.51282038, 4180.25641012, 4173.33333320, 4153.20512800, 4124.10256383,12.0
4177.82051269, 4154.74358954, 4184.10256397, 4101.66666632, 4161.15384595, 4148.84615364, 4161.28205108, 4156.41025621, 4155.64102544, 4153.58974339, 4175.25641012, 4174.10256397, 4151.66666646, 4126.66666639,12.0
4183.07692294, 4155.76923056, 4187.30769217, 4102.05128171, 4157.17948697, 4144.23076903, 4157.94871774, 4153.33333313, 4158.84615364, 4181.53846140, 4174.48717935, 4174.87179474, 4148.84615364, 4124.87179460,12.0
4193.97435884, 4159.35897415, 4189.10256397, 4101.28205094, 4156.92307672, 4144.87179467, 4156.41025621, 4158.58974339, 4161.92307672, 4182.56410243, 4179.99999986, 4176.41025628, 4153.46153826, 4125.38461511,12.0
4196.92307679, 4166.53846133, 4191.15384602, 4103.07692280, 4143.46153826, 4154.74358954, 4162.17948697, 4166.41025621, 4165.25641005, 4161.92307672, 4186.41025628, 4183.07692294, 4163.71794851, 4126.02564075,12.0
4182.17948704, 4158.71794851, 4184.61538448, 4100.25640991, 4164.61538441, 4152.17948697, 4160.51282031, 4157.69230749, 4167.05128185, 4188.20512807, 4175.51282038, 4177.56410243, 4152.94871774, 4124.99999973,12.0
4161.15384595, 4134.23076896, 4164.99999980, 4090.64102530, 4163.84615364, 4134.48717921, 4143.84615364, 4138.97435877, 4154.61538441, 4201.66666660, 4154.61538441, 4155.89743569, 4131.02564075, 4125.12820485,12.0
4154.23076903, 4124.74358947, 4151.79487159, 4088.07692273, 4113.58974332, 4127.30769203, 4132.69230742, 4131.28205101, 4135.25640998, 4140.89743569, 4148.07692287, 4144.61538441, 4128.84615357, 4123.58974332,12.0
4158.84615364, 4131.66666639, 4151.28205108, 4088.33333299, 4109.48717921, 4134.10256383, 4137.05128185, 4137.05128185, 4130.12820485, 4108.97435870, 4153.71794851, 4148.71794851, 4139.23076903, 4123.84615357,12.0
4158.33333313, 4134.61538434, 4151.02564082, 4088.07692273, 4146.28205108, 4134.74358947, 4140.25641005, 4141.53846133, 4140.38461518, 4164.99999980, 4158.46153826, 4152.43589723, 4141.66666646, 4123.58974332,12.0
4155.38461518, 4133.97435870, 4149.99999980, 4093.71794837, 4149.87179467, 4127.69230742, 4136.02564082, 4138.07692287, 4147.30769210, 4196.66666653, 4159.23076903, 4148.71794851, 4137.43589723, 4124.10256383,12.0
4158.20512800, 4135.76923056, 4146.92307672, 4094.87179453, 4142.56410236, 4134.99999973, 4137.69230749, 4135.12820485, 4142.05128185, 4164.35897415, 4155.38461518, 4139.99999980, 4136.79487159, 4128.07692280,12.0
4158.20512800, 4136.79487159, 4142.69230749, 4091.66666632, 4141.92307672, 4138.58974339, 4137.56410236, 4133.07692280, 4134.23076896, 4130.25640998, 4151.41025621, 4135.89743569, 4139.99999980, 4125.89743562,12.0
4151.15384595, 4132.30769203, 4141.15384595, 4094.35897402, 4117.82051255, 4123.33333306, 4128.07692280, 4130.64102537, 4128.97435870, 4118.46153819, 4146.41025621, 4134.99999973, 4137.30769210, 4124.10256383,12.0
4145.64102544, 4124.10256383, 4139.61538441, 4097.17948684, 4113.97435870, 4122.05128178, 4127.94871767, 4131.02564075, 4127.43589716, 4135.51282031, 4140.25641005, 4128.84615357, 4130.12820485, 4125.64102537,12.0
4148.58974339, 4127.30769203, 4139.74358954, 4096.92307658, 4148.46153826, 4140.25641005, 4141.41025621, 4137.30769210, 4133.07692280, 4160.76923056, 4141.79487159, 4126.79487152, 4131.28205101, 4123.97435870,12.0
4155.25641005, 4138.46153826, 4137.05128185, 4095.38461504, 4155.51282031, 4145.89743569, 4155.25641005, 4148.71794851, 4144.74358954, 4156.79487159, 4144.61538441, 4125.89743562, 4135.25640998, 4122.94871767,12.0
4151.02564082, 4130.76923050, 4126.79487152, 4091.15384581, 4134.35897408, 4138.71794851, 4158.07692287, 4156.15384595, 4150.51282031, 4143.33333313, 4141.66666646, 4121.15384588, 4132.69230742, 4122.43589716,12.0
4142.82051262, 4123.07692280, 4124.87179460, 4090.38461504, 4129.74358947, 4139.61538441, 4148.20512800, 4149.74358954, 4147.30769210, 4149.99999980, 4139.87179467, 4120.64102537, 4131.66666639, 4123.97435870,12.0
4143.58974339, 4132.82051255, 4130.64102537, 4095.89743555, 4132.17948691, 4141.15384595, 4137.94871774, 4138.33333313, 4145.12820492, 4149.35897415, 4143.07692287, 4123.71794844, 4136.15384595, 4126.41025614,12.0
4144.35897415, 4133.07692280, 4129.10256383, 4096.92307658, 4133.20512793, 4143.07692287, 4141.53846133, 4137.30769210, 4144.99999980, 4134.61538434, 4146.15384595, 4122.56410229, 4137.17948697, 4123.97435870,12.0
4141.92307672, 4123.58974332, 4129.74358947, 4093.20512786, 4139.61538441, 4146.66666646, 4144.87179467, 4140.51282031, 4144.10256390, 4132.56410229, 4144.10256390, 4124.99999973, 4132.05128178, 4123.20512793,12.0
4138.33333313, 4119.23076896, 4136.66666646, 4089.23076889, 4122.56410229, 4137.56410236, 4131.15384588, 4132.56410229, 4139.10256390, 4144.10256390, 4136.15384595, 4130.64102537, 4128.71794844, 4122.82051255,12.0
4143.46153826, 4121.79487152, 4143.07692287, 4092.43589709, 4109.10256383, 4133.20512793, 4126.53846126, 4128.33333306, 4134.48717921, 4152.82051262, 4136.92307672, 4133.58974332, 4130.89743562, 4122.56410229,12.0
4156.41025621, 4130.64102537, 4152.69230749, 4102.05128171, 4126.41025614, 4141.28205108, 4139.61538441, 4142.05128185, 4140.51282031, 4140.76923056, 4154.23076903, 4145.64102544, 4139.99999980, 4125.51282024,12.0
4161.66666646, 4141.66666646, 4158.97435877, 4102.94871767, 4130.25640998, 4146.15384595, 4146.79487159, 4148.97435877, 4149.10256390, 4133.20512793, 4163.07692287, 4159.74358954, 4145.76923056, 4123.58974332,12.0
4162.05128185, 4145.38461518, 4154.35897415, 4100.12820478, 4124.61538434, 4146.66666646, 4143.84615364, 4140.89743569, 4142.56410236, 4145.51282031, 4154.99999980, 4157.05128185, 4140.38461518, 4121.41025614,12.0
4156.15384595, 4137.05128185, 4151.28205108, 4103.07692280, 4131.41025614, 4142.82051262, 4134.10256383, 4132.05128178, 4128.97435870, 4147.43589723, 4150.38461518, 4145.51282031, 4133.46153819, 4121.02564075,12.0
4151.02564082, 4132.82051255, 4154.87179467, 4104.87179460, 4132.30769203, 4138.33333313, 4132.17948691, 4137.43589723, 4138.84615364, 4157.94871774, 4158.20512800, 4146.28205108, 4141.28205108, 4123.58974332,12.0
4153.84615364, 4136.02564082, 4157.17948697, 4103.46153819, 4128.71794844, 4140.89743569, 4138.46153826, 4147.94871774, 4152.82051262, 4166.28205108, 4164.35897415, 4151.92307672, 4151.66666646, 4127.94871767,12.0
4149.87179467, 4133.84615357, 4154.23076903, 4104.87179460, 4116.66666639, 4139.10256390, 4129.10256383, 4134.48717921, 4135.12820485, 4127.82051255, 4156.41025621, 4144.48717928, 4143.97435877, 4123.71794844,12.0
4144.35897415, 4138.20512800, 4155.51282031, 4111.02564075, 4104.99999973, 4137.82051262, 4121.02564075, 4121.92307665, 4121.28205101, 4118.46153819, 4146.66666646, 4139.74358954, 4133.46153819, 4121.28205101,12.0
4145.51282031, 4147.94871774, 4157.56410236, 4111.28205101, 4129.35897408, 4144.10256390, 4131.66666639, 4133.20512793, 4135.64102544, 4153.58974339, 4143.84615364, 4140.89743569, 4131.28205101, 4124.10256383,12.0
4139.48717928, 4137.56410236, 4143.97435877, 4103.84615357, 4150.76923056, 4139.10256390, 4131.41025614, 4133.46153819, 4132.56410229, 4137.82051262, 4130.76923050, 4128.97435870, 4124.74358947, 4125.25640998,12.0
4125.38461511, 4119.61538434, 4121.79487152, 4097.56410222, 4125.89743562, 4131.41025614, 4117.43589716, 4116.41025614, 4113.33333306, 4111.92307665, 4111.79487152, 4108.20512793, 4112.82051255, 4124.35897408,12.0
4120.12820485, 4117.43589716, 4112.82051255, 4095.38461504, 4106.53846126, 4136.41025621, 4121.28205101, 4117.17948691, 4119.87179460, 4139.87179467, 4112.05128178, 4100.25640991, 4111.92307665, 4121.41025614,12.0
4125.12820485, 4124.23076896, 4119.23076896, 4097.56410222, 4112.05128178, 4135.25640998, 4133.07692280, 4128.46153819, 4126.79487152, 4123.46153819, 4124.10256383, 4103.58974332, 4119.99999973, 4123.46153819,12.0
4123.20512793, 4123.84615357, 4118.58974332, 4097.17948684, 4109.87179460, 4125.76923050, 4128.84615357, 4123.58974332, 4110.38461511, 4071.92307658, 4119.74358947, 4101.15384581, 4117.30769203, 4124.87179460,12.0
4113.58974332, 4113.97435870, 4107.43589716, 4089.74358940, 4104.35897408, 4131.53846126, 4126.02564075, 4120.51282024, 4107.05128178, 4100.51282017, 4107.56410229, 4094.35897402, 4104.10256383, 4122.69230742,12.0
4111.66666639, 4111.02564075, 4103.58974332, 4086.92307658, 4107.69230742, 4147.05128185, 4135.38461518, 4128.20512793, 4120.51282024, 4148.71794851, 4113.07692280, 4096.92307658, 4105.12820485, 4123.46153819,12.0
4114.61538434, 4116.79487152, 4103.58974332, 4088.46153812, 4106.02564075, 4142.05128185, 4133.84615357, 4126.79487152, 4120.38461511, 4130.25640998, 4123.07692280, 4103.97435870, 4114.74358947, 4121.15384588,12.0
4110.89743562, 4112.30769203, 4100.38461504, 4084.61538427, 4098.07692273, 4129.74358947, 4120.51282024, 4122.05128178, 4111.53846126, 4091.41025607, 4117.43589716, 4102.17948684, 4110.76923050, 4122.94871767,12.0
4104.87179460, 4103.33333306, 4099.23076889, 4080.89743555, 4101.66666632, 4132.69230742, 4116.02564075, 4122.05128178, 4106.66666639, 4084.74358940, 4111.28205101, 4097.05128171, 4108.84615357, 4127.30769203,12.0
4106.41025614, 4108.84615357, 4102.94871767, 4084.48717914, 4112.05128178, 4136.15384595, 4117.30769203, 4117.43589716, 4104.61538434, 4104.99999973, 4114.35897408, 4100.76923043, 4115.64102537, 4123.46153819,12.0
4109.23076896, 4115.76923050, 4103.20512793, 4086.28205094, 4105.89743562, 4129.10256383, 4111.66666639, 4107.17948691, 4101.15384581, 4124.10256383, 4109.99999973, 4103.58974332, 4110.38461511, 4122.94871767,12.0
4108.71794844, 4114.61538434, 4104.87179460, 4086.15384581, 4093.71794837, 4127.69230742, 4107.05128178, 4103.97435870, 4098.97435863, 4126.41025614, 4106.53846126, 4105.64102537, 4106.15384588, 4126.02564075,12.0
4114.10256383, 4117.43589716, 4112.82051255, 4091.66666632, 4096.28205094, 4131.53846126, 4109.35897408, 4109.87179460, 4101.92307658, 4107.69230742, 4112.30769203, 4116.15384588, 4116.15384588, 4126.15384588,12.0
4126.92307665, 4127.30769203, 4124.23076896, 4098.97435863, 4110.25640998, 4131.15384588, 4116.92307665, 4117.82051255, 4107.69230742, 4090.76923043, 4118.33333306, 4128.84615357, 4125.38461511, 4125.76923050,12.0
4129.61538434, 4128.97435870, 4129.61538434, 4097.17948684, 4123.33333306, 4130.64102537, 4121.66666639, 4120.89743562, 4111.79487152, 4103.71794844, 4120.25640998, 4131.53846126, 4124.10256383, 4124.99999973,12.0
4120.89743562, 4117.30769203, 4123.71794844, 4092.30769196, 4127.17948691, 4128.58974332, 4116.02564075, 4118.84615357, 4112.17948691, 4138.07692287, 4115.12820485, 4122.56410229, 4118.58974332, 4124.10256383,12.0
4118.71794844, 4113.84615357, 4122.17948691, 4095.76923043, 4107.05128178, 4120.51282024, 4108.46153819, 4116.79487152, 4113.71794844, 4147.30769210, 4114.74358947, 4122.05128178, 4120.89743562, 4121.79487152,12.0
4120.76923050, 4122.69230742, 4124.99999973, 4097.82051248, 4083.58974325, 4113.07692280, 4101.79487145, 4113.20512793, 4108.58974332, 4118.71794844, 4119.87179460, 4129.35897408, 4125.89743562, 4123.20512793,12.0
4118.20512793, 4123.84615357, 4117.56410229, 4093.84615350, 4093.33333299, 4115.12820485, 4104.10256383, 4110.76923050, 4097.17948684, 4099.99999966, 4114.23076896, 4124.48717921, 4120.89743562, 4126.66666639,12.0
4115.51282024, 4114.10256383, 4110.76923050, 4096.66666632, 4112.17948691, 4124.48717921, 4110.89743562, 4111.66666639, 4095.89743555, 4098.07692273, 4105.64102537, 4114.87179460, 4112.94871767, 4126.02564075,12.0
4106.53846126, 4107.69230742, 4105.38461511, 4094.10256376, 4102.30769196, 4123.97435870, 4099.61538427, 4099.99999966, 4091.79487145, 4079.61538427, 4102.05128171, 4107.05128178, 4107.69230742, 4126.15384588,12.0
4100.64102530, 4114.35897408, 4098.20512786, 4086.79487145, 4103.71794844, 4120.51282024, 4093.07692273, 4091.92307658, 4087.05128171, 4077.94871761, 4101.53846119, 4106.66666639, 4106.66666639, 4127.56410229,12.0
4111.28205101, 4124.99999973, 4100.76923043, 4098.20512786, 4136.79487159, 4132.94871767, 4113.07692280, 4108.20512793, 4098.58974325, 4121.28205101, 4109.35897408, 4109.74358947, 4111.53846126, 4125.89743562,12.0
4111.53846126, 4121.66666639, 4100.76923043, 4106.41025614, 4128.20512793, 4137.30769210, 4118.20512793, 4115.12820485, 4102.69230742, 4136.92307672, 4114.35897408, 4099.99999966, 4110.12820485, 4124.35897408,12.0
4095.12820478, 4111.53846126, 4089.61538427, 4098.20512786, 4091.15384581, 4124.23076896, 4102.30769196, 4105.38461511, 4093.97435863, 4102.69230742, 4108.46153819, 4089.74358940, 4103.46153819, 4124.87179460,12.0
4091.41025607, 4112.30769203, 4084.74358940, 4092.43589709, 4097.56410222, 4124.61538434, 4105.25640998, 4111.41025614, 4097.05128171, 4092.43589709, 4104.74358947, 4092.82051248, 4103.84615357, 4125.25640998,12.0
4093.20512786, 4110.64102537, 4083.58974325, 4089.87179453, 4105.38461511, 4129.87179460, 4112.56410229, 4115.38461511, 4103.20512793, 4109.35897408, 4103.20512793, 4092.94871761, 4106.41025614, 4121.66666639,12.0
4089.10256376, 4104.99999973, 4082.94871761, 4092.43589709, 4099.74358940, 4128.07692280, 4108.84615357, 4112.82051255, 4109.99999973, 4114.99999973, 4103.71794844, 4093.46153812, 4111.15384588, 4121.28205101,12.0
4090.38461504, 4110.51282024, 4088.07692273, 4096.02564068, 4107.30769203, 4128.97435870, 4107.17948691, 4116.53846126, 4114.87179460, 4118.46153819, 4104.74358947, 4099.99999966, 4113.33333306, 4126.79487152,12.0
4086.41025607, 4112.30769203, 4087.82051248, 4091.41025607, 4096.53846119, 4124.23076896, 4097.43589709, 4105.89743562, 4094.61538427, 4105.89743562, 4093.71794837, 4092.82051248, 4104.35897408, 4127.30769203,12.0
4072.94871761, 4099.35897402, 4077.30769196, 4082.69230735, 4069.23076882, 4112.30769203, 4086.41025607, 4088.33333299, 4070.76923043, 4075.51282017, 4076.02564068, 4079.23076889, 4092.05128171, 4124.48717921,12.0
4074.61538427, 4097.56410222, 4077.82051248, 4084.10256376, 4088.07692273, 4117.30769203, 4090.76923043, 4095.51282017, 4075.38461504, 4072.94871761, 4079.23076889, 4085.25640991, 4091.79487145, 4122.56410229,12.0
4085.12820478, 4104.61538434, 4088.07692273, 4088.71794837, 4104.61538434, 4124.61538434, 4094.87179453, 4103.84615357, 4079.74358940, 4084.61538427, 4088.46153812, 4095.51282017, 4097.69230735, 4123.46153819,12.0
4089.48717914, 4104.48717921, 4088.97435863, 4087.56410222, 4073.71794837, 4123.07692280, 4099.23076889, 4099.23076889, 4072.94871761, 4068.46153805, 4081.79487145, 4094.35897402, 4098.97435863, 4127.69230742,12.0
4089.87179453, 4105.76923050, 4084.61538427, 4086.92307658, 4079.10256376, 4128.58974332, 4112.05128178, 4105.51282024, 4084.99999966, 4068.20512779, 4079.87179453, 4090.64102530, 4095.12820478, 4125.51282024,12.0
4085.38461504, 4105.76923050, 4082.05128171, 4087.05128171, 4114.48717921, 4131.92307665, 4113.97435870, 4113.33333306, 4099.10256376, 4094.10256376, 4087.43589709, 4086.28205094, 4091.41025607, 4122.56410229,12.0
4084.74358940, 4096.79487145, 4087.05128171, 4089.35897402, 4105.64102537, 4126.41025614, 4107.30769203, 4111.41025614, 4094.87179453, 4101.15384581, 4091.53846119, 4087.43589709, 4099.74358940, 4123.33333306,12.0
4091.92307658, 4092.05128171, 4093.33333299, 4088.07692273, 4079.23076889, 4121.92307665, 4107.69230742, 4112.05128178, 4100.25640991, 4107.05128178, 4093.97435863, 4097.43589709, 4106.53846126, 4121.92307665,12.0
4097.43589709, 4101.02564068, 4088.84615350, 4086.02564068, 4089.87179453, 4124.48717921, 4110.51282024, 4112.82051255, 4107.82051255, 4102.30769196, 4095.51282017, 4098.84615350, 4104.48717921, 4125.51282024,12.0
4097.56410222, 4112.30769203, 4084.99999966, 4093.58974325, 4111.41025614, 4128.97435870, 4113.97435870, 4111.53846126, 4104.61538434, 4081.79487145, 4098.97435863, 4093.71794837, 4109.61538434, 4128.07692280,12.0
4105.25640998, 4121.92307665, 4100.25640991, 4109.61538434, 4117.30769203, 4141.41025621, 4129.87179460, 4125.25640998, 4118.07692280, 4112.17948691, 4113.71794844, 4105.38461511, 4117.94871767, 4124.48717921,12.0
4123.20512793, 4137.69230749, 4127.43589716, 4122.17948691, 4128.84615357, 4161.53846133, 4146.79487159, 4141.92307672, 4141.53846133, 4163.33333313, 4136.02564082, 4128.84615357, 4124.23076896, 4124.99999973,12.0
4135.64102544, 4148.97435877, 4139.74358954, 4126.66666639, 4140.76923056, 4171.79487166, 4156.28205108, 4140.25641005, 4139.35897415, 4153.58974339, 4143.07692287, 4137.82051262, 4132.05128178, 4124.87179460,12.0
4145.76923056, 4151.79487159, 4143.97435877, 4133.84615357, 4143.84615364, 4176.41025628, 4171.15384602, 4144.23076903, 4133.71794844, 4126.15384588, 4139.99999980, 4136.15384595, 4138.33333313, 4125.51282024,12.0
4159.99999980, 4158.33333313, 4159.35897415, 4142.43589723, 4155.76923056, 4183.46153833, 4187.05128192, 4160.76923056, 4151.53846133, 4144.23076903, 4151.02564082, 4146.53846133, 4144.10256390, 4127.43589716,12.0
4169.74358961, 4166.41025621, 4171.66666653, 4143.97435877, 4169.48717935, 4190.12820499, 4189.61538448, 4167.30769210, 4166.41025621, 4164.74358954, 4167.56410236, 4161.41025621, 4154.99999980, 4126.53846126,12.0
4177.82051269, 4171.66666653, 4176.02564089, 4146.53846133, 4166.79487159, 4196.66666653, 4192.56410243, 4170.25641012, 4168.71794858, 4161.66666646, 4172.43589730, 4169.23076910, 4168.46153833, 4126.92307665,12.0
4190.51282038, 4176.79487166, 4183.20512807, 4154.10256390, 4179.74358961, 4204.61538455, 4199.99999986, 4175.12820499, 4178.20512807, 4176.28205115, 4177.17948704, 4179.10256397, 4171.92307679, 4125.12820485,12.0
4200.64102551, 4181.02564089, 4188.07692294, 4159.10256390, 4206.15384609, 4204.74358968, 4196.41025628, 4172.69230756, 4190.38461525, 4204.87179481, 4188.07692294, 4189.10256397, 4170.51282038, 4125.38461511,12.0
4199.99999986, 4180.89743576, 4183.33333320, 4159.61538441, 4192.69230756, 4196.79487166, 4188.33333320, 4170.25641012, 4192.43589730, 4210.89743583, 4191.41025628, 4192.82051269, 4175.12820499, 4127.94871767,12.0
4195.12820499, 4173.46153833, 4175.76923063, 4158.07692287, 4169.87179474, 4193.84615371, 4182.43589730, 4166.15384595, 4182.30769217, 4199.87179474, 4185.64102551, 4189.23076910, 4173.84615371, 4124.48717921,12.0
4191.41025628, 4158.20512800, 4168.33333320, 4151.15384595, 4161.02564082, 4187.56410243, 4170.64102551, 4154.61538441, 4161.92307672, 4175.89743576, 4174.35897422, 4178.46153833, 4163.46153826, 4122.82051255,12.0
4184.61538448, 4148.46153826, 4167.94871774, 4146.66666646, 4153.84615364, 4177.94871781, 4161.02564082, 4146.15384595, 4147.05128185, 4149.61538441, 4165.89743569, 4172.43589730, 4165.64102544, 4122.82051255,12.0
4178.84615371, 4154.74358954, 4169.35897422, 4148.46153826, 4164.10256390, 4181.41025628, 4165.76923056, 4147.17948697, 4152.69230749, 4165.89743569, 4164.35897415, 4172.43589730, 4173.33333320, 4123.58974332,12.0
4174.48717935, 4155.64102544, 4157.30769210, 4145.89743569, 4176.79487166, 4186.15384602, 4172.82051269, 4152.30769210, 4162.05128185, 4193.58974345, 4153.07692287, 4161.02564082, 4162.05128185, 4125.12820485,12.0
4171.92307679, 4148.97435877, 4149.74358954, 4143.84615364, 4167.43589723, 4181.92307679, 4170.89743576, 4159.87179467, 4161.92307672, 4172.43589730, 4146.15384595, 4150.12820492, 4154.35897415, 4124.23076896,12.0
4177.43589730, 4155.76923056, 4159.87179467, 4152.05128185, 4163.84615364, 4184.48717935, 4173.20512807, 4165.89743569, 4166.53846133, 4160.12820492, 4162.56410236, 4160.51282031, 4169.87179474, 4127.82051255,12.0
4173.07692294, 4157.69230749, 4158.71794851, 4155.51282031, 4156.02564082, 4180.25641012, 4169.61538448, 4153.84615364, 4165.76923056, 4172.56410243, 4166.53846133, 4160.89743569, 4174.61538448, 4127.56410229,12.0
4165.12820492, 4150.25641005, 4150.76923056, 4150.64102544, 4147.56410236, 4168.97435884, 4163.58974339, 4146.02564082, 4160.38461518, 4170.64102551, 4152.17948697, 4143.33333313, 4163.46153826, 4123.07692280,12.0
4176.28205115, 4151.66666646, 4161.28205108, 4153.97435877, 4170.25641012, 4175.38461525, 4169.61538448, 4162.69230749, 4173.97435884, 4177.94871781, 4160.51282031, 4144.87179467, 4168.71794858, 4127.17948691,12.0
4179.74358961, 4148.84615364, 4160.38461518, 4152.69230749, 4167.69230749, 4173.46153833, 4162.05128185, 4162.69230749, 4177.43589730, 4169.23076910, 4170.76923063, 4151.92307672, 4175.51282038, 4128.20512793,12.0
4159.10256390, 4133.71794844, 4137.17948697, 4140.12820492, 4128.20512793, 4152.17948697, 4137.56410236, 4135.38461518, 4148.20512800, 4137.69230749, 4154.87179467, 4139.23076903, 4158.84615364, 4123.33333306,12.0
4149.99999980, 4133.33333306, 4133.33333306, 4142.56410236, 4143.97435877, 4155.12820492, 4133.84615357, 4127.94871767, 4138.71794851, 4162.05128185, 4152.05128185, 4135.51282031, 4149.61538441, 4122.69230742,12.0
4161.28205108, 4146.66666646, 4145.76923056, 4155.38461518, 4183.58974345, 4176.92307679, 4152.43589723, 4143.97435877, 4157.56410236, 4197.05128192, 4169.48717935, 4149.48717928, 4163.20512800, 4125.89743562,12.0
4160.25641005, 4146.79487159, 4140.38461518, 4152.94871774, 4159.61538441, 4173.20512807, 4157.82051262, 4143.71794851, 4153.84615364, 4160.76923056, 4163.58974339, 4146.41025621, 4163.46153826, 4123.46153819,12.0
4153.07692287, 4143.46153826, 4134.48717921, 4145.25641005, 4128.33333306, 4163.20512800, 4152.30769210, 4135.12820485, 4140.76923056, 4136.92307672, 4148.84615364, 4136.66666646, 4153.46153826, 4118.58974332,12.0
4159.74358954, 4147.05128185, 4145.38461518, 4147.43589723, 4145.12820492, 4171.53846140, 4155.76923056, 4143.33333313, 4150.89743569, 4159.61538441, 4155.25641005, 4143.71794851, 4159.87179467, 4125.12820485,12.0
4153.97435877, 4137.43589723, 4144.87179467, 4141.79487159, 4157.69230749, 4168.07692287, 4156.79487159, 4148.46153826, 4157.30769210, 4155.76923056, 4156.53846133, 4144.87179467, 4160.89743569, 4129.48717921,12.0
4133.71794844, 4121.66666639, 4129.74358947, 4127.30769203, 4142.05128185, 4152.43589723, 4148.20512800, 4137.05128185, 4145.64102544, 4147.17948697, 4145.89743569, 4132.56410229, 4150.76923056, 4122.94871767,12.0
4131.66666639, 4125.51282024, 4126.15384588, 4130.25640998, 4146.53846133, 4153.33333313, 4146.02564082, 4134.35897408, 4139.10256390, 4168.20512807, 4140.25641005, 4125.25640998, 4147.17948697, 4123.71794844,12.0
4133.97435870, 4128.07692280, 4129.10256383, 4132.05128178, 4146.66666646, 4152.69230749, 4145.38461518, 4137.30769210, 4135.12820485, 4154.99999980, 4134.10256383, 4121.41025614, 4142.56410236, 4124.99999973,12.0
4123.46153819, 4111.92307665, 4119.48717921, 4117.30769203, 4090.76923043, 4132.17948691, 4125.38461511, 4124.35897408, 4120.64102537, 4102.69230742, 4122.17948691, 4114.23076896, 4134.23076896, 4123.33333306,12.0
4126.66666639, 4113.71794844, 4117.43589716, 4117.94871767, 4084.61538427, 4130.51282024, 4118.07692280, 4121.28205101, 4119.10256383, 4110.25640998, 4123.46153819, 4120.12820485, 4138.71794851, 4124.48717921,12.0
4140.89743569, 4128.71794844, 4132.05128178, 4132.56410229, 4156.53846133, 4149.99999980, 4138.20512800, 4136.79487159, 4136.41025621, 4165.25641005, 4138.07692287, 4134.10256383, 4147.56410236, 4125.12820485,12.0
4138.58974339, 4126.41025614, 4135.38461518, 4130.51282024, 4168.84615371, 4150.25641005, 4140.89743569, 4134.74358947, 4136.66666646, 4163.33333313, 4143.07692287, 4131.53846126, 4146.66666646, 4126.53846126,12.0
4132.94871767, 4126.41025614, 4131.41025614, 4128.84615357, 4126.15384588, 4142.56410236, 4131.28205101, 4123.84615357, 4119.61538434, 4109.99999973, 4144.23076903, 4127.82051255, 4149.23076903, 4124.23076896,12.0
4145.89743569, 4140.89743569, 4142.82051262, 4143.84615364, 4127.94871767, 4147.94871774, 4144.10256390, 4134.35897408, 4126.15384588, 4107.43589716, 4149.74358954, 4139.61538441, 4154.61538441, 4122.69230742,12.0
4155.76923056, 4135.89743569, 4147.05128185, 4142.82051262, 4130.38461511, 4151.15384595, 4149.48717928, 4141.66666646, 4143.07692287, 4154.61538441, 4147.43589723, 4143.84615364, 4148.58974339, 4123.46153819,12.0
4150.76923056, 4124.87179460, 4144.23076903, 4135.38461518, 4119.74358947, 4153.97435877, 4144.23076903, 4138.33333313, 4148.71794851, 4173.71794858, 4149.87179467, 4142.56410236, 4149.87179467, 4122.05128178,12.0
4147.17948697, 4134.74358947, 4154.10256390, 4143.58974339, 4142.05128185, 4161.66666646, 4155.76923056, 4147.05128185, 4152.30769210, 4156.53846133, 4159.23076903, 4146.53846133, 4160.76923056, 4123.20512793,12.0
4143.84615364, 4136.66666646, 4151.79487159, 4139.48717928, 4143.84615364, 4154.35897415, 4154.61538441, 4146.41025621, 4145.51282031, 4137.56410236, 4154.35897415, 4143.46153826, 4158.33333313, 4122.30769203,12.0
4145.51282031, 4129.48717921, 4146.15384595, 4133.07692280, 4122.69230742, 4148.20512800, 4144.35897415, 4134.87179460, 4136.79487159, 4144.10256390, 4150.51282031, 4145.12820492, 4152.05128185, 4122.30769203,12.0
4157.17948697, 4135.38461518, 4159.99999980, 4143.58974339, 4130.76923050, 4157.94871774, 4153.58974339, 4139.10256390, 4142.56410236, 4143.71794851, 4154.61538441, 4157.05128185, 4159.10256390, 4126.53846126,12.0
4158.20512800, 4138.33333313, 4161.53846133, 4146.92307672, 4137.82051262, 4156.41025621, 4152.17948697, 4141.53846133, 4145.89743569, 4134.74358947, 4148.07692287, 4156.53846133, 4161.02564082, 4125.64102537,12.0
4147.30769210, 4131.41025614, 4140.89743569, 4135.76923056, 4118.71794844, 4143.84615364, 4135.38461518, 4127.69230742, 4132.05128178, 4142.30769210, 4137.17948697, 4143.33333313, 4146.02564082, 4124.74358947,12.0
4138.71794851, 4127.05128178, 4131.28205101, 4133.07692280, 4120.51282024, 4139.74358954, 4132.94871767, 4119.74358947, 4121.92307665, 4148.71794851, 4134.74358947, 4134.99999973, 4136.41025621, 4124.87179460,12.0
4131.02564075, 4120.76923050, 4133.58974332, 4136.53846133, 4138.58974339, 4142.69230749, 4134.87179460, 4121.79487152, 4124.99999973, 4136.41025621, 4132.43589716, 4132.69230742, 4141.41025621, 4123.71794844,12.0
4133.84615357, 4121.02564075, 4134.99999973, 4135.89743569, 4135.51282031, 4145.25641005, 4130.51282024, 4124.23076896, 4134.23076896, 4128.07692280, 4136.53846133, 4136.66666646, 4148.20512800, 4123.71794844,12.0
4141.66666646, 4129.23076896, 4139.23076903, 4137.56410236, 4129.10256383, 4147.43589723, 4134.74358947, 4128.20512793, 4142.82051262, 4135.38461518, 4147.17948697, 4142.56410236, 4152.30769210, 4121.66666639,12.0
4128.07692280, 4121.15384588, 4127.17948691, 4130.25640998, 4108.33333306, 4142.17948697, 4136.53846133, 4127.05128178, 4131.92307665, 4121.66666639, 4136.41025621, 4129.87179460, 4145.89743569, 4123.71794844,12.0
4108.97435870, 4109.23076896, 4106.66666639, 4119.87179460, 4088.97435863, 4134.87179460, 4129.35897408, 4120.89743562, 4118.20512793, 4112.17948691, 4118.71794844, 4113.46153819, 4135.25640998, 4127.17948691,12.0
4112.30769203, 4114.10256383, 4111.41025614, 4124.10256383, 4115.76923050, 4136.28205108, 4128.97435870, 4120.12820485, 4123.07692280, 4132.17948691, 4119.23076896, 4113.46153819, 4131.28205101, 4123.97435870,12.0
4118.46153819, 4116.79487152, 4120.76923050, 4125.51282024, 4140.25641005, 4132.69230742, 4124.61538434, 4115.12820485, 4120.89743562, 4132.17948691, 4120.89743562, 4112.30769203, 4130.12820485, 4122.05128178,12.0
4110.51282024, 4106.15384588, 4110.51282024, 4118.58974332, 4112.69230742, 4121.02564075, 4111.02564075, 4102.69230742, 4105.25640998, 4108.20512793, 4112.05128178, 4104.61538434, 4124.74358947, 4123.46153819,12.0
4109.99999973, 4108.20512793, 4107.30769203, 4120.64102537, 4090.38461504, 4119.10256383, 4111.53846126, 4101.92307658, 4101.28205094, 4104.35897408, 4107.56410229, 4105.64102537, 4120.12820485, 4124.48717921,12.0
4114.35897408, 4118.46153819, 4117.43589716, 4126.66666639, 4100.64102530, 4126.79487152, 4118.71794844, 4109.23076896, 4107.30769203, 4117.94871767, 4110.76923050, 4110.12820485, 4122.05128178, 4122.43589716,12.0
4106.92307665, 4111.02564075, 4115.12820485, 4120.76923050, 4103.33333306, 4128.33333306, 4112.56410229, 4107.17948691, 4107.56410229, 4116.92307665, 4106.53846126, 4106.92307665, 4123.71794844, 4122.94871767,12.0
4105.25640998, 4101.41025607, 4111.53846126, 4117.30769203, 4106.28205101, 4128.46153819, 4113.33333306, 4108.46153819, 4108.33333306, 4101.28205094, 4104.23076896, 4106.92307665, 4126.02564075, 4127.56410229,12.0
4115.51282024, 4107.94871767, 4122.56410229, 4124.35897408, 4119.87179460, 4132.43589716, 4123.97435870, 4116.53846126, 4115.89743562, 4099.35897402, 4112.56410229, 4113.97435870, 4134.23076896, 4125.38461511,12.0
4119.74358947, 4118.33333306, 4126.15384588, 4128.46153819, 4125.12820485, 4134.87179460, 4121.92307665, 4117.82051255, 4120.64102537, 4120.64102537, 4112.30769203, 4113.58974332, 4133.20512793, 4122.30769203,12.0
4113.20512793, 4118.46153819, 4116.53846126, 4128.07692280, 4112.56410229, 4137.94871774, 4117.43589716, 4115.64102537, 4119.23076896, 4135.51282031, 4100.12820478, 4106.79487152, 4120.51282024, 4125.25640998,12.0
4098.71794837, 4106.15384588, 4104.99999973, 4121.92307665, 4099.23076889, 4133.07692280, 4111.41025614, 4106.28205101, 4109.61538434, 4115.38461511, 4092.94871761, 4097.69230735, 4113.20512793, 4127.05128178,12.0
4089.10256376, 4098.33333299, 4096.66666632, 4114.48717921, 4099.10256376, 4124.61538434, 4101.15384581, 4095.51282017, 4097.82051248, 4091.53846119, 4094.74358940, 4092.69230735, 4117.43589716, 4128.84615357,12.0
4105.38461511, 4112.30769203, 4109.61538434, 4121.15384588, 4114.61538434, 4133.71794844, 4112.94871767, 4108.71794844, 4109.99999973, 4106.02564075, 4107.05128178, 4108.07692280, 4128.33333306, 4126.28205101,12.0
4121.15384588, 4120.64102537, 4122.30769203, 4128.58974332, 4129.74358947, 4143.71794851, 4125.76923050, 4119.99999973, 4123.20512793, 4123.97435870, 4112.82051255, 4116.66666639, 4130.64102537, 4124.23076896,12.0
4105.38461511, 4103.97435870, 4104.10256383, 4118.33333306, 4107.30769203, 4127.30769203, 4108.58974332, 4101.53846119, 4102.17948684, 4101.66666632, 4093.97435863, 4090.38461504, 4118.84615357, 4129.35897408,12.0
4090.25640991, 4100.51282017, 4090.89743555, 4113.97435870, 4086.66666632, 4117.43589716, 4101.53846119, 4093.71794837, 4087.30769196, 4069.48717907, 4085.25640991, 4077.05128171, 4113.97435870, 4125.89743562,12.0
4098.97435863, 4114.48717921, 4104.61538434, 4124.10256383, 4108.97435870, 4133.97435870, 4119.23076896, 4112.56410229, 4106.92307665, 4086.15384581, 4101.92307658, 4097.69230735, 4123.20512793, 4120.76923050,12.0
4106.15384588, 4114.74358947, 4114.23076896, 4127.94871767, 4117.94871767, 4136.41025621, 4124.48717921, 4117.30769203, 4120.25640998, 4125.25640998, 4111.28205101, 4111.79487152, 4127.05128178, 4122.69230742,12.0
4104.35897408, 4108.84615357, 4108.71794844, 4124.35897408, 4087.05128171, 4119.48717921, 4114.35897408, 4105.12820485, 4105.51282024, 4115.64102537, 4103.71794844, 4103.46153819, 4122.43589716, 4121.28205101,12.0
4103.71794844, 4105.51282024, 4102.56410229, 4121.02564075, 4086.92307658, 4115.76923050, 4110.89743562, 4103.07692280, 4094.10256376, 4088.71794837, 4095.89743555, 4094.87179453, 4117.94871767, 4121.15384588,12.0
4106.28205101, 4107.82051255, 4104.87179460, 4124.87179460, 4124.74358947, 4132.56410229, 4118.33333306, 4115.38461511, 4104.99999973, 4106.53846126, 4099.87179453, 4103.33333306, 4119.10256383, 4123.58974332,12.0
4114.61538434, 4120.12820485, 4115.64102537, 4138.33333313, 4121.66666639, 4141.66666646, 4123.20512793, 4123.71794844, 4119.35897408, 4125.89743562, 4115.12820485, 4121.15384588, 4132.17948691, 4124.23076896,12.0
4114.48717921, 4120.51282024, 4118.46153819, 4138.97435877, 4095.64102530, 4127.17948691, 4114.35897408, 4113.58974332, 4113.71794844, 4109.87179460, 4123.46153819, 4125.38461511, 4140.64102544, 4121.79487152,12.0
4103.07692280, 4105.89743562, 4106.28205101, 4123.84615357, 4108.58974332, 4117.30769203, 4103.71794844, 4103.33333306, 4106.92307665, 4121.02564075, 4114.74358947, 4114.23076896, 4129.48717921, 4121.28205101,12.0
4104.10256383, 4109.48717921, 4104.10256383, 4126.28205101, 4121.53846126, 4128.84615357, 4109.23076896, 4109.48717921, 4112.05128178, 4139.10256390, 4109.48717921, 4107.82051255, 4124.48717921, 4123.71794844,12.0
4107.69230742, 4120.76923050, 4111.53846126, 4136.53846133, 4093.46153812, 4131.28205101, 4113.33333306, 4109.48717921, 4104.74358947, 4094.61538427, 4112.17948691, 4104.23076896, 4131.02564075, 4124.35897408,12.0
4100.25640991, 4114.35897408, 4106.41025614, 4129.48717921, 4085.89743555, 4117.94871767, 4106.41025614, 4097.17948684, 4092.43589709, 4066.53846113, 4105.76923050, 4094.48717914, 4122.30769203, 4124.48717921,12.0
4093.33333299, 4107.56410229, 4098.20512786, 4126.79487152, 4125.64102537, 4119.74358947, 4105.89743562, 4096.28205094, 4101.66666632, 4119.23076896, 4096.28205094, 4093.97435863, 4107.82051255, 4120.89743562,12.0
4093.07692273, 4110.25640998, 4102.82051255, 4135.25640998, 4128.97435870, 4127.30769203, 4111.92307665, 4103.46153819, 4108.20512793, 4130.25640998, 4099.35897402, 4103.84615357, 4111.02564075, 4119.99999973,12.0
4096.79487145, 4112.43589716, 4108.97435870, 4137.56410236, 4095.89743555, 4123.33333306, 4113.71794844, 4105.25640998, 4099.23076889, 4070.25640991, 4110.38461511, 4108.20512793, 4124.10256383, 4125.64102537,12.0
4096.02564068, 4108.58974332, 4105.64102537, 4130.25640998, 4098.84615350, 4119.99999973, 4110.12820485, 4105.38461511, 4102.43589709, 4075.76923043, 4111.66666639, 4106.53846126, 4125.51282024, 4126.28205101,12.0
4093.71794837, 4103.46153819, 4100.51282017, 4126.66666639, 4110.38461511, 4124.48717921, 4107.30769203, 4104.87179460, 4109.35897408, 4121.02564075, 4101.41025607, 4106.92307665, 4113.84615357, 4125.64102537,12.0
4098.84615350, 4108.46153819, 4104.74358947, 4129.23076896, 4088.46153812, 4126.53846126, 4106.02564075, 4104.10256383, 4104.35897408, 4118.07692280, 4093.84615350, 4108.58974332, 4109.48717921, 4126.41025614,12.0
4101.28205094, 4112.05128178, 4109.87179460, 4124.99999973, 4078.84615350, 4118.33333306, 4099.74358940, 4102.94871767, 4102.94871767, 4095.12820478, 4092.05128171, 4108.58974332, 4116.15384588, 4123.58974332,12.0
4092.43589709, 4101.79487145, 4101.15384581, 4116.15384588, 4095.89743555, 4110.38461511, 4093.84615350, 4098.84615350, 4106.66666639, 4079.99999966, 4090.51282017, 4106.02564075, 4116.15384588, 4123.71794844,12.0
4090.12820478, 4098.33333299, 4092.94871761, 4116.92307665, 4104.87179460, 4117.82051255, 4102.17948684, 4100.89743555, 4112.17948691, 4084.10256376, 4093.58974325, 4103.97435870, 4112.69230742, 4124.74358947,12.0
4097.30769196, 4106.41025614, 4099.10256376, 4120.25640998, 4098.33333299, 4128.84615357, 4116.53846126, 4111.02564075, 4117.05128178, 4113.20512793, 4095.51282017, 4102.69230742, 4114.35897408, 4124.23076896,12.0
4097.17948684, 4110.51282024, 4103.46153819, 4118.07692280, 4097.94871761, 4129.48717921, 4122.17948691, 4115.38461511, 4118.84615357, 4124.61538434, 4089.87179453, 4100.76923043, 4112.30769203, 4125.89743562,12.0
4090.64102530, 4105.38461511, 4094.10256376, 4115.76923050, 4102.43589709, 4124.48717921, 4117.82051255, 4108.58974332, 4111.53846126, 4097.56410222, 4078.58974325, 4095.12820478, 4104.23076896, 4124.87179460,12.0
4089.87179453, 4097.94871761, 4089.48717914, 4112.82051255, 4106.28205101, 4123.46153819, 4113.20512793, 4105.12820485, 4101.79487145, 4082.17948684, 4073.58974325, 4091.15384581, 4107.30769203, 4123.58974332,12.0
4094.74358940, 4101.28205094, 4097.30769196, 4107.94871767, 4098.71794837, 4124.35897408, 4117.56410229, 4111.92307665, 4106.79487152, 4089.99999966, 4083.46153812, 4095.89743555, 4123.58974332, 4124.74358947,12.0
4092.17948684, 4107.94871767, 4097.94871761, 4110.64102537, 4081.66666632, 4122.43589716, 4122.56410229, 4115.12820485, 4118.84615357, 4101.28205094, 4086.28205094, 4097.30769196, 4122.56410229, 4124.74358947,12.0
4083.20512786, 4101.41025607, 4091.28205094, 4115.12820485, 4093.58974325, 4121.53846126, 4117.56410229, 4107.94871767, 4115.38461511, 4105.89743562, 4076.66666632, 4091.02564068, 4107.30769203, 4123.71794844,12.0
4083.07692273, 4092.30769196, 4089.99999966, 4117.94871767, 4114.48717921, 4119.74358947, 4107.69230742, 4099.74358940, 4103.58974332, 4092.17948684, 4082.82051248, 4094.99999966, 4110.76923050, 4122.94871767,12.0
4092.05128171, 4101.41025607, 4097.43589709, 4122.05128178, 4094.87179453, 4115.76923050, 4109.10256383, 4102.43589709, 4106.53846126, 4090.38461504, 4099.23076889, 4105.64102537, 4122.56410229, 4126.02564075,12.0
4093.46153812, 4108.46153819, 4104.61538434, 4119.74358947, 4077.56410222, 4111.92307665, 4110.64102537, 4106.66666639, 4114.23076896, 4104.99999973, 4100.64102530, 4107.30769203, 4114.61538434, 4126.02564075,12.0
4092.56410222, 4109.48717921, 4106.79487152, 4124.35897408, 4096.41025607, 4117.43589716, 4111.66666639, 4107.43589716, 4112.94871767, 4103.20512793, 4103.20512793, 4109.87179460, 4111.79487152, 4121.53846126,12.0
4097.94871761, 4120.12820485, 4106.79487152, 4135.12820485, 4109.61538434, 4127.05128178, 4120.64102537, 4112.17948691, 4111.41025614, 4085.89743555, 4113.20512793, 4113.33333306, 4124.99999973, 4123.84615357,12.0
4094.61538427, 4116.41025614, 4103.71794844, 4131.15384588, 4104.87179460, 4120.89743562, 4114.87179460, 4108.07692280, 4111.79487152, 4092.30769196, 4111.02564075, 4107.94871767, 4120.38461511, 4126.02564075,12.0
4090.25640991, 4104.23076896, 4102.17948684, 4123.20512793, 4099.48717914, 4112.30769203, 4107.56410229, 4101.79487145, 4118.07692280, 4125.51282024, 4109.10256383, 4109.23076896, 4114.48717921, 4123.46153819,12.0
4090.12820478, 4103.07692280, 4096.15384581, 4118.33333306, 4091.41025607, 4116.41025614, 4113.84615357, 4103.84615357, 4117.17948691, 4126.15384588, 4111.66666639, 4113.07692280, 4122.94871767, 4122.30769203,12.0
4095.89743555, 4109.48717921, 4091.28205094, 4120.51282024, 4103.20512793, 4124.61538434, 4117.69230742, 4104.99999973, 4110.64102537, 4092.17948684, 4112.43589716, 4112.30769203, 4128.84615357, 4122.69230742,12.0
4106.92307665, 4116.02564075, 4096.15384581, 4129.87179460, 4118.97435870, 4127.05128178, 4113.20512793, 4108.07692280, 4118.46153819, 4091.66666632, 4111.92307665, 4116.41025614, 4124.99999973, 4123.97435870,12.0
4110.12820485, 4123.84615357, 4103.97435870, 4136.66666646, 4113.58974332, 4127.30769203, 4116.41025614, 4114.87179460, 4131.92307665, 4126.92307665, 4113.33333306, 4123.07692280, 4122.94871767, 4124.48717921,12.0
4113.07692280, 4133.84615357, 4114.10256383, 4145.12820492, 4122.30769203, 4140.64102544, 4128.84615357, 4121.02564075, 4137.82051262, 4142.82051262, 4123.20512793, 4131.41025614, 4133.71794844, 4127.82051255,12.0
4127.43589716, 4144.74358954, 4129.23076896, 4158.20512800, 4145.38461518, 4155.12820492, 4140.64102544, 4125.76923050, 4146.92307672, 4136.92307672, 4139.74358954, 4147.30769210, 4150.76923056, 4126.66666639,12.0
4151.53846133, 4163.71794851, 4149.99999980, 4173.97435884, 4163.58974339, 4162.94871774, 4154.99999980, 4132.82051255, 4162.43589723, 4136.02564082, 4158.46153826, 4168.07692287, 4165.76923056, 4123.97435870,12.0
4167.56410236, 4170.89743576, 4164.48717928, 4186.28205115, 4187.30769217, 4169.23076910, 4164.74358954, 4140.38461518, 4167.94871774, 4146.92307672, 4164.99999980, 4178.58974345, 4167.05128185, 4126.02564075,12.0
4163.33333313, 4160.38461518, 4162.69230749, 4184.74358961, 4183.07692294, 4172.43589730, 4170.25641012, 4145.89743569, 4170.12820499, 4172.94871781, 4160.51282031, 4173.20512807, 4158.71794851, 4122.69230742,12.0
4161.41025621, 4163.58974339, 4154.87179467, 4177.56410243, 4160.64102544, 4178.84615371, 4184.48717935, 4156.15384595, 4186.28205115, 4187.05128192, 4164.48717928, 4169.10256397, 4164.35897415, 4122.82051255,12.0
4168.84615371, 4173.33333320, 4153.33333313, 4181.41025628, 4171.41025628, 4184.23076910, 4193.97435884, 4162.30769210, 4197.30769217, 4170.12820499, 4175.76923063, 4172.05128192, 4179.10256397, 4124.48717921,12.0
4166.79487159, 4164.35897415, 4154.99999980, 4182.43589730, 4176.15384602, 4175.64102551, 4179.61538448, 4152.56410236, 4189.87179474, 4172.17948704, 4176.92307679, 4171.28205115, 4176.66666653, 4121.66666639,12.0
4170.25641012, 4159.35897415, 4155.64102544, 4175.38461525, 4163.97435877, 4168.46153833, 4168.84615371, 4145.38461518, 4184.10256397, 4198.58974345, 4173.20512807, 4170.25641012, 4168.20512807, 4124.74358947,12.0
4181.53846140, 4171.28205115, 4158.20512800, 4181.02564089, 4179.99999986, 4176.28205115, 4178.20512807, 4151.53846133, 4188.20512807, 4191.66666653, 4176.79487166, 4179.48717935, 4169.74358961, 4125.76923050,12.0
4171.79487166, 4169.23076910, 4157.69230749, 4186.53846140, 4184.23076910, 4172.43589730, 4174.99999986, 4148.84615364, 4181.92307679, 4164.48717928, 4170.12820499, 4181.02564089, 4160.38461518, 4123.46153819,12.0
4160.51282031, 4155.38461518, 4151.79487159, 4174.74358961, 4148.97435877, 4153.20512800, 4156.53846133, 4135.89743569, 4165.25641005, 4146.15384595, 4157.82051262, 4169.48717935, 4148.33333313, 4124.61538434,12.0
4166.66666646, 4150.38461518, 4148.84615364, 4169.48717935, 4139.48717928, 4147.43589723, 4150.89743569, 4135.89743569, 4161.79487159, 4142.56410236, 4159.35897415, 4165.38461518, 4150.25641005, 4126.28205101,12.0
4166.53846133, 4150.38461518, 4150.25641005, 4173.07692294, 4159.10256390, 4154.74358954, 4158.07692287, 4142.69230749, 4165.38461518, 4153.46153826, 4160.64102544, 4168.20512807, 4150.76923056, 4128.46153819,12.0
4156.92307672, 4148.58974339, 4151.92307672, 4169.61538448, 4160.25641005, 4155.12820492, 4161.02564082, 4140.89743569, 4162.30769210, 4155.64102544, 4154.87179467, 4167.69230749, 4150.76923056, 4127.82051255,12.0
4154.99999980, 4143.33333313, 4151.92307672, 4165.89743569, 4155.89743569, 4149.99999980, 4157.69230749, 4139.87179467, 4165.38461518, 4148.46153826, 4157.43589723, 4167.05128185, 4157.05128185, 4124.74358947,12.0
4159.99999980, 4145.76923056, 4150.76923056, 4170.38461525, 4160.38461518, 4156.79487159, 4164.61538441, 4152.43589723, 4179.61538448, 4169.48717935, 4165.64102544, 4169.10256397, 4157.82051262, 4129.61538434,12.0
4159.35897415, 4151.15384595, 4147.05128185, 4167.94871774, 4167.56410236, 4164.61538441, 4175.76923063, 4162.56410236, 4187.05128192, 4196.92307679, 4162.56410236, 4164.99999980, 4151.92307672, 4128.97435870,12.0
4152.82051262, 4145.25641005, 4137.43589723, 4157.94871774, 4150.89743569, 4158.46153826, 4167.43589723, 4149.48717928, 4176.79487166, 4174.61538448, 4154.87179467, 4156.79487159, 4151.41025621, 4122.94871767,12.0
4153.07692287, 4136.41025621, 4135.12820485, 4161.53846133, 4133.46153819, 4152.94871774, 4152.43589723, 4133.97435870, 4171.53846140, 4148.33333313, 4156.02564082, 4159.61538441, 4157.30769210, 4127.56410229,12.0
4161.79487159, 4138.58974339, 4145.64102544, 4169.61538448, 4153.84615364, 4158.71794851, 4153.71794851, 4140.25641005, 4181.02564089, 4164.74358954, 4162.69230749, 4171.02564089, 4162.43589723, 4127.56410229,12.0
4169.87179474, 4149.87179467, 4154.10256390, 4171.66666653, 4173.33333320, 4169.61538448, 4166.79487159, 4152.82051262, 4183.97435884, 4174.35897422, 4167.43589723, 4177.17948704, 4164.61538441, 4124.61538434,12.0
4174.99999986, 4154.23076903, 4155.51282031, 4174.61538448, 4168.46153833, 4172.82051269, 4174.10256397, 4154.48717928, 4177.69230756, 4159.10256390, 4167.69230749, 4177.05128192, 4166.41025621, 4122.94871767,12.0
4182.94871781, 4150.12820492, 4160.25641005, 4177.69230756, 4173.58974345, 4163.84615364, 4170.64102551, 4151.92307672, 4176.15384602, 4160.51282031, 4163.33333313, 4178.46153833, 4166.15384595, 4120.89743562,12.0
4189.74358961, 4154.48717928, 4171.92307679, 4180.64102551, 4170.51282038, 4160.89743569, 4168.58974345, 4151.02564082, 4176.02564089, 4171.02564089, 4161.02564082, 4180.89743576, 4162.82051262, 4124.23076896,12.0
4186.41025628, 4159.61538441, 4173.71794858, 4182.17948704, 4153.84615364, 4169.48717935, 4178.84615371, 4154.74358954, 4177.56410243, 4172.69230756, 4167.17948697, 4182.82051269, 4164.35897415, 4121.66666639,12.0
4180.89743576, 4153.20512800, 4161.79487159, 4176.92307679, 4166.79487159, 4167.05128185, 4184.48717935, 4158.07692287, 4178.33333320, 4172.30769217, 4165.12820492, 4174.61538448, 4163.97435877, 4121.41025614,12.0
4177.69230756, 4144.10256390, 4148.58974339, 4165.89743569, 4171.79487166, 4152.94871774, 4167.30769210, 4147.17948697, 4169.10256397, 4161.41025621, 4149.35897415, 4160.89743569, 4154.35897415, 4125.76923050,12.0
4168.71794858, 4134.87179460, 4139.61538441, 4157.69230749, 4141.92307672, 4150.64102544, 4150.76923056, 4133.97435870, 4161.28205108, 4151.28205108, 4141.53846133, 4157.30769210, 4147.17948697, 4125.12820485,12.0
4162.30769210, 4127.82051255, 4136.92307672, 4151.79487159, 4136.92307672, 4152.69230749, 4152.43589723, 4136.15384595, 4163.97435877, 4162.82051262, 4147.94871774, 4157.82051262, 4147.30769210, 4123.20512793,12.0
4161.92307672, 4129.35897408, 4135.64102544, 4151.79487159, 4148.46153826, 4144.48717928, 4151.92307672, 4138.84615364, 4166.02564082, 4175.89743576, 4153.71794851, 4153.46153826, 4147.56410236, 4121.15384588,12.0
4158.84615364, 4132.17948691, 4128.58974332, 4155.38461518, 4138.46153826, 4138.84615364, 4141.53846133, 4130.89743562, 4158.33333313, 4149.74358954, 4148.46153826, 4148.07692287, 4144.23076903, 4123.46153819,12.0
4154.74358954, 4130.51282024, 4124.99999973, 4151.79487159, 4124.74358947, 4141.28205108, 4140.25641005, 4125.76923050, 4150.25641005, 4118.58974332, 4141.79487159, 4149.74358954, 4143.84615364, 4123.71794844,12.0
4151.15384595, 4124.48717921, 4127.82051255, 4148.07692287, 4120.76923050, 4139.48717928, 4142.30769210, 4123.71794844, 4146.92307672, 4129.61538434, 4142.30769210, 4149.87179467, 4143.20512800, 4122.69230742,12.0
4146.66666646, 4125.25640998, 4123.71794844, 4151.28205108, 4136.15384595, 4132.82051255, 4134.61538434, 4118.33333306, 4142.94871774, 4154.74358954, 4137.82051262, 4143.84615364, 4136.02564082, 4125.64102537,12.0
4140.38461518, 4133.46153819, 4117.82051255, 4152.30769210, 4151.41025621, 4135.25640998, 4135.76923056, 4119.35897408, 4144.48717928, 4150.89743569, 4127.17948691, 4141.15384595, 4128.71794844, 4124.61538434,12.0
4138.58974339, 4132.05128178, 4116.53846126, 4147.94871774, 4127.56410229, 4144.87179467, 4145.25641005, 4127.94871767, 4150.76923056, 4126.02564075, 4123.46153819, 4140.38461518, 4130.38461511, 4125.12820485,12.0
4147.17948697, 4128.07692280, 4120.76923050, 4150.51282031, 4123.97435870, 4146.66666646, 4147.69230749, 4134.87179460, 4155.89743569, 4124.99999973, 4132.17948691, 4144.61538441, 4140.64102544, 4126.41025614,12.0
4152.05128185, 4134.48717921, 4134.35897408, 4157.56410236, 4161.28205108, 4142.56410236, 4144.10256390, 4135.25640998, 4152.82051262, 4129.87179460, 4140.25641005, 4151.28205108, 4142.56410236, 4123.84615357,12.0
4144.74358954, 4135.76923056, 4137.69230749, 4158.07692287, 4156.28205108, 4139.23076903, 4136.02564082, 4130.25640998, 4146.15384595, 4125.89743562, 4135.38461518, 4146.53846133, 4131.02564075, 4124.74358947,12.0
4138.58974339, 4129.35897408, 4127.30769203, 4157.56410236, 4123.07692280, 4137.43589723, 4127.43589716, 4122.30769203, 4147.82051262, 4143.07692287, 4132.17948691, 4135.76923056, 4126.15384588, 4125.12820485,12.0
4140.25641005, 4131.66666639, 4122.17948691, 4160.12820492, 4131.79487152, 4141.15384595, 4128.07692280, 4121.02564075, 4152.82051262, 4154.99999980, 4140.89743569, 4132.30769203, 4134.61538434, 4126.15384588,12.0
4131.79487152, 4127.05128178, 4116.28205101, 4153.07692287, 4134.48717921, 4138.46153826, 4122.82051255, 4116.53846126, 4143.46153826, 4128.84615357, 4138.20512800, 4125.25640998, 4134.35897408, 4127.69230742,12.0
4121.53846126, 4118.33333306, 4109.99999973, 4145.38461518, 4112.94871767, 4124.87179460, 4109.35897408, 4104.23076896, 4130.89743562, 4110.64102537, 4125.89743562, 4118.71794844, 4126.02564075, 4125.51282024,12.0
4137.30769210, 4132.43589716, 4120.51282024, 4154.74358954, 4130.51282024, 4126.41025614, 4117.56410229, 4109.23076896, 4141.92307672, 4139.87179467, 4133.58974332, 4130.89743562, 4132.82051255, 4126.53846126,12.0
4154.48717928, 4143.20512800, 4130.89743562, 4159.99999980, 4158.07692287, 4139.87179467, 4135.25640998, 4122.05128178, 4157.30769210, 4172.17948704, 4144.99999980, 4141.92307672, 4140.76923056, 4127.56410229,12.0
4146.15384595, 4132.43589716, 4123.07692280, 4146.28205108, 4148.46153826, 4138.58974339, 4136.28205108, 4122.82051255, 4151.53846133, 4154.74358954, 4138.58974339, 4132.56410229, 4134.23076896, 4126.79487152,12.0
4131.53846126, 4122.82051255, 4115.12820485, 4140.12820492, 4127.56410229, 4132.30769203, 4134.23076896, 4125.25640998, 4142.05128185, 4111.15384588, 4134.99999973, 4126.41025614, 4134.87179460, 4125.89743562,12.0
4129.48717921, 4127.43589716, 4120.76923050, 4150.51282031, 4116.02564075, 4138.33333313, 4143.58974339, 4136.02564082, 4151.79487159, 4113.46153819, 4143.33333313, 4136.53846133, 4146.53846133, 4120.89743562,12.0
4134.61538434, 4130.38461511, 4123.84615357, 4147.82051262, 4121.53846126, 4143.07692287, 4148.71794851, 4140.12820492, 4164.48717928, 4159.48717928, 4137.56410236, 4137.30769210, 4138.97435877, 4122.17948691,12.0
4129.74358947, 4120.64102537, 4111.28205101, 4135.76923056, 4139.35897415, 4138.84615364, 4136.79487159, 4131.79487152, 4154.99999980, 4162.56410236, 4117.30769203, 4120.64102537, 4118.58974332, 4124.61538434,12.0
4116.92307665, 4114.74358947, 4098.58974325, 4136.28205108, 4133.71794844, 4136.53846133, 4128.58974332, 4122.30769203, 4139.74358954, 4118.71794844, 4109.87179460, 4114.48717921, 4119.35897408, 4120.25640998,12.0
4114.48717921, 4119.87179460, 4100.64102530, 4137.56410236, 4115.38461511, 4135.12820485, 4136.41025621, 4122.43589716, 4140.38461518, 4110.12820485, 4118.71794844, 4121.79487152, 4131.15384588, 4119.35897408,12.0
4125.51282024, 4128.97435870, 4111.92307665, 4136.28205108, 4130.38461511, 4134.23076896, 4136.79487159, 4125.25640998, 4146.92307672, 4130.89743562, 4125.51282024, 4124.99999973, 4132.56410229, 4123.20512793,12.0
4140.51282031, 4141.28205108, 4128.46153819, 4147.05128185, 4149.35897415, 4141.28205108, 4133.97435870, 4121.15384588, 4145.76923056, 4128.71794844, 4126.28205101, 4129.48717921, 4134.35897408, 4125.12820485,12.0
4143.97435877, 4145.25641005, 4137.82051262, 4156.66666646, 4138.58974339, 4146.79487159, 4142.94871774, 4115.76923050, 4140.89743569, 4125.76923050, 4125.76923050, 4134.61538434, 4135.89743569, 4122.05128178,12.0
4137.94871774, 4138.46153826, 4132.82051255, 4150.76923056, 4138.33333313, 4141.66666646, 4146.79487159, 4117.43589716, 4137.94871774, 4143.97435877, 4125.76923050, 4130.25640998, 4130.38461511, 4120.76923050,12.0
4140.64102544, 4142.82051262, 4132.82051255, 4145.76923056, 4145.51282031, 4140.25641005, 4142.82051262, 4124.61538434, 4140.51282031, 4147.17948697, 4133.33333306, 4128.97435870, 4133.07692280, 4124.99999973,12.0
4149.10256390, 4152.94871774, 4148.46153826, 4150.89743569, 4140.51282031, 4149.48717928, 4153.07692287, 4132.94871767, 4149.48717928, 4139.35897415, 4146.79487159, 4142.05128185, 4149.87179467, 4125.76923050,12.0
4148.33333313, 4145.38461518, 4155.64102544, 4153.84615364, 4149.74358954, 4151.41025621, 4159.87179467, 4134.35897408, 4150.25641005, 4155.51282031, 4147.30769210, 4147.05128185, 4151.66666646, 4123.58974332,12.0
4134.48717921, 4136.79487159, 4145.51282031, 4148.07692287, 4154.35897415, 4139.48717928, 4141.92307672, 4130.25640998, 4140.76923056, 4160.64102544, 4135.38461518, 4136.41025621, 4138.97435877, 4123.84615357,12.0
4124.23076896, 4140.89743569, 4143.20512800, 4144.35897415, 4133.33333306, 4132.30769203, 4127.30769203, 4124.74358947, 4132.94871767, 4123.20512793, 4129.35897408, 4132.94871767, 4134.87179460, 4125.38461511,12.0
4123.71794844, 4140.89743569, 4147.94871774, 4150.25641005, 4130.25640998, 4134.35897408, 4130.12820485, 4116.02564075, 4125.76923050, 4103.07692280, 4125.51282024, 4134.23076896, 4132.05128178, 4125.89743562,12.0
4124.87179460, 4137.17948697, 4144.23076903, 4153.58974339, 4145.12820492, 4132.56410229, 4127.30769203, 4110.12820485, 4124.87179460, 4132.94871767, 4121.28205101, 4132.05128178, 4126.79487152, 4123.07692280,12.0
4120.89743562, 4134.99999973, 4143.84615364, 4148.97435877, 4134.35897408, 4125.25640998, 4118.07692280, 4111.15384588, 4126.41025614, 4130.64102537, 4120.25640998, 4127.30769203, 4125.64102537, 4124.61538434,12.0
4115.64102537, 4130.89743562, 4150.51282031, 4143.46153826, 4117.43589716, 4121.15384588, 4114.87179460, 4106.92307665, 4116.53846126, 4083.71794837, 4116.53846126, 4121.41025614, 4123.20512793, 4126.66666639,12.0
4112.94871767, 4126.66666639, 4145.64102544, 4138.97435877, 4118.58974332, 4119.35897408, 4115.76923050, 4100.89743555, 4110.25640998, 4087.05128171, 4111.15384588, 4115.76923050, 4114.10256383, 4123.71794844,12.0
4115.12820485, 4128.20512793, 4138.07692287, 4143.33333313, 4128.46153819, 4127.17948691, 4122.56410229, 4111.28205101, 4122.82051255, 4132.43589716, 4113.33333306, 4116.79487152, 4118.58974332, 4125.64102537,12.0
4114.61538434, 4129.87179460, 4137.30769210, 4146.15384595, 4130.64102537, 4133.71794844, 4129.10256383, 4118.97435870, 4131.53846126, 4126.02564075, 4113.58974332, 4116.92307665, 4127.69230742, 4125.51282024,12.0
4104.48717921, 4123.20512793, 4124.99999973, 4133.84615357, 4114.99999973, 4124.61538434, 4124.99999973, 4113.46153819, 4126.53846126, 4092.82051248, 4102.94871767, 4103.33333306, 4112.82051255, 4124.99999973,12.0
4102.56410229, 4119.48717921, 4116.53846126, 4126.28205101, 4106.28205101, 4121.15384588, 4124.35897408, 4119.23076896, 4132.43589716, 4110.76923050, 4099.48717914, 4095.25640991, 4103.20512793, 4128.07692280,12.0
4109.23076896, 4122.17948691, 4123.58974332, 4130.51282024, 4118.71794844, 4127.69230742, 4128.20512793, 4124.48717921, 4137.94871774, 4125.89743562, 4105.38461511, 4102.82051255, 4115.12820485, 4123.20512793,12.0
4115.38461511, 4126.41025614, 4129.87179460, 4131.92307665, 4122.69230742, 4128.33333306, 4126.92307665, 4112.82051255, 4129.10256383, 4108.97435870, 4107.82051255, 4108.97435870, 4122.69230742, 4122.43589716,12.0
4121.28205101, 4128.58974332, 4136.92307672, 4133.46153819, 4119.74358947, 4125.64102537, 4126.41025614, 4106.79487152, 4129.87179460, 4114.74358947, 4116.41025614, 4114.74358947, 4122.56410229, 4126.66666639,12.0
4120.89743562, 4125.25640998, 4142.05128185, 4136.41025621, 4120.12820485, 4124.74358947, 4123.46153819, 4110.38461511, 4134.99999973, 4123.07692280, 4126.53846126, 4122.69230742, 4124.74358947, 4127.17948691,12.0
4117.05128178, 4124.23076896, 4137.17948697, 4132.69230742, 4108.58974332, 4120.51282024, 4112.82051255, 4106.66666639, 4124.48717921, 4103.58974332, 4120.25640998, 4122.94871767, 4121.41025614, 4127.56410229,12.0
4121.53846126, 4131.66666639, 4137.69230749, 4136.15384595, 4100.76923043, 4117.43589716, 4110.38461511, 4099.61538427, 4117.56410229, 4096.92307658, 4112.17948691, 4122.17948691, 4117.43589716, 4125.76923050,12.0
4129.99999973, 4136.53846133, 4145.38461518, 4142.82051262, 4108.97435870, 4120.38461511, 4122.43589716, 4102.94871767, 4123.84615357, 4107.30769203, 4118.58974332, 4127.17948691, 4124.61538434, 4123.71794844,12.0
4126.15384588, 4131.53846126, 4140.51282031, 4139.35897415, 4121.53846126, 4123.84615357, 4134.61538434, 4115.38461511, 4130.25640998, 4116.41025614, 4126.02564075, 4127.94871767, 4129.48717921, 4122.30769203,12.0
4118.71794844, 4126.92307665, 4128.33333306, 4136.79487159, 4133.20512793, 4123.07692280, 4134.10256383, 4119.99999973, 4135.64102544, 4139.23076903, 4120.38461511, 4121.41025614, 4125.64102537, 4122.94871767,12.0
4113.71794844, 4124.74358947, 4120.64102537, 4135.76923056, 4119.10256383, 4117.43589716, 4124.48717921, 4111.15384588, 4131.15384588, 4134.61538434, 4109.74358947, 4113.33333306, 4121.02564075, 4127.17948691,12.0
4108.20512793, 4123.97435870, 4116.79487152, 4134.87179460, 4089.10256376, 4117.94871767, 4121.66666639, 4110.12820485, 4123.33333306, 4090.89743555, 4108.84615357, 4113.33333306, 4121.53846126, 4123.07692280,12.0
4110.12820485, 4127.17948691, 4118.46153819, 4140.25641005, 4104.61538434, 4128.07692280, 4127.82051255, 4120.25640998, 4134.23076896, 4096.53846119, 4112.56410229, 4119.23076896, 4123.07692280, 4118.71794844,12.0
4113.97435870, 4127.94871767, 4122.82051255, 4146.53846133, 4143.71794851, 4132.05128178, 4128.33333306, 4118.84615357, 4143.46153826, 4141.41025621, 4112.17948691, 4120.51282024, 4119.87179460, 4124.74358947,12.0
4108.71794844, 4122.30769203, 4122.56410229, 4144.48717928, 4129.87179460, 4122.94871767, 4118.58974332, 4103.71794844, 4125.51282024, 4133.33333306, 4111.28205101, 4114.87179460, 4117.43589716, 4127.82051255,12.0
4108.33333306, 4124.74358947, 4123.20512793, 4140.25641005, 4099.99999966, 4117.43589716, 4112.43589716, 4097.69230735, 4108.07692280, 4092.82051248, 4110.64102537, 4112.69230742, 4119.87179460, 4123.46153819,12.0
4109.87179460, 4126.79487152, 4121.02564075, 4137.30769210, 4107.17948691, 4114.48717921, 4108.84615357, 4100.51282017, 4107.69230742, 4079.87179453, 4103.20512793, 4114.10256383, 4116.53846126, 4119.74358947,12.0
4100.89743555, 4119.10256383, 4111.66666639, 4135.38461518, 4109.61538434, 4107.69230742, 4102.69230742, 4100.76923043, 4108.20512793, 4089.10256376, 4093.33333299, 4108.20512793, 4105.76923050, 4123.58974332,12.0
4096.28205094, 4117.43589716, 4105.12820485, 4136.41025621, 4105.25640998, 4110.64102537, 4107.94871767, 4103.33333306, 4113.97435870, 4107.05128178, 4093.46153812, 4102.94871767, 4107.05128178, 4128.07692280,12.0
4095.38461504, 4119.61538434, 4101.02564068, 4132.17948691, 4119.87179460, 4117.30769203, 4120.12820485, 4108.20512793, 4124.10256383, 4118.58974332, 4096.53846119, 4102.56410229, 4115.25640998, 4126.28205101,12.0
4087.69230735, 4113.33333306, 4095.76923043, 4124.10256383, 4116.79487152, 4116.15384588, 4119.10256383, 4107.43589716, 4125.51282024, 4107.69230742, 4091.53846119, 4097.17948684, 4107.43589716, 4126.41025614,12.0
4078.84615350, 4105.64102537, 4089.99999966, 4117.82051255, 4094.23076889, 4113.20512793, 4109.48717921, 4105.12820485, 4122.43589716, 4087.69230735, 4082.94871761, 4089.48717914, 4096.53846119, 4125.12820485,12.0
4075.38461504, 4102.43589709, 4082.56410222, 4112.94871767, 4091.92307658, 4116.15384588, 4111.66666639, 4108.20512793, 4117.69230742, 4074.61538427, 4079.87179453, 4085.25640991, 4099.23076889, 4122.94871767,12.0
4076.28205094, 4100.76923043, 4076.28205094, 4112.17948691, 4107.05128178, 4120.64102537, 4117.94871767, 4108.20512793, 4115.12820485, 4077.82051248, 4082.05128171, 4083.71794837, 4099.74358940, 4122.94871767,12.0
4078.58974325, 4104.35897408, 4080.51282017, 4119.99999973, 4107.05128178, 4119.87179460, 4114.99999973, 4107.17948691, 4122.69230742, 4103.58974332, 4085.38461504, 4085.64102530, 4092.05128171, 4124.23076896,12.0
4081.79487145, 4109.87179460, 4092.30769196, 4127.30769203, 4103.07692280, 4118.84615357, 4111.79487152, 4113.20512793, 4130.76923050, 4121.66666639, 4092.17948684, 4090.76923043, 4098.97435863, 4126.15384588,12.0
4086.28205094, 4110.25640998, 4101.02564068, 4125.89743562, 4111.53846126, 4118.84615357, 4112.17948691, 4113.46153819, 4128.97435870, 4106.02564075, 4101.41025607, 4099.87179453, 4113.20512793, 4124.48717921,12.0
4088.97435863, 4108.71794844, 4104.10256383, 4122.82051255, 4110.38461511, 4112.69230742, 4105.64102537, 4103.84615357, 4124.87179460, 4097.94871761, 4102.30769196, 4104.48717921, 4107.82051255, 4124.35897408,12.0
4086.92307658, 4111.92307665, 4103.97435870, 4127.30769203, 4103.58974332, 4108.84615357, 4100.12820478, 4099.48717914, 4124.10256383, 4112.05128178, 4102.56410229, 4103.20512793, 4103.97435870, 4128.20512793,12.0
4089.48717914, 4117.69230742, 4106.28205101, 4132.94871767, 4105.51282024, 4116.02564075, 4106.79487152, 4104.99999973, 4124.61538434, 4109.74358947, 4112.94871767, 4105.89743562, 4120.51282024, 4126.79487152,12.0
4101.15384581, 4119.99999973, 4109.61538434, 4135.38461518, 4114.61538434, 4121.53846126, 4114.87179460, 4112.30769203, 4127.17948691, 4103.07692280, 4118.46153819, 4112.69230742, 4127.30769203, 4122.82051255,12.0
4103.33333306, 4119.87179460, 4113.20512793, 4136.02564082, 4124.35897408, 4113.20512793, 4110.38461511, 4110.64102537, 4128.20512793, 4119.61538434, 4115.25640998, 4113.71794844, 4120.12820485, 4123.07692280,12.0
4092.94871761, 4112.94871767, 4111.53846126, 4132.05128178, 4115.64102537, 4103.71794844, 4102.56410229, 4104.10256383, 4122.69230742, 4123.84615357, 4110.64102537, 4107.56410229, 4116.92307665, 4126.41025614,12.0
4081.53846119, 4098.84615350, 4097.30769196, 4122.69230742, 4088.33333299, 4099.35897402, 4097.17948684, 4098.84615350, 4107.43589716, 4109.48717921, 4096.41025607, 4097.05128171, 4107.94871767, 4127.30769203,12.0
4076.53846119, 4097.05128171, 4088.46153812, 4118.07692280, 4084.61538427, 4100.89743555, 4093.97435863, 4089.61538427, 4090.51282017, 4093.07692273, 4083.20512786, 4090.76923043, 4096.66666632, 4121.53846126,12.0
4085.51282017, 4115.76923050, 4102.82051255, 4128.07692280, 4109.61538434, 4115.76923050, 4103.07692280, 4086.79487145, 4093.71794837, 4073.20512786, 4090.51282017, 4096.66666632, 4102.94871767, 4121.28205101,12.0
4096.15384581, 4128.33333306, 4120.76923050, 4140.38461518, 4121.15384588, 4126.92307665, 4113.71794844, 4097.30769196, 4109.48717921, 4082.43589709, 4101.79487145, 4105.76923050, 4109.74358947, 4124.87179460,12.0
4097.94871761, 4127.05128178, 4123.71794844, 4142.56410236, 4117.69230742, 4121.92307665, 4110.89743562, 4106.53846126, 4119.87179460, 4123.33333306, 4104.87179460, 4110.12820485, 4108.71794844, 4122.17948691,12.0
4105.51282024, 4135.76923056, 4127.69230742, 4145.25641005, 4124.74358947, 4124.35897408, 4113.58974332, 4112.56410229, 4130.76923050, 4133.97435870, 4111.66666639, 4117.56410229, 4120.38461511, 4123.20512793,12.0
4128.33333306, 4152.94871774, 4147.17948697, 4159.10256390, 4141.79487159, 4147.69230749, 4141.15384595, 4131.41025614, 4154.35897415, 4120.89743562, 4135.76923056, 4138.71794851, 4147.56410236, 4122.94871767,12.0
4149.48717928, 4164.35897415, 4168.20512807, 4176.02564089, 4167.69230749, 4167.56410236, 4173.84615371, 4157.56410236, 4180.64102551, 4146.41025621, 4158.97435877, 4158.58974339, 4162.69230749, 4120.76923050,12.0
4149.61538441, 4164.99999980, 4170.25641012, 4177.17948704, 4174.74358961, 4169.10256397, 4182.30769217, 4167.82051262, 4195.64102551, 4188.20512807, 4155.51282031, 4156.02564082, 4155.64102544, 4122.82051255,12.0
4148.84615364, 4165.25641005, 4170.51282038, 4173.46153833, 4156.79487159, 4171.28205115, 4180.64102551, 4170.25641012, 4203.71794865, 4199.23076910, 4158.84615364, 4156.02564082, 4158.20512800, 4123.07692280,12.0
4161.15384595, 4168.33333320, 4181.79487166, 4178.20512807, 4163.20512800, 4174.99999986, 4178.33333320, 4167.30769210, 4200.38461525, 4190.25641012, 4179.23076910, 4170.38461525, 4172.17948704, 4124.61538434,12.0
4171.15384602, 4170.38461525, 4192.17948704, 4184.74358961, 4191.15384602, 4175.38461525, 4173.58974345, 4155.64102544, 4188.33333320, 4186.79487166, 4183.97435884, 4178.33333320, 4175.38461525, 4126.53846126,12.0
4171.02564089, 4176.53846140, 4195.89743576, 4187.82051269, 4196.79487166, 4181.02564089, 4173.84615371, 4152.56410236, 4181.15384602, 4184.10256397, 4174.99999986, 4175.89743576, 4168.84615371, 4126.53846126,12.0
4173.07692294, 4182.30769217, 4198.33333320, 4188.97435884, 4188.07692294, 4188.84615371, 4178.58974345, 4155.89743569, 4180.38461525, 4172.94871781, 4170.64102551, 4175.89743576, 4162.56410236, 4126.02564075,12.0
4179.74358961, 4180.25641012, 4203.58974352, 4192.05128192, 4176.15384602, 4189.61538448, 4177.43589730, 4149.10256390, 4178.97435884, 4173.97435884, 4174.10256397, 4180.12820499, 4161.53846133, 4124.35897408,12.0
4184.10256397, 4181.15384602, 4208.84615378, 4197.56410243, 4170.25641012, 4190.25641012, 4175.38461525, 4147.17948697, 4173.84615371, 4174.87179474, 4178.97435884, 4183.33333320, 4163.84615364, 4123.97435870,12.0
4183.71794858, 4185.25641012, 4214.48717942, 4197.94871781, 4188.07692294, 4193.33333320, 4177.17948704, 4157.17948697, 4176.28205115, 4172.94871781, 4183.71794858, 4186.28205115, 4168.58974345, 4122.05128178,12.0
4182.17948704, 4183.58974345, 4216.28205122, 4193.84615371, 4205.76923070, 4190.12820499, 4172.69230756, 4156.41025621, 4180.25641012, 4178.84615371, 4185.89743576, 4188.58974345, 4171.66666653, 4122.30769203,12.0
4187.30769217, 4183.97435884, 4213.07692301, 4192.82051269, 4197.30769217, 4183.33333320, 4168.97435884, 4153.84615364, 4175.25641012, 4174.99999986, 4185.51282038, 4187.17948704, 4171.28205115, 4127.05128178,12.0
4183.07692294, 4176.79487166, 4207.17948711, 4189.23076910, 4185.89743576, 4177.05128192, 4166.02564082, 4156.02564082, 4171.41025628, 4170.76923063, 4176.53846140, 4178.07692294, 4163.84615364, 4126.53846126,12.0
4171.41025628, 4162.17948697, 4199.87179474, 4183.84615371, 4171.92307679, 4176.02564089, 4164.10256390, 4151.15384595, 4172.82051269, 4179.61538448, 4166.92307672, 4169.23076910, 4157.82051262, 4124.48717921,12.0
4176.92307679, 4167.82051262, 4202.30769224, 4190.76923063, 4158.46153826, 4183.20512807, 4172.94871781, 4152.05128185, 4172.82051269, 4186.53846140, 4173.07692294, 4176.15384602, 4168.07692287, 4123.84615357,12.0
4184.87179474, 4181.53846140, 4207.82051275, 4197.94871781, 4176.41025628, 4186.79487166, 4176.66666653, 4155.51282031, 4170.89743576, 4189.10256397, 4173.97435884, 4183.84615371, 4171.41025628, 4124.23076896,12.0
4173.84615371, 4168.58974345, 4195.12820499, 4186.92307679, 4192.05128192, 4176.92307679, 4163.71794851, 4147.05128185, 4161.41025621, 4172.05128192, 4160.12820492, 4169.74358961, 4157.43589723, 4126.92307665,12.0
4162.30769210, 4151.79487159, 4181.79487166, 4177.17948704, 4172.94871781, 4167.56410236, 4154.23076903, 4138.33333313, 4149.23076903, 4137.43589723, 4156.66666646, 4156.66666646, 4151.41025621, 4124.35897408,12.0
4172.69230756, 4166.15384595, 4193.33333320, 4185.64102551, 4169.61538448, 4178.33333320, 4163.07692287, 4148.07692287, 4160.38461518, 4158.97435877, 4171.66666653, 4168.58974345, 4161.15384595, 4123.33333306,12.0
4178.97435884, 4176.15384602, 4195.89743576, 4184.23076910, 4187.94871781, 4183.71794858, 4167.43589723, 4157.82051262, 4178.58974345, 4208.46153840, 4177.69230756, 4174.99999986, 4165.12820492, 4125.76923050,12.0
4168.58974345, 4157.30769210, 4177.43589730, 4169.61538448, 4185.64102551, 4169.87179474, 4160.12820492, 4149.10256390, 4170.12820499, 4191.15384602, 4168.46153833, 4160.76923056, 4159.74358954, 4123.33333306,12.0
4163.46153826, 4148.20512800, 4173.33333320, 4165.64102544, 4159.87179467, 4166.28205108, 4158.58974339, 4146.53846133, 4157.69230749, 4158.97435877, 4165.38461518, 4155.38461518, 4158.84615364, 4122.17948691,12.0
