AF3,F7,F3,FC5,T7,P7,O1,O2,P8,T8,FC6,F4,F8,AF4,Label
4094.99999966, 4092.94871761, 4035.89743541, 4070.76923043, 4109.23076896, 4097.94871761, 4098.84615350, 4118.84615357, 4112.82051255, 4130.25640998, 4122.94871767, 4118.07692280, 4110.38461511, 4138.58974339,10.0
4111.79487152, 4097.56410222, 4049.61538420, 4073.33333299, 4125.51282024, 4112.69230742, 4114.99999973, 4125.51282024, 4115.51282024, 4130.51282024, 4138.20512800, 4137.05128185, 4117.94871767, 4139.10256390,10.0
4113.58974332, 4093.71794837, 4045.38461497, 4064.48717907, 4124.35897408, 4112.56410229, 4120.64102537, 4124.61538434, 4113.97435870, 4127.94871767, 4145.76923056, 4141.02564082, 4124.99999973, 4132.94871767,10.0
4113.58974332, 4099.23076889, 4042.56410215, 4056.92307651, 4113.71794844, 4101.79487145, 4112.43589716, 4124.35897408, 4117.56410229, 4128.07692280, 4146.41025621, 4140.38461518, 4129.23076896, 4132.56410229,10.0
4129.23076896, 4111.28205101, 4057.43589702, 4063.46153805, 4120.12820485, 4104.99999973, 4116.92307665, 4140.51282031, 4128.97435870, 4137.30769210, 4154.99999980, 4149.35897415, 4138.97435877, 4137.17948697,10.0
4132.05128178, 4106.92307665, 4056.53846113, 4065.38461497, 4121.41025614, 4109.10256383, 4122.94871767, 4150.64102544, 4132.17948691, 4143.97435877, 4159.23076903, 4148.20512800, 4141.66666646, 4135.76923056,10.0
4116.66666639, 4095.64102530, 4044.23076882, 4054.10256369, 4114.35897408, 4100.89743555, 4113.33333306, 4140.76923056, 4124.99999973, 4137.69230749, 4147.82051262, 4136.02564082, 4130.64102537, 4132.30769203,10.0
4112.82051255, 4096.53846119, 4050.89743548, 4054.23076882, 4116.53846126, 4099.35897402, 4109.61538434, 4131.66666639, 4122.94871767, 4132.05128178, 4141.92307672, 4136.15384595, 4124.74358947, 4132.56410229,10.0
4113.46153819, 4102.43589709, 4055.64102523, 4062.05128164, 4117.17948691, 4105.12820485, 4114.99999973, 4128.33333306, 4118.33333306, 4131.41025614, 4140.89743569, 4140.25641005, 4122.56410229, 4132.56410229,10.0
4105.76923050, 4099.99999966, 4047.69230728, 4060.12820472, 4108.07692280, 4101.92307658, 4109.87179460, 4120.89743562, 4109.87179460, 4128.71794844, 4133.84615357, 4135.64102544, 4116.41025614, 4134.61538434,10.0
4109.87179460, 4098.84615350, 4050.38461497, 4062.17948677, 4113.97435870, 4100.64102530, 4110.25640998, 4120.51282024, 4113.33333306, 4131.66666639, 4134.61538434, 4133.84615357, 4117.43589716, 4136.79487159,10.0
4117.05128178, 4104.74358947, 4056.66666625, 4071.41025607, 4125.89743562, 4111.02564075, 4121.79487152, 4122.94871767, 4115.38461511, 4135.89743569, 4135.76923056, 4134.99999973, 4119.48717921, 4135.76923056,10.0
4117.43589716, 4116.28205101, 4061.28205087, 4077.82051248, 4122.30769203, 4113.84615357, 4116.92307665, 4118.58974332, 4110.25640998, 4138.84615364, 4131.66666639, 4137.05128185, 4115.12820485, 4136.79487159,10.0
4119.48717921, 4121.66666639, 4069.23076882, 4078.97435863, 4116.79487152, 4104.10256383, 4102.82051255, 4118.71794844, 4118.58974332, 4142.43589723, 4128.58974332, 4141.79487159, 4111.92307665, 4137.82051262,10.0
4111.15384588, 4107.17948691, 4059.48717907, 4070.76923043, 4112.94871767, 4092.56410222, 4100.38461504, 4121.79487152, 4122.43589716, 4132.94871767, 4119.48717921, 4135.76923056, 4104.74358947, 4136.02564082,10.0
4097.94871761, 4092.82051248, 4048.20512779, 4064.35897395, 4106.92307665, 4088.33333299, 4099.87179453, 4114.74358947, 4104.87179460, 4117.17948691, 4114.35897408, 4124.87179460, 4093.07692273, 4135.38461518,10.0
4108.46153819, 4105.38461511, 4065.89743548, 4076.02564068, 4107.56410229, 4096.28205094, 4102.56410229, 4112.17948691, 4099.48717914, 4118.71794844, 4125.89743562, 4132.17948691, 4097.30769196, 4134.99999973,10.0
4126.41025614, 4120.51282024, 4079.35897402, 4082.82051248, 4119.74358947, 4106.92307665, 4118.97435870, 4124.48717921, 4113.97435870, 4127.17948691, 4132.17948691, 4142.94871774, 4109.99999973, 4132.94871767,10.0
4127.82051255, 4114.61538434, 4068.07692266, 4073.46153812, 4127.30769203, 4110.51282024, 4132.82051255, 4136.79487159, 4119.87179460, 4128.33333306, 4128.07692280, 4142.82051262, 4114.10256383, 4132.94871767,10.0
4125.89743562, 4112.17948691, 4060.76923036, 4071.28205094, 4122.82051255, 4107.94871767, 4128.58974332, 4136.66666646, 4117.30769203, 4130.38461511, 4131.28205101, 4143.84615364, 4114.48717921, 4136.53846133,10.0
4128.33333306, 4122.30769203, 4062.05128164, 4077.94871761, 4122.94871767, 4108.58974332, 4124.23076896, 4137.30769210, 4125.25640998, 4136.15384595, 4133.84615357, 4143.20512800, 4118.20512793, 4136.79487159,10.0
4125.64102537, 4122.05128178, 4056.53846113, 4078.20512786, 4125.38461511, 4114.35897408, 4126.02564075, 4143.33333313, 4136.41025621, 4137.43589723, 4124.48717921, 4136.02564082, 4118.20512793, 4134.99999973,10.0
4114.74358947, 4105.64102537, 4041.66666625, 4065.64102523, 4112.43589716, 4108.20512793, 4111.92307665, 4128.84615357, 4121.53846126, 4125.25640998, 4113.07692280, 4126.15384588, 4104.99999973, 4136.53846133,10.0
4104.35897408, 4089.87179453, 4029.48717900, 4052.69230728, 4097.30769196, 4089.48717914, 4091.41025607, 4102.30769196, 4098.84615350, 4111.15384588, 4107.30769203, 4114.74358947, 4092.94871761, 4136.28205108,10.0
4110.51282024, 4092.94871761, 4035.89743541, 4056.66666625, 4102.69230742, 4089.23076889, 4092.43589709, 4104.48717921, 4104.99999973, 4119.23076896, 4111.41025614, 4117.69230742, 4099.23076889, 4131.92307665,10.0
4120.76923050, 4104.35897408, 4047.94871754, 4064.87179446, 4107.94871767, 4104.10256383, 4104.35897408, 4119.99999973, 4115.25640998, 4132.30769203, 4120.89743562, 4132.94871767, 4109.48717921, 4132.82051255,10.0
4118.07692280, 4100.76923043, 4045.64102523, 4060.51282010, 4102.17948684, 4099.10256376, 4104.10256383, 4111.15384588, 4106.28205101, 4125.89743562, 4122.69230742, 4134.35897408, 4107.17948691, 4135.89743569,10.0
4124.23076896, 4098.07692273, 4046.53846113, 4063.97435856, 4109.23076896, 4094.10256376, 4103.46153819, 4106.15384588, 4105.76923050, 4128.07692280, 4132.56410229, 4139.48717928, 4111.79487152, 4135.76923056,10.0
4148.33333313, 4118.07692280, 4063.46153805, 4082.94871761, 4126.15384588, 4110.76923050, 4116.02564075, 4126.92307665, 4119.48717921, 4154.35897415, 4161.66666646, 4166.53846133, 4132.94871767, 4136.53846133,10.0
4157.69230749, 4133.84615357, 4075.25640991, 4089.10256376, 4127.43589716, 4117.94871767, 4125.25640998, 4134.35897408, 4125.64102537, 4164.61538441, 4171.02564089, 4177.82051269, 4142.94871774, 4136.28205108,10.0
4150.12820492, 4131.02564075, 4072.30769196, 4085.51282017, 4117.17948691, 4106.28205101, 4121.79487152, 4129.23076896, 4124.48717921, 4153.84615364, 4152.30769210, 4164.10256390, 4136.53846133, 4132.82051255,10.0
4146.92307672, 4127.05128178, 4065.38461497, 4086.92307658, 4112.43589716, 4097.94871761, 4112.82051255, 4131.79487152, 4122.30769203, 4150.51282031, 4144.23076903, 4158.58974339, 4129.87179460, 4132.56410229,10.0
4147.56410236, 4129.10256383, 4065.12820472, 4087.94871761, 4115.64102537, 4108.20512793, 4114.99999973, 4137.05128185, 4122.94871767, 4151.79487159, 4150.89743569, 4161.15384595, 4131.79487152, 4135.38461518,10.0
4149.48717928, 4135.51282031, 4075.25640991, 4091.02564068, 4124.87179460, 4119.99999973, 4123.33333306, 4141.66666646, 4133.58974332, 4152.30769210, 4154.74358954, 4157.94871774, 4136.41025621, 4134.99999973,10.0
4145.89743569, 4132.30769203, 4075.51282017, 4091.02564068, 4126.41025614, 4110.64102537, 4115.89743562, 4137.17948697, 4133.71794844, 4149.23076903, 4148.33333313, 4148.46153826, 4129.48717921, 4133.58974332,10.0
4130.64102537, 4112.94871767, 4058.33333292, 4082.05128171, 4114.74358947, 4096.15384581, 4098.46153812, 4116.66666639, 4113.20512793, 4130.38461511, 4129.61538434, 4135.89743569, 4113.58974332, 4133.46153819,10.0
4125.64102537, 4110.12820485, 4053.71794830, 4082.69230735, 4116.66666639, 4104.99999973, 4102.43589709, 4111.92307665, 4103.97435870, 4112.94871767, 4120.76923050, 4131.41025614, 4107.56410229, 4132.69230742,10.0
4132.05128178, 4127.69230742, 4065.38461497, 4094.61538427, 4131.92307665, 4117.69230742, 4114.99999973, 4127.94871767, 4111.15384588, 4118.33333306, 4128.33333306, 4133.97435870, 4109.87179460, 4133.20512793,10.0
4124.10256383, 4127.05128178, 4059.99999959, 4090.25640991, 4126.41025614, 4109.10256383, 4108.46153819, 4120.51282024, 4107.82051255, 4118.58974332, 4125.64102537, 4126.02564075, 4108.97435870, 4133.97435870,10.0
4117.17948691, 4113.58974332, 4046.41025600, 4080.76923043, 4115.89743562, 4106.28205101, 4101.79487145, 4104.99999973, 4101.41025607, 4108.07692280, 4118.46153819, 4118.46153819, 4110.76923050, 4134.87179460,10.0
4128.71794844, 4118.97435870, 4054.87179446, 4088.58974325, 4128.71794844, 4116.92307665, 4110.25640998, 4111.92307665, 4108.20512793, 4111.53846126, 4122.69230742, 4127.43589716, 4118.33333306, 4134.99999973,10.0
4132.05128178, 4128.58974332, 4068.07692266, 4095.51282017, 4136.92307672, 4120.12820485, 4116.28205101, 4124.87179460, 4116.66666639, 4122.17948691, 4125.76923050, 4134.61538434, 4123.84615357, 4134.48717921,10.0
4127.69230742, 4127.30769203, 4070.64102530, 4093.20512786, 4121.28205101, 4111.66666639, 4109.61538434, 4127.05128178, 4121.15384588, 4128.33333306, 4127.30769203, 4132.30769203, 4126.53846126, 4133.97435870,10.0
4136.92307672, 4130.89743562, 4076.79487145, 4093.97435863, 4117.30769203, 4097.43589709, 4098.07692273, 4125.89743562, 4124.99999973, 4134.35897408, 4132.05128178, 4137.56410236, 4128.20512793, 4133.07692280,10.0
4146.79487159, 4135.38461518, 4085.25640991, 4097.43589709, 4132.56410229, 4091.92307658, 4094.61538427, 4123.97435870, 4120.76923050, 4134.48717921, 4131.79487152, 4143.33333313, 4131.15384588, 4134.23076896,10.0
4148.97435877, 4134.99999973, 4089.35897402, 4102.17948684, 4133.97435870, 4098.58974325, 4104.99999973, 4124.48717921, 4114.61538434, 4129.48717921, 4130.51282024, 4141.53846133, 4133.20512793, 4135.38461518,10.0
4149.61538441, 4139.23076903, 4090.12820478, 4107.05128178, 4128.71794844, 4107.82051255, 4117.69230742, 4131.15384588, 4120.12820485, 4134.35897408, 4134.61538434, 4138.71794851, 4130.12820485, 4133.46153819,10.0
4147.05128185, 4145.89743569, 4092.82051248, 4106.02564075, 4135.25640998, 4112.43589716, 4117.17948691, 4127.17948691, 4123.20512793, 4144.87179467, 4144.87179467, 4138.97435877, 4131.53846126, 4132.43589716,10.0
4148.71794851, 4150.51282031, 4104.48717921, 4105.89743562, 4139.10256390, 4114.74358947, 4109.87179460, 4117.17948691, 4119.87179460, 4147.43589723, 4157.69230749, 4144.61538441, 4135.64102544, 4134.10256383,10.0
4152.94871774, 4150.89743569, 4111.02564075, 4107.82051255, 4131.79487152, 4113.46153819, 4104.87179460, 4117.82051255, 4120.51282024, 4150.38461518, 4157.69230749, 4147.56410236, 4131.53846126, 4134.61538434,10.0
4151.53846133, 4149.99999980, 4107.69230742, 4107.69230742, 4129.35897408, 4106.41025614, 4102.56410229, 4126.53846126, 4127.43589716, 4160.25641005, 4157.17948697, 4147.17948697, 4133.97435870, 4134.23076896,10.0
4154.48717928, 4153.20512800, 4120.51282024, 4115.25640998, 4132.94871767, 4106.66666639, 4104.61538434, 4132.43589716, 4134.10256383, 4168.07692287, 4177.94871781, 4158.07692287, 4150.89743569, 4135.38461518,10.0
4158.07692287, 4153.33333313, 4135.51282031, 4114.61538434, 4130.64102537, 4112.82051255, 4110.76923050, 4126.66666639, 4130.89743562, 4167.05128185, 4197.05128192, 4169.10256397, 4155.38461518, 4135.64102544,10.0
4149.10256390, 4139.35897415, 4120.64102537, 4089.23076889, 4120.89743562, 4110.38461511, 4112.69230742, 4127.17948691, 4126.79487152, 4162.43589723, 4192.17948704, 4162.30769210, 4145.76923056, 4135.25640998,10.0
4142.17948697, 4126.02564075, 4106.15384588, 4071.66666632, 4112.56410229, 4107.56410229, 4116.41025614, 4141.41025621, 4132.82051255, 4163.97435877, 4189.35897422, 4157.69230749, 4148.71794851, 4134.87179460,10.0
4147.69230749, 4130.25640998, 4116.66666639, 4078.46153812, 4123.97435870, 4123.97435870, 4132.56410229, 4152.30769210, 4143.33333313, 4173.58974345, 4201.02564096, 4166.28205108, 4159.99999980, 4134.61538434,10.0
4151.66666646, 4138.71794851, 4120.12820485, 4082.30769196, 4138.07692287, 4137.30769210, 4142.82051262, 4153.20512800, 4147.94871774, 4181.28205115, 4202.94871788, 4167.05128185, 4162.94871774, 4133.46153819,10.0
4142.43589723, 4135.38461518, 4107.43589716, 4071.92307658, 4125.76923050, 4123.97435870, 4132.43589716, 4147.17948697, 4139.48717928, 4173.07692294, 4187.82051269, 4154.10256390, 4154.35897415, 4134.87179460,10.0
4136.15384595, 4128.20512793, 4099.61538427, 4062.17948677, 4114.99999973, 4117.17948691, 4128.33333306, 4139.23076903, 4133.20512793, 4163.07692287, 4170.38461525, 4144.48717928, 4148.33333313, 4137.43589723,10.0
4143.07692287, 4131.92307665, 4099.35897402, 4061.92307651, 4127.05128178, 4125.51282024, 4133.58974332, 4143.71794851, 4140.89743569, 4168.58974345, 4173.46153833, 4147.17948697, 4154.35897415, 4138.46153826,10.0
4148.20512800, 4141.41025621, 4099.74358940, 4067.82051241, 4135.25640998, 4125.64102537, 4133.07692280, 4158.20512800, 4151.92307672, 4181.02564089, 4189.10256397, 4155.76923056, 4160.89743569, 4138.71794851,10.0
4146.79487159, 4140.25641005, 4105.89743562, 4070.76923043, 4131.53846126, 4125.89743562, 4137.17948697, 4164.48717928, 4156.53846133, 4191.15384602, 4193.33333320, 4162.82051262, 4159.35897415, 4138.07692287,10.0
4151.02564082, 4135.25640998, 4109.48717921, 4068.07692266, 4134.35897408, 4136.92307672, 4148.20512800, 4165.25641005, 4157.43589723, 4192.69230756, 4193.46153833, 4165.89743569, 4159.99999980, 4138.20512800,10.0
4153.07692287, 4134.74358947, 4096.92307658, 4063.33333292, 4134.74358947, 4136.02564082, 4144.99999980, 4161.41025621, 4152.43589723, 4183.58974345, 4193.84615371, 4157.17948697, 4157.69230749, 4138.07692287,10.0
4145.38461518, 4132.94871767, 4088.58974325, 4062.05128164, 4125.38461511, 4125.38461511, 4131.41025614, 4150.25641005, 4142.56410236, 4173.71794858, 4188.33333320, 4146.28205108, 4144.61538441, 4135.64102544,10.0
4147.30769210, 4127.56410229, 4097.94871761, 4065.89743548, 4123.71794844, 4123.58974332, 4126.28205101, 4153.84615364, 4147.30769210, 4177.30769217, 4189.35897422, 4151.66666646, 4144.10256390, 4134.99999973,10.0
4152.17948697, 4124.48717921, 4097.56410222, 4066.92307651, 4129.61538434, 4122.56410229, 4126.79487152, 4165.38461518, 4155.64102544, 4181.28205115, 4197.56410243, 4156.79487159, 4156.66666646, 4135.38461518,10.0
4148.71794851, 4132.43589716, 4088.84615350, 4065.51282010, 4131.53846126, 4120.89743562, 4132.69230742, 4164.61538441, 4155.38461518, 4173.33333320, 4192.69230756, 4152.94871774, 4155.38461518, 4134.10256383,10.0
4148.71794851, 4144.61538441, 4088.20512786, 4071.02564068, 4130.38461511, 4129.23076896, 4139.74358954, 4163.46153826, 4156.66666646, 4167.69230749, 4186.15384602, 4154.87179467, 4149.35897415, 4133.71794844,10.0
4149.87179467, 4145.89743569, 4079.35897402, 4074.35897402, 4130.12820485, 4131.28205101, 4134.23076896, 4162.82051262, 4152.94871774, 4167.56410236, 4192.69230756, 4155.51282031, 4154.35897415, 4134.74358947,10.0
4146.53846133, 4142.30769210, 4067.43589702, 4073.46153812, 4127.43589716, 4119.87179460, 4124.35897408, 4158.84615364, 4148.97435877, 4166.15384595, 4196.92307679, 4152.05128185, 4159.61538441, 4134.48717921,10.0
4142.69230749, 4142.43589723, 4062.69230728, 4078.46153812, 4123.33333306, 4117.94871767, 4126.15384588, 4156.92307672, 4150.25641005, 4163.84615364, 4196.92307679, 4153.71794851, 4154.99999980, 4135.38461518,10.0
4135.64102544, 4138.07692287, 4045.51282010, 4079.10256376, 4115.51282024, 4118.33333306, 4121.92307665, 4150.51282031, 4144.23076903, 4158.46153826, 4193.20512807, 4147.30769210, 4143.71794851, 4135.89743569,10.0
4127.43589716, 4131.02564075, 4025.12820465, 4070.51282017, 4109.74358947, 4110.51282024, 4113.20512793, 4144.61538441, 4137.82051262, 4154.35897415, 4184.10256397, 4133.33333306, 4138.58974339, 4136.41025621,10.0
4129.61538434, 4130.51282024, 4020.12820465, 4067.82051241, 4117.17948691, 4117.82051255, 4126.53846126, 4153.20512800, 4147.82051262, 4159.99999980, 4178.33333320, 4132.05128178, 4146.92307672, 4135.38461518,10.0
4131.66666639, 4128.07692280, 4016.28205080, 4072.94871761, 4114.23076896, 4117.94871767, 4124.10256383, 4151.15384595, 4146.92307672, 4161.66666646, 4175.38461525, 4136.28205108, 4148.97435877, 4133.58974332,10.0
4137.17948697, 4142.17948697, 4018.58974311, 4121.41025614, 4118.33333306, 4117.43589716, 4121.02564075, 4155.38461518, 4157.17948697, 4158.71794851, 4172.69230756, 4148.07692287, 4145.64102544, 4135.12820485,10.0
4125.89743562, 4139.10256390, 4000.38461483, 4111.66666639, 4110.12820485, 4108.84615357, 4113.71794844, 4148.58974339, 4158.07692287, 4150.64102544, 4160.76923056, 4134.48717921, 4137.05128185, 4135.76923056,10.0
4126.92307665, 4144.61538441, 3996.15384560, 4117.17948691, 4112.82051255, 4116.79487152, 4116.02564075, 4152.82051262, 4163.07692287, 4138.20512800, 4158.84615364, 4131.53846126, 4129.35897408, 4135.76923056,10.0
4128.84615357, 4139.99999980, 3989.10256355, 4120.25640998, 4118.84615357, 4125.64102537, 4122.43589716, 4154.87179467, 4162.43589723, 4134.61538434, 4160.38461518, 4133.71794844, 4127.69230742, 4134.61538434,10.0
4117.82051255, 4126.92307665, 3972.56410201, 4108.71794844, 4117.56410229, 4116.15384588, 4113.33333306, 4135.89743569, 4149.48717928, 4125.12820485, 4152.82051262, 4128.84615357, 4125.64102537, 4134.23076896,10.0
4114.10256383, 4132.17948691, 3971.41025586, 4105.51282024, 4114.10256383, 4112.82051255, 4100.76923043, 4123.84615357, 4142.30769210, 4112.30769203, 4155.51282031, 4128.33333306, 4125.89743562, 4134.23076896,10.0
4126.41025614, 4146.41025621, 3977.94871740, 4112.69230742, 4119.99999973, 4126.28205101, 4113.20512793, 4142.30769210, 4155.51282031, 4123.46153819, 4173.46153833, 4137.17948697, 4132.94871767, 4134.61538434,10.0
4125.64102537, 4138.71794851, 3968.33333271, 4108.97435870, 4121.53846126, 4126.53846126, 4126.02564075, 4156.28205108, 4166.02564082, 4138.84615364, 4171.28205115, 4133.07692280, 4133.33333306, 4135.51282031,10.0
4112.17948691, 4128.46153819, 3952.43589681, 4099.87179453, 4108.07692280, 4112.17948691, 4109.87179460, 4147.05128185, 4162.17948697, 4133.46153819, 4151.53846133, 4121.53846126, 4126.02564075, 4137.30769210,10.0
4111.53846126, 4128.97435870, 3942.56410194, 4095.51282017, 4098.20512786, 4108.58974332, 4095.89743555, 4134.10256383, 4152.43589723, 4124.10256383, 4146.28205108, 4125.51282024, 4124.35897408, 4136.53846133,10.0
4124.10256383, 4132.17948691, 3936.02564033, 4095.12820478, 4104.23076896, 4121.92307665, 4113.33333306, 4143.20512800, 4157.05128185, 4137.69230749, 4157.17948697, 4142.69230749, 4137.17948697, 4134.99999973,10.0
4130.89743562, 4139.10256390, 3929.99999931, 4099.61538427, 4110.38461511, 4129.61538434, 4126.92307665, 4162.05128185, 4174.61538448, 4159.61538441, 4163.84615364, 4150.51282031, 4149.48717928, 4136.79487159,10.0
4127.05128178, 4140.64102544, 3919.87179418, 4100.25640991, 4108.58974332, 4119.10256383, 4111.79487152, 4153.46153826, 4169.48717935, 4157.69230749, 4155.64102544, 4141.15384595, 4143.20512800, 4136.79487159,10.0
4123.33333306, 4136.02564082, 3910.12820444, 4094.99999966, 4112.30769203, 4104.23076896, 4091.53846119, 4128.58974332, 4148.07692287, 4147.82051262, 4147.69230749, 4134.74358947, 4135.38461518, 4135.25640998,10.0
4121.66666639, 4133.33333306, 3913.20512751, 4095.25640991, 4113.46153819, 4100.89743555, 4087.30769196, 4122.82051255, 4138.33333313, 4148.71794851, 4147.82051262, 4136.28205108, 4139.35897415, 4137.30769210,10.0
4126.66666639, 4136.15384595, 3930.76923008, 4104.87179460, 4113.46153819, 4111.53846126, 4099.23076889, 4128.58974332, 4136.53846133, 4152.82051262, 4154.35897415, 4141.28205108, 4144.10256390, 4137.94871774,10.0
4133.33333306, 4136.79487159, 3951.79487117, 4112.94871767, 4123.84615357, 4116.53846126, 4106.28205101, 4127.56410229, 4136.02564082, 4154.61538441, 4162.05128185, 4144.87179467, 4142.56410236, 4136.02564082,10.0
4128.97435870, 4131.79487152, 3967.17948656, 4111.79487152, 4129.74358947, 4106.15384588, 4095.38461504, 4131.15384588, 4138.71794851, 4151.15384595, 4164.61538441, 4141.66666646, 4141.79487159, 4135.38461518,10.0
4132.30769203, 4133.97435870, 3984.61538406, 4112.43589716, 4133.20512793, 4108.84615357, 4099.23076889, 4149.99999980, 4148.46153826, 4151.15384595, 4172.17948704, 4145.25641005, 4151.66666646, 4137.69230749,10.0
4147.94871774, 4144.10256390, 3998.20512765, 4114.35897408, 4144.74358954, 4131.66666639, 4124.87179460, 4168.33333320, 4156.02564082, 4156.66666646, 4178.97435884, 4157.56410236, 4161.15384595, 4139.35897415,10.0
4142.43589723, 4139.35897415, 3979.48717894, 4098.97435863, 4145.76923056, 4134.48717921, 4127.82051255, 4166.15384595, 4152.94871774, 4149.35897415, 4168.46153833, 4150.64102544, 4153.07692287, 4136.15384595,10.0
4123.07692280, 4119.23076896, 3943.71794810, 4075.64102530, 4132.56410229, 4117.94871767, 4114.74358947, 4163.71794851, 4155.76923056, 4134.10256383, 4156.02564082, 4131.79487152, 4144.87179467, 4134.74358947,10.0
4122.17948691, 4110.25640998, 3928.07692239, 4068.20512779, 4128.33333306, 4116.66666639, 4112.69230742, 4169.10256397, 4166.66666646, 4131.53846126, 4150.64102544, 4129.74358947, 4146.02564082, 4137.05128185,10.0
4131.79487152, 4119.23076896, 3930.38461469, 4073.84615350, 4134.74358947, 4120.38461511, 4106.28205101, 4157.94871774, 4160.64102544, 4136.28205108, 4150.76923056, 4138.71794851, 4144.35897415, 4135.89743569,10.0
4132.94871767, 4123.20512793, 3930.38461469, 4078.58974325, 4133.20512793, 4108.46153819, 4098.97435863, 4144.48717928, 4146.28205108, 4139.35897415, 4158.07692287, 4143.97435877, 4144.87179467, 4132.43589716,10.0
4124.61538434, 4110.12820485, 3919.61538392, 4076.92307658, 4120.12820485, 4093.07692273, 4098.20512786, 4150.12820492, 4146.15384595, 4140.51282031, 4157.69230749, 4139.87179467, 4143.71794851, 4129.61538434,10.0
4110.51282024, 4097.43589709, 3904.87179411, 4074.10256376, 4109.87179460, 4091.41025607, 4089.10256376, 4150.89743569, 4142.82051262, 4130.89743562, 4144.61538441, 4127.69230742, 4131.28205101, 4130.64102537,10.0
4114.74358947, 4114.61538434, 3903.71794796, 4083.20512786, 4124.61538434, 4109.10256383, 4099.35897402, 4157.56410236, 4141.28205108, 4131.92307665, 4141.92307672, 4130.89743562, 4132.17948691, 4134.99999973,10.0
4135.25640998, 4140.12820492, 3909.99999931, 4097.17948684, 4147.94871774, 4128.07692280, 4131.28205101, 4184.48717935, 4156.66666646, 4155.89743569, 4155.51282031, 4150.25641005, 4153.33333313, 4137.43589723,10.0
4128.97435870, 4128.07692280, 3892.56410180, 4092.30769196, 4147.05128185, 4118.20512793, 4120.38461511, 4175.38461525, 4152.69230749, 4156.02564082, 4154.99999980, 4146.79487159, 4155.76923056, 4137.05128185,10.0
4104.61538434, 4107.56410229, 3862.94871712, 4078.71794837, 4135.25640998, 4100.12820478, 4090.76923043, 4140.64102544, 4128.58974332, 4129.99999973, 4134.61538434, 4124.74358947, 4133.84615357, 4133.84615357,10.0
4104.35897408, 4117.94871767, 3857.30769148, 4080.12820478, 4136.79487159, 4112.56410229, 4105.64102537, 4149.10256390, 4132.30769203, 4128.20512793, 4124.74358947, 4122.94871767, 4129.87179460, 4131.66666639,10.0
4106.02564075, 4120.12820485, 3859.10256327, 4079.23076889, 4135.76923056, 4115.89743562, 4110.38461511, 4157.43589723, 4142.17948697, 4132.17948691, 4125.76923050, 4126.28205101, 4137.43589723, 4133.33333306,10.0
4081.66666632, 4099.61538427, 3843.97435814, 4066.02564061, 4121.15384588, 4086.15384581, 4072.05128171, 4117.94871767, 4117.56410229, 4107.30769203, 4111.92307665, 4104.74358947, 4122.05128178, 4134.48717921,10.0
4073.97435863, 4099.48717914, 3843.84615302, 4065.38461497, 4119.48717921, 4078.84615350, 4063.97435856, 4098.20512786, 4102.82051255, 4092.43589709, 4100.64102530, 4091.41025607, 4109.61538434, 4135.25640998,10.0
4096.92307658, 4118.58974332, 3867.17948635, 4080.38461504, 4133.71794844, 4102.94871767, 4093.58974325, 4126.28205101, 4127.94871767, 4112.69230742, 4119.23076896, 4105.76923050, 4126.15384588, 4135.64102544,10.0
4102.30769196, 4114.35897408, 3875.51281975, 4078.20512786, 4135.76923056, 4106.02564075, 4098.20512786, 4134.61538434, 4137.56410236, 4118.07692280, 4130.25640998, 4109.48717921, 4132.56410229, 4134.87179460,10.0
4091.28205094, 4102.56410229, 3874.87179411, 4067.30769189, 4129.61538434, 4095.51282017, 4092.56410222, 4128.97435870, 4124.61538434, 4104.61538434, 4123.07692280, 4102.94871767, 4123.46153819, 4136.41025621,10.0
4100.25640991, 4111.92307665, 3889.35897360, 4079.10256376, 4134.23076896, 4104.23076896, 4108.33333306, 4146.15384595, 4133.20512793, 4115.76923050, 4127.94871767, 4112.56410229, 4129.23076896, 4137.05128185,10.0
4104.87179460, 4117.43589716, 3891.15384539, 4075.64102530, 4135.38461518, 4114.61538434, 4116.66666639, 4151.92307672, 4137.94871774, 4123.33333306, 4129.61538434, 4113.46153819, 4128.20512793, 4132.82051255,10.0
4093.46153812, 4111.41025614, 3875.38461462, 4071.28205094, 4131.28205101, 4116.02564075, 4112.56410229, 4144.74358954, 4129.10256383, 4112.43589716, 4114.99999973, 4099.87179453, 4119.35897408, 4133.33333306,10.0
4097.56410222, 4115.89743562, 3871.79487096, 4131.41025614, 4144.10256390, 4126.41025614, 4124.23076896, 4159.23076903, 4141.92307672, 4122.43589716, 4112.94871767, 4103.33333306, 4128.20512793, 4138.46153826,10.0
4100.51282017, 4114.35897408, 3863.20512738, 4193.20512807, 4150.76923056, 4125.25640998, 4123.20512793, 4160.38461518, 4147.05128185, 4131.28205101, 4117.56410229, 4106.66666639, 4128.46153819, 4138.33333313,10.0
4094.61538427, 4104.10256383, 3846.15384532, 4190.25641012, 4139.48717928, 4107.94871767, 4101.15384581, 4132.05128178, 4125.12820485, 4117.56410229, 4113.97435870, 4099.10256376, 4119.61538434, 4136.28205108,10.0
4100.89743555, 4110.25640998, 3844.87179404, 4176.53846140, 4141.79487159, 4109.99999973, 4104.10256383, 4121.15384588, 4118.33333306, 4114.99999973, 4116.28205101, 4104.35897408, 4128.07692280, 4137.05128185,10.0
4105.51282024, 4121.41025614, 3845.89743507, 4182.30769217, 4153.20512800, 4117.30769203, 4113.46153819, 4129.23076896, 4126.92307665, 4121.79487152, 4116.92307665, 4109.61538434, 4130.89743562, 4136.66666646,10.0
4097.30769196, 4114.74358947, 3837.56410166, 4174.74358961, 4144.48717928, 4102.43589709, 4094.74358940, 4126.15384588, 4121.41025614, 4116.53846126, 4106.28205101, 4098.58974325, 4117.56410229, 4135.38461518,10.0
4103.84615357, 4113.46153819, 3839.10256320, 4171.28205115, 4136.92307672, 4097.43589709, 4090.89743555, 4126.79487152, 4121.79487152, 4122.17948691, 4110.89743562, 4100.38461504, 4124.10256383, 4136.79487159,10.0
4117.43589716, 4122.69230742, 3845.25640943, 4181.41025628, 4147.30769210, 4109.99999973, 4110.64102537, 4137.69230749, 4134.99999973, 4136.02564082, 4120.51282024, 4113.84615357, 4139.10256390, 4136.41025621,10.0
4107.69230742, 4114.10256383, 3837.17948628, 4170.25641012, 4143.97435877, 4107.43589716, 4106.53846126, 4132.94871767, 4131.92307665, 4127.05128178, 4106.66666639, 4106.79487152, 4128.07692280, 4134.87179460,10.0
4101.15384581, 4106.28205101, 3837.82051192, 4156.28205108, 4134.87179460, 4106.28205101, 4101.02564068, 4129.23076896, 4126.02564075, 4121.28205101, 4101.53846119, 4100.89743555, 4120.51282024, 4134.87179460,10.0
4113.71794844, 4119.10256383, 3852.05128122, 4157.43589723, 4145.25641005, 4120.76923050, 4121.66666639, 4151.66666646, 4138.84615364, 4133.84615357, 4116.15384588, 4113.46153819, 4128.84615357, 4135.38461518,10.0
4111.79487152, 4117.69230742, 3847.43589661, 4156.02564082, 4148.97435877, 4118.97435870, 4122.69230742, 4159.35897415, 4141.02564082, 4128.71794844, 4108.07692280, 4111.66666639, 4120.51282024, 4133.71794844,10.0
4094.48717914, 4098.33333299, 3831.92307602, 4150.76923056, 4131.92307665, 4102.30769196, 4100.25640991, 4137.56410236, 4122.69230742, 4108.33333306, 4087.69230735, 4093.46153812, 4103.84615357, 4130.51282024,10.0
4092.94871761, 4094.61538427, 3833.33333243, 4151.15384595, 4129.74358947, 4103.71794844, 4098.33333299, 4128.84615357, 4112.69230742, 4106.53846126, 4091.28205094, 4090.51282017, 4105.51282024, 4134.23076896,10.0
4103.71794844, 4100.38461504, 3846.02564020, 4153.07692287, 4141.53846133, 4110.64102537, 4102.30769196, 4130.89743562, 4111.15384588, 4113.07692280, 4102.17948684, 4103.84615357, 4115.12820485, 4137.30769210,10.0
4106.79487152, 4101.66666632, 3851.15384532, 4152.05128185, 4141.53846133, 4099.48717914, 4084.61538427, 4118.33333306, 4103.84615357, 4106.41025614, 4098.33333299, 4110.76923050, 4112.05128178, 4132.43589716,10.0
4108.71794844, 4107.30769203, 3849.61538379, 4152.56410236, 4143.20512800, 4092.17948684, 4077.30769196, 4113.20512793, 4104.74358947, 4104.87179460, 4098.33333299, 4111.41025614, 4109.74358947, 4133.20512793,10.0
4107.17948691, 4105.64102537, 3843.33333250, 4147.30769210, 4142.43589723, 4095.89743555, 4088.84615350, 4118.84615357, 4113.20512793, 4107.82051255, 4103.07692280, 4108.97435870, 4113.97435870, 4138.07692287,10.0
4100.25640991, 4098.07692273, 3830.12820423, 4133.84615357, 4133.97435870, 4093.46153812, 4092.05128171, 4120.38461511, 4112.69230742, 4103.97435870, 4097.69230735, 4106.15384588, 4113.20512793, 4136.92307672,10.0
4104.35897408, 4106.92307665, 3824.23076833, 4132.17948691, 4143.97435877, 4096.53846119, 4093.46153812, 4126.66666639, 4115.51282024, 4111.02564075, 4094.87179453, 4113.07692280, 4115.51282024, 4135.51282031,10.0
4119.10256383, 4120.89743562, 3826.66666577, 4139.35897415, 4156.53846133, 4109.10256383, 4102.56410229, 4138.97435877, 4126.79487152, 4129.99999973, 4109.87179460, 4127.30769203, 4127.30769203, 4135.76923056,10.0
4124.61538434, 4120.64102537, 3820.76922987, 4131.92307665, 4144.23076903, 4109.10256383, 4104.61538434, 4143.33333313, 4129.10256383, 4134.99999973, 4117.17948691, 4131.41025614, 4130.25640998, 4132.69230742,10.0
4114.48717921, 4111.66666639, 3801.41025544, 4115.38461511, 4132.69230742, 4101.15384581, 4097.94871761, 4140.25641005, 4123.07692280, 4123.20512793, 4097.69230735, 4118.46153819, 4116.66666639, 4134.74358947,10.0
4099.74358940, 4102.94871767, 3778.07692211, 4103.07692280, 4133.20512793, 4099.87179453, 4094.99999966, 4137.69230749, 4120.12820485, 4114.87179460, 4077.30769196, 4103.20512793, 4106.53846126, 4138.46153826,10.0
4085.76923043, 4095.51282017, 3759.61538358, 4092.43589709, 4128.20512793, 4097.30769196, 4091.92307658, 4133.20512793, 4115.25640998, 4106.92307665, 4064.99999959, 4093.07692273, 4099.23076889, 4132.43589716,10.0
4075.25640991, 4086.79487145, 3746.53846050, 4083.20512786, 4119.61538434, 4089.48717914, 4077.30769196, 4120.89743562, 4097.43589709, 4090.76923043, 4051.66666625, 4079.35897402, 4088.33333299, 4129.61538434,10.0
4082.05128171, 4087.30769196, 3755.25640922, 4087.82051248, 4119.99999973, 4088.46153812, 4070.64102530, 4114.61538434, 4090.38461504, 4095.38461504, 4059.23076882, 4079.99999966, 4094.99999966, 4134.48717921,10.0
4098.71794837, 4097.94871761, 3786.15384518, 4101.28205094, 4126.92307665, 4095.51282017, 4082.94871761, 4120.51282024, 4102.17948684, 4116.92307665, 4080.25640991, 4099.87179453, 4108.46153819, 4134.48717921,10.0
4101.41025607, 4099.23076889, 3810.89743500, 4108.20512793, 4131.02564075, 4097.30769196, 4087.30769196, 4121.53846126, 4108.58974332, 4117.56410229, 4084.61538427, 4108.07692280, 4105.25640998, 4131.15384588,10.0
4096.28205094, 4095.25640991, 3823.07692218, 4112.82051255, 4128.84615357, 4092.05128171, 4079.23076889, 4119.48717921, 4103.71794844, 4109.10256383, 4085.64102530, 4102.30769196, 4101.02564068, 4133.33333306,10.0
4096.79487145, 4098.46153812, 3832.17948628, 4115.38461511, 4125.38461511, 4088.20512786, 4078.97435863, 4117.17948691, 4094.99999966, 4107.05128178, 4090.38461504, 4103.46153819, 4102.94871767, 4134.99999973,10.0
4097.05128171, 4100.89743555, 3838.33333243, 4108.33333306, 4128.84615357, 4092.43589709, 4090.12820478, 4111.79487152, 4093.97435863, 4107.30769203, 4086.79487145, 4108.84615357, 4104.74358947, 4132.94871767,10.0
4097.05128171, 4099.35897402, 3841.02564020, 4105.38461511, 4134.10256383, 4100.25640991, 4098.58974325, 4117.43589716, 4105.64102537, 4113.97435870, 4086.92307658, 4111.41025614, 4110.51282024, 4134.87179460,10.0
4100.76923043, 4102.43589709, 3843.20512738, 4116.41025614, 4135.12820485, 4105.89743562, 4100.76923043, 4132.05128178, 4113.46153819, 4121.28205101, 4092.94871761, 4116.02564075, 4117.56410229, 4135.64102544,10.0
4105.89743562, 4111.79487152, 3844.48717866, 4119.35897408, 4136.28205108, 4108.33333306, 4103.97435870, 4141.66666646, 4115.51282024, 4125.12820485, 4095.51282017, 4124.99999973, 4121.41025614, 4132.30769203,10.0
4100.25640991, 4109.23076896, 3843.58974276, 4108.07692280, 4133.58974332, 4094.48717914, 4092.69230735, 4131.79487152, 4111.28205101, 4116.41025614, 4093.97435863, 4126.41025614, 4113.71794844, 4131.53846126,10.0
4089.99999966, 4094.35897402, 3849.23076840, 4106.15384588, 4130.89743562, 4073.46153812, 4068.84615343, 4109.10256383, 4092.69230735, 4098.58974325, 4093.58974325, 4117.82051255, 4101.28205094, 4133.20512793,10.0
4095.51282017, 4090.76923043, 3868.33333250, 4114.99999973, 4131.15384588, 4074.61538427, 4065.76923036, 4104.35897408, 4082.94871761, 4098.33333299, 4105.64102537, 4117.82051255, 4108.20512793, 4132.69230742,10.0
4117.17948691, 4105.76923050, 3899.10256334, 4124.48717921, 4141.15384595, 4099.61538427, 4097.17948684, 4130.25640998, 4101.28205094, 4121.02564075, 4128.46153819, 4135.89743569, 4130.64102537, 4132.56410229,10.0
4130.76923050, 4115.76923050, 3923.84615316, 4130.38461511, 4157.43589723, 4114.35897408, 4116.79487152, 4144.10256390, 4110.51282024, 4129.87179460, 4137.30769210, 4146.92307672, 4134.35897408, 4133.71794844,10.0
4123.71794844, 4107.56410229, 3924.48717880, 4128.20512793, 4152.94871774, 4103.07692280, 4097.82051248, 4126.41025614, 4095.25640991, 4119.23076896, 4128.97435870, 4136.28205108, 4120.12820485, 4133.33333306,10.0
4116.79487152, 4100.76923043, 3920.38461469, 4121.15384588, 4139.23076903, 4089.99999966, 4083.46153812, 4118.97435870, 4089.99999966, 4116.15384588, 4125.38461511, 4128.71794844, 4118.58974332, 4135.12820485,10.0
4117.05128178, 4102.05128171, 3922.30769162, 4118.46153819, 4141.92307672, 4092.94871761, 4092.56410222, 4122.94871767, 4091.79487145, 4110.89743562, 4119.35897408, 4128.20512793, 4117.94871767, 4136.02564082,10.0
4114.61538434, 4103.20512793, 3916.02564033, 4118.07692280, 4143.46153826, 4097.94871761, 4094.48717914, 4114.48717921, 4083.58974325, 4098.71794837, 4102.30769196, 4119.10256383, 4108.33333306, 4132.69230742,10.0
4114.35897408, 4106.02564075, 3917.05128136, 4122.17948691, 4134.74358947, 4091.92307658, 4083.46153812, 4117.17948691, 4087.94871761, 4101.28205094, 4100.25640991, 4116.79487152, 4110.12820485, 4130.89743562,10.0
4127.82051255, 4117.05128178, 3942.56410194, 4142.17948697, 4146.66666646, 4098.33333299, 4093.84615350, 4135.76923056, 4103.20512793, 4113.33333306, 4115.38461511, 4133.33333306, 4123.20512793, 4132.05128178,10.0
4131.53846126, 4123.33333306, 3962.17948656, 4156.79487159, 4154.48717928, 4107.82051255, 4099.61538427, 4124.74358947, 4092.56410222, 4106.02564075, 4118.58974332, 4138.20512800, 4121.53846126, 4132.43589716,10.0
4108.97435870, 4109.74358947, 3950.25640963, 4147.05128185, 4127.05128178, 4089.48717914, 4068.33333292, 4084.99999966, 4062.17948677, 4083.20512786, 4105.38461511, 4117.30769203, 4104.87179460, 4133.20512793,10.0
4103.46153819, 4103.84615357, 3945.76923015, 4148.84615364, 4117.94871767, 4077.30769196, 4057.69230728, 4082.30769196, 4058.71794830, 4084.74358940, 4105.89743562, 4116.53846126, 4106.28205101, 4135.51282031,10.0
4124.48717921, 4120.89743562, 3966.79487117, 4170.38461525, 4133.58974332, 4093.71794837, 4086.28205094, 4114.48717921, 4078.97435863, 4103.07692280, 4118.33333306, 4142.17948697, 4123.58974332, 4135.51282031,10.0
4135.12820485, 4132.56410229, 3976.41025586, 4175.76923063, 4137.43589723, 4103.97435870, 4103.33333306, 4128.07692280, 4091.15384581, 4107.56410229, 4121.79487152, 4151.02564082, 4133.07692280, 4133.20512793,10.0
4128.58974332, 4124.74358947, 3967.69230707, 4167.94871774, 4137.43589723, 4100.89743555, 4102.17948684, 4121.15384588, 4088.46153812, 4102.30769196, 4120.51282024, 4139.99999980, 4127.05128178, 4131.92307665,10.0
4132.43589716, 4121.92307665, 3970.38461476, 4176.66666653, 4143.71794851, 4109.99999973, 4107.94871767, 4121.41025614, 4082.94871761, 4104.87179460, 4124.74358947, 4145.12820492, 4128.20512793, 4133.46153819,10.0
4151.66666646, 4137.17948697, 3993.07692252, 4197.05128192, 4148.97435877, 4120.12820485, 4117.43589716, 4137.17948697, 4093.97435863, 4119.99999973, 4134.74358947, 4164.87179467, 4147.94871774, 4132.43589716,10.0
4150.12820492, 4138.33333313, 3997.56410201, 4195.76923063, 4146.41025621, 4112.56410229, 4113.97435870, 4139.48717928, 4101.15384581, 4121.28205101, 4136.53846133, 4163.33333313, 4145.51282031, 4133.84615357,10.0
4126.15384588, 4115.38461511, 3979.48717894, 4176.53846140, 4133.71794844, 4098.07692273, 4098.33333299, 4119.87179460, 4084.74358940, 4100.64102530, 4123.07692280, 4142.30769210, 4119.99999973, 4136.79487159,10.0
4121.53846126, 4109.48717921, 3983.97435842, 4175.12820499, 4126.92307665, 4099.23076889, 4097.69230735, 4117.30769203, 4082.56410222, 4094.61538427, 4118.58974332, 4137.69230749, 4118.07692280, 4133.71794844,10.0
4127.82051255, 4119.74358947, 4001.02564047, 4181.28205115, 4134.48717921, 4110.76923050, 4106.28205101, 4122.56410229, 4095.38461504, 4101.53846119, 4125.76923050, 4144.23076903, 4127.05128178, 4133.07692280,10.0
4122.05128178, 4112.69230742, 4004.23076875, 4174.35897422, 4128.58974332, 4107.05128178, 4096.79487145, 4114.23076896, 4091.41025607, 4101.66666632, 4128.97435870, 4138.20512800, 4119.74358947, 4134.87179460,10.0
4122.43589716, 4104.23076896, 4013.20512772, 4176.02564089, 4118.07692280, 4094.87179453, 4086.79487145, 4113.84615357, 4086.66666632, 4105.38461511, 4135.64102544, 4138.07692287, 4123.97435870, 4133.46153819,10.0
4125.51282024, 4106.92307665, 4031.28205080, 4182.30769217, 4128.20512793, 4090.89743555, 4090.25640991, 4121.79487152, 4089.35897402, 4108.20512793, 4140.38461518, 4144.10256390, 4136.28205108, 4130.51282024,10.0
4123.07692280, 4110.89743562, 4043.20512779, 4180.38461525, 4138.33333313, 4101.02564068, 4097.94871761, 4125.89743562, 4087.69230735, 4108.07692280, 4139.10256390, 4139.99999980, 4131.15384588, 4130.89743562,10.0
4135.51282031, 4121.15384588, 4061.66666625, 4187.43589730, 4138.71794851, 4116.02564075, 4116.02564075, 4142.69230749, 4096.66666632, 4118.71794844, 4149.74358954, 4145.12820492, 4133.07692280, 4134.10256383,10.0
4144.23076903, 4126.15384588, 4073.20512786, 4190.89743576, 4134.99999973, 4111.79487152, 4120.25640998, 4147.94871774, 4099.23076889, 4119.35897408, 4149.48717928, 4149.61538441, 4136.28205108, 4134.35897408,10.0
4144.87179467, 4115.64102537, 4071.02564068, 4178.84615371, 4133.20512793, 4106.66666639, 4111.53846126, 4132.69230742, 4085.25640991, 4110.25640998, 4127.69230742, 4139.74358954, 4126.15384588, 4134.35897408,10.0
4165.25641005, 4112.69230742, 4081.41025607, 4181.66666653, 4139.48717928, 4123.71794844, 4122.82051255, 4140.38461518, 4095.25640991, 4121.02564075, 4131.53846126, 4145.51282031, 4128.33333306, 4136.02564082,10.0
4180.12820499, 4117.69230742, 4085.12820478, 4189.23076910, 4137.94871774, 4123.71794844, 4122.69230742, 4147.56410236, 4109.61538434, 4128.97435870, 4145.38461518, 4158.07692287, 4135.25640998, 4134.48717921,10.0
4167.05128185, 4108.46153819, 4067.82051241, 4171.79487166, 4123.20512793, 4098.46153812, 4099.23076889, 4127.17948691, 4093.84615350, 4114.87179460, 4122.17948691, 4142.69230749, 4121.53846126, 4132.56410229,10.0
4157.30769210, 4104.23076896, 4065.64102523, 4159.48717928, 4115.76923050, 4100.64102530, 4099.87179453, 4115.38461511, 4081.66666632, 4108.71794844, 4106.41025614, 4127.30769203, 4108.84615357, 4136.92307672,10.0
4165.12820492, 4115.12820485, 4086.92307658, 4169.99999986, 4123.46153819, 4118.71794844, 4113.84615357, 4121.02564075, 4088.46153812, 4115.89743562, 4125.89743562, 4133.71794844, 4119.23076896, 4139.74358954,10.0
4171.28205115, 4115.64102537, 4103.84615357, 4174.48717935, 4126.53846126, 4111.92307665, 4110.64102537, 4128.46153819, 4094.35897402, 4122.30769203, 4136.02564082, 4140.12820492, 4135.51282031, 4135.64102544,10.0
4172.43589730, 4107.56410229, 4116.15384588, 4171.02564089, 4120.64102537, 4102.43589709, 4110.89743562, 4139.99999980, 4098.84615350, 4131.41025614, 4131.79487152, 4145.12820492, 4142.56410236, 4131.02564075,10.0
4179.23076910, 4111.15384588, 4133.20512793, 4175.64102551, 4119.23076896, 4111.79487152, 4119.74358947, 4154.74358954, 4106.79487152, 4142.82051262, 4142.56410236, 4151.66666646, 4145.25641005, 4132.56410229,10.0
4199.35897422, 4129.48717921, 4159.48717928, 4194.35897422, 4136.28205108, 4133.07692280, 4138.33333313, 4173.58974345, 4115.76923050, 4155.38461518, 4159.74358954, 4161.92307672, 4154.99999980, 4134.23076896,10.0
4213.58974352, 4135.76923056, 4179.10256397, 4202.82051275, 4155.51282031, 4142.05128185, 4150.38461518, 4182.94871781, 4117.30769203, 4155.38461518, 4156.66666646, 4166.41025621, 4157.17948697, 4131.92307665,10.0
4207.82051275, 4126.15384588, 4177.94871781, 4194.61538448, 4151.41025621, 4131.92307665, 4137.69230749, 4177.56410243, 4113.84615357, 4146.79487159, 4143.84615364, 4158.84615364, 4143.84615364, 4133.07692280,10.0
4200.25641012, 4117.30769203, 4176.53846140, 4192.17948704, 4139.23076903, 4124.87179460, 4126.02564075, 4169.87179474, 4113.33333306, 4148.07692287, 4139.23076903, 4151.66666646, 4134.87179460, 4133.33333306,10.0
4192.82051269, 4108.07692280, 4178.07692294, 4192.17948704, 4132.69230742, 4125.12820485, 4123.33333306, 4149.87179467, 4101.92307658, 4138.97435877, 4134.23076896, 4147.56410236, 4130.76923050, 4131.41025614,10.0
4186.66666653, 4103.07692280, 4180.51282038, 4189.23076910, 4131.92307665, 4126.28205101, 4121.41025614, 4129.74358947, 4084.61538427, 4116.28205101, 4128.20512793, 4144.48717928, 4125.12820485, 4133.07692280,10.0
4188.58974345, 4104.87179460, 4188.97435884, 4191.79487166, 4130.64102537, 4120.76923050, 4114.48717921, 4129.23076896, 4086.28205094, 4111.66666639, 4132.56410229, 4142.30769210, 4126.79487152, 4134.10256383,10.0
4186.28205115, 4101.92307658, 4194.35897422, 4190.12820499, 4116.41025614, 4105.89743562, 4099.74358940, 4126.15384588, 4092.05128171, 4117.94871767, 4136.28205108, 4137.43589723, 4127.56410229, 4134.10256383,10.0
4175.12820499, 4095.12820478, 4196.66666653, 4178.84615371, 4099.61538427, 4095.51282017, 4090.51282017, 4116.92307665, 4089.10256376, 4110.12820485, 4132.17948691, 4130.51282024, 4123.97435870, 4134.99999973,10.0
4175.64102551, 4097.30769196, 4213.97435891, 4181.66666653, 4101.66666632, 4107.05128178, 4104.35897408, 4125.89743562, 4098.71794837, 4113.58974332, 4141.79487159, 4134.23076896, 4134.87179460, 4133.84615357,10.0
4179.35897422, 4101.02564068, 4232.82051275, 4191.79487166, 4115.51282024, 4120.25640998, 4118.07692280, 4136.92307672, 4110.64102537, 4132.56410229, 4153.46153826, 4137.82051262, 4144.74358954, 4131.53846126,10.0
4166.02564082, 4096.41025607, 4226.02564096, 4184.74358961, 4117.94871767, 4116.92307665, 4111.79487152, 4128.07692280, 4104.74358947, 4128.71794844, 4139.35897415, 4125.12820485, 4126.79487152, 4131.41025614,10.0
4161.66666646, 4097.17948684, 4219.61538455, 4182.30769217, 4121.41025614, 4125.25640998, 4116.53846126, 4127.94871767, 4103.46153819, 4119.23076896, 4125.38461511, 4124.99999973, 4117.17948691, 4134.23076896,10.0
4178.07692294, 4104.61538434, 4229.23076917, 4190.38461525, 4135.64102544, 4141.92307672, 4132.82051255, 4138.97435877, 4111.53846126, 4130.12820485, 4131.15384588, 4143.46153826, 4133.33333306, 4134.61538434,10.0
4182.69230756, 4102.05128171, 4224.10256404, 4180.64102551, 4136.15384595, 4131.92307665, 4127.43589716, 4135.64102544, 4107.82051255, 4134.74358947, 4127.17948691, 4142.05128185, 4134.10256383, 4131.02564075,10.0
4167.82051262, 4089.48717914, 4207.30769224, 4162.56410236, 4118.33333306, 4112.43589716, 4105.64102537, 4119.35897408, 4093.46153812, 4118.71794844, 4112.30769203, 4120.89743562, 4116.66666639, 4131.53846126,10.0
4159.35897415, 4085.12820478, 4208.71794865, 4163.46153826, 4105.76923050, 4111.92307665, 4097.30769196, 4107.05128178, 4085.76923043, 4106.02564075, 4109.23076896, 4116.28205101, 4113.97435870, 4136.66666646,10.0
4160.76923056, 4094.61538427, 4217.69230763, 4168.07692287, 4101.66666632, 4111.15384588, 4098.71794837, 4106.02564075, 4084.87179453, 4108.84615357, 4105.76923050, 4123.07692280, 4120.51282024, 4138.33333313,10.0
4160.51282031, 4100.38461504, 4210.89743583, 4161.02564082, 4096.15384581, 4099.23076889, 4092.05128171, 4101.28205094, 4078.97435863, 4110.76923050, 4096.53846119, 4120.12820485, 4115.51282024, 4134.99999973,10.0
4164.74358954, 4099.23076889, 4212.82051275, 4159.23076903, 4101.66666632, 4103.97435870, 4093.46153812, 4102.05128171, 4081.28205094, 4116.28205101, 4103.07692280, 4119.87179460, 4117.69230742, 4132.94871767,10.0
4178.07692294, 4108.20512793, 4236.02564103, 4169.87179474, 4114.99999973, 4126.41025614, 4116.28205101, 4127.94871767, 4104.23076896, 4137.69230749, 4126.15384588, 4136.53846133, 4139.48717928, 4134.23076896,10.0
4182.56410243, 4113.84615357, 4245.00000000, 4171.53846140, 4109.74358947, 4135.64102544, 4127.94871767, 4142.94871774, 4114.10256383, 4148.97435877, 4139.48717928, 4149.99999980, 4150.51282031, 4133.71794844,10.0
4165.25641005, 4095.89743555, 4229.74358968, 4153.58974339, 4097.17948684, 4118.33333306, 4106.15384588, 4118.71794844, 4091.02564068, 4128.71794844, 4127.17948691, 4134.61538434, 4133.20512793, 4130.38461511,10.0
4153.46153826, 4088.07692273, 4232.43589737, 4146.79487159, 4105.89743562, 4113.71794844, 4098.20512786, 4106.41025614, 4084.74358940, 4117.05128178, 4113.33333306, 4115.25640998, 4119.35897408, 4132.69230742,10.0
4172.82051269, 4115.51282024, 4263.58974359, 4166.66666646, 4130.89743562, 4148.71794851, 4137.30769210, 4143.58974339, 4117.43589716, 4142.56410236, 4127.56410229, 4125.64102537, 4137.69230749, 4139.35897415,10.0
4191.41025628, 4134.61538434, 4282.05128212, 4182.43589730, 4142.17948697, 4167.82051262, 4160.38461518, 4166.79487159, 4134.10256383, 4160.76923056, 4144.23076903, 4142.43589723, 4155.51282031, 4138.33333313,10.0
4176.66666653, 4118.20512793, 4271.66666674, 4173.07692294, 4127.17948691, 4135.76923056, 4126.79487152, 4142.30769210, 4109.74358947, 4143.84615364, 4133.46153819, 4131.15384588, 4140.89743569, 4132.82051255,10.0
4162.56410236, 4105.51282024, 4265.51282052, 4164.48717928, 4111.66666639, 4113.20512793, 4100.25640991, 4123.84615357, 4094.48717914, 4127.05128178, 4124.48717921, 4118.58974332, 4131.15384588, 4133.97435870,10.0
4173.97435884, 4116.02564075, 4279.10256418, 4171.41025628, 4117.56410229, 4121.79487152, 4111.28205101, 4134.99999973, 4109.35897408, 4132.43589716, 4135.51282031, 4128.58974332, 4143.46153826, 4134.74358947,10.0
4180.64102551, 4120.25640998, 4287.05128212, 4176.28205115, 4123.07692280, 4123.84615357, 4116.02564075, 4136.66666646, 4110.38461511, 4135.38461518, 4136.66666646, 4133.46153819, 4145.12820492, 4130.38461511,10.0
4166.92307672, 4108.97435870, 4275.38461546, 4167.69230749, 4112.43589716, 4117.56410229, 4103.84615357, 4118.71794844, 4088.58974325, 4118.84615357, 4123.84615357, 4122.94871767, 4130.12820485, 4130.51282024,10.0
4160.25641005, 4106.92307665, 4273.46153853, 4160.64102544, 4109.61538434, 4116.79487152, 4103.46153819, 4118.46153819, 4085.12820478, 4112.30769203, 4123.97435870, 4123.33333306, 4129.10256383, 4133.46153819,10.0
4172.82051269, 4114.48717921, 4288.58974366, 4165.25641005, 4119.99999973, 4122.94871767, 4118.33333306, 4132.82051255, 4102.82051255, 4126.41025614, 4132.43589716, 4139.10256390, 4142.05128185, 4133.84615357,10.0
4178.97435884, 4116.79487152, 4287.69230777, 4165.38461518, 4121.41025614, 4134.23076896, 4127.17948691, 4137.17948697, 4112.30769203, 4133.46153819, 4135.51282031, 4146.15384595, 4146.15384595, 4132.43589716,10.0
4170.89743576, 4116.02564075, 4268.71794879, 4155.64102544, 4117.05128178, 4137.05128185, 4123.46153819, 4136.15384595, 4109.61538434, 4129.61538434, 4135.38461518, 4137.69230749, 4137.82051262, 4131.53846126,10.0
4161.53846133, 4111.41025614, 4255.12820513, 4145.38461518, 4115.64102537, 4125.12820485, 4115.51282024, 4134.61538434, 4104.74358947, 4127.17948691, 4123.33333306, 4121.66666639, 4123.71794844, 4133.58974332,10.0
4157.82051262, 4105.38461511, 4250.76923077, 4142.43589723, 4112.94871767, 4121.41025614, 4112.94871767, 4130.89743562, 4104.74358947, 4126.02564075, 4113.07692280, 4115.38461511, 4121.15384588, 4135.25640998,10.0
4166.79487159, 4112.30769203, 4260.25641026, 4151.79487159, 4114.87179460, 4131.28205101, 4122.82051255, 4136.53846133, 4111.15384588, 4129.61538434, 4124.74358947, 4132.82051255, 4134.48717921, 4132.69230742,10.0
4178.84615371, 4122.56410229, 4279.10256418, 4163.84615364, 4126.79487152, 4133.07692280, 4129.87179460, 4143.07692287, 4113.33333306, 4134.48717921, 4135.89743569, 4149.48717928, 4145.51282031, 4131.66666639,10.0
4173.97435884, 4117.17948691, 4276.92307700, 4159.35897415, 4131.92307665, 4127.30769203, 4123.33333306, 4139.99999980, 4110.76923050, 4132.82051255, 4127.69230742, 4143.20512800, 4144.23076903, 4134.23076896,10.0
4157.17948697, 4102.17948684, 4252.69230770, 4139.99999980, 4113.71794844, 4114.61538434, 4108.71794844, 4135.38461518, 4107.69230742, 4125.25640998, 4116.53846126, 4127.82051255, 4132.05128178, 4135.25640998,10.0
4157.05128185, 4099.61538427, 4250.64102564, 4137.43589723, 4102.30769196, 4108.46153819, 4105.89743562, 4134.99999973, 4110.89743562, 4126.15384588, 4120.38461511, 4126.41025614, 4128.84615357, 4134.61538434,10.0
4161.28205108, 4104.61538434, 4264.87179488, 4148.20512800, 4114.10256383, 4116.28205101, 4112.43589716, 4133.20512793, 4113.33333306, 4129.35897408, 4124.35897408, 4127.30769203, 4132.30769203, 4133.58974332,10.0
4152.56410236, 4102.94871767, 4264.61538462, 4149.23076903, 4116.79487152, 4114.87179460, 4106.92307665, 4124.10256383, 4101.28205094, 4122.69230742, 4116.28205101, 4120.12820485, 4128.20512793, 4133.33333306,10.0
4156.02564082, 4101.79487145, 4268.07692315, 4147.69230749, 4108.46153819, 4105.38461511, 4099.48717914, 4118.84615357, 4091.66666632, 4119.23076896, 4114.23076896, 4119.35897408, 4127.69230742, 4133.58974332,10.0
4176.79487166, 4115.64102537, 4294.35897443, 4160.76923056, 4120.64102537, 4114.87179460, 4114.99999973, 4135.89743569, 4105.89743562, 4134.87179460, 4137.69230749, 4135.38461518, 4145.12820492, 4132.94871767,10.0
4193.97435884, 4134.99999973, 4324.23076937, 4177.94871781, 4149.99999980, 4136.79487159, 4143.97435877, 4165.89743569, 4131.15384588, 4159.10256390, 4162.69230749, 4158.07692287, 4168.33333320, 4134.35897408,10.0
4197.30769217, 4138.97435877, 4337.30769252, 4179.74358961, 4155.89743569, 4137.82051262, 4148.33333313, 4177.43589730, 4138.71794851, 4168.07692287, 4165.38461518, 4169.35897422, 4174.48717935, 4136.02564082,10.0
4188.97435884, 4130.38461511, 4336.79487201, 4171.15384602, 4133.20512793, 4123.46153819, 4130.12820485, 4161.02564082, 4129.61538434, 4160.89743569, 4164.23076903, 4165.64102544, 4168.20512807, 4133.20512793,10.0
4174.61538448, 4118.20512793, 4326.66666681, 4159.87179467, 4114.48717921, 4117.05128178, 4117.69230742, 4137.17948697, 4120.25640998, 4151.15384595, 4163.20512800, 4149.87179467, 4160.76923056, 4131.15384588,10.0
4170.25641012, 4116.28205101, 4321.15384630, 4156.28205108, 4121.53846126, 4121.28205101, 4119.61538434, 4132.30769203, 4120.64102537, 4151.66666646, 4156.53846133, 4141.53846133, 4162.05128185, 4135.51282031,10.0
4182.17948704, 4125.38461511, 4324.35897450, 4160.38461518, 4131.41025614, 4127.30769203, 4134.35897408, 4151.41025621, 4128.84615357, 4158.33333313, 4154.23076903, 4151.02564082, 4168.46153833, 4137.43589723,10.0
4183.20512807, 4120.76923050, 4313.33333348, 4155.12820492, 4120.38461511, 4125.89743562, 4142.30769210, 4158.58974339, 4125.89743562, 4149.48717928, 4151.41025621, 4150.25641005, 4158.46153826, 4131.79487152,10.0
4171.41025628, 4109.23076896, 4294.35897443, 4144.99999980, 4117.43589716, 4116.41025614, 4130.38461511, 4138.58974339, 4114.35897408, 4135.12820485, 4144.61538441, 4136.53846133, 4144.48717928, 4129.87179460,10.0
4166.41025621, 4113.33333306, 4287.30769238, 4143.97435877, 4131.92307665, 4110.76923050, 4122.82051255, 4122.43589716, 4112.56410229, 4135.51282031, 4141.15384595, 4131.15384588, 4145.38461518, 4134.10256383,10.0
4162.05128185, 4118.20512793, 4283.07692315, 4141.28205108, 4129.23076896, 4119.61538434, 4132.94871767, 4120.76923050, 4112.43589716, 4136.41025621, 4132.30769203, 4127.43589716, 4146.41025621, 4134.74358947,10.0
4159.74358954, 4112.94871767, 4279.23076930, 4136.15384595, 4114.74358947, 4129.10256383, 4137.43589723, 4118.71794844, 4105.38461511, 4131.66666639, 4124.35897408, 4124.10256383, 4139.74358954, 4132.30769203,10.0
4173.46153833, 4125.51282024, 4291.79487187, 4145.89743569, 4122.94871767, 4123.58974332, 4132.05128178, 4125.64102537, 4114.23076896, 4145.38461518, 4136.92307672, 4136.53846133, 4142.82051262, 4133.46153819,10.0
4183.33333320, 4145.38461518, 4302.05128219, 4154.23076903, 4135.51282031, 4113.07692280, 4129.61538434, 4138.58974339, 4132.30769203, 4162.94871774, 4144.87179467, 4146.66666646, 4150.64102544, 4135.76923056,10.0
4171.53846140, 4137.56410236, 4283.71794879, 4142.43589723, 4121.15384588, 4111.28205101, 4129.23076896, 4134.10256383, 4128.33333306, 4155.89743569, 4130.25640998, 4134.74358947, 4142.94871774, 4133.97435870,10.0
4172.82051269, 4132.17948691, 4278.33333341, 4142.56410236, 4119.23076896, 4124.10256383, 4140.25641005, 4132.05128178, 4126.28205101, 4155.89743569, 4133.71794844, 4135.12820485, 4144.87179467, 4130.76923050,10.0
4189.61538448, 4148.58974339, 4301.15384630, 4160.38461518, 4145.51282031, 4137.30769210, 4155.12820492, 4146.92307672, 4142.30769210, 4177.94871781, 4156.79487159, 4151.53846133, 4166.28205108, 4131.28205101,10.0
4177.82051269, 4143.07692287, 4296.53846161, 4153.07692287, 4140.25641005, 4122.05128178, 4139.99999980, 4141.53846133, 4137.94871774, 4171.41025628, 4144.10256390, 4140.25641005, 4160.12820492, 4133.58974332,10.0
4154.99999980, 4117.82051255, 4268.84615392, 4132.56410229, 4107.56410229, 4102.82051255, 4119.74358947, 4118.20512793, 4116.92307665, 4142.05128185, 4111.53846126, 4117.17948691, 4129.99999973, 4135.51282031,10.0
4162.05128185, 4115.51282024, 4269.74358982, 4138.20512800, 4108.84615357, 4114.35897408, 4130.76923050, 4119.10256383, 4115.51282024, 4142.30769210, 4112.94871767, 4121.66666639, 4129.23076896, 4135.51282031,10.0
4165.12820492, 4123.20512793, 4274.87179495, 4147.05128185, 4121.79487152, 4121.15384588, 4134.74358947, 4129.99999973, 4122.17948691, 4152.94871774, 4123.71794844, 4128.46153819, 4141.53846133, 4134.74358947,10.0
4150.89743569, 4118.46153819, 4260.76923077, 4147.17948697, 4114.10256383, 4110.12820485, 4124.48717921, 4130.12820485, 4118.71794844, 4144.61538441, 4115.51282024, 4120.76923050, 4132.05128178, 4134.48717921,10.0
4157.05128185, 4123.07692280, 4263.84615385, 4162.94871774, 4118.58974332, 4112.82051255, 4132.94871767, 4131.92307665, 4116.41025614, 4142.30769210, 4117.43589716, 4125.12820485, 4130.38461511, 4133.33333306,10.0
4172.43589730, 4133.20512793, 4273.58974366, 4177.30769217, 4131.28205101, 4122.69230742, 4141.28205108, 4137.69230749, 4120.25640998, 4148.46153826, 4126.92307665, 4134.35897408, 4144.23076903, 4132.05128178,10.0
4170.12820499, 4129.10256383, 4264.35897436, 4173.97435884, 4126.02564075, 4123.58974332, 4137.30769210, 4146.66666646, 4129.61538434, 4149.48717928, 4124.10256383, 4134.61538434, 4147.17948697, 4132.56410229,10.0
4159.35897415, 4121.79487152, 4251.02564103, 4170.89743576, 4120.76923050, 4119.23076896, 4133.97435870, 4146.41025621, 4134.61538434, 4146.15384595, 4124.74358947, 4139.61538441, 4142.94871774, 4136.02564082,10.0
4151.15384595, 4119.74358947, 4238.84615385, 4169.61538448, 4117.82051255, 4109.48717921, 4123.33333306, 4127.69230742, 4127.17948691, 4138.71794851, 4135.51282031, 4142.82051262, 4144.35897415, 4138.58974339,10.0
4155.38461518, 4129.99999973, 4233.71794865, 4176.15384602, 4120.38461511, 4117.17948691, 4127.56410229, 4127.43589716, 4127.82051255, 4134.74358947, 4144.23076903, 4142.94871774, 4149.10256390, 4136.66666646,10.0
4168.97435884, 4146.41025621, 4241.79487180, 4188.58974345, 4134.48717921, 4137.69230749, 4148.20512800, 4147.56410236, 4134.23076896, 4136.79487159, 4145.89743569, 4151.15384595, 4151.15384595, 4132.82051255,10.0
4173.20512807, 4153.33333313, 4247.56410257, 4188.84615371, 4138.97435877, 4131.92307665, 4145.38461518, 4147.69230749, 4132.43589716, 4138.20512800, 4143.58974339, 4159.10256390, 4150.51282031, 4133.46153819,10.0
4165.51282031, 4150.38461518, 4239.87179488, 4180.38461525, 4131.66666639, 4113.71794844, 4130.38461511, 4136.66666646, 4130.76923050, 4135.51282031, 4135.12820485, 4154.61538441, 4148.33333313, 4136.53846133,10.0
4152.82051262, 4142.05128185, 4229.23076917, 4176.02564089, 4122.94871767, 4109.23076896, 4123.46153819, 4134.74358947, 4125.38461511, 4127.17948691, 4122.05128178, 4139.99999980, 4138.33333313, 4135.12820485,10.0
4147.30769210, 4140.38461518, 4230.12820506, 4178.46153833, 4118.58974332, 4111.15384588, 4120.38461511, 4135.76923056, 4116.79487152, 4124.99999973, 4123.07692280, 4135.12820485, 4133.33333306, 4133.58974332,10.0
4158.58974339, 4149.99999980, 4241.02564103, 4188.84615371, 4127.43589716, 4114.74358947, 4127.17948691, 4142.56410236, 4121.28205101, 4134.99999973, 4140.12820492, 4144.61538441, 4141.53846133, 4136.53846133,10.0
4160.12820492, 4151.28205108, 4236.79487180, 4190.64102551, 4132.05128178, 4116.02564075, 4134.87179460, 4146.79487159, 4126.79487152, 4134.10256383, 4140.25641005, 4148.46153826, 4140.12820492, 4138.33333313,10.0
4145.89743569, 4139.61538441, 4216.41025634, 4179.10256397, 4117.69230742, 4117.17948691, 4132.17948691, 4138.58974339, 4117.82051255, 4122.69230742, 4125.89743562, 4139.87179467, 4127.05128178, 4136.41025621,10.0
4144.23076903, 4139.48717928, 4214.99999993, 4181.53846140, 4112.69230742, 4121.53846126, 4130.89743562, 4138.07692287, 4119.99999973, 4128.97435870, 4133.58974332, 4137.69230749, 4132.43589716, 4133.97435870,10.0
4154.99999980, 4149.87179467, 4226.92307686, 4194.61538448, 4126.02564075, 4123.84615357, 4135.64102544, 4146.79487159, 4133.84615357, 4140.51282031, 4147.56410236, 4145.38461518, 4147.69230749, 4134.48717921,10.0
4159.74358954, 4155.76923056, 4225.25641019, 4193.97435884, 4133.33333306, 4139.61538441, 4151.28205108, 4154.23076903, 4138.07692287, 4139.61538441, 4143.71794851, 4146.79487159, 4150.38461518, 4136.41025621,10.0
4157.56410236, 4157.30769210, 4216.02564096, 4186.15384602, 4128.58974332, 4148.33333313, 4156.41025621, 4156.15384595, 4136.41025621, 4136.79487159, 4135.38461518, 4142.56410236, 4144.74358954, 4136.41025621,10.0
4148.07692287, 4147.69230749, 4201.53846147, 4178.07692294, 4118.33333306, 4115.25640998, 4124.48717921, 4144.10256390, 4130.64102537, 4129.87179460, 4129.99999973, 4132.94871767, 4135.51282031, 4133.84615357,10.0
4142.94871774, 4141.53846133, 4189.61538448, 4173.07692294, 4110.51282024, 4091.66666632, 4103.46153819, 4128.97435870, 4119.23076896, 4118.58974332, 4129.61538434, 4124.23076896, 4128.84615357, 4134.10256383,10.0
4149.48717928, 4148.07692287, 4194.99999986, 4177.17948704, 4112.05128178, 4106.02564075, 4118.33333306, 4125.38461511, 4111.66666639, 4113.84615357, 4136.92307672, 4127.30769203, 4130.12820485, 4136.41025621,10.0
4147.56410236, 4143.97435877, 4202.82051275, 4181.28205115, 4112.69230742, 4109.35897408, 4116.66666639, 4126.28205101, 4114.99999973, 4114.99999973, 4139.61538441, 4130.64102537, 4128.58974332, 4135.12820485,10.0
4139.10256390, 4134.48717921, 4202.94871788, 4181.66666653, 4113.58974332, 4101.15384581, 4104.87179460, 4129.87179460, 4123.20512793, 4119.61538434, 4136.66666646, 4127.82051255, 4123.07692280, 4133.84615357,10.0
4142.05128185, 4142.56410236, 4212.94871788, 4186.41025628, 4124.61538434, 4113.84615357, 4120.89743562, 4137.43589723, 4129.48717921, 4128.07692280, 4141.02564082, 4131.53846126, 4130.38461511, 4133.97435870,10.0
4156.15384595, 4156.53846133, 4226.79487173, 4192.43589730, 4135.51282031, 4127.94871767, 4137.69230749, 4141.66666646, 4133.33333306, 4134.61538434, 4152.69230749, 4145.12820492, 4145.51282031, 4134.48717921,10.0
4161.66666646, 4151.41025621, 4221.41025634, 4187.82051269, 4133.07692280, 4121.66666639, 4130.38461511, 4143.58974339, 4132.69230742, 4131.28205101, 4153.33333313, 4148.71794851, 4140.51282031, 4134.99999973,10.0
4155.12820492, 4141.15384595, 4209.23076917, 4180.64102551, 4133.58974332, 4119.61538434, 4132.82051255, 4148.71794851, 4134.87179460, 4130.51282024, 4138.84615364, 4146.66666646, 4129.61538434, 4134.48717921,10.0
4154.10256390, 4143.97435877, 4202.69230763, 4182.05128192, 4138.46153826, 4128.71794844, 4149.74358954, 4153.46153826, 4142.30769210, 4139.10256390, 4134.48717921, 4148.20512800, 4137.56410236, 4134.10256383,10.0
4151.66666646, 4144.23076903, 4191.28205115, 4180.12820499, 4126.15384588, 4125.51282024, 4141.41025621, 4152.17948697, 4143.84615364, 4136.02564082, 4137.82051262, 4141.53846133, 4140.38461518, 4134.87179460,10.0
4151.15384595, 4139.99999980, 4190.12820499, 4178.20512807, 4121.66666639, 4120.76923050, 4133.33333306, 4150.64102544, 4137.17948697, 4127.05128178, 4136.53846133, 4135.12820485, 4126.41025614, 4135.38461518,10.0
4156.02564082, 4141.15384595, 4198.97435884, 4184.23076910, 4131.02564075, 4127.05128178, 4145.51282031, 4147.30769210, 4132.56410229, 4127.82051255, 4137.69230749, 4140.12820492, 4123.07692280, 4135.12820485,10.0
4154.61538441, 4145.64102544, 4196.92307679, 4191.15384602, 4122.69230742, 4117.30769203, 4133.33333306, 4132.56410229, 4132.43589716, 4126.15384588, 4142.82051262, 4145.51282031, 4134.48717921, 4135.12820485,10.0
4149.48717928, 4149.48717928, 4194.10256397, 4194.74358961, 4117.94871767, 4103.20512793, 4112.82051255, 4122.56410229, 4132.30769203, 4122.05128178, 4146.41025621, 4146.41025621, 4138.58974339, 4133.71794844,10.0
4150.12820492, 4145.89743569, 4199.23076910, 4195.89743576, 4129.99999973, 4111.53846126, 4120.51282024, 4122.43589716, 4132.56410229, 4125.76923050, 4148.33333313, 4146.15384595, 4136.41025621, 4131.28205101,10.0
4148.71794851, 4137.94871774, 4202.05128199, 4195.64102551, 4127.56410229, 4115.38461511, 4127.17948691, 4121.28205101, 4132.56410229, 4129.74358947, 4144.61538441, 4139.35897415, 4137.56410236, 4132.56410229,10.0
4144.35897415, 4138.46153826, 4202.43589737, 4197.56410243, 4114.74358947, 4109.48717921, 4123.46153819, 4122.30769203, 4131.53846126, 4125.12820485, 4137.43589723, 4134.61538434, 4137.05128185, 4135.12820485,10.0
4148.84615364, 4144.99999980, 4207.30769224, 4202.05128199, 4122.17948691, 4117.43589716, 4136.66666646, 4131.41025614, 4132.30769203, 4127.56410229, 4146.28205108, 4143.46153826, 4137.43589723, 4133.46153819,10.0
4157.69230749, 4152.56410236, 4213.46153840, 4207.43589737, 4137.56410236, 4127.82051255, 4148.07692287, 4139.10256390, 4137.69230749, 4141.92307672, 4166.28205108, 4154.48717928, 4148.71794851, 4133.71794844,10.0
4164.74358954, 4159.48717928, 4217.43589737, 4211.79487173, 4142.69230749, 4133.33333306, 4149.35897415, 4146.28205108, 4148.58974339, 4153.07692287, 4174.74358961, 4157.05128185, 4160.12820492, 4138.20512800,10.0
4163.33333313, 4152.69230749, 4212.30769224, 4207.43589737, 4134.99999973, 4132.94871767, 4147.17948697, 4148.97435877, 4149.99999980, 4146.15384595, 4165.51282031, 4149.74358954, 4151.79487159, 4137.30769210,10.0
4152.82051262, 4145.51282031, 4198.46153833, 4196.28205115, 4124.61538434, 4123.46153819, 4135.25640998, 4135.89743569, 4136.53846133, 4128.97435870, 4152.94871774, 4142.43589723, 4137.30769210, 4133.58974332,10.0
4155.89743569, 4154.61538441, 4200.25641012, 4194.23076910, 4128.84615357, 4123.46153819, 4132.43589716, 4131.15384588, 4131.92307665, 4126.92307665, 4155.64102544, 4149.35897415, 4141.02564082, 4134.48717921,10.0
4167.43589723, 4157.94871774, 4211.02564096, 4199.61538448, 4136.41025621, 4125.12820485, 4137.82051262, 4136.15384595, 4135.89743569, 4133.71794844, 4162.43589723, 4160.38461518, 4150.12820492, 4135.38461518,10.0
4165.89743569, 4151.28205108, 4208.33333327, 4200.51282038, 4134.74358947, 4116.02564075, 4133.46153819, 4128.71794844, 4129.99999973, 4131.28205101, 4158.84615364, 4158.84615364, 4148.58974339, 4134.87179460,10.0
4160.76923056, 4150.38461518, 4198.20512807, 4198.71794858, 4126.02564075, 4111.28205101, 4127.56410229, 4121.79487152, 4126.28205101, 4128.97435870, 4155.38461518, 4155.51282031, 4144.99999980, 4136.28205108,10.0
4165.89743569, 4149.99999980, 4193.46153833, 4198.33333320, 4118.97435870, 4113.33333306, 4129.61538434, 4129.48717921, 4135.51282031, 4135.64102544, 4156.15384595, 4158.07692287, 4146.41025621, 4135.51282031,10.0
4172.82051269, 4154.87179467, 4193.97435884, 4202.05128199, 4128.20512793, 4124.23076896, 4140.89743569, 4141.79487159, 4144.35897415, 4143.58974339, 4160.64102544, 4162.43589723, 4152.05128185, 4132.94871767,10.0
4174.99999986, 4165.51282031, 4194.48717935, 4206.66666660, 4140.51282031, 4140.64102544, 4153.97435877, 4151.66666646, 4149.99999980, 4149.87179467, 4171.66666653, 4168.07692287, 4160.38461518, 4133.97435870,10.0
4167.43589723, 4160.64102544, 4188.20512807, 4202.17948711, 4127.94871767, 4132.82051255, 4145.51282031, 4147.56410236, 4151.15384595, 4149.99999980, 4171.79487166, 4164.87179467, 4157.17948697, 4135.12820485,10.0
4151.28205108, 4146.15384595, 4173.71794858, 4190.38461525, 4109.35897408, 4102.43589709, 4116.79487152, 4120.51282024, 4134.87179460, 4131.41025614, 4153.07692287, 4150.25641005, 4136.15384595, 4134.10256383,10.0
4150.76923056, 4145.25641005, 4174.35897422, 4192.82051269, 4116.79487152, 4104.35897408, 4118.97435870, 4114.61538434, 4127.17948691, 4121.41025614, 4148.33333313, 4144.74358954, 4130.25640998, 4133.97435870,10.0
4166.28205108, 4152.56410236, 4191.92307679, 4210.38461532, 4128.84615357, 4133.46153819, 4149.87179467, 4139.35897415, 4142.94871774, 4136.53846133, 4169.48717935, 4152.30769210, 4150.51282031, 4135.25640998,10.0
4164.61538441, 4152.30769210, 4191.28205115, 4209.10256404, 4118.84615357, 4128.71794844, 4144.23076903, 4137.05128185, 4141.53846133, 4138.33333313, 4178.20512807, 4152.82051262, 4154.61538441, 4135.64102544,10.0
4163.58974339, 4157.56410236, 4189.61538448, 4201.02564096, 4117.56410229, 4113.07692280, 4123.71794844, 4123.58974332, 4133.46153819, 4132.82051255, 4177.94871781, 4158.84615364, 4150.12820492, 4135.12820485,10.0
4180.25641012, 4168.07692287, 4209.99999993, 4210.64102558, 4136.15384595, 4128.20512793, 4138.07692287, 4133.58974332, 4144.99999980, 4145.76923056, 4185.76923063, 4173.97435884, 4161.41025621, 4135.25640998,10.0
4180.64102551, 4164.87179467, 4214.99999993, 4212.56410250, 4138.46153826, 4138.97435877, 4149.35897415, 4135.12820485, 4148.07692287, 4151.02564082, 4181.41025628, 4168.71794858, 4161.53846133, 4136.28205108,10.0
4164.99999980, 4159.74358954, 4199.35897422, 4200.51282038, 4128.20512793, 4122.17948691, 4134.35897408, 4126.28205101, 4142.05128185, 4144.48717928, 4172.30769217, 4155.89743569, 4150.38461518, 4136.92307672,10.0
4161.02564082, 4161.41025621, 4200.38461525, 4202.17948711, 4135.76923056, 4117.17948691, 4130.64102537, 4134.87179460, 4148.97435877, 4151.92307672, 4174.99999986, 4159.99999980, 4150.12820492, 4136.79487159,10.0
4165.51282031, 4161.53846133, 4214.35897429, 4212.43589737, 4148.20512800, 4133.84615357, 4142.56410236, 4140.64102544, 4151.66666646, 4160.12820492, 4181.28205115, 4165.64102544, 4155.25641005, 4135.64102544,10.0
4164.87179467, 4160.25641005, 4211.28205122, 4207.56410250, 4139.99999980, 4135.64102544, 4139.35897415, 4130.12820485, 4142.05128185, 4151.15384595, 4179.35897422, 4160.12820492, 4153.46153826, 4133.97435870,10.0
4166.92307672, 4163.71794851, 4204.61538455, 4201.92307686, 4133.97435870, 4134.10256383, 4141.15384595, 4136.92307672, 4144.74358954, 4147.43589723, 4175.89743576, 4159.61538441, 4155.25641005, 4136.02564082,10.0
4172.82051269, 4167.82051262, 4208.20512814, 4204.74358968, 4141.92307672, 4139.35897415, 4151.28205108, 4151.92307672, 4151.66666646, 4154.61538441, 4175.12820499, 4159.61538441, 4159.87179467, 4137.94871774,10.0
4166.15384595, 4161.79487159, 4196.92307679, 4197.17948704, 4129.99999973, 4129.99999973, 4139.87179467, 4144.23076903, 4146.79487159, 4147.05128185, 4172.56410243, 4145.64102544, 4152.69230749, 4137.43589723,10.0
4150.25641005, 4151.79487159, 4174.35897422, 4183.33333320, 4113.97435870, 4117.56410229, 4122.94871767, 4126.66666639, 4137.17948697, 4126.28205101, 4166.15384595, 4129.61538434, 4136.92307672, 4137.56410236,10.0
4149.87179467, 4153.46153826, 4173.97435884, 4187.82051269, 4127.05128178, 4121.02564075, 4126.28205101, 4123.33333306, 4129.99999973, 4118.71794844, 4160.12820492, 4133.20512793, 4130.64102537, 4134.74358947,10.0
4166.92307672, 4163.07692287, 4190.25641012, 4200.51282038, 4136.41025621, 4126.41025614, 4134.48717921, 4137.82051262, 4137.30769210, 4128.20512793, 4163.58974339, 4152.82051262, 4141.41025621, 4132.30769203,10.0
4175.12820499, 4160.76923056, 4195.51282038, 4198.46153833, 4121.53846126, 4128.71794844, 4136.28205108, 4147.43589723, 4145.25641005, 4131.66666639, 4167.17948697, 4162.69230749, 4150.76923056, 4134.87179460,10.0
4166.15384595, 4151.79487159, 4189.10256397, 4190.25641012, 4113.71794844, 4130.12820485, 4131.02564075, 4135.89743569, 4134.10256383, 4123.71794844, 4159.99999980, 4152.30769210, 4144.74358954, 4136.41025621,10.0
4150.51282031, 4145.38461518, 4175.12820499, 4182.82051269, 4117.30769203, 4119.61538434, 4115.64102537, 4117.82051255, 4118.33333306, 4114.23076896, 4146.79487159, 4137.69230749, 4133.07692280, 4136.41025621,10.0
4141.02564082, 4137.30769210, 4164.35897415, 4175.12820499, 4113.97435870, 4112.82051255, 4110.38461511, 4116.66666639, 4117.69230742, 4111.02564075, 4142.43589723, 4135.76923056, 4128.20512793, 4138.20512800,10.0
4140.38461518, 4134.99999973, 4168.20512807, 4173.46153833, 4108.71794844, 4118.07692280, 4120.12820485, 4122.43589716, 4124.74358947, 4119.48717921, 4148.84615364, 4140.25641005, 4133.46153819, 4137.82051262,10.0
4137.56410236, 4141.66666646, 4168.20512807, 4174.10256397, 4112.17948691, 4117.56410229, 4117.05128178, 4116.66666639, 4125.51282024, 4128.46153819, 4150.25641005, 4134.74358947, 4137.94871774, 4136.92307672,10.0
4136.28205108, 4144.61538441, 4159.23076903, 4168.58974345, 4123.33333306, 4119.87179460, 4112.43589716, 4116.15384588, 4127.69230742, 4129.23076896, 4151.92307672, 4127.69230742, 4139.23076903, 4140.25641005,10.0
4141.66666646, 4143.46153826, 4158.71794851, 4164.10256390, 4131.79487152, 4132.56410229, 4126.02564075, 4126.02564075, 4136.41025621, 4134.10256383, 4162.05128185, 4134.10256383, 4143.46153826, 4140.51282031,10.0
4139.48717928, 4146.66666646, 4158.07692287, 4166.41025621, 4128.20512793, 4136.15384595, 4135.38461518, 4132.56410229, 4144.74358954, 4142.56410236, 4164.61538441, 4143.71794851, 4149.87179467, 4135.64102544,10.0
4131.28205101, 4149.35897415, 4148.46153826, 4166.15384595, 4124.23076896, 4124.10256383, 4123.71794844, 4127.17948691, 4143.84615364, 4138.46153826, 4151.92307672, 4138.33333313, 4146.66666646, 4134.99999973,10.0
4124.87179460, 4139.87179467, 4140.89743569, 4156.66666646, 4114.23076896, 4110.76923050, 4109.99999973, 4115.76923050, 4131.66666639, 4124.99999973, 4140.38461518, 4121.41025614, 4130.12820485, 4136.79487159,10.0
4121.28205101, 4126.28205101, 4136.41025621, 4144.87179467, 4101.41025607, 4103.46153819, 4109.48717921, 4111.79487152, 4122.82051255, 4117.56410229, 4138.46153826, 4111.66666639, 4118.33333306, 4134.74358947,10.0
4135.38461518, 4134.23076896, 4149.61538441, 4151.53846133, 4111.15384588, 4111.41025614, 4119.87179460, 4122.05128178, 4131.92307665, 4130.38461511, 4154.87179467, 4128.46153819, 4135.25640998, 4135.12820485,10.0
4148.46153826, 4146.15384595, 4167.30769210, 4163.71794851, 4118.58974332, 4119.35897408, 4119.35897408, 4127.69230742, 4142.30769210, 4146.15384595, 4171.02564089, 4147.69230749, 4153.07692287, 4139.10256390,10.0
4132.69230742, 4133.58974332, 4154.61538441, 4151.15384595, 4099.74358940, 4107.94871767, 4108.07692280, 4114.61538434, 4130.12820485, 4131.41025614, 4152.82051262, 4133.71794844, 4137.56410236, 4139.10256390,10.0
4118.97435870, 4125.25640998, 4136.41025621, 4133.71794844, 4092.82051248, 4101.02564068, 4109.48717921, 4109.87179460, 4120.38461511, 4113.20512793, 4134.10256383, 4115.89743562, 4121.79487152, 4137.05128185,10.0
4124.61538434, 4135.38461518, 4137.94871774, 4132.43589716, 4106.53846126, 4107.43589716, 4114.74358947, 4117.30769203, 4127.69230742, 4122.05128178, 4141.15384595, 4118.33333306, 4126.15384588, 4135.25640998,10.0
4140.64102544, 4148.33333313, 4151.28205108, 4142.69230749, 4118.07692280, 4118.46153819, 4123.07692280, 4125.89743562, 4136.66666646, 4134.10256383, 4151.15384595, 4130.89743562, 4135.38461518, 4134.61538434,10.0
4162.94871774, 4163.97435877, 4167.94871774, 4154.99999980, 4131.28205101, 4132.05128178, 4138.46153826, 4138.33333313, 4147.17948697, 4137.17948697, 4158.07692287, 4148.97435877, 4146.28205108, 4135.12820485,10.0
4166.66666646, 4170.38461525, 4169.61538448, 4154.87179467, 4135.51282031, 4134.48717921, 4135.76923056, 4139.99999980, 4148.71794851, 4138.71794851, 4162.94871774, 4154.99999980, 4149.99999980, 4136.53846133,10.0
4152.82051262, 4162.17948697, 4154.99999980, 4148.33333313, 4128.46153819, 4127.17948691, 4127.17948691, 4136.15384595, 4142.69230749, 4140.76923056, 4163.71794851, 4147.30769210, 4146.15384595, 4138.84615364,10.0
4152.30769210, 4165.76923056, 4151.02564082, 4151.53846133, 4135.51282031, 4132.69230742, 4145.25641005, 4151.02564082, 4151.92307672, 4148.07692287, 4166.53846133, 4147.82051262, 4150.38461518, 4137.30769210,10.0
4151.15384595, 4164.48717928, 4141.66666646, 4147.56410236, 4131.28205101, 4135.89743569, 4153.58974339, 4153.20512800, 4156.28205108, 4146.41025621, 4154.99999980, 4141.66666646, 4145.38461518, 4133.71794844,10.0
4134.35897408, 4143.97435877, 4115.38461511, 4128.97435870, 4107.30769203, 4112.69230742, 4119.23076896, 4122.30769203, 4132.69230742, 4127.17948691, 4128.97435870, 4118.84615357, 4123.84615357, 4136.79487159,10.0
4130.76923050, 4139.48717928, 4109.23076896, 4126.28205101, 4103.07692280, 4098.20512786, 4098.71794837, 4106.41025614, 4118.58974332, 4120.76923050, 4133.20512793, 4116.66666639, 4122.30769203, 4138.84615364,10.0
4131.15384588, 4143.33333313, 4112.17948691, 4138.20512800, 4106.66666639, 4103.20512793, 4105.25640998, 4111.02564075, 4124.99999973, 4127.94871767, 4150.76923056, 4124.35897408, 4130.12820485, 4132.69230742,10.0
4120.76923050, 4136.66666646, 4102.17948684, 4142.94871774, 4096.28205094, 4100.76923043, 4100.12820478, 4108.07692280, 4125.64102537, 4125.51282024, 4147.82051262, 4117.05128178, 4124.48717921, 4135.64102544,10.0
4125.76923050, 4143.58974339, 4108.07692280, 4150.89743569, 4102.56410229, 4102.56410229, 4104.23076896, 4116.15384588, 4134.23076896, 4132.43589716, 4155.38461518, 4125.38461511, 4133.97435870, 4142.82051262,10.0
4135.38461518, 4148.71794851, 4118.46153819, 4156.28205108, 4112.43589716, 4111.53846126, 4120.25640998, 4127.05128178, 4142.82051262, 4138.97435877, 4162.30769210, 4138.97435877, 4146.53846133, 4138.33333313,10.0
4134.48717921, 4140.12820492, 4112.30769203, 4154.10256390, 4108.58974332, 4117.43589716, 4122.94871767, 4125.25640998, 4136.28205108, 4130.76923050, 4153.46153826, 4137.17948697, 4143.07692287, 4135.25640998,10.0
4138.58974339, 4148.46153826, 4112.17948691, 4157.17948697, 4114.99999973, 4122.30769203, 4124.10256383, 4134.48717921, 4140.12820492, 4131.53846126, 4158.33333313, 4142.94871774, 4146.79487159, 4137.30769210,10.0
4145.76923056, 4162.17948697, 4115.64102537, 4160.89743569, 4119.61538434, 4125.51282024, 4133.71794844, 4147.30769210, 4148.71794851, 4138.07692287, 4165.12820492, 4151.28205108, 4153.84615364, 4136.53846133,10.0
4147.82051262, 4160.64102544, 4111.15384588, 4160.76923056, 4117.17948691, 4125.38461511, 4134.74358947, 4139.74358954, 4142.82051262, 4129.35897408, 4162.30769210, 4153.20512800, 4149.10256390, 4136.66666646,10.0
4150.76923056, 4161.28205108, 4110.64102537, 4159.61538441, 4123.07692280, 4118.84615357, 4123.46153819, 4126.02564075, 4133.97435870, 4116.41025614, 4167.56410236, 4156.15384595, 4144.61538441, 4137.56410236,10.0
4157.82051262, 4171.15384602, 4115.12820485, 4159.99999980, 4126.15384588, 4119.10256383, 4122.69230742, 4130.64102537, 4134.74358947, 4118.97435870, 4170.38461525, 4157.30769210, 4146.53846133, 4136.02564082,10.0
4161.53846133, 4176.66666653, 4112.82051255, 4161.79487159, 4124.99999973, 4125.12820485, 4129.10256383, 4140.89743569, 4139.87179467, 4125.89743562, 4161.41025621, 4157.05128185, 4146.92307672, 4134.48717921,10.0
4153.07692287, 4166.15384595, 4104.10256383, 4157.69230749, 4128.58974332, 4115.38461511, 4124.48717921, 4132.56410229, 4138.33333313, 4124.10256383, 4157.43589723, 4157.94871774, 4144.61538441, 4137.05128185,10.0
4140.12820492, 4151.53846133, 4093.97435863, 4148.58974339, 4119.10256383, 4102.56410229, 4115.12820485, 4119.35897408, 4135.38461518, 4128.97435870, 4160.51282031, 4154.48717928, 4145.38461518, 4139.87179467,10.0
4134.87179460, 4141.41025621, 4080.38461504, 4140.76923056, 4106.02564075, 4112.05128178, 4117.43589716, 4123.20512793, 4137.43589723, 4134.99999973, 4161.02564082, 4146.02564082, 4144.99999980, 4139.87179467,10.0
4140.25641005, 4141.92307672, 4080.64102530, 4143.46153826, 4121.79487152, 4126.66666639, 4128.71794844, 4130.76923050, 4137.56410236, 4135.89743569, 4160.25641005, 4149.10256390, 4148.97435877, 4139.87179467,10.0
4151.15384595, 4156.15384595, 4099.61538427, 4156.41025621, 4137.82051262, 4126.15384588, 4132.30769203, 4133.84615357, 4136.28205108, 4141.66666646, 4163.46153826, 4164.74358954, 4156.41025621, 4140.51282031,10.0
4151.92307672, 4164.10256390, 4108.71794844, 4162.17948697, 4129.61538434, 4123.84615357, 4127.56410229, 4137.30769210, 4142.05128185, 4148.20512800, 4166.79487159, 4170.25641012, 4152.94871774, 4139.23076903,10.0
4133.33333306, 4149.23076903, 4090.76923043, 4145.51282031, 4115.12820485, 4121.15384588, 4117.94871767, 4128.71794844, 4139.99999980, 4136.28205108, 4154.23076903, 4153.97435877, 4136.53846133, 4136.92307672,10.0
4116.66666639, 4129.99999973, 4072.05128171, 4127.30769203, 4102.30769196, 4107.82051255, 4107.82051255, 4111.92307665, 4121.53846126, 4118.84615357, 4135.64102544, 4135.51282031, 4128.33333306, 4137.43589723,10.0
4123.33333306, 4131.92307665, 4080.76923043, 4133.71794844, 4103.07692280, 4104.10256383, 4110.89743562, 4118.33333306, 4124.48717921, 4123.58974332, 4146.02564082, 4143.84615364, 4139.61538441, 4138.20512800,10.0
4135.38461518, 4142.94871774, 4091.66666632, 4141.66666646, 4115.25640998, 4118.71794844, 4122.30769203, 4140.89743569, 4146.53846133, 4140.25641005, 4162.94871774, 4154.99999980, 4147.17948697, 4134.99999973,10.0
4139.10256390, 4150.25641005, 4083.33333299, 4133.97435870, 4117.43589716, 4129.61538434, 4128.97435870, 4141.66666646, 4145.25641005, 4142.94871774, 4154.87179467, 4149.74358954, 4145.38461518, 4135.51282031,10.0
4144.23076903, 4158.33333313, 4077.82051248, 4132.56410229, 4118.46153819, 4127.69230742, 4133.07692280, 4135.89743569, 4139.87179467, 4137.94871774, 4152.94871774, 4150.89743569, 4153.58974339, 4139.23076903,10.0
4144.48717928, 4161.92307672, 4081.53846119, 4135.38461518, 4125.12820485, 4122.17948691, 4131.92307665, 4144.10256390, 4148.46153826, 4141.15384595, 4165.76923056, 4156.28205108, 4162.56410236, 4136.53846133,10.0
4140.76923056, 4159.87179467, 4080.76923043, 4129.74358947, 4119.74358947, 4118.58974332, 4126.28205101, 4141.66666646, 4145.12820492, 4143.71794851, 4166.66666646, 4153.71794851, 4162.56410236, 4132.82051255,10.0
4147.05128185, 4162.56410236, 4081.28205094, 4129.61538434, 4115.38461511, 4121.66666639, 4128.46153819, 4135.12820485, 4137.56410236, 4144.87179467, 4165.76923056, 4156.41025621, 4166.92307672, 4136.53846133,10.0
4157.43589723, 4171.02564089, 4089.87179453, 4138.20512800, 4127.30769203, 4129.99999973, 4136.02564082, 4142.69230749, 4144.23076903, 4155.25641005, 4174.87179474, 4165.25641005, 4172.05128192, 4138.20512800,10.0
4161.02564082, 4178.58974345, 4094.35897402, 4142.94871774, 4134.23076896, 4127.69230742, 4131.92307665, 4140.76923056, 4144.23076903, 4157.30769210, 4175.12820499, 4166.92307672, 4166.02564082, 4135.12820485,10.0
4159.99999980, 4181.79487166, 4092.82051248, 4143.84615364, 4130.76923050, 4121.79487152, 4120.64102537, 4123.84615357, 4133.33333306, 4146.53846133, 4168.58974345, 4167.43589723, 4161.28205108, 4136.53846133,10.0
4153.97435877, 4177.94871781, 4086.02564068, 4140.38461518, 4122.82051255, 4118.20512793, 4113.71794844, 4124.61538434, 4132.69230742, 4144.23076903, 4164.23076903, 4161.02564082, 4156.28205108, 4138.33333313,10.0
4146.53846133, 4172.69230756, 4077.43589709, 4133.84615357, 4115.64102537, 4113.71794844, 4115.64102537, 4132.43589716, 4138.07692287, 4147.30769210, 4158.58974339, 4150.89743569, 4150.51282031, 4137.17948697,10.0
4148.58974339, 4177.43589730, 4080.25640991, 4136.92307672, 4118.58974332, 4118.71794844, 4124.74358947, 4128.46153819, 4142.05128185, 4149.87179467, 4164.23076903, 4163.97435877, 4159.23076903, 4138.46153826,10.0
4145.89743569, 4180.25641012, 4080.25640991, 4140.64102544, 4116.53846126, 4122.56410229, 4125.64102537, 4126.66666639, 4141.15384595, 4150.38461518, 4163.33333313, 4170.89743576, 4161.66666646, 4136.92307672,10.0
4129.99999973, 4168.84615371, 4064.61538420, 4132.17948691, 4101.66666632, 4105.51282024, 4113.46153819, 4125.89743562, 4137.69230749, 4142.69230749, 4144.87179467, 4148.46153826, 4146.15384595, 4133.84615357,10.0
4123.20512793, 4162.56410236, 4060.25640984, 4128.07692280, 4099.74358940, 4093.84615350, 4105.89743562, 4122.94871767, 4143.07692287, 4139.10256390, 4145.64102544, 4139.61538441, 4144.99999980, 4138.07692287,10.0
4132.43589716, 4168.97435884, 4076.79487145, 4134.74358947, 4109.35897408, 4112.94871767, 4115.64102537, 4121.79487152, 4147.94871774, 4146.66666646, 4164.61538441, 4153.07692287, 4156.41025621, 4139.87179467,10.0
4142.69230749, 4174.23076910, 4089.99999966, 4143.07692287, 4115.38461511, 4130.25640998, 4132.43589716, 4132.17948691, 4154.87179467, 4158.20512800, 4167.82051262, 4161.02564082, 4156.41025621, 4138.46153826,10.0
4140.12820492, 4168.71794858, 4080.25640991, 4143.33333313, 4116.79487152, 4125.64102537, 4130.64102537, 4139.61538441, 4159.99999980, 4159.23076903, 4158.46153826, 4156.02564082, 4148.33333313, 4139.99999980,10.0
4119.10256383, 4154.48717928, 4054.48717907, 4128.33333306, 4115.76923050, 4118.20512793, 4115.25640998, 4127.17948691, 4141.79487159, 4138.33333313, 4147.05128185, 4140.25641005, 4135.51282031, 4138.46153826,10.0
4103.07692280, 4142.69230749, 4039.99999959, 4112.43589716, 4110.64102537, 4119.35897408, 4109.87179460, 4112.30769203, 4122.69230742, 4118.84615357, 4132.94871767, 4126.15384588, 4124.10256383, 4136.41025621,10.0
4109.10256383, 4139.23076903, 4042.82051241, 4111.15384588, 4105.25640998, 4119.23076896, 4107.30769203, 4103.58974332, 4124.48717921, 4121.28205101, 4128.58974332, 4127.82051255, 4125.38461511, 4137.17948697,10.0
4117.17948691, 4150.89743569, 4045.89743548, 4116.53846126, 4104.99999973, 4110.76923050, 4096.53846119, 4099.48717914, 4127.17948691, 4128.46153819, 4137.17948697, 4130.64102537, 4131.28205101, 4136.66666646,10.0
4113.71794844, 4159.35897415, 4038.97435856, 4112.69230742, 4105.38461511, 4106.28205101, 4096.92307658, 4100.12820478, 4119.48717921, 4123.58974332, 4141.53846133, 4121.79487152, 4130.51282024, 4137.17948697,10.0
4113.20512793, 4154.35897415, 4033.58974311, 4103.58974332, 4102.30769196, 4108.20512793, 4103.71794844, 4098.46153812, 4117.17948691, 4121.15384588, 4138.84615364, 4115.76923050, 4131.28205101, 4140.25641005,10.0
4117.69230742, 4156.53846133, 4038.33333292, 4103.20512793, 4098.33333299, 4110.64102537, 4099.10256376, 4097.17948684, 4125.76923050, 4129.74358947, 4139.10256390, 4120.25640998, 4136.15384595, 4138.46153826,10.0
4120.89743562, 4166.41025621, 4041.41025600, 4108.33333306, 4097.82051248, 4111.92307665, 4101.92307658, 4111.53846126, 4135.51282031, 4136.92307672, 4143.58974339, 4123.20512793, 4134.23076896, 4135.12820485,10.0
4131.92307665, 4171.28205115, 4041.15384574, 4113.20512793, 4105.38461511, 4119.23076896, 4122.17948691, 4125.89743562, 4140.38461518, 4140.25641005, 4147.43589723, 4126.79487152, 4135.64102544, 4139.99999980,10.0
4144.48717928, 4177.56410243, 4045.38461497, 4116.41025614, 4114.10256383, 4129.23076896, 4132.05128178, 4124.23076896, 4141.53846133, 4149.87179467, 4152.94871774, 4139.61538441, 4148.84615364, 4141.15384595,10.0
4150.89743569, 4192.82051269, 4053.07692266, 4119.35897408, 4122.82051255, 4137.17948697, 4133.07692280, 4134.61538434, 4153.46153826, 4167.17948697, 4167.30769210, 4156.41025621, 4163.84615364, 4136.53846133,10.0
4153.33333313, 4201.28205122, 4054.99999959, 4126.66666639, 4129.10256383, 4145.76923056, 4145.12820492, 4146.28205108, 4161.66666646, 4172.69230756, 4177.94871781, 4163.71794851, 4167.30769210, 4134.74358947,10.0
4141.92307672, 4187.56410243, 4044.74358933, 4124.35897408, 4124.10256383, 4139.74358954, 4138.46153826, 4126.15384588, 4144.99999980, 4154.35897415, 4168.71794858, 4151.15384595, 4155.76923056, 4135.76923056,10.0
4130.12820485, 4171.79487166, 4031.53846106, 4110.51282024, 4111.66666639, 4124.48717921, 4111.41025614, 4105.51282024, 4129.74358947, 4141.02564082, 4155.51282031, 4136.79487159, 4147.05128185, 4137.69230749,10.0
4142.69230749, 4177.94871781, 4036.02564054, 4112.43589716, 4114.87179460, 4128.20512793, 4111.92307665, 4116.15384588, 4138.46153826, 4151.79487159, 4160.76923056, 4149.10256390, 4153.71794851, 4139.74358954,10.0
4150.51282031, 4183.97435884, 4048.71794830, 4123.97435870, 4124.48717921, 4134.48717921, 4123.84615357, 4123.20512793, 4138.33333313, 4149.61538441, 4160.51282031, 4159.61538441, 4152.94871774, 4137.69230749,10.0
4135.12820485, 4173.07692294, 4048.58974318, 4119.48717921, 4119.99999973, 4124.10256383, 4113.71794844, 4109.61538434, 4123.58974332, 4127.30769203, 4146.15384595, 4140.51282031, 4136.79487159, 4136.15384595,10.0
4134.35897408, 4175.25641012, 4054.99999959, 4117.82051255, 4122.30769203, 4126.53846126, 4111.92307665, 4112.82051255, 4129.23076896, 4131.15384588, 4150.25641005, 4132.43589716, 4136.53846133, 4138.20512800,10.0
4146.53846133, 4186.41025628, 4069.74358940, 4130.38461511, 4136.66666646, 4143.97435877, 4127.82051255, 4126.53846126, 4143.07692287, 4151.92307672, 4162.82051262, 4146.02564082, 4150.89743569, 4135.51282031,10.0
4141.79487159, 4180.76923063, 4067.17948677, 4129.35897408, 4133.33333306, 4140.12820492, 4128.58974332, 4123.20512793, 4142.17948697, 4153.71794851, 4151.53846133, 4144.74358954, 4149.48717928, 4133.46153819,10.0
4138.07692287, 4174.74358961, 4064.74358933, 4121.02564075, 4125.64102537, 4131.53846126, 4126.28205101, 4125.64102537, 4149.23076903, 4156.92307672, 4139.48717928, 4140.51282031, 4146.15384595, 4137.05128185,10.0
4147.82051262, 4178.07692294, 4078.58974325, 4127.05128178, 4137.82051262, 4141.53846133, 4136.02564082, 4135.38461518, 4157.43589723, 4166.79487159, 4147.30769210, 4149.87179467, 4158.20512800, 4138.33333313,10.0
4146.41025621, 4178.20512807, 4079.48717914, 4129.61538434, 4141.66666646, 4136.66666646, 4130.38461511, 4124.61538434, 4141.79487159, 4159.10256390, 4145.38461518, 4147.30769210, 4159.99999980, 4136.79487159,10.0
4136.15384595, 4180.12820499, 4067.82051241, 4122.05128178, 4128.58974332, 4122.43589716, 4120.12820485, 4114.61538434, 4132.05128178, 4147.05128185, 4135.12820485, 4135.12820485, 4148.46153826, 4138.33333313,10.0
4135.12820485, 4180.25641012, 4070.76923043, 4118.46153819, 4125.76923050, 4129.48717921, 4127.69230742, 4125.25640998, 4141.66666646, 4148.58974339, 4139.99999980, 4135.12820485, 4147.30769210, 4140.38461518,10.0
4137.56410236, 4172.82051269, 4077.30769196, 4118.07692280, 4126.28205101, 4135.12820485, 4131.41025614, 4125.76923050, 4141.79487159, 4151.53846133, 4146.28205108, 4139.35897415, 4152.43589723, 4138.84615364,10.0
4133.84615357, 4167.43589723, 4069.10256369, 4113.07692280, 4113.46153819, 4119.61538434, 4114.48717921, 4108.84615357, 4131.79487152, 4145.76923056, 4141.79487159, 4138.84615364, 4146.92307672, 4136.53846133,10.0
4131.28205101, 4168.58974345, 4063.33333292, 4107.43589716, 4110.64102537, 4118.33333306, 4110.51282024, 4110.51282024, 4134.87179460, 4142.17948697, 4139.61538441, 4138.97435877, 4142.43589723, 4137.17948697,10.0
4132.94871767, 4166.66666646, 4067.56410215, 4106.28205101, 4120.64102537, 4129.74358947, 4122.56410229, 4118.71794844, 4138.33333313, 4145.89743569, 4142.17948697, 4140.38461518, 4146.66666646, 4138.46153826,10.0
4131.79487152, 4160.89743569, 4063.71794830, 4107.05128178, 4118.71794844, 4119.10256383, 4114.61538434, 4106.41025614, 4128.33333306, 4145.51282031, 4139.35897415, 4138.97435877, 4143.20512800, 4136.79487159,10.0
4130.64102537, 4160.64102544, 4057.17948677, 4107.43589716, 4114.48717921, 4111.28205101, 4106.28205101, 4102.56410229, 4127.56410229, 4144.10256390, 4140.51282031, 4138.07692287, 4140.25641005, 4137.17948697,10.0
4135.64102544, 4165.76923056, 4064.99999959, 4108.33333306, 4118.84615357, 4125.38461511, 4120.89743562, 4123.33333306, 4139.61538441, 4153.33333313, 4147.82051262, 4143.20512800, 4148.46153826, 4140.38461518,10.0
4140.64102544, 4169.48717935, 4074.99999966, 4111.92307665, 4122.30769203, 4128.84615357, 4128.58974332, 4130.76923050, 4144.99999980, 4160.76923056, 4146.41025621, 4144.23076903, 4148.07692287, 4138.46153826,10.0
4132.30769203, 4165.38461518, 4067.30769189, 4111.28205101, 4119.48717921, 4119.10256383, 4117.82051255, 4115.76923050, 4136.28205108, 4152.69230749, 4132.94871767, 4128.84615357, 4134.10256383, 4135.38461518,10.0
4115.25640998, 4154.61538441, 4049.74358933, 4101.02564068, 4111.66666639, 4116.28205101, 4109.99999973, 4106.02564075, 4125.38461511, 4137.30769210, 4117.43589716, 4111.92307665, 4127.43589716, 4138.20512800,10.0
4114.99999973, 4151.15384595, 4046.02564061, 4095.89743555, 4109.48717921, 4118.71794844, 4113.71794844, 4108.84615357, 4132.43589716, 4137.69230749, 4111.28205101, 4112.17948691, 4132.05128178, 4138.71794851,10.0
4131.92307665, 4161.92307672, 4056.28205087, 4102.43589709, 4124.10256383, 4127.69230742, 4131.28205101, 4129.48717921, 4152.05128185, 4153.07692287, 4116.15384588, 4119.74358947, 4137.05128185, 4135.64102544,10.0
4131.41025614, 4162.82051262, 4052.69230728, 4100.12820478, 4130.12820485, 4135.38461518, 4141.41025621, 4141.02564082, 4151.79487159, 4149.74358954, 4114.99999973, 4114.10256383, 4131.02564075, 4137.69230749,10.0
4114.74358947, 4146.92307672, 4034.61538413, 4087.43589709, 4117.05128178, 4130.76923050, 4129.35897408, 4123.97435870, 4135.64102544, 4130.38461511, 4102.17948684, 4101.66666632, 4118.20512793, 4141.41025621,10.0
4117.94871767, 4147.69230749, 4035.38461490, 4089.61538427, 4118.58974332, 4128.97435870, 4123.58974332, 4115.64102537, 4135.51282031, 4132.43589716, 4101.53846119, 4106.66666639, 4122.17948691, 4139.99999980,10.0
4132.05128178, 4160.89743569, 4050.51282010, 4101.92307658, 4128.07692280, 4129.23076896, 4127.82051255, 4124.48717921, 4145.89743569, 4145.76923056, 4111.28205101, 4120.64102537, 4135.38461518, 4138.20512800,10.0
4131.79487152, 4158.33333313, 4052.56410215, 4101.02564068, 4122.43589716, 4123.33333306, 4122.94871767, 4124.23076896, 4145.25641005, 4144.35897415, 4112.94871767, 4123.46153819, 4136.79487159, 4139.48717928,10.0
4129.61538434, 4148.84615364, 4051.79487138, 4097.30769196, 4122.69230742, 4125.76923050, 4119.35897408, 4123.84615357, 4141.15384595, 4143.58974339, 4114.10256383, 4120.64102537, 4136.92307672, 4137.30769210,10.0
4133.58974332, 4150.76923056, 4061.92307651, 4102.05128171, 4134.48717921, 4133.20512793, 4129.74358947, 4129.61538434, 4141.66666646, 4151.15384595, 4119.48717921, 4122.82051255, 4146.66666646, 4132.82051255,10.0
4133.33333306, 4156.66666646, 4064.35897395, 4105.51282024, 4134.87179460, 4134.48717921, 4139.87179467, 4130.12820485, 4145.64102544, 4158.97435877, 4118.84615357, 4124.10256383, 4153.58974339, 4132.43589716,10.0
4131.28205101, 4159.35897415, 4054.99999959, 4102.05128171, 4131.79487152, 4133.20512793, 4137.43589723, 4135.38461518, 4153.07692287, 4163.97435877, 4113.33333306, 4123.46153819, 4152.30769210, 4136.66666646,10.0
4130.12820485, 4160.25641005, 4051.15384574, 4094.87179453, 4132.69230742, 4130.76923050, 4135.25640998, 4148.58974339, 4163.33333313, 4167.94871774, 4116.15384588, 4121.92307665, 4150.25641005, 4138.20512800,10.0
4136.15384595, 4163.33333313, 4056.92307651, 4096.92307658, 4131.79487152, 4139.99999980, 4152.69230749, 4159.23076903, 4171.92307679, 4178.46153833, 4128.20512793, 4124.23076896, 4156.66666646, 4136.02564082,10.0
4146.28205108, 4164.61538441, 4061.28205087, 4102.17948684, 4126.02564075, 4146.15384595, 4159.74358954, 4157.94871774, 4170.89743576, 4184.99999986, 4134.74358947, 4132.94871767, 4167.17948697, 4136.15384595,10.0
4140.89743569, 4155.64102544, 4058.71794830, 4095.89743555, 4113.84615357, 4128.20512793, 4133.97435870, 4144.99999980, 4162.17948697, 4178.20512807, 4132.94871767, 4134.74358947, 4163.07692287, 4137.17948697,10.0
4124.48717921, 4145.51282031, 4050.76923036, 4088.33333299, 4103.84615357, 4112.56410229, 4118.71794844, 4138.71794851, 4152.30769210, 4165.76923056, 4127.05128178, 4121.28205101, 4147.56410236, 4135.38461518,10.0
4125.51282024, 4154.23076903, 4048.97435856, 4096.53846119, 4109.87179460, 4121.28205101, 4132.82051255, 4143.33333313, 4150.12820492, 4164.10256390, 4122.94871767, 4117.56410229, 4147.43589723, 4136.53846133,10.0
4145.89743569, 4174.48717935, 4065.12820472, 4114.48717921, 4130.38461511, 4138.33333313, 4144.23076903, 4144.35897415, 4158.07692287, 4174.74358961, 4132.30769203, 4134.99999973, 4163.07692287, 4139.23076903,10.0
4149.23076903, 4176.53846140, 4069.74358940, 4118.84615357, 4133.20512793, 4138.84615364, 4133.84615357, 4133.07692280, 4154.35897415, 4172.30769217, 4137.82051262, 4137.94871774, 4159.23076903, 4136.66666646,10.0
4132.43589716, 4161.66666646, 4048.46153805, 4111.15384588, 4123.58974332, 4124.99999973, 4121.79487152, 4124.10256383, 4140.38461518, 4155.12820492, 4123.20512793, 4120.51282024, 4139.23076903, 4136.53846133,10.0
4123.46153819, 4158.84615364, 4035.51282003, 4108.33333306, 4124.48717921, 4117.94871767, 4123.07692280, 4123.97435870, 4136.79487159, 4148.97435877, 4116.66666639, 4117.69230742, 4139.35897415, 4140.51282031,10.0
4133.46153819, 4173.07692294, 4048.33333292, 4120.64102537, 4131.28205101, 4130.64102537, 4133.84615357, 4131.79487152, 4149.35897415, 4161.02564082, 4137.05128185, 4133.07692280, 4158.33333313, 4141.28205108,10.0
4148.46153826, 4182.17948704, 4061.53846113, 4138.84615364, 4140.38461518, 4149.23076903, 4149.61538441, 4149.23076903, 4168.84615371, 4175.25641012, 4152.30769210, 4143.84615364, 4167.56410236, 4140.64102544,10.0
4146.92307672, 4171.53846140, 4051.53846113, 4139.23076903, 4141.28205108, 4146.02564082, 4152.69230749, 4158.07692287, 4173.07692294, 4173.20512807, 4140.64102544, 4139.23076903, 4157.05128185, 4138.46153826,10.0
4135.64102544, 4158.33333313, 4031.66666618, 4124.61538434, 4131.66666639, 4128.84615357, 4142.30769210, 4146.53846133, 4157.82051262, 4157.05128185, 4125.51282024, 4128.46153819, 4146.92307672, 4137.30769210,10.0
4138.58974339, 4162.30769210, 4034.23076875, 4122.82051255, 4129.35897408, 4128.07692280, 4143.71794851, 4142.43589723, 4159.23076903, 4156.53846133, 4134.99999973, 4136.02564082, 4160.12820492, 4138.07692287,10.0
4150.64102544, 4166.53846133, 4048.58974318, 4132.43589716, 4133.84615357, 4139.23076903, 4149.10256390, 4152.94871774, 4176.28205115, 4167.43589723, 4146.02564082, 4153.97435877, 4173.84615371, 4138.58974339,10.0
4149.74358954, 4157.69230749, 4045.76923036, 4132.56410229, 4131.28205101, 4141.02564082, 4142.94871774, 4156.79487159, 4177.94871781, 4165.25641005, 4138.33333313, 4153.58974339, 4165.38461518, 4138.33333313,10.0
4147.05128185, 4156.53846133, 4037.30769189, 4129.35897408, 4134.87179460, 4143.46153826, 4151.02564082, 4163.46153826, 4179.35897422, 4168.20512807, 4137.17948697, 4149.61538441, 4162.30769210, 4137.82051262,10.0
4150.64102544, 4162.05128185, 4035.51282003, 4124.48717921, 4139.35897415, 4149.10256390, 4161.41025621, 4170.38461525, 4183.97435884, 4173.71794858, 4142.43589723, 4149.23076903, 4166.79487159, 4136.02564082,10.0
4146.28205108, 4163.07692287, 4029.74358926, 4117.94871767, 4130.12820485, 4144.61538441, 4150.89743569, 4157.69230749, 4172.30769217, 4164.48717928, 4131.15384588, 4144.74358954, 4162.82051262, 4137.17948697,10.0
4144.61538441, 4168.71794858, 4028.33333285, 4124.10256383, 4135.25640998, 4148.46153826, 4151.02564082, 4146.41025621, 4162.30769210, 4163.71794851, 4123.20512793, 4149.23076903, 4164.74358954, 4139.35897415,10.0
4154.48717928, 4176.92307679, 4040.64102523, 4133.84615357, 4154.10256390, 4158.33333313, 4164.74358954, 4156.53846133, 4172.05128192, 4179.99999986, 4135.89743569, 4163.33333313, 4174.23076910, 4137.69230749,10.0
4163.58974339, 4185.12820499, 4050.76923036, 4136.02564082, 4160.76923056, 4156.53846133, 4166.53846133, 4170.51282038, 4185.51282038, 4192.30769217, 4148.97435877, 4171.53846140, 4179.61538448, 4138.58974339,10.0
4166.79487159, 4193.46153833, 4052.30769189, 4142.17948697, 4158.97435877, 4152.17948697, 4165.51282031, 4169.48717935, 4186.28205115, 4197.17948704, 4151.15384595, 4174.48717935, 4180.51282038, 4141.53846133,10.0
4165.25641005, 4192.69230756, 4052.94871754, 4148.71794851, 4159.35897415, 4148.46153826, 4159.61538441, 4160.38461518, 4179.87179474, 4193.07692294, 4149.23076903, 4169.99999986, 4176.02564089, 4139.23076903,10.0
4163.46153826, 4191.02564089, 4054.87179446, 4145.51282031, 4161.79487159, 4141.66666646, 4148.20512800, 4157.30769210, 4177.56410243, 4185.12820499, 4153.20512800, 4159.74358954, 4173.58974345, 4136.53846133,10.0
4164.99999980, 4196.28205115, 4056.15384574, 4144.23076903, 4164.87179467, 4142.82051262, 4153.84615364, 4161.66666646, 4179.87179474, 4187.17948704, 4164.61538441, 4163.84615364, 4182.56410243, 4138.84615364,10.0
4167.30769210, 4190.38461525, 4056.66666625, 4145.51282031, 4164.87179467, 4146.92307672, 4160.76923056, 4161.41025621, 4178.07692294, 4186.53846140, 4167.94871774, 4168.33333320, 4186.66666653, 4141.02564082,10.0
4163.97435877, 4177.94871781, 4056.66666625, 4140.38461518, 4157.56410236, 4142.94871774, 4147.43589723, 4153.97435877, 4174.35897422, 4171.92307679, 4157.94871774, 4156.15384595, 4176.28205115, 4138.84615364,10.0
4162.17948697, 4184.74358961, 4055.51282010, 4138.07692287, 4152.82051262, 4142.05128185, 4144.35897415, 4155.12820492, 4172.69230756, 4163.07692287, 4151.66666646, 4151.28205108, 4169.99999986, 4136.41025621,10.0
4165.12820492, 4196.92307679, 4059.87179446, 4140.25641005, 4158.33333313, 4148.33333313, 4156.53846133, 4163.46153826, 4169.48717935, 4164.35897415, 4155.38461518, 4158.20512800, 4171.53846140, 4137.69230749,10.0
4164.35897415, 4193.07692294, 4066.79487138, 4138.07692287, 4163.97435877, 4152.43589723, 4161.28205108, 4163.97435877, 4168.46153833, 4160.38461518, 4156.02564082, 4153.84615364, 4169.87179474, 4139.48717928,10.0
4163.84615364, 4188.33333320, 4065.89743548, 4136.66666646, 4165.51282031, 4159.35897415, 4166.28205108, 4163.97435877, 4177.17948704, 4162.69230749, 4153.33333313, 4147.43589723, 4167.05128185, 4138.97435877,10.0
4159.99999980, 4189.74358961, 4051.79487138, 4134.61538434, 4164.48717928, 4162.17948697, 4170.25641012, 4165.51282031, 4178.33333320, 4167.56410236, 4148.20512800, 4147.82051262, 4163.71794851, 4137.05128185,10.0
4150.89743569, 4186.53846140, 4038.46153805, 4121.41025614, 4159.10256390, 4151.02564082, 4159.10256390, 4157.94871774, 4167.69230749, 4161.53846133, 4143.97435877, 4142.05128185, 4161.02564082, 4136.92307672,10.0
4154.99999980, 4189.74358961, 4043.07692266, 4114.99999973, 4155.51282031, 4143.33333313, 4152.56410236, 4153.84615364, 4167.05128185, 4166.53846133, 4153.97435877, 4145.64102544, 4170.38461525, 4138.97435877,10.0
4165.12820492, 4194.10256397, 4047.05128164, 4121.92307665, 4157.94871774, 4144.87179467, 4153.97435877, 4154.74358954, 4171.28205115, 4177.94871781, 4164.48717928, 4156.15384595, 4180.64102551, 4139.74358954,10.0
4162.43589723, 4187.56410243, 4047.30769189, 4127.30769203, 4160.89743569, 4139.35897415, 4147.94871774, 4150.12820492, 4171.15384602, 4177.82051269, 4163.84615364, 4154.61538441, 4179.10256397, 4138.33333313,10.0
4158.97435877, 4185.25641012, 4056.79487138, 4130.76923050, 4158.07692287, 4136.79487159, 4147.94871774, 4152.17948697, 4177.82051269, 4184.87179474, 4170.89743576, 4155.64102544, 4179.87179474, 4137.43589723,10.0
4164.99999980, 4189.35897422, 4059.87179446, 4131.79487152, 4152.82051262, 4143.46153826, 4154.87179467, 4156.28205108, 4178.46153833, 4189.87179474, 4178.20512807, 4161.66666646, 4184.99999986, 4138.84615364,10.0
4174.10256397, 4192.69230756, 4062.43589702, 4133.84615357, 4157.69230749, 4147.43589723, 4160.89743569, 4158.20512800, 4172.05128192, 4179.10256397, 4174.74358961, 4165.12820492, 4190.76923063, 4140.12820492,10.0
4184.23076910, 4201.66666660, 4078.46153812, 4140.64102544, 4166.02564082, 4148.46153826, 4167.82051262, 4169.10256397, 4181.15384602, 4180.89743576, 4181.28205115, 4174.61538448, 4194.87179474, 4138.97435877,10.0
4183.20512807, 4202.69230763, 4076.92307658, 4136.79487159, 4153.71794851, 4140.12820492, 4160.51282031, 4167.94871774, 4181.53846140, 4183.07692294, 4185.89743576, 4174.74358961, 4185.38461525, 4137.56410236,10.0
4171.66666653, 4187.56410243, 4057.56410215, 4124.99999973, 4137.94871774, 4131.02564075, 4151.41025621, 4156.41025621, 4165.38461518, 4167.17948697, 4174.61538448, 4162.17948697, 4174.10256397, 4138.33333313,10.0
4177.17948704, 4189.23076910, 4064.61538420, 4131.92307665, 4160.51282031, 4148.20512800, 4169.87179474, 4168.71794858, 4168.58974345, 4161.92307672, 4177.17948704, 4170.64102551, 4178.71794858, 4140.12820492,10.0
4188.84615371, 4202.82051275, 4082.17948684, 4145.89743569, 4183.20512807, 4168.97435884, 4181.92307679, 4181.66666653, 4174.10256397, 4166.92307672, 4188.20512807, 4185.89743576, 4183.58974345, 4139.10256390,10.0
4180.76923063, 4199.23076910, 4073.71794837, 4140.25641005, 4167.05128185, 4157.82051262, 4161.66666646, 4168.97435884, 4166.28205108, 4161.79487159, 4176.53846140, 4173.84615371, 4178.33333320, 4137.43589723,10.0
4171.15384602, 4189.61538448, 4061.02564061, 4130.51282024, 4157.05128185, 4152.43589723, 4159.10256390, 4159.99999980, 4167.69230749, 4158.33333313, 4164.10256390, 4159.35897415, 4173.71794858, 4138.07692287,10.0
4165.51282031, 4185.25641012, 4058.97435856, 4131.28205101, 4168.07692287, 4167.43589723, 4170.51282038, 4158.20512800, 4172.82051269, 4157.94871774, 4163.97435877, 4154.10256390, 4165.64102544, 4137.43589723,10.0
4151.15384595, 4176.41025628, 4053.20512779, 4132.69230742, 4161.79487159, 4161.28205108, 4153.20512800, 4144.74358954, 4166.02564082, 4154.48717928, 4159.10256390, 4143.20512800, 4157.30769210, 4135.38461518,10.0
4143.07692287, 4167.17948697, 4046.79487138, 4127.82051255, 4146.41025621, 4142.69230749, 4137.69230749, 4141.15384595, 4166.66666646, 4166.02564082, 4156.66666646, 4138.58974339, 4162.69230749, 4137.05128185,10.0
4147.43589723, 4163.97435877, 4046.15384574, 4121.28205101, 4143.58974339, 4142.30769210, 4145.89743569, 4152.82051262, 4179.35897422, 4183.84615371, 4165.38461518, 4145.64102544, 4166.79487159, 4139.10256390,10.0
4145.25641005, 4164.48717928, 4042.17948677, 4116.02564075, 4139.35897415, 4143.46153826, 4145.76923056, 4151.15384595, 4178.07692294, 4178.58974345, 4164.48717928, 4143.97435877, 4158.07692287, 4139.35897415,10.0
4141.53846133, 4167.69230749, 4039.10256369, 4114.48717921, 4137.30769210, 4133.84615357, 4133.33333306, 4137.43589723, 4167.82051262, 4162.43589723, 4156.28205108, 4137.17948697, 4152.17948697, 4139.87179467,10.0
4149.48717928, 4174.87179474, 4047.94871754, 4121.15384588, 4144.10256390, 4134.10256383, 4135.25640998, 4139.61538441, 4166.66666646, 4165.25641005, 4168.20512807, 4143.33333313, 4160.51282031, 4140.51282031,10.0
4149.74358954, 4178.84615371, 4052.43589702, 4123.07692280, 4143.33333313, 4145.64102544, 4144.48717928, 4146.79487159, 4164.74358954, 4168.46153833, 4179.87179474, 4146.15384595, 4164.61538441, 4140.38461518,10.0
4146.02564082, 4175.38461525, 4048.58974318, 4117.05128178, 4138.20512800, 4147.94871774, 4144.10256390, 4142.69230749, 4160.12820492, 4157.17948697, 4171.92307679, 4141.28205108, 4161.41025621, 4139.35897415,10.0
4154.23076903, 4173.07692294, 4057.94871754, 4121.28205101, 4143.07692287, 4143.33333313, 4143.71794851, 4144.99999980, 4167.05128185, 4154.99999980, 4168.58974345, 4146.53846133, 4170.51282038, 4137.82051262,10.0
4163.33333313, 4183.46153833, 4079.74358940, 4134.87179460, 4152.69230749, 4146.79487159, 4148.58974339, 4148.33333313, 4170.89743576, 4157.56410236, 4179.87179474, 4157.43589723, 4183.33333320, 4138.71794851,10.0
4169.23076910, 4196.66666653, 4096.66666632, 4142.30769210, 4156.79487159, 4155.12820492, 4152.17948697, 4142.43589723, 4160.76923056, 4154.48717928, 4183.07692294, 4163.46153826, 4176.41025628, 4139.48717928,10.0
4178.07692294, 4199.48717935, 4105.89743562, 4141.53846133, 4158.46153826, 4154.87179467, 4151.66666646, 4144.23076903, 4157.05128185, 4153.58974339, 4174.48717935, 4163.58974339, 4162.69230749, 4136.92307672,10.0
4185.76923063, 4195.64102551, 4114.35897408, 4141.79487159, 4159.35897415, 4155.38461518, 4157.69230749, 4152.56410236, 4164.87179467, 4157.30769210, 4174.87179474, 4165.38461518, 4165.38461518, 4136.79487159,10.0
4183.71794858, 4188.20512807, 4117.30769203, 4136.92307672, 4154.23076903, 4155.25641005, 4158.58974339, 4150.38461518, 4171.79487166, 4159.23076903, 4181.53846140, 4169.35897422, 4172.30769217, 4140.12820492,10.0
4176.92307679, 4181.41025628, 4111.92307665, 4128.07692280, 4144.35897415, 4147.69230749, 4146.66666646, 4144.61538441, 4169.61538448, 4159.99999980, 4181.66666653, 4167.30769210, 4172.43589730, 4140.38461518,10.0
4174.61538448, 4186.02564089, 4111.53846126, 4130.89743562, 4143.46153826, 4148.58974339, 4149.23076903, 4150.51282031, 4164.74358954, 4166.92307672, 4178.07692294, 4164.35897415, 4174.87179474, 4139.48717928,10.0
4182.43589730, 4197.17948704, 4120.38461511, 4142.82051262, 4151.53846133, 4159.87179467, 4165.51282031, 4164.35897415, 4177.43589730, 4178.20512807, 4185.25641012, 4173.46153833, 4184.48717935, 4139.48717928,10.0
4179.61538448, 4193.84615371, 4113.84615357, 4134.87179460, 4149.48717928, 4153.71794851, 4154.99999980, 4162.82051262, 4186.02564089, 4177.94871781, 4191.41025628, 4172.56410243, 4181.02564089, 4137.94871774,10.0
4152.69230749, 4171.41025628, 4085.89743555, 4109.99999973, 4136.66666646, 4130.51282024, 4124.10256383, 4140.25641005, 4163.46153826, 4157.17948697, 4176.92307679, 4143.46153826, 4156.41025621, 4138.07692287,10.0
4138.07692287, 4160.12820492, 4075.25640991, 4108.84615357, 4133.58974332, 4128.20512793, 4122.30769203, 4129.48717921, 4150.64102544, 4145.25641005, 4166.66666646, 4126.79487152, 4147.05128185, 4138.58974339,10.0
4147.82051262, 4167.43589723, 4089.48717914, 4126.28205101, 4144.48717928, 4144.74358954, 4140.89743569, 4139.74358954, 4163.07692287, 4155.12820492, 4173.20512807, 4138.07692287, 4157.17948697, 4137.94871774,10.0
4159.87179467, 4176.28205115, 4100.76923043, 4130.38461511, 4153.46153826, 4146.41025621, 4145.38461518, 4142.94871774, 4163.97435877, 4163.97435877, 4181.66666653, 4151.41025621, 4163.33333313, 4138.71794851,10.0
4171.66666653, 4184.61538448, 4109.35897408, 4129.61538434, 4153.97435877, 4136.53846133, 4144.74358954, 4139.99999980, 4159.61538441, 4165.25641005, 4189.99999986, 4162.69230749, 4175.38461525, 4139.23076903,10.0
4179.99999986, 4189.87179474, 4123.07692280, 4139.23076903, 4157.94871774, 4139.74358954, 4148.20512800, 4144.61538441, 4166.15384595, 4168.20512807, 4198.33333320, 4170.51282038, 4190.38461525, 4136.66666646,10.0
4169.48717935, 4182.56410243, 4121.41025614, 4141.02564082, 4155.76923056, 4147.94871774, 4150.64102544, 4140.64102544, 4159.10256390, 4160.76923056, 4189.74358961, 4159.61538441, 4180.12820499, 4136.53846133,10.0
4161.28205108, 4181.02564089, 4108.07692280, 4133.97435870, 4148.97435877, 4142.56410236, 4149.35897415, 4131.92307665, 4147.69230749, 4147.94871774, 4178.58974345, 4147.30769210, 4165.76923056, 4140.89743569,10.0
4174.10256397, 4191.41025628, 4115.25640998, 4136.66666646, 4154.87179467, 4134.23076896, 4147.43589723, 4142.82051262, 4163.33333313, 4154.35897415, 4189.35897422, 4159.61538441, 4176.53846140, 4142.05128185,10.0
4175.25641012, 4182.30769217, 4122.94871767, 4132.69230742, 4156.53846133, 4131.53846126, 4142.43589723, 4148.20512800, 4171.41025628, 4158.97435877, 4191.02564089, 4166.15384595, 4180.38461525, 4138.33333313,10.0
4160.25641005, 4165.89743569, 4113.84615357, 4121.41025614, 4148.20512800, 4135.89743569, 4142.05128185, 4131.66666639, 4154.99999980, 4145.64102544, 4170.12820499, 4153.71794851, 4166.02564082, 4136.92307672,10.0
4157.17948697, 4167.56410236, 4109.87179460, 4122.43589716, 4148.07692287, 4139.23076903, 4147.05128185, 4132.30769203, 4152.43589723, 4140.64102544, 4164.87179467, 4151.92307672, 4161.92307672, 4139.35897415,10.0
4162.30769210, 4169.48717935, 4115.38461511, 4125.25640998, 4150.64102544, 4134.10256383, 4145.25641005, 4150.38461518, 4166.79487159, 4150.76923056, 4179.35897422, 4157.69230749, 4170.89743576, 4140.25641005,10.0
4158.97435877, 4163.20512800, 4117.05128178, 4119.61538434, 4141.92307672, 4127.43589716, 4135.64102544, 4143.33333313, 4164.99999980, 4154.61538441, 4179.10256397, 4156.66666646, 4170.76923063, 4138.58974339,10.0
4159.99999980, 4162.56410236, 4119.61538434, 4119.74358947, 4134.74358947, 4130.25640998, 4131.02564075, 4127.69230742, 4150.76923056, 4152.69230749, 4173.20512807, 4161.15384595, 4162.30769210, 4137.94871774,10.0
4166.41025621, 4165.12820492, 4122.30769203, 4121.79487152, 4137.30769210, 4141.92307672, 4140.89743569, 4131.53846126, 4152.69230749, 4151.66666646, 4181.41025628, 4168.97435884, 4162.30769210, 4139.61538441,10.0
4159.48717928, 4164.10256390, 4115.12820485, 4115.51282024, 4140.51282031, 4140.25641005, 4143.20512800, 4135.76923056, 4159.10256390, 4149.23076903, 4182.05128192, 4160.89743569, 4163.46153826, 4139.87179467,10.0
4150.64102544, 4162.30769210, 4108.46153819, 4112.82051255, 4142.43589723, 4127.30769203, 4131.92307665, 4130.89743562, 4153.58974339, 4148.46153826, 4173.33333320, 4153.07692287, 4157.56410236, 4138.07692287,10.0
4159.87179467, 4162.43589723, 4112.82051255, 4115.38461511, 4141.66666646, 4126.15384588, 4129.23076896, 4128.33333306, 4143.58974339, 4146.02564082, 4173.97435884, 4160.38461518, 4157.56410236, 4137.43589723,10.0
4168.84615371, 4164.10256390, 4120.89743562, 4114.61538434, 4135.76923056, 4125.38461511, 4127.56410229, 4123.07692280, 4139.23076903, 4140.25641005, 4173.97435884, 4160.51282031, 4159.99999980, 4137.43589723,10.0
4150.76923056, 4153.07692287, 4113.20512793, 4103.71794844, 4116.79487152, 4108.33333306, 4110.12820485, 4108.46153819, 4134.61538434, 4128.71794844, 4151.79487159, 4142.94871774, 4148.07692287, 4137.56410236,10.0
4128.46153819, 4133.33333306, 4095.64102530, 4089.23076889, 4102.94871767, 4098.20512786, 4099.74358940, 4100.76923043, 4129.23076896, 4119.87179460, 4131.53846126, 4128.20512793, 4134.23076896, 4139.74358954,10.0
4128.33333306, 4126.66666639, 4090.38461504, 4085.25640991, 4112.30769203, 4103.97435870, 4109.99999973, 4106.28205101, 4131.79487152, 4122.94871767, 4137.43589723, 4125.12820485, 4130.25640998, 4139.74358954,10.0
4131.02564075, 4132.30769203, 4092.94871761, 4088.20512786, 4118.07692280, 4109.35897408, 4114.48717921, 4114.74358947, 4140.25641005, 4127.82051255, 4141.66666646, 4121.79487152, 4130.89743562, 4140.51282031,10.0
4125.25640998, 4133.20512793, 4086.92307658, 4090.38461504, 4115.76923050, 4116.41025614, 4117.94871767, 4123.33333306, 4152.56410236, 4134.48717921, 4134.74358947, 4118.07692280, 4136.53846133, 4142.17948697,10.0
4112.56410229, 4117.82051255, 4063.58974318, 4085.12820478, 4114.74358947, 4113.33333306, 4121.41025614, 4122.69230742, 4152.94871774, 4132.82051255, 4125.64102537, 4105.38461511, 4132.56410229, 4139.35897415,10.0
4094.87179453, 4103.84615357, 4040.25640984, 4079.10256376, 4105.12820485, 4099.10256376, 4108.20512793, 4106.53846126, 4138.07692287, 4113.46153819, 4115.76923050, 4080.76923043, 4115.25640998, 4138.46153826,10.0
4088.97435863, 4113.07692280, 4040.64102523, 4087.94871761, 4098.07692273, 4097.69230735, 4098.33333299, 4098.97435863, 4133.46153819, 4103.97435870, 4114.35897408, 4075.64102530, 4110.64102537, 4139.87179467,10.0
4103.97435870, 4132.05128178, 4057.69230728, 4104.10256383, 4107.94871767, 4106.15384588, 4107.94871767, 4109.35897408, 4142.17948697, 4115.76923050, 4125.64102537, 4092.94871761, 4122.17948691, 4138.71794851,10.0
4110.89743562, 4133.07692280, 4063.84615343, 4107.69230742, 4111.15384588, 4104.99999973, 4111.53846126, 4108.97435870, 4144.10256390, 4116.53846126, 4128.46153819, 4101.41025607, 4122.69230742, 4139.10256390,10.0
4099.35897402, 4123.58974332, 4057.17948677, 4106.28205101, 4100.38461504, 4096.53846119, 4096.02564068, 4094.10256376, 4133.97435870, 4101.79487145, 4121.79487152, 4097.17948684, 4113.71794844, 4141.15384595,10.0
4097.30769196, 4127.30769203, 4057.69230728, 4115.12820485, 4097.56410222, 4092.94871761, 4088.71794837, 4089.35897402, 4128.20512793, 4101.79487145, 4127.56410229, 4103.71794844, 4117.94871767, 4140.76923056,10.0
4107.82051255, 4139.99999980, 4069.61538420, 4123.20512793, 4104.35897408, 4101.53846119, 4106.41025614, 4099.99999966, 4135.51282031, 4112.69230742, 4133.46153819, 4118.33333306, 4129.10256383, 4138.20512800,10.0
4120.25640998, 4148.97435877, 4079.74358940, 4127.56410229, 4112.05128178, 4113.58974332, 4120.64102537, 4110.64102537, 4145.12820492, 4116.53846126, 4134.74358947, 4125.51282024, 4133.84615357, 4138.33333313,10.0
4133.46153819, 4152.17948697, 4080.89743555, 4132.82051255, 4119.10256383, 4113.71794844, 4118.58974332, 4117.30769203, 4152.17948697, 4121.53846126, 4142.30769210, 4131.28205101, 4140.64102544, 4140.64102544,10.0
4131.66666639, 4146.41025621, 4074.35897402, 4124.87179460, 4112.30769203, 4101.41025607, 4111.02564075, 4115.76923050, 4150.51282031, 4121.41025614, 4141.66666646, 4131.66666639, 4142.56410236, 4140.89743569,10.0
4113.07692280, 4135.38461518, 4062.43589702, 4109.61538434, 4099.61538427, 4090.51282017, 4102.30769196, 4103.58974332, 4134.35897408, 4101.79487145, 4126.02564075, 4117.94871767, 4122.43589716, 4138.58974339,10.0
4110.76923050, 4137.30769210, 4062.30769189, 4112.69230742, 4101.79487145, 4094.10256376, 4105.25640998, 4096.79487145, 4123.20512793, 4086.66666632, 4119.87179460, 4114.74358947, 4110.64102537, 4138.46153826,10.0
4128.71794844, 4152.56410236, 4079.99999966, 4126.02564075, 4110.89743562, 4106.66666639, 4121.53846126, 4108.20512793, 4133.58974332, 4096.15384581, 4131.28205101, 4133.20512793, 4129.10256383, 4142.05128185,10.0
4128.58974332, 4152.82051262, 4082.43589709, 4119.99999973, 4105.89743562, 4106.28205101, 4121.15384588, 4116.92307665, 4142.17948697, 4105.51282024, 4132.94871767, 4135.25640998, 4136.15384595, 4139.87179467,10.0
4117.94871767, 4144.10256390, 4068.20512779, 4110.38461511, 4100.51282017, 4101.41025607, 4112.69230742, 4117.43589716, 4144.99999980, 4109.10256383, 4129.10256383, 4122.30769203, 4128.20512793, 4134.74358947,10.0
4123.97435870, 4150.12820492, 4069.61538420, 4116.15384588, 4112.30769203, 4112.05128178, 4124.35897408, 4126.15384588, 4154.48717928, 4119.61538434, 4135.25640998, 4126.28205101, 4135.38461518, 4137.30769210,10.0
4131.02564075, 4153.71794851, 4078.46153812, 4117.17948691, 4113.84615357, 4124.61538434, 4129.99999973, 4125.12820485, 4152.94871774, 4118.84615357, 4136.15384595, 4131.79487152, 4139.87179467, 4140.89743569,10.0
4131.15384588, 4146.15384595, 4079.23076889, 4114.10256383, 4101.79487145, 4121.66666639, 4116.41025614, 4110.76923050, 4145.12820492, 4110.64102537, 4130.12820485, 4125.51282024, 4129.87179460, 4139.99999980,10.0
4132.82051255, 4143.20512800, 4080.12820478, 4116.92307665, 4108.84615357, 4114.35897408, 4113.71794844, 4112.69230742, 4150.12820492, 4113.71794844, 4124.10256383, 4120.25640998, 4129.61538434, 4138.71794851,10.0
4124.10256383, 4138.58974339, 4076.92307658, 4112.30769203, 4117.94871767, 4112.43589716, 4116.66666639, 4118.84615357, 4153.07692287, 4111.28205101, 4116.15384588, 4110.64102537, 4130.51282024, 4137.94871774,10.0
4108.71794844, 4130.12820485, 4070.12820478, 4102.17948684, 4104.23076896, 4112.05128178, 4112.05128178, 4113.20512793, 4145.51282031, 4103.58974332, 4115.64102537, 4098.84615350, 4124.10256383, 4138.58974339,10.0
4107.43589716, 4130.76923050, 4072.05128171, 4101.53846119, 4094.23076889, 4108.07692280, 4109.10256383, 4113.46153819, 4142.94871774, 4105.51282024, 4125.25640998, 4099.35897402, 4126.66666639, 4141.53846133,10.0
4110.76923050, 4133.07692280, 4075.38461504, 4103.71794844, 4100.64102530, 4101.53846119, 4110.38461511, 4118.97435870, 4143.97435877, 4106.41025614, 4128.33333306, 4102.05128171, 4130.25640998, 4141.15384595,10.0
4105.89743562, 4131.15384588, 4072.94871761, 4095.25640991, 4100.12820478, 4100.25640991, 4110.89743562, 4114.35897408, 4142.05128185, 4098.58974325, 4123.20512793, 4099.61538427, 4120.51282024, 4138.07692287,10.0
4102.69230742, 4134.74358947, 4073.84615350, 4089.99999966, 4097.82051248, 4109.35897408, 4117.17948691, 4113.71794844, 4143.33333313, 4095.89743555, 4121.02564075, 4101.92307658, 4111.92307665, 4136.66666646,10.0
4106.02564075, 4140.64102544, 4077.82051248, 4095.12820478, 4099.99999966, 4117.69230742, 4125.25640998, 4119.61538434, 4143.71794851, 4100.64102530, 4118.71794844, 4106.79487152, 4117.43589716, 4138.07692287,10.0
4114.61538434, 4139.23076903, 4084.23076889, 4099.35897402, 4098.84615350, 4114.61538434, 4124.99999973, 4120.76923050, 4146.02564082, 4104.87179460, 4122.56410229, 4112.82051255, 4124.10256383, 4139.61538441,10.0
4118.46153819, 4139.23076903, 4092.17948684, 4097.94871761, 4099.99999966, 4110.12820485, 4117.30769203, 4118.71794844, 4147.17948697, 4105.76923050, 4129.74358947, 4121.28205101, 4120.64102537, 4138.84615364,10.0
4109.61538434, 4141.53846133, 4092.17948684, 4094.99999966, 4099.48717914, 4108.84615357, 4104.61538434, 4108.20512793, 4135.51282031, 4098.46153812, 4122.30769203, 4120.38461511, 4111.53846126, 4137.43589723,10.0
4103.97435870, 4142.30769210, 4088.58974325, 4092.43589709, 4094.23076889, 4106.28205101, 4096.02564068, 4096.15384581, 4126.41025614, 4093.71794837, 4111.41025614, 4112.69230742, 4106.41025614, 4136.53846133,10.0
4111.79487152, 4146.15384595, 4091.79487145, 4093.20512786, 4097.17948684, 4108.97435870, 4103.20512793, 4101.15384581, 4131.66666639, 4100.38461504, 4114.87179460, 4116.15384588, 4112.17948691, 4138.20512800,10.0
4117.17948691, 4145.64102544, 4095.64102530, 4097.43589709, 4103.84615357, 4117.82051255, 4112.17948691, 4107.17948691, 4135.51282031, 4103.33333306, 4117.30769203, 4121.53846126, 4118.20512793, 4143.07692287,10.0
4113.07692280, 4139.48717928, 4095.51282017, 4095.51282017, 4105.25640998, 4118.58974332, 4110.76923050, 4101.15384581, 4128.33333306, 4093.84615350, 4109.87179460, 4116.28205101, 4115.12820485, 4142.56410236,10.0
4113.20512793, 4133.20512793, 4093.71794837, 4089.87179453, 4102.30769196, 4113.46153819, 4110.38461511, 4101.92307658, 4128.58974332, 4089.35897402, 4110.25640998, 4113.33333306, 4112.82051255, 4136.79487159,10.0
4115.64102537, 4126.15384588, 4089.48717914, 4087.94871761, 4097.43589709, 4111.28205101, 4111.79487152, 4107.56410229, 4135.89743569, 4096.28205094, 4117.05128178, 4112.17948691, 4117.17948691, 4135.89743569,10.0
