AF3,F7,F3,FC5,T7,P7,O1,O2,P8,T8,FC6,F4,F8,AF4,Label
4115.51282024, 4123.20512793, 4116.66666639, 4101.15384581, 4122.82051255, 4067.69230728, 4077.69230735, 4471.41025690, 4100.89743555, 4131.15384588, 4119.99999973, 4125.64102537, 4128.84615357, 4188.58974345,8.57
4123.20512793, 4126.53846126, 4124.10256383, 4115.12820485, 4124.61538434, 4082.30769196, 4093.07692273, 4476.79487229, 4113.97435870, 4130.89743562, 4119.99999973, 4122.56410229, 4127.43589716, 4190.64102551,8.57
4119.35897408, 4124.23076896, 4124.10256383, 4152.05128185, 4123.07692280, 4114.74358947, 4128.33333306, 4506.92307748, 4150.64102544, 4129.61538434, 4123.71794844, 4125.51282024, 4131.41025614, 4191.15384602,8.57
4122.05128178, 4123.71794844, 4126.53846126, 4140.38461518, 4125.64102537, 4088.33333299, 4090.76923043, 4462.05128247, 4117.43589716, 4130.89743562, 4119.87179460, 4123.07692280, 4132.82051255, 4191.28205115,8.57
4124.10256383, 4124.48717921, 4128.07692280, 4105.38461511, 4124.35897408, 4051.02564061, 4042.56410215, 4399.23076958, 4067.56410215, 4131.53846126, 4118.58974332, 4124.99999973, 4131.66666639, 4183.20512807,8.57
4122.30769203, 4127.17948691, 4123.46153819, 4125.25640998, 4122.30769203, 4080.76923043, 4082.82051248, 4423.33333368, 4100.51282017, 4129.61538434, 4120.64102537, 4120.64102537, 4128.97435870, 4179.10256397,8.57
4127.17948691, 4129.10256383, 4126.92307665, 4155.12820492, 4125.64102537, 4108.33333306, 4128.71794844, 4463.07692350, 4145.25641005, 4129.35897408, 4122.94871767, 4124.87179460, 4131.41025614, 4190.89743576,8.57
4124.10256383, 4124.74358947, 4127.43589716, 4124.23076896, 4123.20512793, 4080.89743555, 4107.69230742, 4442.56410298, 4122.56410229, 4129.23076896, 4124.23076896, 4134.61538434, 4134.99999973, 4191.92307679,8.57
4124.99999973, 4127.82051255, 4126.79487152, 4098.07692273, 4125.12820485, 4074.48717914, 4097.82051248, 4425.64102599, 4099.10256376, 4126.79487152, 4121.66666639, 4122.56410229, 4131.28205101, 4183.71794858,8.57
4123.71794844, 4130.89743562, 4126.02564075, 4133.33333306, 4125.89743562, 4103.97435870, 4125.64102537, 4446.41025683, 4124.74358947, 4128.33333306, 4123.07692280, 4126.79487152, 4133.58974332, 4190.38461525,8.57
4118.97435870, 4123.84615357, 4121.28205101, 4150.25641005, 4122.56410229, 4089.99999966, 4120.76923050, 4445.89743632, 4135.51282031, 4131.41025614, 4123.97435870, 4133.33333306, 4132.82051255, 4193.71794858,8.57
4128.84615357, 4126.28205101, 4128.71794844, 4108.46153819, 4124.48717921, 4040.12820472, 4076.15384581, 4398.97435933, 4088.97435863, 4129.99999973, 4123.97435870, 4131.28205101, 4130.12820485, 4191.79487166,8.57
4122.43589716, 4127.82051255, 4126.79487152, 4098.58974325, 4122.69230742, 4040.89743548, 4060.12820472, 4367.17948746, 4063.84615343, 4127.69230742, 4124.48717921, 4134.10256383, 4133.97435870, 4191.92307679,8.57
4121.66666639, 4124.35897408, 4121.41025614, 4148.46153826, 4122.69230742, 4091.28205094, 4098.97435863, 4398.71794907, 4114.99999973, 4127.56410229, 4121.41025614, 4129.74358947, 4132.17948691, 4196.15384602,8.57
4126.66666639, 4123.07692280, 4124.35897408, 4156.92307672, 4124.10256383, 4098.97435863, 4104.87179460, 4407.05128240, 4135.12820485, 4129.10256383, 4122.56410229, 4134.10256383, 4129.99999973, 4200.38461525,8.57
4115.89743562, 4120.76923050, 4117.56410229, 4123.58974332, 4122.30769203, 4066.28205087, 4047.56410215, 4360.76923098, 4098.97435863, 4129.99999973, 4124.99999973, 4129.61538434, 4130.51282024, 4194.61538448,8.57
4122.82051255, 4126.53846126, 4122.30769203, 4113.71794844, 4123.71794844, 4048.46153805, 4013.97435849, 4338.33333355, 4088.97435863, 4128.97435870, 4124.10256383, 4124.23076896, 4134.48717921, 4194.99999986,8.57
4121.41025614, 4124.87179460, 4124.61538434, 4111.92307665, 4120.38461511, 4046.28205087, 4032.30769183, 4339.48717970, 4086.41025607, 4128.33333306, 4123.20512793, 4131.79487152, 4136.79487159, 4193.84615371,8.57
4117.82051255, 4121.15384588, 4120.38461511, 4114.23076896, 4120.51282024, 4067.94871754, 4066.53846113, 4350.89743611, 4090.51282017, 4128.33333306, 4119.87179460, 4125.25640998, 4132.56410229, 4190.89743576,8.57
4127.05128178, 4127.17948691, 4126.79487152, 4130.64102537, 4125.51282024, 4091.28205094, 4086.41025607, 4377.43589772, 4122.05128178, 4128.33333306, 4122.30769203, 4125.38461511, 4133.84615357, 4196.92307679,8.57
4117.56410229, 4124.35897408, 4122.05128178, 4127.56410229, 4121.79487152, 4068.33333292, 4073.07692273, 4368.97435926, 4111.66666639, 4129.48717921, 4122.56410229, 4126.28205101, 4132.56410229, 4190.64102551,8.57
4118.33333306, 4123.46153819, 4123.58974332, 4117.05128178, 4124.61538434, 4037.30769189, 4052.56410215, 4341.53846175, 4078.58974325, 4130.64102537, 4119.87179460, 4119.99999973, 4129.35897408, 4185.76923063,8.57
4122.43589716, 4126.02564075, 4127.30769203, 4136.41025621, 4126.66666639, 4047.17948677, 4055.38461497, 4344.61538483, 4095.38461504, 4129.23076896, 4124.99999973, 4125.89743562, 4130.76923050, 4186.53846140,8.57
4118.46153819, 4124.35897408, 4122.94871767, 4145.89743569, 4123.58974332, 4054.23076882, 4051.66666625, 4328.84615399, 4088.84615350, 4128.07692280, 4123.97435870, 4120.12820485, 4129.61538434, 4182.94871781,8.57
4127.43589716, 4127.05128178, 4131.28205101, 4143.71794851, 4125.12820485, 4048.46153805, 4042.82051241, 4297.82051289, 4048.84615343, 4128.46153819, 4122.82051255, 4119.99999973, 4132.30769203, 4186.79487166,8.57
4128.33333306, 4126.79487152, 4127.69230742, 4171.28205115, 4123.71794844, 4064.74358933, 4058.33333292, 4311.41025655, 4069.35897395, 4128.07692280, 4124.99999973, 4124.87179460, 4132.94871767, 4187.17948704,8.57
4128.97435870, 4127.56410229, 4122.69230742, 4172.05128192, 4125.38461511, 4056.02564061, 4049.23076882, 4302.56410271, 4085.64102530, 4128.07692280, 4121.02564075, 4119.35897408, 4131.28205101, 4186.92307679,8.57
4126.66666639, 4125.89743562, 4122.94871767, 4134.35897408, 4124.10256383, 4035.76923029, 4020.38461490, 4261.92307693, 4053.07692266, 4129.48717921, 4121.41025614, 4128.20512793, 4134.48717921, 4190.64102551,8.57
4118.58974332, 4121.41025614, 4120.76923050, 4125.76923050, 4121.15384588, 4052.43589702, 4028.97435849, 4271.79487187, 4050.25640984, 4129.87179460, 4122.30769203, 4126.79487152, 4128.07692280, 4188.20512807,8.57
4128.46153819, 4125.25640998, 4129.10256383, 4146.92307672, 4124.48717921, 4063.33333292, 4044.61538420, 4296.53846161, 4071.41025607, 4129.35897408, 4122.30769203, 4125.38461511, 4126.66666639, 4190.76923063,8.57
4125.12820485, 4124.87179460, 4125.25640998, 4153.33333313, 4122.56410229, 4046.92307651, 4037.82051241, 4302.69230784, 4082.30769196, 4127.69230742, 4123.71794844, 4135.12820485, 4133.71794844, 4193.20512807,8.57
4124.74358947, 4124.35897408, 4123.58974332, 4140.38461518, 4123.58974332, 4042.17948677, 4026.66666618, 4302.56410271, 4082.82051248, 4127.56410229, 4123.71794844, 4131.28205101, 4130.51282024, 4191.92307679,8.57
4128.46153819, 4125.76923050, 4126.53846126, 4140.38461518, 4123.58974332, 4066.53846113, 4029.99999952, 4288.46153853, 4079.99999966, 4131.15384588, 4126.53846126, 4131.41025614, 4129.10256383, 4192.17948704,8.57
4118.33333306, 4123.58974332, 4119.61538434, 4145.89743569, 4120.38461511, 4076.92307658, 4033.58974311, 4274.35897443, 4083.71794837, 4129.99999973, 4125.38461511, 4129.48717921, 4130.51282024, 4188.71794858,8.57
4123.84615357, 4127.56410229, 4124.74358947, 4137.56410236, 4124.48717921, 4057.43589702, 4027.30769183, 4274.23076930, 4083.97435863, 4126.53846126, 4126.15384588, 4130.76923050, 4131.41025614, 4192.43589730,8.57
4122.05128178, 4124.23076896, 4121.28205101, 4125.64102537, 4123.33333306, 4049.35897395, 4029.23076875, 4267.43589751, 4077.05128171, 4129.87179460, 4128.46153819, 4133.33333306, 4132.30769203, 4192.30769217,8.57
4123.07692280, 4124.99999973, 4118.97435870, 4109.87179460, 4120.64102537, 4059.10256369, 4033.33333285, 4248.20512821, 4069.35897395, 4130.76923050, 4122.56410229, 4125.89743562, 4132.17948691, 4191.79487166,8.57
4126.79487152, 4129.74358947, 4125.76923050, 4094.99999966, 4122.94871767, 4058.20512779, 4027.82051234, 4247.30769231, 4063.71794830, 4127.69230742, 4123.07692280, 4131.79487152, 4132.43589716, 4196.15384602,8.57
4113.07692280, 4121.92307665, 4116.79487152, 4097.17948684, 4123.58974332, 4053.33333292, 4028.97435849, 4260.12820513, 4059.10256369, 4128.20512793, 4123.46153819, 4126.15384588, 4128.20512793, 4188.58974345,8.57
4120.51282024, 4125.38461511, 4121.28205101, 4098.97435863, 4124.61538434, 4056.66666625, 4036.02564054, 4261.15384616, 4067.82051241, 4130.12820485, 4118.58974332, 4117.56410229, 4129.74358947, 4189.61538448,8.57
4122.82051255, 4129.10256383, 4128.97435870, 4080.89743555, 4122.82051255, 4045.89743548, 4024.61538413, 4245.64102564, 4072.43589709, 4128.20512793, 4121.15384588, 4127.94871767, 4130.89743562, 4193.20512807,8.57
4118.84615357, 4123.84615357, 4121.92307665, 4087.56410222, 4126.02564075, 4051.15384574, 4023.58974311, 4239.61538462, 4066.41025600, 4126.66666639, 4124.10256383, 4123.46153819, 4126.15384588, 4188.84615371,8.57
4128.33333306, 4126.66666639, 4123.46153819, 4106.41025614, 4126.92307665, 4067.69230728, 4034.48717900, 4250.64102564, 4074.35897402, 4130.12820485, 4122.82051255, 4122.43589716, 4132.17948691, 4190.25641012,8.57
4124.23076896, 4125.51282024, 4123.07692280, 4078.20512786, 4120.38461511, 4029.74358926, 4003.46153791, 4222.05128199, 4054.74358933, 4132.30769203, 4119.48717921, 4122.82051255, 4132.69230742, 4186.92307679,8.57
4126.28205101, 4125.38461511, 4126.66666639, 4070.12820478, 4125.12820485, 4011.92307644, 3985.25640970, 4179.99999986, 4023.33333285, 4130.25640998, 4120.38461511, 4119.10256383, 4124.74358947, 4186.41025628,8.57
4125.38461511, 4124.61538434, 4128.20512793, 4103.07692280, 4125.89743562, 4061.28205087, 4017.82051234, 4183.33333320, 4041.66666625, 4127.56410229, 4125.89743562, 4127.82051255, 4127.17948691, 4188.46153833,8.57
4119.48717921, 4122.30769203, 4121.15384588, 4065.51282010, 4121.53846126, 4035.25640977, 3996.92307637, 4169.10256397, 4038.71794830, 4127.69230742, 4123.97435870, 4122.30769203, 4129.99999973, 4185.64102551,8.57
4127.43589716, 4126.53846126, 4124.87179460, 3999.61538406, 4123.97435870, 3958.97435835, 3945.51281989, 4131.28205101, 3995.12820458, 4129.35897408, 4119.74358947, 4124.61538434, 4132.17948691, 4192.17948704,8.57
4121.41025614, 4124.23076896, 4124.74358947, 4019.10256362, 4123.71794844, 3992.69230714, 3990.38461483, 4169.87179474, 4019.48717900, 4128.58974332, 4119.35897408, 4131.79487152, 4132.82051255, 4194.23076910,8.57
4122.30769203, 4123.71794844, 4127.17948691, 4046.79487138, 4126.79487152, 4036.02564054, 4035.38461490, 4218.58974352, 4068.46153805, 4127.30769203, 4119.23076896, 4125.64102537, 4129.35897408, 4191.41025628,8.57
4122.82051255, 4124.35897408, 4126.15384588, 4020.51282003, 4125.89743562, 3994.99999945, 3985.64102509, 4174.87179474, 4035.12820465, 4127.82051255, 4121.66666639, 4130.12820485, 4129.74358947, 4193.07692294,8.57
4117.17948691, 4122.43589716, 4119.87179460, 4004.23076875, 4121.02564075, 3979.99999945, 3947.56410194, 4137.43589723, 3994.87179432, 4128.20512793, 4119.99999973, 4127.43589716, 4128.84615357, 4190.64102551,8.57
4129.10256383, 4128.97435870, 4129.23076896, 4023.33333285, 4122.56410229, 4009.23076875, 3967.82051220, 4171.15384602, 4024.61538413, 4128.33333306, 4119.48717921, 4128.33333306, 4129.87179460, 4192.82051269,8.57
4123.20512793, 4126.28205101, 4123.71794844, 4042.30769189, 4121.79487152, 4007.05128157, 3976.53846099, 4182.30769217, 4045.64102523, 4128.46153819, 4122.17948691, 4132.30769203, 4131.41025614, 4192.69230756,8.57
4121.28205101, 4122.43589716, 4119.61538434, 4036.53846106, 4123.07692280, 3975.25640970, 3947.17948656, 4139.35897415, 4006.28205080, 4127.94871767, 4120.38461511, 4126.15384588, 4131.66666639, 4193.20512807,8.57
4126.02564075, 4124.10256383, 4125.89743562, 4025.76923029, 4123.97435870, 3956.79487117, 3927.43589674, 4119.99999973, 3984.48717894, 4127.94871767, 4122.05128178, 4129.99999973, 4134.99999973, 4194.87179474,8.57
4117.17948691, 4120.64102537, 4118.20512793, 4039.48717907, 4121.02564075, 3977.56410201, 3967.30769169, 4146.41025621, 4013.07692259, 4128.07692280, 4121.41025614, 4123.46153819, 4130.25640998, 4188.97435884,8.57
4123.97435870, 4125.51282024, 4123.46153819, 4061.92307651, 4124.10256383, 4013.84615336, 4022.17948670, 4161.53846133, 4026.53846106, 4127.05128178, 4119.87179460, 4119.23076896, 4129.35897408, 4194.48717935,8.57
4117.17948691, 4126.02564075, 4125.51282024, 4063.71794830, 4122.43589716, 4020.38461490, 4019.99999952, 4152.82051262, 4024.10256362, 4127.82051255, 4122.30769203, 4128.20512793, 4134.99999973, 4194.48717935,8.57
4110.76923050, 4122.43589716, 4120.89743562, 4040.76923036, 4120.38461511, 3995.64102509, 3982.94871740, 4138.71794851, 4022.94871747, 4130.76923050, 4117.94871767, 4121.02564075, 4131.66666639, 4190.38461525,8.57
4122.43589716, 4124.99999973, 4127.82051255, 4025.64102516, 4124.23076896, 3987.56410201, 3981.02564047, 4134.99999973, 4014.87179439, 4130.12820485, 4114.74358947, 4122.69230742, 4130.51282024, 4195.64102551,8.57
4117.94871767, 4122.82051255, 4124.10256383, 4043.33333292, 4124.10256383, 4008.71794824, 4004.99999952, 4148.97435877, 4022.30769183, 4126.15384588, 4114.48717921, 4123.07692280, 4129.48717921, 4188.33333320,8.57
4121.15384588, 4125.51282024, 4125.12820485, 4057.82051241, 4124.87179460, 4014.35897388, 3997.69230714, 4145.51282031, 4034.87179439, 4126.53846126, 4115.38461511, 4117.82051255, 4127.05128178, 4183.58974345,8.57
4125.12820485, 4126.41025614, 4127.05128178, 4055.64102523, 4122.69230742, 4006.28205080, 3984.23076868, 4130.38461511, 4032.30769183, 4129.99999973, 4119.74358947, 4124.23076896, 4128.71794844, 4187.30769217,8.57
4121.53846126, 4125.76923050, 4121.79487152, 4057.30769189, 4123.84615357, 3996.53846099, 3989.99999945, 4135.64102544, 4028.33333285, 4129.99999973, 4118.58974332, 4118.46153819, 4128.58974332, 4188.84615371,8.57
4127.05128178, 4129.10256383, 4126.28205101, 4054.23076882, 4126.79487152, 3985.12820458, 3987.05128150, 4133.46153819, 4025.76923029, 4129.23076896, 4117.43589716, 4121.53846126, 4131.15384588, 4192.30769217,8.57
4125.51282024, 4123.84615357, 4125.51282024, 4049.99999959, 4121.66666639, 3989.99999945, 3979.87179432, 4113.97435870, 4017.30769183, 4128.58974332, 4116.53846126, 4125.12820485, 4128.84615357, 4186.02564089,8.57
4126.92307665, 4123.71794844, 4126.66666639, 4050.38461497, 4123.07692280, 3995.64102509, 3979.87179432, 4109.10256383, 4011.41025593, 4126.28205101, 4117.05128178, 4120.76923050, 4127.43589716, 4185.89743576,8.57
4121.41025614, 4125.12820485, 4124.61538434, 4052.82051241, 4123.58974332, 3992.56410201, 3988.84615329, 4123.97435870, 4025.25640977, 4127.30769203, 4121.53846126, 4130.76923050, 4136.02564082, 4194.61538448,8.57
4120.38461511, 4123.84615357, 4120.89743562, 4049.48717907, 4120.89743562, 3987.56410201, 3983.33333278, 4112.94871767, 4022.82051234, 4129.87179460, 4117.94871767, 4127.82051255, 4133.71794844, 4189.87179474,8.57
4132.30769203, 4128.20512793, 4127.43589716, 4036.53846106, 4120.25640998, 3976.79487124, 3962.05128143, 4078.97435863, 3988.71794817, 4130.12820485, 4116.15384588, 4126.53846126, 4131.92307665, 4187.82051269,8.57
4124.35897408, 4125.51282024, 4122.94871767, 4020.38461490, 4120.64102537, 3961.02564040, 3953.33333271, 4067.17948677, 3970.76923015, 4127.56410229, 4117.43589716, 4131.79487152, 4136.15384595, 4193.33333320,8.57
4125.38461511, 4124.35897408, 4127.17948691, 4012.82051234, 4124.99999973, 3963.20512758, 3964.10256348, 4080.76923043, 3991.66666611, 4126.28205101, 4114.35897408, 4128.58974332, 4132.17948691, 4194.48717935,8.57
4125.64102537, 4124.23076896, 4128.58974332, 4016.15384567, 4120.76923050, 3975.76923022, 3972.82051227, 4090.51282017, 4007.30769183, 4129.74358947, 4114.99999973, 4131.79487152, 4130.76923050, 4188.58974345,8.57
4117.69230742, 4121.15384588, 4115.89743562, 4025.76923029, 4118.20512793, 3982.69230714, 3973.46153791, 4085.64102530, 4002.94871740, 4130.89743562, 4114.74358947, 4127.94871767, 4130.89743562, 4187.17948704,8.57
4125.64102537, 4123.97435870, 4123.71794844, 4037.17948677, 4122.69230742, 3992.82051227, 3972.30769176, 4074.74358940, 3999.99999945, 4128.84615357, 4115.89743562, 4130.51282024, 4132.94871767, 4196.79487166,8.57
4120.89743562, 4122.82051255, 4125.38461511, 4039.99999959, 4119.87179460, 3986.79487124, 3958.71794810, 4064.87179446, 3996.92307637, 4128.58974332, 4117.94871767, 4133.71794844, 4135.25640998, 4194.10256397,8.57
4121.02564075, 4124.23076896, 4121.02564075, 4029.35897388, 4119.87179460, 3961.28205066, 3939.74358912, 4053.84615343, 3987.43589688, 4128.97435870, 4113.71794844, 4119.10256383, 4131.15384588, 4190.89743576,8.57
4121.66666639, 4124.61538434, 4124.23076896, 4020.76923029, 4121.28205101, 3958.84615322, 3942.17948656, 4047.30769189, 3976.66666611, 4130.12820485, 4114.48717921, 4123.71794844, 4129.23076896, 4194.35897422,8.57
4109.99999973, 4118.97435870, 4118.97435870, 4023.07692259, 4119.61538434, 3974.74358919, 3954.61538399, 4053.46153805, 3979.74358919, 4131.15384588, 4117.30769203, 4127.56410229, 4130.38461511, 4188.07692294,8.57
4120.12820485, 4125.64102537, 4124.35897408, 4039.99999959, 4122.17948691, 3983.33333278, 3970.38461476, 4074.35897402, 4009.10256362, 4129.48717921, 4119.10256383, 4122.82051255, 4132.94871767, 4189.87179474,8.57
4120.89743562, 4126.53846126, 4126.66666639, 4056.41025600, 4121.66666639, 3990.89743535, 3981.41025586, 4081.53846119, 4018.46153798, 4128.71794844, 4118.07692280, 4125.38461511, 4130.25640998, 4191.53846140,8.57
4116.66666639, 4122.43589716, 4123.20512793, 4043.07692266, 4122.30769203, 3985.25640970, 3962.82051220, 4050.51282010, 3976.79487124, 4129.74358947, 4113.84615357, 4120.51282024, 4127.17948691, 4186.92307679,8.57
4124.99999973, 4124.99999973, 4126.53846126, 4030.12820465, 4121.02564075, 3977.94871740, 3962.69230707, 4040.76923036, 3969.99999938, 4129.87179460, 4118.58974332, 4125.64102537, 4130.38461511, 4187.30769217,8.57
4123.20512793, 4125.64102537, 4123.84615357, 4042.56410215, 4117.82051255, 3989.74358919, 4001.79487124, 4067.56410215, 4009.87179439, 4129.74358947, 4120.25640998, 4122.05128178, 4126.92307665, 4184.87179474,8.57
4124.61538434, 4127.69230742, 4126.41025614, 4040.76923036, 4123.33333306, 3987.94871740, 4005.51282003, 4062.43589702, 4002.56410201, 4127.94871767, 4115.64102537, 4119.10256383, 4127.43589716, 4186.41025628,8.57
4121.02564075, 4122.05128178, 4123.20512793, 4031.53846106, 4120.38461511, 3981.66666611, 3993.07692252, 4051.28205087, 3993.33333278, 4126.66666639, 4118.33333306, 4131.28205101, 4132.30769203, 4188.20512807,8.57
4122.17948691, 4120.51282024, 4123.71794844, 4052.30769189, 4119.23076896, 4000.38461483, 4016.79487131, 4073.07692273, 4025.76923029, 4129.87179460, 4119.48717921, 4125.51282024, 4128.33333306, 4186.79487166,8.57
4126.79487152, 4127.43589716, 4131.66666639, 4074.10256376, 4126.28205101, 4018.71794824, 4042.05128164, 4085.38461504, 4034.10256362, 4132.05128178, 4120.51282024, 4126.66666639, 4132.94871767, 4192.82051269,8.57
4116.66666639, 4121.53846126, 4123.20512793, 4057.69230728, 4122.30769203, 4011.79487131, 4039.61538420, 4078.58974325, 4023.20512772, 4129.10256383, 4119.23076896, 4129.48717921, 4135.25640998, 4193.97435884,8.57
4124.99999973, 4119.35897408, 4123.20512793, 4033.46153798, 4120.89743562, 3994.23076868, 4021.92307644, 4071.15384581, 4029.48717900, 4128.97435870, 4116.53846126, 4125.12820485, 4127.82051255, 4193.07692294,8.57
4122.69230742, 4122.17948691, 4125.64102537, 4040.25640984, 4120.51282024, 3993.58974304, 4010.25640977, 4053.46153805, 4021.15384567, 4130.38461511, 4118.97435870, 4132.17948691, 4130.12820485, 4193.07692294,8.57
4114.48717921, 4122.69230742, 4123.46153819, 4049.48717907, 4119.74358947, 3997.17948663, 4007.30769183, 4029.35897388, 3988.07692252, 4127.56410229, 4117.69230742, 4127.43589716, 4131.79487152, 4193.33333320,8.57
4124.61538434, 4125.76923050, 4127.56410229, 4051.41025600, 4125.25640998, 4000.12820458, 4016.41025593, 4032.56410208, 3986.41025586, 4128.84615357, 4119.35897408, 4128.71794844, 4130.38461511, 4197.69230756,8.57
4118.84615357, 4125.25640998, 4120.64102537, 4058.84615343, 4125.64102537, 4012.05128157, 4024.87179439, 4050.25640984, 4012.94871747, 4131.41025614, 4123.20512793, 4133.46153819, 4129.10256383, 4191.15384602,8.57
4119.48717921, 4125.89743562, 4122.30769203, 4060.12820472, 4123.46153819, 4012.43589695, 4015.89743541, 4051.66666625, 4018.71794824, 4129.61538434, 4120.51282024, 4127.82051255, 4129.87179460, 4190.76923063,8.57
4121.79487152, 4121.92307665, 4126.41025614, 4066.53846113, 4118.84615357, 4009.35897388, 4016.92307644, 4051.66666625, 4017.30769183, 4130.12820485, 4120.25640998, 4132.30769203, 4135.89743569, 4196.02564089,8.57
4117.30769203, 4122.43589716, 4118.58974332, 4074.99999966, 4118.71794844, 4020.76923029, 4034.87179439, 4060.38461497, 4029.61538413, 4130.25640998, 4118.46153819, 4126.15384588, 4134.10256383, 4190.76923063,8.57
4123.71794844, 4131.92307665, 4123.58974332, 4059.23076882, 4123.97435870, 4023.20512772, 4040.76923036, 4059.35897395, 4031.53846106, 4127.69230742, 4116.79487152, 4119.74358947, 4130.51282024, 4193.58974345,8.57
4117.94871767, 4124.10256383, 4123.58974332, 4052.30769189, 4121.79487152, 4014.87179439, 4025.51282003, 4049.61538420, 4024.10256362, 4129.87179460, 4119.23076896, 4122.82051255, 4130.64102537, 4192.82051269,8.57
4118.33333306, 4118.84615357, 4122.43589716, 4065.25640984, 4122.56410229, 4013.84615336, 4000.76923022, 4043.84615343, 4020.12820465, 4130.38461511, 4119.23076896, 4120.25640998, 4130.76923050, 4186.66666653,8.57
4122.17948691, 4126.79487152, 4127.30769203, 4051.92307651, 4124.23076896, 4007.56410208, 3991.02564047, 4041.28205087, 4018.07692259, 4124.99999973, 4117.43589716, 4125.64102537, 4130.51282024, 4185.89743576,8.57
4116.02564075, 4126.28205101, 4120.76923050, 4034.48717900, 4121.28205101, 4006.41025593, 4009.10256362, 4043.97435856, 4023.07692259, 4124.23076896, 4114.10256383, 4119.35897408, 4125.25640998, 4184.61538448,8.57
4124.74358947, 4125.12820485, 4125.38461511, 4078.58974325, 4122.69230742, 4052.43589702, 4054.10256369, 4078.97435863, 4053.46153805, 4129.74358947, 4116.79487152, 4116.79487152, 4127.17948691, 4190.64102551,8.57
4126.66666639, 4125.38461511, 4127.69230742, 4133.20512793, 4122.43589716, 4099.10256376, 4094.74358940, 4127.43589716, 4093.07692273, 4130.25640998, 4122.82051255, 4127.56410229, 4132.17948691, 4190.64102551,8.57
4126.02564075, 4127.05128178, 4124.99999973, 4107.05128178, 4124.87179460, 4064.10256369, 4071.41025607, 4098.58974325, 4069.87179453, 4127.43589716, 4119.23076896, 4121.66666639, 4127.30769203, 4184.74358961,8.57
4126.02564075, 4128.71794844, 4128.07692280, 4058.07692266, 4124.48717921, 4013.58974311, 4025.76923029, 4037.69230728, 4019.99999952, 4127.82051255, 4119.35897408, 4126.92307665, 4129.99999973, 4190.12820499,8.57
4117.69230742, 4124.48717921, 4123.58974332, 4084.10256376, 4119.61538434, 4043.20512779, 4054.61538420, 4064.87179446, 4039.61538420, 4128.71794844, 4123.46153819, 4131.53846126, 4131.92307665, 4188.97435884,8.57
4125.12820485, 4126.79487152, 4126.53846126, 4125.51282024, 4122.30769203, 4085.25640991, 4100.12820478, 4110.38461511, 4079.23076889, 4128.58974332, 4122.94871767, 4124.87179460, 4128.58974332, 4186.53846140,8.57
4124.35897408, 4127.17948691, 4126.15384588, 4098.33333299, 4121.53846126, 4064.23076882, 4067.43589702, 4075.51282017, 4058.46153805, 4128.20512793, 4122.30769203, 4131.15384588, 4132.17948691, 4190.89743576,8.57
4119.87179460, 4124.35897408, 4122.56410229, 4038.20512779, 4123.58974332, 4021.28205080, 4012.69230721, 4025.89743541, 4013.20512772, 4128.84615357, 4118.71794844, 4127.82051255, 4130.76923050, 4191.92307679,8.57
4124.87179460, 4124.99999973, 4126.15384588, 4049.74358933, 4123.71794844, 4044.10256369, 4040.89743548, 4057.69230728, 4037.56410215, 4128.97435870, 4119.87179460, 4128.71794844, 4130.25640998, 4192.05128192,8.57
4120.89743562, 4122.17948691, 4122.30769203, 4094.61538427, 4117.05128178, 4083.07692273, 4091.28205094, 4100.89743555, 4086.28205094, 4127.69230742, 4121.79487152, 4131.15384588, 4133.58974332, 4191.66666653,8.57
4124.61538434, 4123.84615357, 4123.84615357, 4059.87179446, 4121.79487152, 4035.38461490, 4053.46153805, 4057.30769189, 4054.48717907, 4128.07692280, 4119.74358947, 4126.66666639, 4133.84615357, 4194.10256397,8.57
4120.76923050, 4123.58974332, 4124.10256383, 4011.92307644, 4122.69230742, 3990.12820458, 4006.41025593, 4016.53846106, 4017.69230721, 4129.35897408, 4119.74358947, 4132.17948691, 4131.92307665, 4191.79487166,8.57
4115.76923050, 4120.51282024, 4121.41025614, 4033.97435849, 4117.82051255, 4027.69230721, 4031.53846106, 4041.92307651, 4043.84615343, 4127.69230742, 4117.05128178, 4127.69230742, 4128.07692280, 4190.25641012,8.57
4124.87179460, 4123.07692280, 4126.66666639, 4048.71794830, 4121.41025614, 4053.33333292, 4055.25640984, 4047.69230728, 4043.97435856, 4126.15384588, 4118.71794844, 4126.41025614, 4132.43589716, 4197.56410243,8.57
4120.89743562, 4122.56410229, 4122.56410229, 4025.12820465, 4123.84615357, 4039.35897395, 4045.25640984, 4027.69230721, 4014.35897388, 4127.43589716, 4120.51282024, 4127.17948691, 4135.89743569, 4192.82051269,8.57
4119.23076896, 4122.94871767, 4122.17948691, 4030.76923029, 4121.79487152, 4050.89743548, 4049.10256369, 4039.87179446, 4032.05128157, 4129.10256383, 4115.38461511, 4118.97435870, 4131.15384588, 4188.20512807,8.57
4120.51282024, 4125.64102537, 4124.99999973, 4047.17948677, 4118.58974332, 4063.33333292, 4053.07692266, 4049.99999959, 4050.38461497, 4127.56410229, 4116.41025614, 4122.69230742, 4128.97435870, 4191.66666653,8.57
4118.20512793, 4124.99999973, 4121.66666639, 4035.89743541, 4121.41025614, 4051.53846113, 4047.94871754, 4052.56410215, 4045.38461497, 4126.28205101, 4118.20512793, 4119.23076896, 4128.84615357, 4188.33333320,8.57
4123.84615357, 4124.61538434, 4127.30769203, 4037.82051241, 4126.79487152, 4056.66666625, 4064.99999959, 4084.23076889, 4073.58974325, 4128.97435870, 4119.74358947, 4121.53846126, 4130.38461511, 4186.41025628,8.57
4121.92307665, 4122.30769203, 4125.25640998, 4049.61538420, 4123.46153819, 4072.05128171, 4078.97435863, 4088.71794837, 4084.99999966, 4130.51282024, 4121.41025614, 4129.61538434, 4130.38461511, 4184.35897422,8.57
4122.30769203, 4122.82051255, 4121.15384588, 4038.46153805, 4125.12820485, 4074.74358940, 4071.15384581, 4055.64102523, 4046.66666625, 4127.05128178, 4118.07692280, 4118.33333306, 4127.94871767, 4184.74358961,8.57
4123.33333306, 4124.48717921, 4125.38461511, 4038.97435856, 4125.51282024, 4084.87179453, 4081.41025607, 4067.56410215, 4049.10256369, 4128.33333306, 4120.89743562, 4123.33333306, 4132.05128178, 4191.15384602,8.57
4119.74358947, 4126.79487152, 4125.76923050, 4052.43589702, 4121.92307665, 4083.07692273, 4091.15384581, 4091.02564068, 4077.94871761, 4130.38461511, 4120.25640998, 4125.89743562, 4130.76923050, 4187.17948704,8.57
4127.69230742, 4129.87179460, 4127.69230742, 4036.53846106, 4125.38461511, 4052.56410215, 4065.76923036, 4061.28205087, 4062.82051241, 4126.15384588, 4115.12820485, 4121.79487152, 4126.92307665, 4186.53846140,8.57
4129.10256383, 4126.41025614, 4126.28205101, 4025.89743541, 4124.61538434, 4050.12820472, 4054.48717907, 4041.41025600, 4054.74358933, 4124.99999973, 4119.99999973, 4132.94871767, 4132.82051255, 4192.69230756,8.57
4127.94871767, 4128.58974332, 4127.69230742, 4038.20512779, 4123.84615357, 4064.10256369, 4065.76923036, 4054.35897395, 4064.74358933, 4128.20512793, 4123.46153819, 4128.97435870, 4134.74358947, 4190.76923063,8.57
4124.23076896, 4131.66666639, 4128.84615357, 4037.82051241, 4121.79487152, 4045.25640984, 4053.84615343, 4047.43589702, 4043.33333292, 4129.10256383, 4120.25640998, 4128.33333306, 4134.99999973, 4190.51282038,8.57
4118.71794844, 4129.87179460, 4123.84615357, 4038.71794830, 4120.76923050, 4042.56410215, 4053.07692266, 4042.82051241, 4039.74358933, 4126.92307665, 4117.05128178, 4130.89743562, 4133.84615357, 4193.33333320,8.57
4124.99999973, 4128.33333306, 4127.94871767, 4060.76923036, 4123.46153819, 4081.41025607, 4093.33333299, 4065.76923036, 4078.58974325, 4125.51282024, 4117.69230742, 4124.74358947, 4131.02564075, 4194.23076910,8.57
4121.41025614, 4122.94871767, 4124.61538434, 4073.46153812, 4119.48717921, 4094.87179453, 4120.89743562, 4082.56410222, 4098.07692273, 4126.41025614, 4121.02564075, 4129.74358947, 4134.23076896, 4192.56410243,8.57
4119.99999973, 4123.97435870, 4118.46153819, 4087.05128171, 4119.87179460, 4099.48717914, 4137.82051262, 4099.35897402, 4097.56410222, 4128.71794844, 4120.64102537, 4128.58974332, 4133.07692280, 4193.20512807,8.57
4122.69230742, 4124.99999973, 4122.56410229, 4110.38461511, 4122.56410229, 4129.10256383, 4160.38461518, 4117.56410229, 4113.97435870, 4130.64102537, 4120.64102537, 4128.07692280, 4131.66666639, 4195.25641012,8.57
4118.97435870, 4121.15384588, 4121.02564075, 4093.58974325, 4121.28205101, 4113.20512793, 4138.33333313, 4097.82051248, 4116.66666639, 4127.82051255, 4117.69230742, 4128.58974332, 4131.92307665, 4190.25641012,8.57
4123.97435870, 4124.35897408, 4119.74358947, 4067.82051241, 4119.99999973, 4072.17948684, 4103.46153819, 4072.17948684, 4094.99999966, 4124.74358947, 4116.53846126, 4121.53846126, 4130.51282024, 4190.25641012,8.57
4117.56410229, 4125.51282024, 4120.89743562, 4082.43589709, 4118.46153819, 4080.51282017, 4115.76923050, 4081.02564068, 4087.56410222, 4127.69230742, 4121.15384588, 4123.84615357, 4131.53846126, 4192.30769217,8.57
4112.56410229, 4121.92307665, 4122.56410229, 4088.71794837, 4124.35897408, 4089.99999966, 4122.30769203, 4075.89743555, 4082.94871761, 4129.61538434, 4118.07692280, 4118.71794844, 4128.20512793, 4188.20512807,8.57
4122.05128178, 4123.71794844, 4128.58974332, 4090.51282017, 4125.89743562, 4094.61538427, 4122.56410229, 4081.66666632, 4103.58974332, 4125.89743562, 4118.33333306, 4120.51282024, 4127.69230742, 4188.84615371,8.57
4121.53846126, 4125.51282024, 4126.66666639, 4110.64102537, 4119.35897408, 4120.25640998, 4145.64102544, 4124.48717921, 4146.53846133, 4125.25640998, 4123.71794844, 4124.48717921, 4130.25640998, 4189.35897422,8.57
4118.33333306, 4123.46153819, 4123.46153819, 4100.38461504, 4123.58974332, 4107.43589716, 4124.35897408, 4107.43589716, 4128.58974332, 4128.97435870, 4119.99999973, 4114.74358947, 4127.82051255, 4187.69230756,8.57
4121.28205101, 4123.33333306, 4124.61538434, 4088.07692273, 4123.46153819, 4085.25640991, 4095.89743555, 4062.82051241, 4091.02564068, 4130.89743562, 4119.23076896, 4126.79487152, 4130.76923050, 4191.02564089,8.57
4125.12820485, 4126.41025614, 4124.35897408, 4109.23076896, 4119.10256383, 4109.99999973, 4123.33333306, 4082.56410222, 4103.84615357, 4128.84615357, 4119.61538434, 4127.69230742, 4131.53846126, 4188.46153833,8.57
4124.87179460, 4128.97435870, 4127.17948691, 4109.23076896, 4123.33333306, 4116.79487152, 4125.76923050, 4095.12820478, 4108.97435870, 4127.56410229, 4120.25640998, 4118.46153819, 4129.48717921, 4187.82051269,8.57
4123.84615357, 4128.71794844, 4127.43589716, 4096.92307658, 4123.97435870, 4099.10256376, 4094.61538427, 4072.17948684, 4093.46153812, 4129.23076896, 4124.74358947, 4131.15384588, 4131.28205101, 4193.20512807,8.57
4129.61538434, 4128.20512793, 4127.05128178, 4102.82051255, 4120.51282024, 4109.99999973, 4099.35897402, 4078.71794837, 4103.07692280, 4127.82051255, 4120.64102537, 4128.33333306, 4128.71794844, 4190.25641012,8.57
4122.94871767, 4124.87179460, 4126.92307665, 4108.71794844, 4118.33333306, 4130.64102537, 4118.58974332, 4091.15384581, 4111.28205101, 4125.89743562, 4118.97435870, 4125.64102537, 4130.25640998, 4191.15384602,8.57
4118.97435870, 4123.71794844, 4124.87179460, 4117.30769203, 4122.94871767, 4128.71794844, 4113.20512793, 4081.79487145, 4106.41025614, 4127.69230742, 4121.79487152, 4129.87179460, 4132.17948691, 4194.35897422,8.57
4129.61538434, 4125.64102537, 4126.15384588, 4126.92307665, 4124.23076896, 4121.41025614, 4101.15384581, 4077.56410222, 4102.43589709, 4129.74358947, 4121.92307665, 4129.35897408, 4130.64102537, 4192.05128192,8.57
4126.15384588, 4124.87179460, 4123.84615357, 4123.46153819, 4117.94871767, 4127.43589716, 4098.84615350, 4080.12820478, 4099.99999966, 4129.10256383, 4124.61538434, 4130.64102537, 4131.92307665, 4192.94871781,8.57
4123.71794844, 4129.99999973, 4125.12820485, 4123.46153819, 4122.30769203, 4135.25640998, 4105.89743562, 4091.53846119, 4118.71794844, 4128.07692280, 4124.87179460, 4125.89743562, 4133.07692280, 4196.79487166,8.57
4121.92307665, 4128.07692280, 4124.35897408, 4130.25640998, 4123.33333306, 4140.64102544, 4122.56410229, 4111.53846126, 4148.07692287, 4129.10256383, 4124.61538434, 4131.66666639, 4135.89743569, 4196.79487166,8.57
4117.94871767, 4119.10256383, 4119.61538434, 4128.71794844, 4117.17948691, 4141.92307672, 4127.56410229, 4097.82051248, 4132.69230742, 4130.38461511, 4121.66666639, 4129.48717921, 4132.17948691, 4192.56410243,8.57
4123.33333306, 4121.92307665, 4123.84615357, 4120.64102537, 4119.35897408, 4126.02564075, 4113.33333306, 4063.71794830, 4085.89743555, 4129.23076896, 4119.61538434, 4119.48717921, 4129.10256383, 4193.33333320,8.57
4117.17948691, 4122.82051255, 4120.89743562, 4111.92307665, 4121.41025614, 4110.25640998, 4105.89743562, 4065.51282010, 4076.15384581, 4128.46153819, 4122.05128178, 4126.92307665, 4133.84615357, 4190.51282038,8.57
4117.17948691, 4119.23076896, 4118.07692280, 4111.66666639, 4123.33333306, 4121.92307665, 4116.41025614, 4082.94871761, 4100.38461504, 4128.84615357, 4119.35897408, 4123.20512793, 4129.23076896, 4185.76923063,8.57
4124.87179460, 4122.17948691, 4125.12820485, 4123.33333306, 4123.84615357, 4135.76923056, 4124.61538434, 4084.10256376, 4119.61538434, 4127.43589716, 4119.74358947, 4121.79487152, 4126.28205101, 4190.51282038,8.57
4118.58974332, 4125.64102537, 4122.69230742, 4127.94871767, 4121.53846126, 4125.76923050, 4114.74358947, 4075.25640991, 4111.02564075, 4127.17948691, 4121.28205101, 4121.53846126, 4129.35897408, 4190.64102551,8.57
4121.28205101, 4126.92307665, 4123.20512793, 4125.25640998, 4122.94871767, 4122.56410229, 4113.20512793, 4075.76923043, 4098.97435863, 4129.87179460, 4119.61538434, 4116.28205101, 4129.10256383, 4189.10256397,8.57
4123.33333306, 4125.76923050, 4127.69230742, 4123.58974332, 4121.79487152, 4130.12820485, 4126.28205101, 4084.48717914, 4108.07692280, 4130.51282024, 4122.69230742, 4124.99999973, 4128.71794844, 4189.48717935,8.57
4121.79487152, 4125.38461511, 4124.61538434, 4120.89743562, 4120.89743562, 4124.61538434, 4129.74358947, 4089.35897402, 4121.53846126, 4128.20512793, 4123.97435870, 4120.25640998, 4127.43589716, 4187.05128192,8.57
4128.46153819, 4127.30769203, 4124.99999973, 4121.79487152, 4121.02564075, 4123.71794844, 4131.15384588, 4092.30769196, 4126.53846126, 4126.92307665, 4126.79487152, 4122.82051255, 4129.87179460, 4192.43589730,8.57
4126.41025614, 4125.25640998, 4126.41025614, 4122.94871767, 4120.51282024, 4130.51282024, 4130.64102537, 4082.82051248, 4118.33333306, 4126.92307665, 4127.82051255, 4132.05128178, 4129.99999973, 4192.43589730,8.57
4126.66666639, 4125.76923050, 4128.97435870, 4134.48717921, 4123.46153819, 4136.28205108, 4129.48717921, 4075.64102530, 4109.99999973, 4127.17948691, 4123.97435870, 4123.33333306, 4127.05128178, 4187.56410243,8.57
4126.28205101, 4126.02564075, 4125.38461511, 4143.58974339, 4120.51282024, 4132.82051255, 4129.48717921, 4077.69230735, 4107.69230742, 4127.05128178, 4126.79487152, 4127.56410229, 4130.76923050, 4192.30769217,8.57
4124.48717921, 4124.10256383, 4122.56410229, 4126.41025614, 4120.12820485, 4124.87179460, 4125.12820485, 4071.92307658, 4108.84615357, 4126.02564075, 4126.66666639, 4126.79487152, 4128.71794844, 4192.30769217,8.57
4127.82051255, 4126.53846126, 4131.92307665, 4107.43589716, 4125.89743562, 4127.43589716, 4112.05128178, 4049.35897395, 4092.94871761, 4128.58974332, 4123.58974332, 4126.02564075, 4131.15384588, 4194.35897422,8.57
4120.76923050, 4122.56410229, 4125.89743562, 4112.94871767, 4122.69230742, 4125.76923050, 4101.79487145, 4036.28205080, 4075.64102530, 4131.79487152, 4124.99999973, 4132.82051255, 4137.56410236, 4194.87179474,8.57
4124.23076896, 4122.94871767, 4121.41025614, 4132.05128178, 4122.56410229, 4123.33333306, 4120.12820485, 4063.84615343, 4101.02564068, 4129.23076896, 4126.15384588, 4126.79487152, 4135.25640998, 4190.12820499,8.57
4125.89743562, 4126.66666639, 4125.25640998, 4144.99999980, 4122.94871767, 4142.43589723, 4153.33333313, 4106.41025614, 4141.53846133, 4125.89743562, 4128.46153819, 4129.48717921, 4133.97435870, 4191.28205115,8.57
4117.17948691, 4122.82051255, 4119.99999973, 4135.12820485, 4119.74358947, 4142.43589723, 4142.43589723, 4098.97435863, 4127.94871767, 4126.79487152, 4125.38461511, 4124.48717921, 4132.05128178, 4191.92307679,8.57
4122.56410229, 4124.23076896, 4122.94871767, 4119.48717921, 4123.58974332, 4105.51282024, 4099.87179453, 4057.82051241, 4101.92307658, 4128.46153819, 4120.89743562, 4122.56410229, 4133.71794844, 4194.87179474,8.57
4118.71794844, 4124.87179460, 4122.17948691, 4129.35897408, 4123.46153819, 4106.53846126, 4105.89743562, 4061.28205087, 4123.58974332, 4126.79487152, 4123.20512793, 4129.23076896, 4135.64102544, 4194.35897422,8.57
4118.58974332, 4124.23076896, 4121.79487152, 4131.15384588, 4122.94871767, 4130.51282024, 4126.53846126, 4066.66666625, 4111.66666639, 4126.79487152, 4124.23076896, 4121.53846126, 4130.89743562, 4194.61538448,8.57
4122.43589716, 4125.64102537, 4122.94871767, 4116.53846126, 4122.56410229, 4118.46153819, 4110.64102537, 4043.07692266, 4076.28205094, 4130.12820485, 4123.84615357, 4125.76923050, 4133.33333306, 4196.92307679,8.57
4114.87179460, 4122.56410229, 4116.28205101, 4121.15384588, 4120.89743562, 4111.28205101, 4104.10256383, 4050.25640984, 4102.69230742, 4128.46153819, 4119.99999973, 4123.71794844, 4132.94871767, 4190.51282038,8.57
4124.35897408, 4123.46153819, 4124.23076896, 4136.02564082, 4123.58974332, 4137.05128185, 4132.43589716, 4079.35897402, 4137.17948697, 4127.56410229, 4119.87179460, 4118.58974332, 4128.33333306, 4192.30769217,8.57
4123.71794844, 4125.25640998, 4127.17948691, 4144.87179467, 4123.20512793, 4171.92307679, 4158.07692287, 4086.66666632, 4129.48717921, 4130.76923050, 4125.89743562, 4121.92307665, 4129.99999973, 4189.48717935,8.57
4117.43589716, 4126.92307665, 4121.66666639, 4129.87179460, 4123.20512793, 4180.89743576, 4132.56410229, 4065.12820472, 4103.20512793, 4129.99999973, 4121.92307665, 4112.56410229, 4130.38461511, 4184.61538448,8.57
4127.82051255, 4127.43589716, 4127.05128178, 4115.76923050, 4122.69230742, 4183.46153833, 4101.15384581, 4049.87179446, 4099.48717914, 4129.48717921, 4124.35897408, 4122.17948691, 4131.41025614, 4192.94871781,8.57
4124.10256383, 4121.92307665, 4122.17948691, 4126.53846126, 4122.56410229, 4190.25641012, 4110.76923050, 4053.71794830, 4118.33333306, 4130.38461511, 4131.15384588, 4126.41025614, 4128.20512793, 4186.28205115,8.57
4123.71794844, 4127.94871767, 4123.33333306, 4131.15384588, 4125.12820485, 4182.69230756, 4116.66666639, 4051.41025600, 4118.58974332, 4129.61538434, 4130.12820485, 4118.97435870, 4125.89743562, 4182.56410243,8.57
4124.87179460, 4130.76923050, 4127.69230742, 4120.38461511, 4121.28205101, 4180.64102551, 4106.41025614, 4045.76923036, 4100.64102530, 4130.89743562, 4129.74358947, 4128.71794844, 4131.79487152, 4192.43589730,8.57
4124.35897408, 4122.05128178, 4126.53846126, 4101.28205094, 4121.79487152, 4156.02564082, 4097.94871761, 4036.15384567, 4085.64102530, 4130.38461511, 4127.82051255, 4124.61538434, 4131.79487152, 4191.02564089,8.57
4130.76923050, 4123.97435870, 4133.46153819, 4108.84615357, 4126.66666639, 4113.07692280, 4106.79487152, 4029.87179439, 4090.76923043, 4128.20512793, 4130.51282024, 4127.43589716, 4131.02564075, 4193.07692294,8.57
4120.89743562, 4123.97435870, 4125.76923050, 4154.10256390, 4124.23076896, 4115.76923050, 4144.10256390, 4065.51282010, 4131.53846126, 4129.48717921, 4133.33333306, 4131.28205101, 4130.76923050, 4193.97435884,8.57
4122.30769203, 4126.28205101, 4122.82051255, 4159.99999980, 4124.61538434, 4127.69230742, 4160.64102544, 4098.07692273, 4149.74358954, 4129.35897408, 4129.87179460, 4122.05128178, 4130.51282024, 4193.84615371,8.57
4125.89743562, 4127.94871767, 4127.94871767, 4117.30769203, 4122.05128178, 4090.76923043, 4121.66666639, 4056.79487138, 4099.23076889, 4127.30769203, 4128.46153819, 4129.35897408, 4132.43589716, 4194.74358961,8.57
4120.25640998, 4122.82051255, 4122.05128178, 4106.92307665, 4120.64102537, 4062.56410215, 4088.20512786, 4014.61538413, 4066.41025600, 4128.58974332, 4126.41025614, 4127.43589716, 4128.71794844, 4191.15384602,8.57
4126.53846126, 4125.51282024, 4125.25640998, 4146.79487159, 4125.64102537, 4090.12820478, 4113.07692280, 4051.92307651, 4110.64102537, 4129.74358947, 4128.07692280, 4129.74358947, 4134.48717921, 4197.82051269,8.57
4119.23076896, 4124.99999973, 4123.58974332, 4159.48717928, 4122.05128178, 4099.99999966, 4133.84615357, 4082.94871761, 4137.30769210, 4129.48717921, 4129.48717921, 4132.69230742, 4136.79487159, 4195.76923063,8.57
4117.82051255, 4123.97435870, 4122.69230742, 4125.38461511, 4120.64102537, 4071.92307658, 4104.87179460, 4042.94871754, 4097.30769196, 4130.89743562, 4126.66666639, 4121.92307665, 4127.30769203, 4193.84615371,8.57
4120.12820485, 4124.74358947, 4123.84615357, 4115.38461511, 4121.79487152, 4075.38461504, 4090.64102530, 4021.92307644, 4079.23076889, 4130.76923050, 4128.07692280, 4127.30769203, 4131.66666639, 4197.82051269,8.57
4113.71794844, 4120.89743562, 4119.48717921, 4134.99999973, 4121.79487152, 4100.38461504, 4113.07692280, 4050.12820472, 4102.69230742, 4128.33333306, 4127.69230742, 4122.30769203, 4132.05128178, 4189.61538448,8.57
4123.84615357, 4122.82051255, 4127.69230742, 4131.41025614, 4125.64102537, 4089.23076889, 4111.92307665, 4050.89743548, 4100.12820478, 4128.46153819, 4127.69230742, 4121.41025614, 4126.41025614, 4191.28205115,8.57
4121.79487152, 4123.97435870, 4123.84615357, 4129.74358947, 4123.58974332, 4087.43589709, 4104.61538434, 4036.92307651, 4096.53846119, 4129.48717921, 4129.61538434, 4129.10256383, 4128.58974332, 4192.56410243,8.57
4121.15384588, 4123.84615357, 4118.97435870, 4152.43589723, 4122.82051255, 4111.66666639, 4119.61538434, 4049.35897395, 4116.92307665, 4128.97435870, 4129.99999973, 4117.82051255, 4128.84615357, 4189.23076910,8.57
4128.97435870, 4126.53846126, 4128.33333306, 4151.41025621, 4125.51282024, 4101.92307658, 4117.30769203, 4052.94871754, 4121.02564075, 4129.87179460, 4136.79487159, 4120.51282024, 4129.99999973, 4189.23076910,8.57
4120.25640998, 4126.66666639, 4124.87179460, 4130.76923050, 4124.87179460, 4085.38461504, 4105.25640998, 4041.41025600, 4113.20512793, 4129.99999973, 4134.48717921, 4118.58974332, 4129.23076896, 4183.20512807,8.57
4124.10256383, 4129.35897408, 4125.25640998, 4126.66666639, 4125.51282024, 4094.74358940, 4113.20512793, 4049.74358933, 4112.05128178, 4129.74358947, 4128.07692280, 4117.82051255, 4129.74358947, 4186.15384602,8.57
4124.23076896, 4127.43589716, 4128.71794844, 4122.69230742, 4123.84615357, 4087.30769196, 4106.79487152, 4046.92307651, 4095.76923043, 4131.15384588, 4133.33333306, 4129.61538434, 4130.64102537, 4188.07692294,8.57
4119.10256383, 4124.10256383, 4128.84615357, 4123.97435870, 4123.33333306, 4068.58974318, 4089.48717914, 4032.82051234, 4090.64102530, 4127.82051255, 4133.97435870, 4121.28205101, 4128.07692280, 4184.10256397,8.57
4122.56410229, 4127.43589716, 4128.58974332, 4146.53846133, 4122.82051255, 4079.99999966, 4106.02564075, 4056.28205087, 4127.94871767, 4123.33333306, 4133.20512793, 4125.12820485, 4131.28205101, 4190.76923063,8.57
4116.66666639, 4126.02564075, 4118.07692280, 4157.17948697, 4120.76923050, 4093.07692273, 4121.79487152, 4064.23076882, 4128.20512793, 4125.76923050, 4132.82051255, 4129.35897408, 4129.87179460, 4189.74358961,8.57
4123.07692280, 4130.89743562, 4123.97435870, 4129.87179460, 4124.74358947, 4077.94871761, 4098.33333299, 4018.07692259, 4062.82051241, 4129.10256383, 4132.17948691, 4121.28205101, 4129.74358947, 4188.07692294,8.57
4127.69230742, 4132.82051255, 4129.10256383, 4111.02564075, 4123.46153819, 4068.20512779, 4078.07692273, 3995.64102509, 4047.82051241, 4127.30769203, 4133.97435870, 4131.02564075, 4135.51282031, 4196.66666653,8.57
4123.97435870, 4125.12820485, 4119.48717921, 4125.25640998, 4123.07692280, 4075.38461504, 4087.17948684, 4018.97435849, 4095.38461504, 4126.53846126, 4129.35897408, 4129.74358947, 4132.17948691, 4195.38461525,8.57
4129.35897408, 4125.76923050, 4124.61538434, 4150.76923056, 4124.74358947, 4099.35897402, 4113.97435870, 4048.84615343, 4127.69230742, 4130.76923050, 4130.89743562, 4127.94871767, 4132.94871767, 4194.10256397,8.57
4126.02564075, 4124.74358947, 4126.41025614, 4152.43589723, 4120.38461511, 4105.64102537, 4124.23076896, 4059.23076882, 4115.51282024, 4131.28205101, 4135.12820485, 4129.87179460, 4135.51282031, 4193.97435884,8.57
4122.94871767, 4121.15384588, 4123.07692280, 4135.25640998, 4124.48717921, 4083.33333299, 4112.94871767, 4046.15384574, 4083.20512786, 4129.35897408, 4131.41025614, 4124.87179460, 4131.66666639, 4193.20512807,8.57
4117.94871767, 4119.23076896, 4121.92307665, 4143.33333313, 4126.41025614, 4078.58974325, 4106.53846126, 4035.25640977, 4071.66666632, 4131.66666639, 4132.43589716, 4131.28205101, 4134.87179460, 4194.74358961,8.57
4116.41025614, 4120.76923050, 4119.87179460, 4163.33333313, 4121.41025614, 4087.05128171, 4099.99999966, 4038.71794830, 4085.76923043, 4131.28205101, 4133.33333306, 4125.89743562, 4135.38461518, 4194.99999986,8.57
4124.99999973, 4125.64102537, 4124.61538434, 4157.69230749, 4122.17948691, 4087.43589709, 4092.56410222, 4039.35897395, 4104.23076896, 4129.48717921, 4131.66666639, 4123.07692280, 4132.94871767, 4196.79487166,8.57
4117.43589716, 4122.30769203, 4122.05128178, 4149.99999980, 4124.74358947, 4098.97435863, 4108.33333306, 4047.94871754, 4121.66666639, 4129.87179460, 4131.41025614, 4128.20512793, 4130.76923050, 4190.25641012,8.57
4118.33333306, 4122.94871767, 4124.48717921, 4170.51282038, 4125.64102537, 4120.64102537, 4134.99999973, 4064.61538420, 4135.12820485, 4127.43589716, 4130.12820485, 4120.76923050, 4127.30769203, 4188.58974345,8.57
4121.53846126, 4128.20512793, 4127.43589716, 4174.61538448, 4123.71794844, 4114.99999973, 4128.97435870, 4052.05128164, 4117.69230742, 4126.53846126, 4131.41025614, 4120.64102537, 4129.74358947, 4191.28205115,8.57
4113.20512793, 4125.76923050, 4117.94871767, 4141.15384595, 4123.46153819, 4086.15384581, 4099.74358940, 4025.12820465, 4086.66666632, 4128.46153819, 4128.58974332, 4116.15384588, 4128.20512793, 4184.10256397,8.57
4121.79487152, 4124.99999973, 4124.61538434, 4127.69230742, 4125.64102537, 4071.41025607, 4091.28205094, 4019.23076875, 4083.58974325, 4128.33333306, 4127.69230742, 4120.51282024, 4127.94871767, 4187.30769217,8.57
4122.69230742, 4125.12820485, 4130.38461511, 4148.97435877, 4122.94871767, 4080.76923043, 4106.53846126, 4033.33333285, 4098.46153812, 4127.56410229, 4131.02564075, 4129.61538434, 4130.38461511, 4189.74358961,8.57
4119.99999973, 4125.89743562, 4126.15384588, 4158.20512800, 4125.76923050, 4089.23076889, 4109.99999973, 4039.99999959, 4101.41025607, 4128.97435870, 4128.58974332, 4116.92307665, 4126.15384588, 4181.66666653,8.57
4125.25640998, 4128.20512793, 4126.02564075, 4145.89743569, 4127.05128178, 4078.58974325, 4095.64102530, 4019.10256362, 4082.43589709, 4130.64102537, 4131.28205101, 4122.82051255, 4129.61538434, 4184.87179474,8.57
4120.64102537, 4125.76923050, 4120.38461511, 4150.38461518, 4122.56410229, 4073.71794837, 4093.46153812, 4008.58974311, 4079.87179453, 4129.99999973, 4133.07692280, 4129.74358947, 4132.69230742, 4188.33333320,8.57
4122.30769203, 4125.51282024, 4123.71794844, 4168.46153833, 4125.12820485, 4085.64102530, 4103.58974332, 4036.28205080, 4108.71794844, 4129.23076896, 4131.02564075, 4125.38461511, 4130.89743562, 4190.25641012,8.57
4125.89743562, 4127.05128178, 4127.82051255, 4172.17948704, 4124.35897408, 4100.25640991, 4113.20512793, 4050.38461497, 4117.69230742, 4130.12820485, 4133.07692280, 4133.33333306, 4132.94871767, 4195.12820499,8.57
4127.82051255, 4128.97435870, 4126.92307665, 4160.12820492, 4123.84615357, 4094.35897402, 4106.66666639, 4017.17948670, 4086.53846119, 4130.76923050, 4130.76923050, 4128.07692280, 4131.02564075, 4193.71794858,8.57
4125.38461511, 4128.33333306, 4128.71794844, 4147.69230749, 4125.64102537, 4077.94871761, 4090.12820478, 3998.58974304, 4070.89743555, 4131.15384588, 4130.64102537, 4128.20512793, 4131.28205101, 4193.84615371,8.57
4116.92307665, 4122.69230742, 4123.97435870, 4148.33333313, 4124.48717921, 4079.61538427, 4092.05128171, 4016.92307644, 4085.25640991, 4131.15384588, 4131.92307665, 4129.10256383, 4132.43589716, 4193.07692294,8.57
4125.76923050, 4126.02564075, 4126.02564075, 4154.99999980, 4127.05128178, 4086.28205094, 4097.30769196, 4011.92307644, 4075.38461504, 4130.38461511, 4129.23076896, 4123.71794844, 4131.15384588, 4194.10256397,8.57
4125.64102537, 4125.89743562, 4125.25640998, 4148.71794851, 4124.61538434, 4079.23076889, 4089.61538427, 3994.99999945, 4059.61538420, 4129.48717921, 4128.84615357, 4132.94871767, 4133.07692280, 4193.97435884,8.57
4119.87179460, 4122.05128178, 4120.25640998, 4138.97435877, 4123.58974332, 4071.28205094, 4088.58974325, 4013.07692259, 4081.02564068, 4129.48717921, 4127.82051255, 4126.53846126, 4132.30769203, 4193.58974345,8.57
4123.71794844, 4127.30769203, 4124.87179460, 4175.38461525, 4124.99999973, 4096.92307658, 4120.38461511, 4053.46153805, 4122.82051255, 4128.84615357, 4131.15384588, 4122.56410229, 4132.94871767, 4198.46153833,8.57
4116.15384588, 4122.94871767, 4118.33333306, 4198.71794858, 4121.92307665, 4114.10256383, 4131.92307665, 4048.33333292, 4117.69230742, 4127.82051255, 4132.82051255, 4124.35897408, 4130.51282024, 4192.43589730,8.57
4120.64102537, 4122.43589716, 4118.84615357, 4162.94871774, 4125.89743562, 4087.17948684, 4096.79487145, 4005.64102516, 4077.56410222, 4128.84615357, 4128.71794844, 4116.92307665, 4125.76923050, 4190.76923063,8.57
4120.76923050, 4129.23076896, 4125.12820485, 4152.82051262, 4127.94871767, 4074.99999966, 4089.35897402, 4009.61538413, 4083.71794837, 4130.38461511, 4130.12820485, 4122.69230742, 4129.61538434, 4193.97435884,8.57
4112.30769203, 4126.41025614, 4119.61538434, 4176.41025628, 4124.23076896, 4088.97435863, 4108.33333306, 4033.97435849, 4106.53846126, 4128.84615357, 4129.48717921, 4119.48717921, 4129.10256383, 4187.69230756,8.57
4125.76923050, 4126.41025614, 4127.05128178, 4168.58974345, 4124.87179460, 4078.58974325, 4093.46153812, 4014.48717900, 4089.74358940, 4126.28205101, 4129.99999973, 4120.25640998, 4130.64102537, 4189.61538448,8.57
4125.89743562, 4126.41025614, 4129.87179460, 4152.30769210, 4125.89743562, 4071.15384581, 4079.74358940, 4002.43589688, 4079.35897402, 4125.76923050, 4131.53846126, 4124.61538434, 4131.41025614, 4189.87179474,8.57
4120.25640998, 4125.76923050, 4126.92307665, 4152.17948697, 4127.30769203, 4085.89743555, 4095.38461504, 4020.89743541, 4082.94871761, 4127.94871767, 4127.17948691, 4114.99999973, 4127.30769203, 4186.02564089,8.57
4122.82051255, 4125.89743562, 4128.33333306, 4140.64102544, 4124.23076896, 4076.53846119, 4091.02564068, 4012.82051234, 4067.05128164, 4129.61538434, 4128.71794844, 4125.12820485, 4132.05128178, 4190.25641012,8.57
4118.97435870, 4122.82051255, 4122.43589716, 4149.48717928, 4123.20512793, 4075.76923043, 4086.79487145, 4002.69230714, 4072.05128171, 4128.71794844, 4131.28205101, 4127.30769203, 4130.12820485, 4190.38461525,8.57
4125.89743562, 4126.15384588, 4126.66666639, 4186.28205115, 4127.94871767, 4116.92307665, 4117.05128178, 4029.23076875, 4104.23076896, 4129.61538434, 4132.56410229, 4124.35897408, 4126.41025614, 4193.07692294,8.57
4127.82051255, 4127.69230742, 4128.71794844, 4183.33333320, 4123.46153819, 4124.48717921, 4119.87179460, 4036.15384567, 4111.53846126, 4131.02564075, 4134.23076896, 4129.87179460, 4131.02564075, 4194.48717935,8.57
4124.35897408, 4127.94871767, 4126.92307665, 4151.66666646, 4122.82051255, 4084.74358940, 4083.20512786, 4008.07692259, 4097.56410222, 4129.35897408, 4131.92307665, 4122.56410229, 4132.69230742, 4190.51282038,8.57
4124.23076896, 4128.20512793, 4127.56410229, 4156.28205108, 4124.87179460, 4077.69230735, 4081.53846119, 4002.43589688, 4086.02564068, 4128.71794844, 4133.97435870, 4128.71794844, 4135.25640998, 4192.94871781,8.57
4123.07692280, 4126.02564075, 4122.05128178, 4174.74358961, 4122.69230742, 4091.02564068, 4100.51282017, 4015.76923029, 4082.94871761, 4128.84615357, 4133.71794844, 4129.23076896, 4132.56410229, 4192.69230756,8.57
4128.71794844, 4128.20512793, 4127.82051255, 4151.66666646, 4124.74358947, 4072.30769196, 4083.07692273, 4004.87179439, 4075.64102530, 4128.97435870, 4130.51282024, 4125.89743562, 4131.28205101, 4194.23076910,8.57
4120.12820485, 4124.87179460, 4125.64102537, 4129.87179460, 4123.97435870, 4064.87179446, 4075.51282017, 4001.15384560, 4071.15384581, 4129.87179460, 4129.48717921, 4133.33333306, 4134.99999973, 4194.74358961,8.57
4120.12820485, 4124.87179460, 4125.64102537, 4129.87179460, 4123.97435870, 4064.87179446, 4075.51282017, 4001.15384560, 4071.15384581, 4129.87179460, 4129.48717921, 4133.33333306, 4134.99999973, 4194.74358961,8.57
4121.53846126, 4124.74358947, 4117.56410229, 4140.25641005, 4123.97435870, 4076.15384581, 4089.74358940, 4011.41025593, 4074.87179453, 4129.74358947, 4128.97435870, 4124.74358947, 4133.97435870, 4192.43589730,8.57
4130.89743562, 4129.23076896, 4124.23076896, 4162.94871774, 4126.41025614, 4082.43589709, 4091.02564068, 4008.97435849, 4079.23076889, 4129.99999973, 4132.94871767, 4127.30769203, 4134.61538434, 4194.87179474,8.57
4117.69230742, 4122.30769203, 4121.92307665, 4171.79487166, 4123.07692280, 4087.43589709, 4086.41025607, 4003.84615329, 4076.41025607, 4129.61538434, 4130.51282024, 4128.84615357, 4133.07692280, 4189.61538448,8.57
4120.89743562, 4122.82051255, 4122.56410229, 4161.53846133, 4123.71794844, 4087.30769196, 4086.92307658, 4009.99999952, 4081.15384581, 4128.46153819, 4126.41025614, 4123.33333306, 4130.64102537, 4190.38461525,8.57
4124.48717921, 4127.30769203, 4125.25640998, 4152.30769210, 4125.64102537, 4089.48717914, 4081.66666632, 4006.66666618, 4084.99999966, 4129.48717921, 4132.05128178, 4129.48717921, 4132.17948691, 4195.12820499,8.57
4117.94871767, 4125.38461511, 4120.64102537, 4131.79487152, 4124.99999973, 4086.92307658, 4066.92307651, 3983.97435842, 4053.07692266, 4129.99999973, 4129.35897408, 4120.38461511, 4129.10256383, 4189.99999986,8.57
4124.61538434, 4127.69230742, 4126.53846126, 4121.92307665, 4123.33333306, 4073.46153812, 4077.94871761, 3996.53846099, 4053.71794830, 4129.61538434, 4125.51282024, 4121.15384588, 4131.53846126, 4185.89743576,8.57
4119.74358947, 4124.10256383, 4126.02564075, 4146.92307672, 4119.74358947, 4076.15384581, 4108.71794844, 4032.56410208, 4103.97435870, 4128.84615357, 4128.46153819, 4123.97435870, 4133.71794844, 4182.17948704,8.57
4118.46153819, 4123.07692280, 4126.53846126, 4153.84615364, 4123.97435870, 4083.84615350, 4105.76923050, 4026.28205080, 4111.15384588, 4128.71794844, 4129.87179460, 4118.58974332, 4129.87179460, 4187.05128192,8.57
4122.17948691, 4127.05128178, 4128.84615357, 4149.87179467, 4126.02564075, 4090.12820478, 4101.41025607, 4019.61538413, 4101.02564068, 4129.99999973, 4132.17948691, 4130.38461511, 4132.56410229, 4189.99999986,8.57
4119.10256383, 4122.17948691, 4123.71794844, 4156.66666646, 4123.71794844, 4090.89743555, 4104.74358947, 4017.17948670, 4087.30769196, 4130.38461511, 4129.61538434, 4122.94871767, 4131.02564075, 4181.02564089,8.57
4126.41025614, 4123.71794844, 4127.82051255, 4141.02564082, 4124.74358947, 4069.74358940, 4076.15384581, 3982.17948663, 4049.23076882, 4129.61538434, 4128.07692280, 4121.53846126, 4131.41025614, 4187.17948704,8.57
4124.48717921, 4130.25640998, 4126.15384588, 4121.02564075, 4125.12820485, 4050.25640984, 4058.46153805, 3971.28205073, 4054.99999959, 4130.38461511, 4130.51282024, 4131.41025614, 4135.12820485, 4191.41025628,8.57
4124.23076896, 4131.02564075, 4126.79487152, 4137.30769210, 4129.10256383, 4060.64102523, 4082.17948684, 3996.79487124, 4084.48717914, 4130.64102537, 4129.10256383, 4124.35897408, 4130.89743562, 4187.82051269,8.57
4128.07692280, 4125.89743562, 4128.58974332, 4152.69230749, 4125.89743562, 4082.43589709, 4094.23076889, 4000.64102509, 4077.05128171, 4128.97435870, 4129.99999973, 4131.53846126, 4133.33333306, 4193.58974345,8.57
4122.69230742, 4122.43589716, 4121.28205101, 4135.25640998, 4120.64102537, 4079.61538427, 4081.66666632, 3994.23076868, 4079.23076889, 4127.56410229, 4128.33333306, 4128.58974332, 4134.87179460, 4194.23076910,8.57
4129.35897408, 4129.35897408, 4127.43589716, 4124.48717921, 4124.35897408, 4065.12820472, 4080.51282017, 4002.05128150, 4089.99999966, 4127.05128178, 4129.87179460, 4124.74358947, 4135.25640998, 4195.51282038,8.57
4126.66666639, 4128.71794844, 4126.15384588, 4132.17948691, 4123.58974332, 4062.56410215, 4081.15384581, 4000.25640970, 4066.66666625, 4127.43589716, 4133.33333306, 4132.17948691, 4135.76923056, 4193.84615371,8.57
4122.30769203, 4126.53846126, 4121.02564075, 4141.79487159, 4124.74358947, 4068.71794830, 4079.10256376, 3989.10256355, 4055.38461497, 4128.71794844, 4128.46153819, 4125.64102537, 4133.71794844, 4191.92307679,8.57
4122.17948691, 4126.92307665, 4124.48717921, 4157.94871774, 4126.66666639, 4081.15384581, 4100.64102530, 4015.51282003, 4106.92307665, 4130.64102537, 4128.46153819, 4128.84615357, 4138.71794851, 4196.79487166,8.57
4120.76923050, 4123.46153819, 4123.46153819, 4154.99999980, 4128.84615357, 4072.69230735, 4097.69230735, 4014.99999952, 4093.71794837, 4128.33333306, 4126.28205101, 4116.79487152, 4131.92307665, 4189.23076910,8.57
4126.15384588, 4126.02564075, 4126.28205101, 4138.07692287, 4126.15384588, 4066.53846113, 4092.30769196, 4032.05128157, 4119.99999973, 4128.33333306, 4129.74358947, 4124.10256383, 4132.56410229, 4187.30769217,8.57
4121.41025614, 4123.07692280, 4123.97435870, 4142.56410236, 4123.71794844, 4082.94871761, 4098.07692273, 4013.58974311, 4105.64102537, 4129.35897408, 4128.84615357, 4118.33333306, 4124.87179460, 4184.74358961,8.57
4121.92307665, 4125.89743562, 4126.02564075, 4154.74358954, 4125.64102537, 4100.89743555, 4103.33333306, 3999.61538406, 4088.71794837, 4128.07692280, 4128.33333306, 4121.79487152, 4129.35897408, 4192.69230756,8.57
4117.43589716, 4124.87179460, 4122.05128178, 4156.41025621, 4121.79487152, 4106.02564075, 4105.12820485, 4011.79487131, 4097.17948684, 4125.89743562, 4129.23076896, 4128.71794844, 4132.56410229, 4189.10256397,8.57
4125.25640998, 4124.74358947, 4127.82051255, 4157.56410236, 4124.23076896, 4102.43589709, 4112.82051255, 4030.64102516, 4116.41025614, 4129.99999973, 4129.35897408, 4123.33333306, 4127.56410229, 4186.02564089,8.57
4124.99999973, 4124.74358947, 4128.97435870, 4159.10256390, 4124.23076896, 4098.20512786, 4117.43589716, 4032.56410208, 4121.28205101, 4133.33333306, 4134.35897408, 4128.97435870, 4131.41025614, 4193.20512807,8.57
4117.30769203, 4123.46153819, 4120.12820485, 4149.87179467, 4121.53846126, 4094.48717914, 4109.48717921, 4014.23076875, 4102.05128171, 4128.97435870, 4132.05128178, 4125.76923050, 4130.76923050, 4191.41025628,8.57
4127.30769203, 4127.56410229, 4127.94871767, 4147.94871774, 4125.51282024, 4101.41025607, 4106.28205101, 4004.61538413, 4091.92307658, 4128.20512793, 4129.99999973, 4129.48717921, 4131.41025614, 4190.38461525,8.57
4123.33333306, 4126.66666639, 4125.12820485, 4153.46153826, 4124.48717921, 4112.17948691, 4113.33333306, 4013.58974311, 4103.84615357, 4130.89743562, 4133.20512793, 4134.61538434, 4136.53846133, 4191.15384602,8.57
4121.79487152, 4124.35897408, 4119.99999973, 4145.51282031, 4123.97435870, 4103.71794844, 4110.12820485, 4029.74358926, 4119.87179460, 4128.97435870, 4129.99999973, 4123.07692280, 4133.84615357, 4194.23076910,8.57
4122.69230742, 4123.84615357, 4123.46153819, 4134.99999973, 4124.87179460, 4089.61538427, 4105.12820485, 4032.43589695, 4120.12820485, 4126.28205101, 4127.17948691, 4127.43589716, 4130.64102537, 4194.48717935,8.57
4113.58974332, 4123.71794844, 4118.97435870, 4148.71794851, 4123.84615357, 4115.38461511, 4126.02564075, 4035.89743541, 4122.43589716, 4128.84615357, 4126.02564075, 4126.28205101, 4128.20512793, 4188.71794858,8.57
4120.64102537, 4127.17948691, 4123.97435870, 4166.41025621, 4125.25640998, 4144.35897415, 4140.51282031, 4036.92307651, 4133.71794844, 4132.17948691, 4128.71794844, 4126.02564075, 4133.20512793, 4195.38461525,8.57
4122.30769203, 4121.79487152, 4123.97435870, 4159.99999980, 4123.71794844, 4129.74358947, 4124.74358947, 4019.87179439, 4127.05128178, 4131.02564075, 4131.15384588, 4131.79487152, 4137.05128185, 4196.79487166,8.57
4121.41025614, 4119.61538434, 4121.28205101, 4143.20512800, 4123.97435870, 4111.53846126, 4108.20512793, 4004.74358926, 4101.41025607, 4127.94871767, 4125.38461511, 4120.51282024, 4130.38461511, 4191.02564089,8.57
4119.74358947, 4123.58974332, 4124.74358947, 4150.38461518, 4124.48717921, 4126.53846126, 4119.10256383, 4024.99999952, 4108.46153819, 4126.79487152, 4125.76923050, 4120.89743562, 4129.35897408, 4190.64102551,8.57
4114.74358947, 4117.69230742, 4118.71794844, 4171.53846140, 4122.05128178, 4148.46153826, 4143.97435877, 4068.20512779, 4155.25641005, 4128.58974332, 4127.82051255, 4117.56410229, 4129.99999973, 4183.97435884,8.57
4127.82051255, 4123.97435870, 4123.20512793, 4167.43589723, 4123.71794844, 4141.02564082, 4141.28205108, 4066.53846113, 4154.99999980, 4128.07692280, 4127.69230742, 4119.10256383, 4131.28205101, 4187.69230756,8.57
4122.82051255, 4129.48717921, 4125.25640998, 4147.05128185, 4123.07692280, 4121.79487152, 4124.23076896, 4040.64102523, 4125.12820485, 4126.66666639, 4128.07692280, 4127.05128178, 4130.64102537, 4191.28205115,8.57
4117.69230742, 4122.69230742, 4124.48717921, 4143.58974339, 4123.46153819, 4119.74358947, 4127.30769203, 4049.48717907, 4137.30769210, 4128.84615357, 4124.61538434, 4113.71794844, 4126.66666639, 4187.05128192,8.57
4128.46153819, 4123.58974332, 4130.25640998, 4161.41025621, 4123.07692280, 4133.07692280, 4141.28205108, 4065.89743548, 4155.38461518, 4129.87179460, 4126.53846126, 4122.30769203, 4132.69230742, 4191.02564089,8.57
4118.20512793, 4123.71794844, 4122.94871767, 4153.07692287, 4122.43589716, 4124.74358947, 4124.74358947, 4038.97435856, 4128.97435870, 4127.56410229, 4126.53846126, 4129.23076896, 4130.12820485, 4186.41025628,8.57
4124.48717921, 4127.05128178, 4128.33333306, 4136.79487159, 4128.46153819, 4113.07692280, 4106.92307665, 4018.58974311, 4109.87179460, 4127.69230742, 4126.02564075, 4125.25640998, 4126.02564075, 4186.66666653,8.57
4128.84615357, 4125.89743562, 4127.94871767, 4167.05128185, 4122.69230742, 4137.56410236, 4137.56410236, 4061.79487138, 4145.51282031, 4128.20512793, 4130.25640998, 4130.51282024, 4132.94871767, 4192.05128192,8.57
4122.43589716, 4124.23076896, 4120.64102537, 4180.76923063, 4119.48717921, 4134.74358947, 4145.76923056, 4069.87179453, 4146.15384595, 4126.02564075, 4126.15384588, 4123.07692280, 4131.53846126, 4189.74358961,8.57
4129.87179460, 4128.46153819, 4129.48717921, 4157.17948697, 4126.41025614, 4114.23076896, 4121.41025614, 4032.56410208, 4119.61538434, 4128.58974332, 4126.41025614, 4129.99999973, 4129.61538434, 4193.71794858,8.57
4119.87179460, 4123.97435870, 4122.69230742, 4168.97435884, 4124.61538434, 4142.69230749, 4144.61538441, 4056.66666625, 4152.05128185, 4130.76923050, 4131.15384588, 4129.10256383, 4127.17948691, 4188.71794858,8.57
4123.07692280, 4127.56410229, 4123.58974332, 4192.43589730, 4122.17948691, 4160.76923056, 4178.84615371, 4100.76923043, 4190.51282038, 4128.07692280, 4131.92307665, 4125.12820485, 4129.61538434, 4192.17948704,8.57
4125.38461511, 4126.66666639, 4126.41025614, 4176.02564089, 4120.51282024, 4133.20512793, 4166.92307672, 4085.76923043, 4175.64102551, 4127.43589716, 4131.28205101, 4137.17948697, 4134.35897408, 4196.02564089,8.57
4117.05128178, 4119.23076896, 4119.23076896, 4153.71794851, 4121.79487152, 4114.35897408, 4140.25641005, 4044.10256369, 4132.56410229, 4126.15384588, 4127.56410229, 4126.02564075, 4128.20512793, 4187.43589730,8.57
4127.94871767, 4126.66666639, 4129.87179460, 4150.38461518, 4125.38461511, 4117.43589716, 4134.99999973, 4036.28205080, 4114.87179460, 4124.87179460, 4129.74358947, 4129.61538434, 4132.17948691, 4194.99999986,8.57
4120.64102537, 4122.94871767, 4125.12820485, 4157.94871774, 4121.92307665, 4122.30769203, 4145.76923056, 4053.20512779, 4129.61538434, 4126.02564075, 4127.69230742, 4132.30769203, 4134.35897408, 4193.71794858,8.57
4119.23076896, 4118.07692280, 4119.74358947, 4182.82051269, 4122.43589716, 4131.66666639, 4160.38461518, 4070.38461504, 4155.64102544, 4126.53846126, 4125.12820485, 4121.28205101, 4131.15384588, 4192.05128192,8.57
4123.97435870, 4123.58974332, 4124.87179460, 4210.76923070, 4123.58974332, 4148.97435877, 4174.74358961, 4089.48717914, 4179.61538448, 4128.97435870, 4133.20512793, 4132.17948691, 4134.74358947, 4196.79487166,8.57
4112.43589716, 4120.64102537, 4115.89743562, 4198.20512807, 4120.38461511, 4140.64102544, 4163.07692287, 4070.89743555, 4155.51282031, 4129.61538434, 4128.46153819, 4123.07692280, 4126.66666639, 4187.05128192,8.57
4121.15384588, 4124.23076896, 4123.07692280, 4160.89743569, 4123.71794844, 4110.25640998, 4134.48717921, 4036.66666618, 4115.51282024, 4126.92307665, 4123.71794844, 4118.20512793, 4125.38461511, 4187.43589730,8.57
4123.71794844, 4126.53846126, 4128.46153819, 4171.15384602, 4125.38461511, 4114.61538434, 4138.20512800, 4058.71794830, 4143.33333313, 4126.79487152, 4129.35897408, 4126.53846126, 4131.02564075, 4187.82051269,8.57
4118.84615357, 4122.94871767, 4126.41025614, 4207.94871788, 4124.35897408, 4138.97435877, 4153.58974339, 4085.12820478, 4175.64102551, 4129.48717921, 4128.07692280, 4118.71794844, 4128.58974332, 4186.53846140,8.57
4122.30769203, 4124.74358947, 4129.35897408, 4199.35897422, 4121.28205101, 4138.58974339, 4144.35897415, 4059.23076882, 4140.25641005, 4130.89743562, 4127.82051255, 4123.58974332, 4129.74358947, 4188.33333320,8.57
4120.12820485, 4123.84615357, 4121.28205101, 4166.53846133, 4120.25640998, 4121.41025614, 4127.94871767, 4032.56410208, 4109.48717921, 4128.97435870, 4126.15384588, 4118.97435870, 4127.05128178, 4179.48717935,8.57
4127.94871767, 4126.79487152, 4124.87179460, 4177.05128192, 4126.66666639, 4125.51282024, 4136.15384595, 4048.33333292, 4137.82051262, 4129.35897408, 4126.92307665, 4117.43589716, 4128.97435870, 4186.41025628,8.57
4125.12820485, 4127.82051255, 4127.82051255, 4207.17948711, 4124.61538434, 4140.38461518, 4156.53846133, 4072.17948684, 4165.64102544, 4128.58974332, 4131.92307665, 4129.74358947, 4134.23076896, 4194.74358961,8.57
4123.71794844, 4126.02564075, 4124.99999973, 4192.30769217, 4122.94871767, 4128.58974332, 4145.25641005, 4055.64102523, 4138.33333313, 4126.02564075, 4127.05128178, 4123.84615357, 4130.64102537, 4189.61538448,8.57
4128.58974332, 4123.46153819, 4128.20512793, 4169.48717935, 4125.89743562, 4116.66666639, 4124.61538434, 4028.97435849, 4110.64102537, 4128.71794844, 4125.51282024, 4125.12820485, 4133.33333306, 4191.02564089,8.57
4116.66666639, 4119.99999973, 4119.74358947, 4174.74358961, 4123.33333306, 4126.28205101, 4134.74358947, 4047.94871754, 4137.05128185, 4130.25640998, 4127.82051255, 4123.07692280, 4134.10256383, 4190.76923063,8.57
4125.89743562, 4127.17948691, 4123.07692280, 4169.99999986, 4124.48717921, 4123.46153819, 4134.99999973, 4057.05128164, 4145.64102544, 4125.38461511, 4125.64102537, 4124.10256383, 4131.53846126, 4195.38461525,8.57
4128.07692280, 4126.41025614, 4125.51282024, 4166.41025621, 4123.07692280, 4113.84615357, 4117.69230742, 4027.17948670, 4112.17948691, 4124.10256383, 4124.35897408, 4133.84615357, 4134.23076896, 4197.82051269,8.57
4117.82051255, 4121.41025614, 4119.61538434, 4188.97435884, 4123.58974332, 4134.23076896, 4133.20512793, 4047.30769189, 4138.84615364, 4127.05128178, 4124.99999973, 4124.99999973, 4131.92307665, 4192.94871781,8.57
4124.61538434, 4127.05128178, 4125.76923050, 4195.64102551, 4127.43589716, 4144.23076903, 4146.41025621, 4084.10256376, 4181.02564089, 4127.43589716, 4127.69230742, 4132.05128178, 4133.46153819, 4195.12820499,8.57
4120.51282024, 4124.48717921, 4122.05128178, 4178.46153833, 4122.17948691, 4124.23076896, 4121.41025614, 4051.53846113, 4138.07692287, 4127.17948691, 4125.12820485, 4131.92307665, 4133.97435870, 4191.92307679,8.57
4122.94871767, 4124.61538434, 4122.69230742, 4171.41025628, 4121.66666639, 4113.20512793, 4100.51282017, 4014.61538413, 4087.82051248, 4128.84615357, 4123.46153819, 4118.20512793, 4130.76923050, 4194.87179474,8.57
4123.58974332, 4126.79487152, 4126.66666639, 4169.74358961, 4126.02564075, 4113.46153819, 4109.23076896, 4044.48717907, 4117.17948691, 4130.12820485, 4126.92307665, 4127.05128178, 4131.79487152, 4198.46153833,8.57
4123.58974332, 4126.79487152, 4126.66666639, 4169.74358961, 4126.02564075, 4113.46153819, 4109.23076896, 4044.48717907, 4117.17948691, 4130.12820485, 4126.92307665, 4127.05128178, 4131.79487152, 4198.46153833,8.57
4117.05128178, 4121.02564075, 4118.07692280, 4167.17948697, 4126.41025614, 4124.48717921, 4128.71794844, 4068.84615343, 4148.46153826, 4129.87179460, 4123.33333306, 4123.07692280, 4130.25640998, 4190.12820499,8.57
4125.38461511, 4121.66666639, 4121.79487152, 4164.61538441, 4124.99999973, 4129.99999973, 4129.74358947, 4037.94871754, 4121.28205101, 4129.23076896, 4123.71794844, 4122.17948691, 4132.43589716, 4192.56410243,8.57
4119.99999973, 4121.41025614, 4126.79487152, 4169.23076910, 4124.87179460, 4119.10256383, 4120.51282024, 4030.25640977, 4116.02564075, 4130.38461511, 4126.02564075, 4124.10256383, 4130.25640998, 4191.28205115,8.57
4117.30769203, 4123.20512793, 4125.76923050, 4180.51282038, 4129.10256383, 4110.76923050, 4119.87179460, 4053.46153805, 4141.41025621, 4131.28205101, 4120.76923050, 4115.25640998, 4126.02564075, 4185.64102551,8.57
4123.84615357, 4127.94871767, 4120.25640998, 4184.61538448, 4125.12820485, 4123.20512793, 4126.53846126, 4051.15384574, 4141.15384595, 4130.51282024, 4123.46153819, 4123.84615357, 4130.51282024, 4184.99999986,8.57
4120.76923050, 4124.35897408, 4116.79487152, 4191.28205115, 4120.76923050, 4144.87179467, 4134.87179460, 4053.97435856, 4156.02564082, 4128.58974332, 4126.15384588, 4119.87179460, 4126.92307665, 4180.51282038,8.57
4125.64102537, 4124.99999973, 4128.07692280, 4196.53846140, 4123.97435870, 4146.66666646, 4133.20512793, 4068.20512779, 4175.38461525, 4128.46153819, 4124.23076896, 4118.46153819, 4126.15384588, 4188.20512807,8.57
4125.89743562, 4125.64102537, 4126.53846126, 4177.69230756, 4120.51282024, 4124.10256383, 4107.17948691, 4030.38461490, 4126.66666639, 4128.58974332, 4125.25640998, 4128.97435870, 4130.76923050, 4191.79487166,8.57
4125.12820485, 4126.53846126, 4124.99999973, 4163.33333313, 4121.28205101, 4111.41025614, 4092.30769196, 3988.97435842, 4084.74358940, 4128.97435870, 4126.02564075, 4122.17948691, 4127.17948691, 4186.15384602,8.57
4124.48717921, 4127.43589716, 4131.02564075, 4172.30769217, 4125.38461511, 4118.46153819, 4102.17948684, 3996.15384560, 4103.84615357, 4130.12820485, 4127.43589716, 4129.35897408, 4129.48717921, 4190.76923063,8.57
4119.74358947, 4124.99999973, 4123.46153819, 4174.99999986, 4124.99999973, 4117.43589716, 4101.79487145, 4008.46153798, 4111.41025614, 4129.61538434, 4122.94871767, 4130.51282024, 4131.53846126, 4191.28205115,8.57
4125.51282024, 4126.15384588, 4124.74358947, 4179.48717935, 4124.61538434, 4125.89743562, 4113.71794844, 4028.84615336, 4119.87179460, 4128.58974332, 4122.30769203, 4124.87179460, 4130.38461511, 4191.53846140,8.57
4124.74358947, 4125.12820485, 4126.53846126, 4202.69230763, 4120.76923050, 4156.15384595, 4146.53846133, 4055.38461497, 4156.28205108, 4128.33333306, 4129.10256383, 4132.69230742, 4133.84615357, 4193.97435884,8.57
4129.74358947, 4125.38461511, 4124.10256383, 4207.69230763, 4124.48717921, 4152.82051262, 4143.33333313, 4053.07692266, 4159.48717928, 4127.30769203, 4126.15384588, 4128.84615357, 4133.58974332, 4193.71794858,8.57
4129.99999973, 4125.89743562, 4124.61538434, 4201.79487173, 4128.07692280, 4136.66666646, 4134.99999973, 4057.56410215, 4154.74358954, 4126.79487152, 4124.61538434, 4130.12820485, 4132.82051255, 4193.33333320,8.57
4115.76923050, 4120.12820485, 4117.56410229, 4196.02564089, 4122.30769203, 4140.38461518, 4144.74358954, 4067.56410215, 4166.02564082, 4128.20512793, 4125.25640998, 4126.92307665, 4131.92307665, 4188.84615371,8.57
4121.79487152, 4122.17948691, 4121.66666639, 4167.43589723, 4123.71794844, 4116.28205101, 4111.15384588, 4026.28205080, 4131.92307665, 4129.99999973, 4123.97435870, 4122.82051255, 4133.71794844, 4194.87179474,8.57
4121.41025614, 4122.82051255, 4122.69230742, 4158.58974339, 4125.89743562, 4102.30769196, 4090.89743555, 4006.15384567, 4114.23076896, 4130.89743562, 4123.97435870, 4131.41025614, 4134.61538434, 4198.71794858,8.57
4116.92307665, 4121.79487152, 4116.41025614, 4181.15384602, 4123.84615357, 4126.53846126, 4122.30769203, 4039.61538420, 4151.53846133, 4128.07692280, 4121.66666639, 4120.51282024, 4129.23076896, 4191.92307679,8.57
4122.30769203, 4126.66666639, 4123.97435870, 4186.53846140, 4122.82051255, 4128.07692280, 4126.15384588, 4038.84615343, 4154.10256390, 4125.12820485, 4125.51282024, 4118.58974332, 4132.43589716, 4191.66666653,8.57
4114.35897408, 4122.17948691, 4123.46153819, 4189.10256397, 4123.71794844, 4127.56410229, 4126.15384588, 4031.92307644, 4139.87179467, 4128.07692280, 4126.66666639, 4122.82051255, 4131.41025614, 4189.99999986,8.57
4120.12820485, 4122.82051255, 4121.79487152, 4207.82051275, 4127.94871767, 4146.79487159, 4152.30769210, 4055.89743548, 4156.66666646, 4130.64102537, 4122.82051255, 4116.79487152, 4126.66666639, 4187.05128192,8.57
4126.66666639, 4128.84615357, 4124.10256383, 4207.17948711, 4125.38461511, 4136.02564082, 4140.12820492, 4052.94871754, 4156.92307672, 4129.61538434, 4125.89743562, 4121.79487152, 4131.02564075, 4183.33333320,8.57
4117.94871767, 4123.71794844, 4120.64102537, 4187.05128192, 4125.64102537, 4106.92307665, 4105.51282024, 4024.35897388, 4128.71794844, 4127.82051255, 4124.35897408, 4118.71794844, 4128.07692280, 4181.15384602,8.57
4123.58974332, 4122.30769203, 4126.92307665, 4200.64102551, 4128.33333306, 4123.46153819, 4132.30769203, 4049.35897395, 4147.94871774, 4126.79487152, 4125.25640998, 4126.02564075, 4126.28205101, 4190.12820499,8.57
4127.30769203, 4126.41025614, 4127.82051255, 4211.02564096, 4126.41025614, 4144.74358954, 4159.23076903, 4082.30769196, 4181.28205115, 4126.92307665, 4129.23076896, 4131.15384588, 4131.28205101, 4189.74358961,8.57
4126.53846126, 4128.33333306, 4126.28205101, 4177.30769217, 4129.10256383, 4120.76923050, 4122.69230742, 4052.82051241, 4157.56410236, 4127.56410229, 4125.12820485, 4118.33333306, 4130.64102537, 4185.76923063,8.57
4123.33333306, 4125.25640998, 4128.20512793, 4163.58974339, 4124.48717921, 4098.84615350, 4099.87179453, 4028.58974311, 4132.94871767, 4127.43589716, 4125.25640998, 4129.48717921, 4130.51282024, 4190.51282038,8.57
4120.25640998, 4123.71794844, 4127.17948691, 4184.61538448, 4121.66666639, 4108.46153819, 4122.56410229, 4045.38461497, 4139.74358954, 4125.89743562, 4126.02564075, 4128.97435870, 4129.23076896, 4188.58974345,8.57
4126.92307665, 4126.41025614, 4128.07692280, 4187.30769217, 4127.30769203, 4119.48717921, 4133.97435870, 4051.66666625, 4145.64102544, 4127.56410229, 4123.07692280, 4122.94871767, 4130.76923050, 4191.02564089,8.57
4122.82051255, 4124.48717921, 4120.38461511, 4179.74358961, 4123.20512793, 4115.38461511, 4124.23076896, 4036.79487131, 4147.30769210, 4129.99999973, 4122.43589716, 4131.79487152, 4133.84615357, 4194.61538448,8.57
4125.25640998, 4125.51282024, 4122.43589716, 4187.43589730, 4123.46153819, 4121.02564075, 4131.79487152, 4035.89743541, 4143.33333313, 4128.07692280, 4123.84615357, 4128.71794844, 4129.10256383, 4192.17948704,8.57
4128.07692280, 4124.99999973, 4125.64102537, 4192.94871781, 4127.30769203, 4136.92307672, 4149.99999980, 4058.07692266, 4145.51282031, 4127.05128178, 4126.92307665, 4130.51282024, 4128.20512793, 4192.69230756,8.57
4121.41025614, 4120.38461511, 4116.92307665, 4177.05128192, 4123.84615357, 4118.20512793, 4128.71794844, 4052.43589702, 4144.35897415, 4128.84615357, 4120.76923050, 4126.79487152, 4129.10256383, 4189.87179474,8.57
4127.43589716, 4124.74358947, 4126.66666639, 4161.53846133, 4123.33333306, 4086.15384581, 4095.12820478, 4013.71794824, 4118.07692280, 4130.51282024, 4119.35897408, 4124.61538434, 4131.79487152, 4192.82051269,8.57
4121.92307665, 4126.41025614, 4128.58974332, 4178.20512807, 4126.15384588, 4107.56410229, 4115.51282024, 4020.51282003, 4115.76923050, 4129.61538434, 4126.41025614, 4129.74358947, 4134.99999973, 4194.23076910,8.57
4116.79487152, 4122.94871767, 4119.35897408, 4190.89743576, 4128.58974332, 4132.05128178, 4141.53846133, 4050.76923036, 4135.89743569, 4129.48717921, 4121.15384588, 4121.28205101, 4129.35897408, 4190.76923063,8.57
4121.66666639, 4124.48717921, 4123.33333306, 4181.41025628, 4126.79487152, 4115.38461511, 4132.69230742, 4048.58974318, 4140.76923056, 4131.66666639, 4117.17948691, 4124.87179460, 4129.48717921, 4193.71794858,8.57
4116.15384588, 4123.07692280, 4120.38461511, 4184.74358961, 4122.82051255, 4108.46153819, 4129.74358947, 4046.41025600, 4148.33333313, 4130.51282024, 4119.61538434, 4123.71794844, 4129.74358947, 4189.48717935,8.57
4120.12820485, 4120.89743562, 4120.64102537, 4181.41025628, 4126.02564075, 4103.20512793, 4114.35897408, 4032.05128157, 4132.82051255, 4126.79487152, 4120.25640998, 4119.74358947, 4128.46153819, 4187.43589730,8.57
4122.82051255, 4122.94871767, 4124.23076896, 4160.64102544, 4127.69230742, 4082.17948684, 4085.51282017, 3999.99999945, 4092.30769196, 4127.56410229, 4120.64102537, 4126.66666639, 4130.38461511, 4189.74358961,8.57
4121.02564075, 4127.56410229, 4122.94871767, 4164.87179467, 4127.43589716, 4087.94871761, 4103.46153819, 4014.23076875, 4100.89743555, 4132.05128178, 4120.76923050, 4117.56410229, 4127.82051255, 4187.43589730,8.57
4124.87179460, 4128.97435870, 4128.84615357, 4181.53846140, 4126.53846126, 4109.99999973, 4132.82051255, 4055.64102523, 4150.76923056, 4132.69230742, 4124.10256383, 4124.99999973, 4130.51282024, 4188.97435884,8.57
4119.74358947, 4121.92307665, 4125.25640998, 4166.41025621, 4123.07692280, 4100.38461504, 4108.46153819, 4040.89743548, 4149.99999980, 4128.07692280, 4122.30769203, 4128.33333306, 4128.07692280, 4185.38461525,8.57
4125.51282024, 4126.53846126, 4123.97435870, 4162.43589723, 4125.76923050, 4099.48717914, 4099.23076889, 4013.58974311, 4119.10256383, 4126.53846126, 4118.58974332, 4116.92307665, 4122.82051255, 4186.66666653,8.57
4129.10256383, 4130.12820485, 4129.48717921, 4189.10256397, 4126.02564075, 4123.07692280, 4134.87179460, 4038.58974318, 4121.53846126, 4129.74358947, 4122.30769203, 4128.71794844, 4132.56410229, 4192.05128192,8.57
4121.41025614, 4122.43589716, 4126.79487152, 4186.15384602, 4125.51282024, 4118.84615357, 4134.99999973, 4046.53846113, 4121.15384588, 4129.35897408, 4121.92307665, 4124.87179460, 4133.84615357, 4190.51282038,8.57
4123.84615357, 4125.12820485, 4127.43589716, 4168.46153833, 4126.28205101, 4110.76923050, 4112.30769203, 4015.25640977, 4106.79487152, 4126.15384588, 4120.89743562, 4123.58974332, 4129.35897408, 4196.15384602,8.57
4122.30769203, 4124.99999973, 4123.20512793, 4159.10256390, 4122.30769203, 4106.28205101, 4102.05128171, 4002.05128150, 4094.99999966, 4126.02564075, 4119.35897408, 4131.66666639, 4131.53846126, 4195.25641012,8.57
4128.07692280, 4124.35897408, 4125.38461511, 4140.89743569, 4125.51282024, 4080.12820478, 4085.89743555, 4004.48717900, 4084.35897402, 4128.97435870, 4116.02564075, 4125.38461511, 4133.33333306, 4192.05128192,8.57
4126.41025614, 4126.41025614, 4129.74358947, 4147.43589723, 4127.94871767, 4081.79487145, 4097.82051248, 4019.10256362, 4104.23076896, 4130.64102537, 4120.64102537, 4126.79487152, 4131.92307665, 4193.97435884,8.57
4116.66666639, 4123.97435870, 4124.48717921, 4185.89743576, 4125.25640998, 4115.51282024, 4142.30769210, 4064.61538420, 4156.79487159, 4127.94871767, 4121.02564075, 4123.46153819, 4127.56410229, 4187.43589730,8.57
4127.05128178, 4124.48717921, 4128.58974332, 4197.82051269, 4125.38461511, 4119.48717921, 4147.05128185, 4076.53846119, 4161.15384595, 4127.94871767, 4122.43589716, 4128.20512793, 4134.10256383, 4188.46153833,8.57
4123.84615357, 4121.02564075, 4122.56410229, 4186.92307679, 4123.20512793, 4114.87179460, 4126.28205101, 4040.12820472, 4115.64102537, 4130.38461511, 4127.56410229, 4132.56410229, 4136.41025621, 4190.25641012,8.57
4119.23076896, 4122.82051255, 4118.33333306, 4200.25641012, 4127.05128178, 4131.53846126, 4138.58974339, 4046.53846113, 4124.35897408, 4129.99999973, 4123.71794844, 4121.28205101, 4130.12820485, 4192.30769217,8.57
4121.92307665, 4128.20512793, 4123.58974332, 4212.30769224, 4129.74358947, 4132.43589716, 4152.17948697, 4082.17948684, 4160.12820492, 4129.35897408, 4122.30769203, 4126.92307665, 4133.20512793, 4196.02564089,8.57
4116.41025614, 4122.82051255, 4117.94871767, 4194.61538448, 4124.61538434, 4112.82051255, 4130.12820485, 4064.10256369, 4138.33333313, 4127.94871767, 4121.66666639, 4122.56410229, 4128.97435870, 4187.56410243,8.57
4124.61538434, 4122.94871767, 4124.23076896, 4171.66666653, 4125.12820485, 4102.94871767, 4104.35897408, 4029.74358926, 4107.43589716, 4128.97435870, 4122.94871767, 4118.84615357, 4127.30769203, 4188.71794858,8.57
4123.07692280, 4124.87179460, 4124.99999973, 4158.07692287, 4128.07692280, 4107.30769203, 4107.17948691, 4028.33333285, 4106.02564075, 4132.17948691, 4123.20512793, 4124.99999973, 4133.07692280, 4191.92307679,8.57
4116.15384588, 4121.53846126, 4121.28205101, 4159.10256390, 4128.58974332, 4113.07692280, 4118.20512793, 4034.61538413, 4105.76923050, 4128.71794844, 4117.05128178, 4113.97435870, 4129.23076896, 4188.07692294,8.57
4122.43589716, 4122.30769203, 4128.71794844, 4187.30769217, 4126.28205101, 4133.46153819, 4137.82051262, 4068.33333292, 4140.12820492, 4125.12820485, 4122.30769203, 4120.64102537, 4129.87179460, 4188.20512807,8.57
4121.92307665, 4123.33333306, 4123.71794844, 4220.76923070, 4125.51282024, 4166.92307672, 4171.66666653, 4117.56410229, 4194.87179474, 4127.30769203, 4126.28205101, 4123.07692280, 4129.61538434, 4182.17948704,8.57
4126.15384588, 4127.56410229, 4124.99999973, 4220.64102558, 4129.99999973, 4175.38461525, 4183.97435884, 4110.64102537, 4187.05128192, 4128.97435870, 4121.79487152, 4120.25640998, 4127.05128178, 4184.23076910,8.57
4123.84615357, 4126.92307665, 4128.84615357, 4200.89743576, 4127.30769203, 4148.97435877, 4160.12820492, 4075.12820478, 4150.64102544, 4129.74358947, 4123.84615357, 4130.25640998, 4130.12820485, 4188.33333320,8.57
4121.28205101, 4124.35897408, 4125.25640998, 4193.71794858, 4126.02564075, 4125.12820485, 4132.69230742, 4063.71794830, 4143.84615364, 4129.23076896, 4126.28205101, 4120.51282024, 4128.33333306, 4185.89743576,8.57
4127.43589716, 4127.82051255, 4124.87179460, 4205.25641019, 4127.82051255, 4141.15384595, 4140.25641005, 4070.25640991, 4152.56410236, 4126.53846126, 4129.10256383, 4125.38461511, 4129.99999973, 4193.20512807,8.57
4120.25640998, 4125.76923050, 4119.99999973, 4212.82051275, 4125.25640998, 4166.79487159, 4158.20512800, 4070.76923043, 4145.64102544, 4126.79487152, 4128.58974332, 4133.71794844, 4132.43589716, 4193.20512807,8.57
4125.38461511, 4129.99999973, 4128.07692280, 4203.58974352, 4126.28205101, 4158.33333313, 4150.64102544, 4063.84615343, 4126.41025614, 4130.38461511, 4125.12820485, 4125.38461511, 4132.94871767, 4190.38461525,8.57
4125.89743562, 4129.87179460, 4128.71794844, 4200.89743576, 4124.48717921, 4132.94871767, 4139.23076903, 4059.99999959, 4128.58974332, 4130.89743562, 4125.38461511, 4126.28205101, 4134.48717921, 4191.02564089,8.57
4117.30769203, 4121.28205101, 4119.48717921, 4203.71794865, 4125.12820485, 4127.43589716, 4136.66666646, 4060.12820472, 4141.79487159, 4129.99999973, 4124.87179460, 4125.38461511, 4130.51282024, 4189.99999986,8.57
4125.76923050, 4124.61538434, 4127.17948691, 4213.07692301, 4129.48717921, 4151.79487159, 4154.35897415, 4083.07692273, 4161.53846133, 4130.38461511, 4125.38461511, 4134.87179460, 4133.46153819, 4195.51282038,8.57
4120.89743562, 4123.58974332, 4121.15384588, 4221.92307686, 4126.53846126, 4164.74358954, 4177.82051269, 4109.10256383, 4182.05128192, 4129.23076896, 4123.07692280, 4132.56410229, 4134.35897408, 4190.89743576,8.57
4120.89743562, 4123.58974332, 4121.15384588, 4221.92307686, 4126.53846126, 4164.74358954, 4177.82051269, 4109.10256383, 4182.05128192, 4129.23076896, 4123.07692280, 4132.56410229, 4134.35897408, 4190.89743576,8.57
4119.23076896, 4121.28205101, 4117.05128178, 4200.51282038, 4128.97435870, 4138.84615364, 4160.12820492, 4092.43589709, 4157.69230749, 4128.97435870, 4121.66666639, 4119.87179460, 4131.02564075, 4190.25641012,8.57
4120.76923050, 4124.48717921, 4122.94871767, 4179.74358961, 4128.97435870, 4113.58974332, 4127.05128178, 4063.84615343, 4117.43589716, 4129.99999973, 4125.76923050, 4129.99999973, 4133.84615357, 4195.38461525,8.57
4115.89743562, 4121.41025614, 4116.92307665, 4198.84615371, 4126.02564075, 4131.41025614, 4142.17948697, 4073.97435863, 4131.92307665, 4129.87179460, 4121.41025614, 4122.69230742, 4128.97435870, 4187.69230756,8.57
4124.23076896, 4123.58974332, 4123.71794844, 4223.58974352, 4129.48717921, 4162.05128185, 4166.79487159, 4085.51282017, 4158.33333313, 4129.99999973, 4122.82051255, 4119.48717921, 4128.71794844, 4190.12820499,8.57
4121.28205101, 4123.46153819, 4125.25640998, 4219.99999993, 4127.94871767, 4156.92307672, 4153.46153826, 4067.69230728, 4149.74358954, 4129.74358947, 4128.46153819, 4125.64102537, 4131.92307665, 4193.46153833,8.57
4120.76923050, 4120.38461511, 4119.48717921, 4210.51282045, 4127.82051255, 4134.48717921, 4138.84615364, 4060.38461497, 4146.92307672, 4128.84615357, 4123.07692280, 4114.99999973, 4128.33333306, 4188.33333320,8.57
4124.87179460, 4122.43589716, 4123.84615357, 4204.74358968, 4128.71794844, 4131.79487152, 4138.84615364, 4060.76923036, 4152.17948697, 4129.61538434, 4122.94871767, 4121.02564075, 4128.46153819, 4186.41025628,8.57
4117.17948691, 4123.20512793, 4123.07692280, 4200.12820499, 4127.94871767, 4135.38461518, 4134.35897408, 4054.99999959, 4146.15384595, 4130.64102537, 4123.58974332, 4118.07692280, 4126.28205101, 4184.48717935,8.57
4124.35897408, 4127.43589716, 4124.23076896, 4214.48717942, 4128.71794844, 4137.17948697, 4140.76923056, 4069.23076882, 4150.12820492, 4131.66666639, 4123.46153819, 4117.17948691, 4128.58974332, 4189.23076910,8.57
4125.64102537, 4127.43589716, 4122.05128178, 4234.48717949, 4124.48717921, 4154.10256390, 4164.48717928, 4105.12820485, 4168.84615371, 4131.92307665, 4127.17948691, 4129.10256383, 4132.82051255, 4187.69230756,8.57
4125.25640998, 4127.69230742, 4122.94871767, 4234.35897436, 4126.28205101, 4157.69230749, 4173.58974345, 4119.10256383, 4177.56410243, 4130.25640998, 4126.28205101, 4121.41025614, 4129.99999973, 4185.89743576,8.57
4127.43589716, 4129.61538434, 4125.76923050, 4214.35897429, 4126.66666639, 4129.87179460, 4153.58974339, 4085.12820478, 4152.30769210, 4128.58974332, 4128.07692280, 4127.56410229, 4132.17948691, 4195.38461525,8.57
4118.07692280, 4123.33333306, 4120.51282024, 4202.43589737, 4121.92307665, 4117.82051255, 4140.12820492, 4058.71794830, 4128.58974332, 4128.33333306, 4127.17948691, 4130.89743562, 4132.43589716, 4189.99999986,8.57
4127.43589716, 4126.41025614, 4131.79487152, 4209.74358968, 4127.05128178, 4131.92307665, 4152.56410236, 4077.17948684, 4144.23076903, 4129.35897408, 4125.89743562, 4125.64102537, 4131.79487152, 4190.38461525,8.57
4127.30769203, 4126.92307665, 4130.38461511, 4223.20512814, 4129.23076896, 4143.71794851, 4167.30769210, 4094.99999966, 4158.97435877, 4131.28205101, 4128.71794844, 4130.64102537, 4132.82051255, 4198.84615371,8.57
4120.12820485, 4122.30769203, 4118.33333306, 4229.87179481, 4126.53846126, 4145.51282031, 4165.64102544, 4087.82051248, 4150.25641005, 4129.99999973, 4125.76923050, 4127.17948691, 4129.99999973, 4196.92307679,8.57
4126.66666639, 4124.23076896, 4123.84615357, 4231.15384609, 4125.76923050, 4153.58974339, 4166.41025621, 4090.25640991, 4157.69230749, 4127.30769203, 4126.53846126, 4133.33333306, 4133.20512793, 4195.64102551,8.57
4120.25640998, 4122.17948691, 4119.23076896, 4230.38461532, 4124.99999973, 4160.64102544, 4173.84615371, 4104.61538434, 4172.05128192, 4127.17948691, 4128.84615357, 4129.23076896, 4133.20512793, 4191.28205115,8.57
4123.07692280, 4123.84615357, 4118.84615357, 4219.99999993, 4127.30769203, 4141.53846133, 4162.56410236, 4097.56410222, 4157.17948697, 4128.20512793, 4126.02564075, 4121.02564075, 4131.41025614, 4195.12820499,8.57
4120.25640998, 4121.15384588, 4121.92307665, 4220.64102558, 4125.76923050, 4130.89743562, 4157.17948697, 4099.99999966, 4172.30769217, 4130.25640998, 4123.71794844, 4131.28205101, 4133.58974332, 4196.79487166,8.57
4115.76923050, 4118.46153819, 4119.35897408, 4226.41025634, 4126.79487152, 4138.71794851, 4164.99999980, 4105.51282024, 4198.58974345, 4129.61538434, 4121.28205101, 4123.71794844, 4130.51282024, 4190.25641012,8.57
4127.17948691, 4128.46153819, 4126.92307665, 4220.76923070, 4131.66666639, 4128.20512793, 4159.48717928, 4088.20512786, 4171.92307679, 4127.05128178, 4124.61538434, 4123.33333306, 4132.94871767, 4195.12820499,8.57
4118.33333306, 4125.64102537, 4120.89743562, 4226.28205122, 4127.69230742, 4122.17948691, 4162.43589723, 4088.71794837, 4166.15384595, 4126.02564075, 4123.20512793, 4127.05128178, 4132.94871767, 4191.92307679,8.57
4117.17948691, 4119.23076896, 4118.58974332, 4223.71794865, 4127.94871767, 4119.99999973, 4159.23076903, 4085.51282017, 4171.66666653, 4128.71794844, 4118.20512793, 4119.48717921, 4126.28205101, 4186.28205115,8.57
4125.12820485, 4123.71794844, 4125.38461511, 4225.76923070, 4129.87179460, 4122.43589716, 4159.74358954, 4085.64102530, 4167.05128185, 4131.79487152, 4126.41025614, 4124.87179460, 4129.74358947, 4185.89743576,8.57
4119.99999973, 4124.74358947, 4123.71794844, 4246.53846154, 4127.69230742, 4143.58974339, 4180.12820499, 4113.97435870, 4193.07692294, 4130.12820485, 4126.41025614, 4116.66666639, 4129.61538434, 4183.46153833,8.57
4125.64102537, 4125.76923050, 4130.76923050, 4241.28205129, 4127.94871767, 4144.74358954, 4169.48717935, 4103.07692280, 4192.94871781, 4129.48717921, 4120.25640998, 4119.99999973, 4130.76923050, 4189.10256397,8.57
4127.30769203, 4124.99999973, 4128.84615357, 4228.84615378, 4127.43589716, 4126.02564075, 4149.74358954, 4082.05128171, 4165.25641005, 4130.76923050, 4124.87179460, 4130.64102537, 4134.10256383, 4187.94871781,8.57
4128.97435870, 4126.41025614, 4124.61538434, 4235.64102564, 4129.35897408, 4126.79487152, 4165.51282031, 4112.82051255, 4183.20512807, 4129.99999973, 4128.46153819, 4120.51282024, 4128.97435870, 4186.15384602,8.57
4127.05128178, 4127.05128178, 4127.05128178, 4229.99999993, 4127.94871767, 4138.97435877, 4180.51282038, 4125.64102537, 4201.79487173, 4129.99999973, 4126.02564075, 4127.94871767, 4130.64102537, 4192.69230756,8.57
4119.74358947, 4121.66666639, 4119.61538434, 4236.79487180, 4125.38461511, 4158.58974339, 4193.07692294, 4119.99999973, 4201.92307686, 4131.53846126, 4124.35897408, 4129.61538434, 4131.79487152, 4188.46153833,8.57
4128.33333306, 4127.56410229, 4124.35897408, 4271.02564110, 4127.69230742, 4181.66666653, 4220.76923070, 4154.10256390, 4224.10256404, 4131.02564075, 4130.12820485, 4126.53846126, 4132.43589716, 4189.87179474,8.57
4124.23076896, 4128.58974332, 4125.89743562, 4252.82051282, 4126.15384588, 4165.64102544, 4198.33333320, 4141.79487159, 4208.20512814, 4128.84615357, 4132.69230742, 4129.74358947, 4133.46153819, 4194.23076910,8.57
4122.43589716, 4125.12820485, 4124.87179460, 4199.99999986, 4129.10256383, 4132.43589716, 4140.64102544, 4079.23076889, 4166.41025621, 4130.38461511, 4127.56410229, 4122.05128178, 4128.20512793, 4191.41025628,8.57
4129.10256383, 4126.28205101, 4127.30769203, 4211.41025634, 4128.46153819, 4144.48717928, 4151.41025621, 4085.64102530, 4184.48717935, 4132.17948691, 4128.58974332, 4129.23076896, 4129.99999973, 4192.43589730,8.57
4122.56410229, 4120.25640998, 4118.33333306, 4245.51282052, 4124.48717921, 4162.69230749, 4184.35897422, 4119.10256383, 4196.41025628, 4128.84615357, 4127.05128178, 4124.99999973, 4131.15384588, 4190.89743576,8.57
4127.82051255, 4121.92307665, 4122.17948691, 4241.66666667, 4131.02564075, 4152.30769210, 4170.38461525, 4103.58974332, 4160.25641005, 4127.05128178, 4127.05128178, 4122.43589716, 4131.28205101, 4195.12820499,8.57
4125.38461511, 4125.25640998, 4123.71794844, 4244.48717949, 4128.84615357, 4155.12820492, 4166.28205108, 4102.17948684, 4164.74358954, 4129.99999973, 4133.33333306, 4134.48717921, 4132.56410229, 4195.51282038,8.57
4121.79487152, 4123.71794844, 4119.48717921, 4259.23076923, 4123.71794844, 4164.48717928, 4183.97435884, 4132.43589716, 4205.89743583, 4132.17948691, 4127.94871767, 4122.82051255, 4129.48717921, 4190.89743576,8.57
4126.28205101, 4125.51282024, 4125.25640998, 4260.00000000, 4126.53846126, 4163.71794851, 4183.07692294, 4144.23076903, 4219.10256404, 4131.02564075, 4125.51282024, 4121.79487152, 4133.07692280, 4193.46153833,8.57
4116.15384588, 4122.30769203, 4116.53846126, 4265.89743590, 4127.05128178, 4181.28205115, 4181.41025628, 4141.79487159, 4213.97435891, 4129.74358947, 4129.23076896, 4121.79487152, 4130.25640998, 4188.58974345,8.57
4122.94871767, 4123.46153819, 4118.46153819, 4276.28205136, 4129.35897408, 4196.02564089, 4194.74358961, 4146.53846133, 4214.23076917, 4129.61538434, 4127.43589716, 4118.58974332, 4125.76923050, 4189.48717935,8.57
4128.07692280, 4126.79487152, 4129.10256383, 4262.82051282, 4129.99999973, 4177.30769217, 4192.82051269, 4136.15384595, 4203.71794865, 4128.97435870, 4126.15384588, 4129.61538434, 4129.10256383, 4190.38461525,8.57
4119.35897408, 4124.23076896, 4127.30769203, 4236.28205129, 4128.84615357, 4157.05128185, 4175.12820499, 4110.25640998, 4174.35897422, 4128.20512793, 4124.23076896, 4120.76923050, 4128.71794844, 4182.43589730,8.57
4125.64102537, 4125.38461511, 4128.71794844, 4237.56410257, 4128.71794844, 4165.89743569, 4178.33333320, 4120.51282024, 4178.71794858, 4129.99999973, 4129.61538434, 4124.35897408, 4133.33333306, 4187.56410243,8.57
4124.10256383, 4126.15384588, 4123.46153819, 4254.35897436, 4127.30769203, 4173.20512807, 4192.69230756, 4149.99999980, 4213.71794865, 4130.76923050, 4132.17948691, 4129.87179460, 4129.61538434, 4186.79487166,8.57
4125.25640998, 4128.20512793, 4125.38461511, 4257.94871795, 4130.76923050, 4174.99999986, 4199.23076910, 4147.56410236, 4221.66666660, 4128.58974332, 4126.66666639, 4118.07692280, 4122.94871767, 4183.97435884,8.57
4126.02564075, 4125.76923050, 4129.10256383, 4260.51282052, 4129.48717921, 4192.17948704, 4201.66666660, 4134.99999973, 4214.35897429, 4131.79487152, 4129.87179460, 4122.56410229, 4130.89743562, 4190.76923063,8.57
4119.99999973, 4123.46153819, 4122.82051255, 4251.41025641, 4126.53846126, 4184.48717935, 4184.35897422, 4128.46153819, 4204.35897429, 4132.82051255, 4130.76923050, 4120.38461511, 4131.02564075, 4189.74358961,8.57
4129.61538434, 4131.92307665, 4130.76923050, 4235.25641026, 4129.99999973, 4159.61538441, 4161.92307672, 4117.94871767, 4186.41025628, 4127.56410229, 4128.58974332, 4125.89743562, 4128.46153819, 4192.43589730,8.57
4125.38461511, 4126.92307665, 4129.35897408, 4245.64102564, 4128.20512793, 4170.12820499, 4163.58974339, 4108.97435870, 4180.51282038, 4126.79487152, 4128.33333306, 4132.94871767, 4131.28205101, 4192.17948704,8.57
4124.61538434, 4121.53846126, 4125.51282024, 4266.92307700, 4126.02564075, 4186.41025628, 4176.66666653, 4109.48717921, 4186.53846140, 4129.35897408, 4130.25640998, 4124.99999973, 4130.76923050, 4191.15384602,8.57
4130.38461511, 4125.25640998, 4126.79487152, 4281.15384623, 4126.41025614, 4191.53846140, 4202.82051275, 4142.69230749, 4211.15384609, 4129.99999973, 4134.35897408, 4130.12820485, 4131.66666639, 4193.97435884,8.57
4121.53846126, 4122.43589716, 4118.33333306, 4279.61538469, 4128.07692280, 4203.71794865, 4230.25641019, 4179.99999986, 4232.43589737, 4127.17948691, 4128.71794844, 4124.48717921, 4129.99999973, 4189.35897422,8.57
4125.12820485, 4124.48717921, 4124.61538434, 4255.89743590, 4131.79487152, 4199.87179474, 4218.71794865, 4165.38461518, 4216.79487173, 4126.41025614, 4126.41025614, 4125.64102537, 4132.69230742, 4194.48717935,8.57
4123.58974332, 4122.17948691, 4127.17948691, 4245.12820513, 4128.46153819, 4188.71794858, 4199.87179474, 4149.61538441, 4211.66666660, 4128.46153819, 4130.51282024, 4132.05128178, 4134.87179460, 4194.48717935,8.57
4123.71794844, 4119.74358947, 4121.79487152, 4259.48717949, 4127.94871767, 4197.43589730, 4214.10256404, 4171.66666653, 4238.71794872, 4127.56410229, 4127.69230742, 4117.82051255, 4129.99999973, 4189.87179474,8.57
4122.82051255, 4125.25640998, 4121.66666639, 4266.66666674, 4128.84615357, 4206.41025634, 4233.07692301, 4189.48717935, 4256.02564103, 4126.02564075, 4127.43589716, 4121.15384588, 4131.15384588, 4193.46153833,8.57
4112.30769203, 4124.87179460, 4118.58974332, 4264.23076923, 4126.15384588, 4205.25641019, 4230.51282045, 4181.41025628, 4247.30769231, 4128.97435870, 4126.28205101, 4121.41025614, 4130.76923050, 4189.87179474,8.57
4124.61538434, 4125.25640998, 4127.82051255, 4273.84615392, 4128.97435870, 4211.53846147, 4225.25641019, 4169.10256397, 4235.51282052, 4132.94871767, 4126.92307665, 4118.20512793, 4129.99999973, 4191.02564089,8.57
4121.92307665, 4121.41025614, 4124.99999973, 4277.82051289, 4129.99999973, 4214.99999993, 4224.99999993, 4163.07692287, 4226.41025634, 4130.12820485, 4129.61538434, 4123.58974332, 4132.69230742, 4188.97435884,8.57
4113.97435870, 4118.71794844, 4116.41025614, 4283.07692315, 4132.17948691, 4224.61538455, 4245.00000000, 4187.56410243, 4244.48717949, 4126.79487152, 4125.25640998, 4115.25640998, 4129.87179460, 4184.99999986,8.57
4125.25640998, 4125.38461511, 4127.17948691, 4298.20512828, 4133.07692280, 4249.74358975, 4283.71794879, 4229.87179481, 4281.66666674, 4129.87179460, 4130.12820485, 4122.17948691, 4129.23076896, 4187.69230756,8.57
4119.74358947, 4121.02564075, 4124.48717921, 4284.35897443, 4128.46153819, 4244.61538462, 4284.74358982, 4219.74358968, 4264.61538462, 4129.87179460, 4132.69230742, 4121.15384588, 4124.35897408, 4179.35897422,8.57
4121.15384588, 4120.25640998, 4123.46153819, 4256.66666667, 4129.99999973, 4214.35897429, 4251.79487180, 4179.87179474, 4217.94871788, 4126.28205101, 4126.28205101, 4116.53846126, 4124.99999973, 4182.30769217,8.57
4124.35897408, 4126.41025614, 4127.17948691, 4273.84615392, 4129.48717921, 4231.15384609, 4266.92307700, 4202.17948711, 4245.00000000, 4126.53846126, 4130.25640998, 4131.79487152, 4134.74358947, 4192.56410243,8.57
4122.94871767, 4126.15384588, 4124.23076896, 4307.43589758, 4128.97435870, 4271.79487187, 4310.38461553, 4257.56410257, 4310.51282066, 4127.94871767, 4133.84615357, 4122.43589716, 4131.28205101, 4187.43589730,8.57
4132.05128178, 4125.76923050, 4128.71794844, 4301.41025655, 4130.64102537, 4259.74358975, 4291.66666674, 4240.51282052, 4287.30769238, 4127.43589716, 4132.43589716, 4122.94871767, 4130.64102537, 4191.53846140,8.57
4124.74358947, 4122.30769203, 4124.23076896, 4298.33333341, 4129.48717921, 4240.12820513, 4265.38461539, 4201.41025634, 4240.89743590, 4128.46153819, 4130.38461511, 4133.84615357, 4132.69230742, 4193.71794858,8.57
4125.64102537, 4122.94871767, 4126.02564075, 4325.25641040, 4131.66666639, 4267.30769238, 4297.43589751, 4233.07692301, 4286.53846161, 4130.76923050, 4132.82051255, 4126.28205101, 4128.20512793, 4188.20512807,8.57
4127.82051255, 4122.43589716, 4127.56410229, 4322.30769245, 4128.20512793, 4276.41025648, 4305.64102578, 4257.05128206, 4321.28205142, 4130.25640998, 4135.76923056, 4126.79487152, 4130.12820485, 4189.48717935,8.57
4119.10256383, 4119.10256383, 4119.10256383, 4280.38461546, 4126.92307665, 4243.20512821, 4263.84615385, 4214.48717942, 4268.07692315, 4128.20512793, 4128.07692280, 4123.84615357, 4131.02564075, 4190.38461525,8.57
4124.10256383, 4124.48717921, 4123.71794844, 4274.48717956, 4132.69230742, 4246.02564103, 4265.64102564, 4198.71794858, 4246.79487180, 4128.97435870, 4128.71794844, 4131.41025614, 4133.58974332, 4195.89743576,8.57
4122.43589716, 4122.56410229, 4120.89743562, 4295.76923084, 4129.87179460, 4277.17948725, 4307.94871809, 4237.94871795, 4283.46153853, 4128.84615357, 4133.07692280, 4136.28205108, 4133.20512793, 4194.35897422,8.57
4123.33333306, 4118.84615357, 4119.35897408, 4271.02564110, 4129.87179460, 4252.05128206, 4295.51282059, 4236.79487180, 4259.23076923, 4128.33333306, 4127.94871767, 4124.35897408, 4130.25640998, 4191.41025628,8.57
4120.25640998, 4119.48717921, 4123.46153819, 4269.87179495, 4130.12820485, 4250.12820513, 4296.79487187, 4241.92307693, 4256.41025641, 4129.87179460, 4130.25640998, 4128.97435870, 4132.17948691, 4191.53846140,8.57
4113.20512793, 4118.97435870, 4119.61538434, 4315.76923091, 4128.84615357, 4301.66666681, 4343.46153867, 4282.69230777, 4312.17948732, 4129.23076896, 4130.38461511, 4121.41025614, 4127.94871767, 4186.92307679,8.57
4123.20512793, 4124.35897408, 4126.28205101, 4308.46153860, 4131.92307665, 4285.89743597, 4323.71794886, 4260.12820513, 4289.48717956, 4128.84615357, 4125.12820485, 4118.20512793, 4128.84615357, 4192.56410243,8.57
4119.99999973, 4125.25640998, 4124.74358947, 4263.46153847, 4129.10256383, 4229.35897429, 4266.53846154, 4208.71794865, 4237.30769231, 4131.28205101, 4126.02564075, 4125.64102537, 4131.41025614, 4190.64102551,8.57
4120.12820485, 4125.12820485, 4123.58974332, 4266.79487187, 4128.20512793, 4229.48717942, 4268.07692315, 4217.17948711, 4253.20512821, 4129.35897408, 4126.28205101, 4115.38461511, 4125.25640998, 4185.25641012,8.57
4127.56410229, 4126.79487152, 4130.64102537, 4304.23076937, 4130.89743562, 4255.38461539, 4293.58974366, 4237.43589744, 4273.46153853, 4126.02564075, 4126.79487152, 4122.56410229, 4127.56410229, 4187.56410243,8.57
4122.94871767, 4123.58974332, 4123.33333306, 4311.92307707, 4133.97435870, 4258.33333334, 4289.87179495, 4219.35897429, 4258.84615385, 4127.56410229, 4127.94871767, 4122.69230742, 4127.69230742, 4183.58974345,8.57
4128.97435870, 4127.43589716, 4123.84615357, 4286.92307700, 4136.15384595, 4248.33333334, 4288.07692315, 4211.02564096, 4256.02564103, 4129.10256383, 4129.48717921, 4120.89743562, 4128.07692280, 4187.94871781,8.57
4127.43589716, 4128.20512793, 4126.28205101, 4286.28205136, 4129.61538434, 4255.64102564, 4323.33333348, 4244.61538462, 4282.05128212, 4128.97435870, 4128.58974332, 4133.20512793, 4133.46153819, 4189.10256397,8.57
4125.76923050, 4127.30769203, 4126.02564075, 4310.51282066, 4130.89743562, 4278.97435905, 4343.46153867, 4271.28205136, 4303.71794886, 4129.48717921, 4125.25640998, 4124.74358947, 4129.87179460, 4184.35897422,8.57
4129.87179460, 4129.61538434, 4131.28205101, 4300.00000014, 4133.97435870, 4281.53846161, 4317.17948732, 4261.66666667, 4293.84615392, 4130.25640998, 4129.48717921, 4126.15384588, 4130.64102537, 4190.76923063,8.57
4119.61538434, 4121.15384588, 4123.07692280, 4268.20512828, 4128.07692280, 4255.89743590, 4291.92307700, 4241.79487180, 4258.20512821, 4130.38461511, 4127.94871767, 4128.07692280, 4132.43589716, 4187.94871781,8.57
4124.48717921, 4123.84615357, 4123.84615357, 4273.58974366, 4131.15384588, 4243.71794872, 4301.53846168, 4249.48717949, 4254.35897436, 4130.51282024, 4124.35897408, 4123.84615357, 4129.61538434, 4187.43589730,8.57
4127.17948691, 4128.58974332, 4127.05128178, 4300.89743604, 4133.07692280, 4263.46153847, 4330.12820527, 4280.25641033, 4296.02564110, 4129.23076896, 4128.58974332, 4131.28205101, 4132.05128178, 4194.10256397,8.57
4120.51282024, 4122.82051255, 4122.56410229, 4311.15384630, 4129.23076896, 4283.07692315, 4344.23076944, 4284.35897443, 4310.00000014, 4127.82051255, 4126.28205101, 4126.41025614, 4131.92307665, 4190.64102551,8.57
4125.64102537, 4124.48717921, 4126.28205101, 4316.66666681, 4129.61538434, 4286.15384623, 4342.30769252, 4270.00000007, 4293.20512828, 4130.38461511, 4128.33333306, 4129.74358947, 4131.92307665, 4191.53846140,8.57
4121.66666639, 4123.07692280, 4119.35897408, 4321.41025655, 4129.23076896, 4285.25641033, 4345.51282073, 4278.84615392, 4305.25641040, 4133.07692280, 4130.12820485, 4127.82051255, 4129.35897408, 4191.66666653,8.57
4123.97435870, 4122.30769203, 4120.25640998, 4305.64102578, 4128.97435870, 4276.79487187, 4346.02564124, 4277.69230777, 4303.71794886, 4130.25640998, 4123.46153819, 4118.46153819, 4131.53846126, 4194.61538448,8.57
4120.89743562, 4123.46153819, 4125.76923050, 4296.79487187, 4128.58974332, 4274.35897443, 4337.69230790, 4253.84615385, 4266.15384616, 4127.56410229, 4124.48717921, 4126.02564075, 4137.94871774, 4195.25641012,8.57
4113.20512793, 4122.43589716, 4117.30769203, 4317.17948732, 4131.66666639, 4301.28205142, 4351.92307714, 4269.61538469, 4282.30769238, 4128.71794844, 4125.64102537, 4119.23076896, 4130.76923050, 4187.56410243,8.57
4122.43589716, 4127.43589716, 4122.17948691, 4344.10256431, 4134.35897408, 4332.94871816, 4387.30769259, 4322.05128219, 4344.35897457, 4130.25640998, 4127.69230742, 4121.66666639, 4127.43589716, 4192.17948704,8.57
4118.20512793, 4125.89743562, 4125.12820485, 4342.30769252, 4130.51282024, 4321.02564117, 4387.17948746, 4326.79487194, 4340.64102585, 4128.58974332, 4128.07692280, 4123.20512793, 4129.48717921, 4190.51282038,8.57
4121.79487152, 4122.43589716, 4123.97435870, 4328.46153860, 4131.66666639, 4306.66666681, 4378.84615413, 4315.00000014, 4315.89743604, 4127.05128178, 4123.97435870, 4111.28205101, 4128.71794844, 4186.28205115,8.57
4126.53846126, 4125.12820485, 4122.82051255, 4340.00000021, 4131.28205101, 4332.69230790, 4406.92307727, 4347.43589765, 4354.48717970, 4129.35897408, 4128.20512793, 4123.07692280, 4131.79487152, 4188.20512807,8.57
4116.02564075, 4125.38461511, 4119.99999973, 4341.92307714, 4126.66666639, 4334.23076944, 4404.74359009, 4346.41025662, 4363.84615406, 4129.48717921, 4129.61538434, 4117.69230742, 4127.69230742, 4183.20512807,8.57
4124.87179460, 4128.46153819, 4132.56410229, 4319.87179501, 4127.82051255, 4307.56410271, 4373.71794900, 4299.48717963, 4317.94871809, 4127.30769203, 4129.61538434, 4116.15384588, 4129.48717921, 4188.97435884,8.57
4124.10256383, 4125.76923050, 4128.20512793, 4320.38461553, 4127.43589716, 4316.79487194, 4389.61538490, 4309.48717963, 4327.17948732, 4126.53846126, 4131.41025614, 4127.69230742, 4134.23076896, 4189.99999986,8.57
4122.17948691, 4125.89743562, 4121.66666639, 4331.53846168, 4131.53846126, 4326.79487194, 4401.79487215, 4335.76923098, 4353.07692329, 4128.84615357, 4127.69230742, 4119.99999973, 4130.38461511, 4185.51282038,8.57
4129.48717921, 4127.43589716, 4131.02564075, 4333.58974380, 4132.69230742, 4324.87179501, 4392.17948746, 4334.61538483, 4354.87179508, 4131.02564075, 4130.64102537, 4128.46153819, 4132.17948691, 4193.84615371,8.57
4122.82051255, 4119.35897408, 4125.76923050, 4330.51282066, 4128.33333306, 4340.12820534, 4409.74359009, 4349.61538483, 4363.33333355, 4128.58974332, 4130.89743562, 4129.10256383, 4132.69230742, 4191.53846140,8.57
4127.30769203, 4125.12820485, 4126.41025614, 4309.23076937, 4130.76923050, 4332.69230790, 4402.43589779, 4335.00000021, 4336.92307714, 4128.84615357, 4128.20512793, 4123.46153819, 4133.58974332, 4191.28205115,8.57
4127.94871767, 4128.33333306, 4125.89743562, 4296.28205136, 4130.38461511, 4313.33333348, 4370.38461567, 4299.48717963, 4308.20512835, 4131.28205101, 4129.87179460, 4131.28205101, 4133.58974332, 4197.43589730,8.57
4123.33333306, 4122.30769203, 4124.74358947, 4313.20512835, 4131.79487152, 4323.07692322, 4378.46153874, 4318.33333348, 4332.69230790, 4129.61538434, 4127.94871767, 4128.97435870, 4126.28205101, 4195.76923063,8.57
4124.23076896, 4124.74358947, 4128.97435870, 4323.07692322, 4134.10256383, 4330.38461553, 4395.12820541, 4345.89743611, 4349.10256431, 4127.94871767, 4128.71794844, 4132.30769203, 4128.84615357, 4191.53846140,8.57
4117.82051255, 4122.43589716, 4117.82051255, 4316.28205142, 4130.51282024, 4327.43589758, 4386.79487208, 4332.43589765, 4337.17948739, 4128.97435870, 4129.23076896, 4126.02564075, 4131.79487152, 4187.94871781,8.57
4125.25640998, 4123.71794844, 4120.25640998, 4306.41025655, 4132.82051255, 4326.53846168, 4372.17948746, 4311.15384630, 4326.28205142, 4128.84615357, 4129.35897408, 4122.30769203, 4132.43589716, 4195.25641012,8.57
4123.33333306, 4126.02564075, 4125.89743562, 4301.79487194, 4133.20512793, 4331.66666681, 4378.07692336, 4317.43589758, 4324.74358989, 4127.94871767, 4130.51282024, 4130.64102537, 4134.61538434, 4194.61538448,8.57
4118.58974332, 4124.10256383, 4121.53846126, 4310.12820527, 4130.89743562, 4350.89743611, 4403.71794907, 4344.87179508, 4344.35897457, 4128.46153819, 4126.41025614, 4118.33333306, 4129.87179460, 4188.33333320,8.57
4126.15384588, 4124.61538434, 4125.51282024, 4312.94871809, 4131.02564075, 4360.51282073, 4409.48717984, 4353.20512842, 4358.33333355, 4129.35897408, 4127.69230742, 4121.02564075, 4130.64102537, 4194.61538448,8.57
4115.76923050, 4121.41025614, 4121.41025614, 4293.84615392, 4129.35897408, 4340.89743611, 4390.00000028, 4335.38461560, 4335.76923098, 4129.23076896, 4127.69230742, 4123.58974332, 4130.12820485, 4188.58974345,8.57
4119.61538434, 4124.87179460, 4126.28205101, 4282.82051289, 4131.41025614, 4328.71794886, 4385.89743618, 4330.64102578, 4316.92307707, 4128.58974332, 4123.33333306, 4115.64102537, 4129.48717921, 4185.89743576,8.57
4128.58974332, 4128.97435870, 4131.02564075, 4295.12820520, 4130.64102537, 4341.15384637, 4395.00000028, 4330.25641040, 4316.15384630, 4130.51282024, 4126.28205101, 4126.53846126, 4136.92307672, 4191.28205115,8.57
4121.02564075, 4124.99999973, 4120.51282024, 4298.71794879, 4131.79487152, 4337.94871816, 4387.30769259, 4321.15384630, 4313.84615399, 4130.25640998, 4126.79487152, 4119.87179460, 4133.20512793, 4186.28205115,8.57
4125.12820485, 4126.15384588, 4124.10256383, 4295.25641033, 4134.35897408, 4334.48717970, 4385.64102592, 4333.33333355, 4327.94871809, 4129.48717921, 4126.53846126, 4122.82051255, 4132.30769203, 4189.35897422,8.57
4125.38461511, 4124.74358947, 4124.87179460, 4298.07692315, 4129.74358947, 4356.15384637, 4402.30769266, 4345.51282073, 4349.23076944, 4130.89743562, 4128.71794844, 4131.66666639, 4133.84615357, 4189.23076910,8.57
4126.41025614, 4125.64102537, 4124.99999973, 4292.05128212, 4132.69230742, 4359.48717970, 4410.89743625, 4335.64102585, 4344.74358996, 4128.58974332, 4128.07692280, 4120.12820485, 4129.61538434, 4185.64102551,8.57
4124.48717921, 4128.84615357, 4128.71794844, 4282.43589751, 4135.38461518, 4338.46153867, 4403.71794907, 4331.79487194, 4331.41025655, 4125.89743562, 4130.38461511, 4126.53846126, 4132.05128178, 4191.02564089,8.57
4122.05128178, 4127.17948691, 4123.07692280, 4278.07692315, 4131.79487152, 4332.94871816, 4395.25641054, 4338.97435919, 4334.48717970, 4127.94871767, 4130.38461511, 4126.28205101, 4130.12820485, 4190.51282038,8.57
4133.58974332, 4129.61538434, 4126.53846126, 4273.46153853, 4131.02564075, 4349.48717970, 4405.12820548, 4348.97435919, 4352.05128226, 4130.76923050, 4130.38461511, 4125.64102537, 4129.87179460, 4193.71794858,8.57
4125.38461511, 4128.20512793, 4123.33333306, 4266.92307700, 4129.10256383, 4353.46153867, 4410.89743625, 4346.28205149, 4346.15384637, 4131.28205101, 4129.61538434, 4130.76923050, 4136.66666646, 4196.79487166,8.57
4122.43589716, 4129.61538434, 4123.07692280, 4262.43589744, 4132.43589716, 4340.12820534, 4396.53846182, 4330.64102578, 4315.89743604, 4131.41025614, 4125.38461511, 4123.20512793, 4137.05128185, 4195.12820499,8.57
4129.74358947, 4128.33333306, 4127.69230742, 4257.30769231, 4133.20512793, 4341.15384637, 4395.89743618, 4331.66666681, 4309.35897450, 4131.66666639, 4127.30769203, 4128.84615357, 4134.10256383, 4192.43589730,8.57
4121.15384588, 4116.92307665, 4118.46153819, 4257.56410257, 4129.10256383, 4351.28205149, 4420.64102599, 4358.33333355, 4341.02564124, 4129.35897408, 4126.66666639, 4126.15384588, 4130.64102537, 4188.84615371,8.57
4125.25640998, 4123.33333306, 4122.17948691, 4267.17948725, 4131.02564075, 4350.00000021, 4433.07692350, 4376.02564131, 4371.53846182, 4128.20512793, 4128.07692280, 4124.48717921, 4135.38461518, 4196.02564089,8.57
4122.69230742, 4129.87179460, 4125.38461511, 4261.92307693, 4129.48717921, 4341.41025662, 4423.71794907, 4363.20512842, 4363.58974380, 4128.71794844, 4129.35897408, 4129.23076896, 4137.82051262, 4194.74358961,8.57
4117.56410229, 4123.33333306, 4124.61538434, 4246.28205129, 4129.48717921, 4342.30769252, 4422.94871830, 4349.10256431, 4348.46153867, 4129.74358947, 4121.79487152, 4117.82051255, 4129.10256383, 4190.12820499,8.57
4123.20512793, 4122.82051255, 4128.71794844, 4238.84615385, 4131.66666639, 4339.48717970, 4419.23076958, 4344.10256431, 4345.89743611, 4131.41025614, 4122.94871767, 4122.05128178, 4130.38461511, 4197.17948704,8.57
4116.28205101, 4123.46153819, 4118.97435870, 4238.20512821, 4129.74358947, 4328.33333348, 4403.71794907, 4339.35897457, 4338.71794893, 4130.12820485, 4125.12820485, 4121.53846126, 4132.43589716, 4189.48717935,8.57
4120.51282024, 4126.41025614, 4122.17948691, 4245.00000000, 4132.17948691, 4335.89743611, 4413.97435933, 4351.53846175, 4346.53846175, 4128.46153819, 4124.74358947, 4116.41025614, 4131.92307665, 4187.94871781,8.57
4122.94871767, 4126.15384588, 4126.02564075, 4245.76923077, 4132.43589716, 4345.89743611, 4434.10256452, 4372.82051310, 4371.79487208, 4129.74358947, 4126.28205101, 4121.41025614, 4131.02564075, 4192.82051269,8.57
4119.35897408, 4122.94871767, 4120.64102537, 4223.33333327, 4130.51282024, 4329.23076937, 4414.74359009, 4362.69230790, 4362.82051303, 4131.66666639, 4121.66666639, 4112.56410229, 4123.71794844, 4187.82051269,8.57
4125.51282024, 4128.20512793, 4129.87179460, 4216.41025634, 4130.76923050, 4327.43589758, 4403.84615420, 4356.53846175, 4351.53846175, 4131.66666639, 4123.46153819, 4124.87179460, 4130.51282024, 4188.58974345,8.57
4119.99999973, 4127.94871767, 4127.56410229, 4225.12820506, 4130.89743562, 4341.79487201, 4418.84615420, 4367.94871823, 4361.79487201, 4129.61538434, 4125.89743562, 4127.56410229, 4131.92307665, 4185.25641012,8.57
4123.46153819, 4125.64102537, 4125.89743562, 4213.58974352, 4133.46153819, 4334.10256431, 4403.46153881, 4345.00000021, 4341.15384637, 4128.97435870, 4123.71794844, 4115.25640998, 4124.87179460, 4185.89743576,8.57
4124.35897408, 4126.53846126, 4128.58974332, 4221.53846147, 4129.74358947, 4342.94871816, 4398.84615420, 4338.33333355, 4335.64102585, 4130.64102537, 4127.43589716, 4132.69230742, 4134.61538434, 4191.28205115,8.57
4122.17948691, 4128.58974332, 4123.84615357, 4242.56410257, 4129.35897408, 4366.79487208, 4425.89743625, 4380.00000028, 4369.23076951, 4130.76923050, 4127.17948691, 4130.76923050, 4138.33333313, 4188.97435884,8.57
4133.33333306, 4130.76923050, 4130.51282024, 4208.84615378, 4134.61538434, 4333.84615406, 4397.82051310, 4361.28205149, 4347.82051303, 4131.66666639, 4126.02564075, 4125.12820485, 4133.58974332, 4194.87179474,8.57
4123.33333306, 4124.87179460, 4128.07692280, 4181.66666653, 4129.87179460, 4298.33333341, 4352.94871816, 4301.92307707, 4304.74358989, 4131.28205101, 4124.48717921, 4129.87179460, 4132.05128178, 4193.33333320,8.57
4121.53846126, 4126.66666639, 4125.12820485, 4217.30769224, 4128.97435870, 4331.02564117, 4380.64102592, 4317.69230784, 4327.43589758, 4127.56410229, 4124.10256383, 4127.43589716, 4132.05128178, 4191.92307679,8.57
4126.53846126, 4129.35897408, 4125.25640998, 4229.10256404, 4128.20512793, 4357.43589765, 4413.71794907, 4361.28205149, 4359.61538483, 4128.07692280, 4128.84615357, 4133.07692280, 4131.53846126, 4194.48717935,8.57
4118.07692280, 4121.92307665, 4117.82051255, 4188.33333320, 4125.25640998, 4326.66666681, 4391.66666695, 4350.12820534, 4343.07692329, 4129.87179460, 4124.10256383, 4121.92307665, 4130.25640998, 4189.74358961,8.57
4123.97435870, 4123.20512793, 4124.35897408, 4172.56410243, 4129.48717921, 4300.25641040, 4375.76923105, 4329.10256425, 4331.66666681, 4127.69230742, 4122.43589716, 4122.17948691, 4137.17948697, 4196.79487166,8.57
4122.05128178, 4121.53846126, 4124.74358947, 4195.76923063, 4130.89743562, 4318.84615399, 4395.64102592, 4346.15384637, 4350.51282073, 4127.56410229, 4126.66666639, 4131.41025614, 4135.89743569, 4196.02564089,8.57
4120.12820485, 4121.66666639, 4121.66666639, 4191.15384602, 4132.17948691, 4322.30769245, 4383.71794900, 4334.87179508, 4325.12820527, 4128.07692280, 4119.61538434, 4119.99999973, 4127.82051255, 4187.43589730,8.57
4121.02564075, 4128.46153819, 4124.35897408, 4168.46153833, 4132.17948691, 4304.35897450, 4360.89743611, 4310.00000014, 4288.07692315, 4125.12820485, 4118.33333306, 4122.69230742, 4133.46153819, 4191.28205115,8.57
4114.99999973, 4123.46153819, 4120.38461511, 4173.58974345, 4131.15384588, 4309.48717963, 4373.97435926, 4321.53846168, 4308.97435912, 4125.51282024, 4121.79487152, 4117.56410229, 4131.79487152, 4188.20512807,8.57
4122.69230742, 4124.23076896, 4126.28205101, 4186.41025628, 4132.69230742, 4320.38461553, 4381.41025669, 4327.05128219, 4326.79487194, 4130.64102537, 4121.28205101, 4116.79487152, 4127.94871767, 4187.56410243,8.57
4120.51282024, 4127.69230742, 4123.07692280, 4193.71794858, 4129.87179460, 4321.02564117, 4383.58974387, 4330.51282066, 4321.66666681, 4129.87179460, 4122.94871767, 4128.07692280, 4132.69230742, 4189.48717935,8.57
4119.99999973, 4125.38461511, 4121.66666639, 4184.87179474, 4130.38461511, 4305.00000014, 4371.79487208, 4322.43589758, 4310.51282066, 4127.30769203, 4121.79487152, 4118.58974332, 4129.35897408, 4186.92307679,8.57
4127.69230742, 4126.41025614, 4132.82051255, 4175.12820499, 4130.64102537, 4301.53846168, 4354.74358996, 4294.61538469, 4294.87179495, 4129.48717921, 4121.79487152, 4122.69230742, 4128.84615357, 4188.58974345,8.57
4120.38461511, 4124.48717921, 4123.84615357, 4190.89743576, 4128.71794844, 4330.51282066, 4374.10256438, 4307.43589758, 4309.87179501, 4130.25640998, 4121.41025614, 4123.07692280, 4129.48717921, 4185.76923063,8.57
4125.12820485, 4124.61538434, 4123.07692280, 4186.53846140, 4133.84615357, 4323.84615399, 4380.38461567, 4337.69230790, 4335.38461560, 4130.12820485, 4122.94871767, 4120.64102537, 4128.46153819, 4188.07692294,8.57
4127.05128178, 4122.82051255, 4130.38461511, 4143.46153826, 4132.43589716, 4279.35897443, 4344.23076944, 4306.92307707, 4306.92307707, 4131.28205101, 4123.84615357, 4134.99999973, 4130.89743562, 4191.41025628,8.57
4124.99999973, 4124.99999973, 4128.33333306, 4135.51282031, 4129.35897408, 4285.38461546, 4342.69230790, 4288.97435905, 4281.02564110, 4129.23076896, 4118.97435870, 4127.43589716, 4130.89743562, 4189.10256397,8.57
4126.66666639, 4130.76923050, 4127.17948691, 4166.92307672, 4131.79487152, 4318.97435912, 4376.66666695, 4328.97435912, 4309.87179501, 4129.61538434, 4121.41025614, 4124.74358947, 4133.20512793, 4191.41025628,8.57
4117.82051255, 4123.84615357, 4121.92307665, 4151.15384595, 4132.30769203, 4291.79487187, 4356.41025662, 4309.10256425, 4295.00000007, 4131.41025614, 4122.43589716, 4128.33333306, 4132.17948691, 4188.33333320,8.57
4128.46153819, 4123.58974332, 4128.97435870, 4133.58974332, 4134.61538434, 4268.71794879, 4334.61538483, 4263.84615385, 4258.20512821, 4128.07692280, 4118.84615357, 4126.79487152, 4132.30769203, 4190.76923063,8.57
4130.12820485, 4125.25640998, 4128.58974332, 4173.07692294, 4129.48717921, 4310.51282066, 4372.17948746, 4296.92307700, 4295.89743597, 4125.38461511, 4121.28205101, 4133.71794844, 4135.38461518, 4194.23076910,8.57
4117.69230742, 4121.92307665, 4118.46153819, 4192.56410243, 4125.76923050, 4337.56410278, 4397.82051310, 4343.71794893, 4342.17948739, 4127.43589716, 4121.66666639, 4127.17948691, 4130.12820485, 4191.41025628,8.57
