AF3,F7,F3,FC5,T7,P7,O1,O2,P8,T8,FC6,F4,F8,AF4,Label
4117.05128178, 4118.71794844, 4118.07692280, 4095.25640991, 4120.38461511, 4103.58974332, 4103.20512793, 4086.66666632, 4081.41025607, 4126.41025614, 4126.41025614, 4118.46153819, 4127.56410229, 4190.51282038,8.57
4122.05128178, 4119.61538434, 4123.20512793, 4097.82051248, 4122.17948691, 4098.97435863, 4100.51282017, 4100.51282017, 4111.53846126, 4127.56410229, 4125.38461511, 4126.02564075, 4130.38461511, 4193.71794858,8.57
4118.07692280, 4123.20512793, 4119.35897408, 4101.02564068, 4122.17948691, 4088.71794837, 4109.23076896, 4123.58974332, 4125.89743562, 4124.23076896, 4121.66666639, 4121.15384588, 4131.41025614, 4189.74358961,8.57
4119.35897408, 4126.02564075, 4121.41025614, 4100.51282017, 4122.30769203, 4075.12820478, 4112.56410229, 4120.89743562, 4107.56410229, 4125.89743562, 4121.66666639, 4119.74358947, 4131.41025614, 4189.61538448,8.57
4117.43589716, 4121.66666639, 4122.82051255, 4095.64102530, 4124.10256383, 4067.94871754, 4095.89743555, 4098.07692273, 4091.02564068, 4128.33333306, 4126.41025614, 4123.07692280, 4129.61538434, 4191.41025628,8.57
4114.61538434, 4121.66666639, 4120.51282024, 4098.33333299, 4123.33333306, 4071.53846119, 4079.99999966, 4082.17948684, 4089.61538427, 4126.92307665, 4127.69230742, 4119.74358947, 4128.97435870, 4191.66666653,8.57
4124.23076896, 4128.20512793, 4123.20512793, 4104.23076896, 4122.43589716, 4076.92307658, 4080.12820478, 4069.74358940, 4080.25640991, 4127.05128178, 4126.28205101, 4122.17948691, 4131.28205101, 4191.41025628,8.57
4117.05128178, 4120.51282024, 4117.94871767, 4093.58974325, 4120.51282024, 4077.05128171, 4082.30769196, 4064.74358933, 4070.89743555, 4126.92307665, 4122.17948691, 4115.76923050, 4129.48717921, 4184.99999986,8.57
4114.48717921, 4119.99999973, 4121.53846126, 4097.69230735, 4120.38461511, 4092.94871761, 4096.02564068, 4086.15384581, 4095.51282017, 4127.43589716, 4121.92307665, 4117.82051255, 4129.23076896, 4189.35897422,8.57
4119.74358947, 4127.94871767, 4124.23076896, 4112.56410229, 4121.92307665, 4111.66666639, 4117.69230742, 4108.46153819, 4121.15384588, 4129.87179460, 4123.07692280, 4122.05128178, 4129.23076896, 4194.61538448,8.57
4117.05128178, 4122.05128178, 4120.38461511, 4098.84615350, 4120.25640998, 4091.53846119, 4108.97435870, 4100.64102530, 4092.17948684, 4128.33333306, 4123.20512793, 4115.12820485, 4128.58974332, 4186.53846140,8.57
4122.56410229, 4118.97435870, 4123.58974332, 4082.82051248, 4122.82051255, 4061.15384574, 4082.30769196, 4087.30769196, 4060.51282010, 4126.02564075, 4126.15384588, 4119.61538434, 4132.30769203, 4185.89743576,8.57
4118.71794844, 4120.51282024, 4119.35897408, 4086.02564068, 4124.99999973, 4070.89743555, 4081.66666632, 4090.38461504, 4076.79487145, 4128.33333306, 4124.23076896, 4118.33333306, 4130.12820485, 4188.20512807,8.57
4117.43589716, 4123.58974332, 4123.46153819, 4090.12820478, 4121.41025614, 4093.97435863, 4094.48717914, 4095.64102530, 4097.17948684, 4129.74358947, 4125.51282024, 4119.61538434, 4128.20512793, 4189.23076910,8.57
4124.35897408, 4125.12820485, 4129.61538434, 4085.89743555, 4119.23076896, 4091.02564068, 4097.05128171, 4100.64102530, 4097.30769196, 4127.17948691, 4128.71794844, 4124.74358947, 4131.92307665, 4191.66666653,8.57
4118.71794844, 4120.38461511, 4124.87179460, 4082.30769196, 4119.48717921, 4085.76923043, 4096.15384581, 4105.12820485, 4102.82051255, 4125.89743562, 4125.25640998, 4118.46153819, 4130.64102537, 4189.23076910,8.57
4123.33333306, 4124.10256383, 4128.97435870, 4083.71794837, 4121.15384588, 4089.61538427, 4080.25640991, 4084.99999966, 4102.43589709, 4128.07692280, 4126.79487152, 4123.97435870, 4130.12820485, 4189.87179474,8.57
4124.99999973, 4123.84615357, 4125.12820485, 4078.84615350, 4122.17948691, 4080.64102530, 4059.10256369, 4059.23076882, 4080.89743555, 4127.43589716, 4126.66666639, 4124.48717921, 4130.64102537, 4190.38461525,8.57
4123.46153819, 4121.79487152, 4121.41025614, 4077.82051248, 4122.05128178, 4075.51282017, 4067.94871754, 4068.46153805, 4063.46153805, 4126.02564075, 4123.58974332, 4121.02564075, 4128.84615357, 4191.02564089,8.57
4126.66666639, 4125.51282024, 4127.05128178, 4084.61538427, 4123.58974332, 4088.84615350, 4086.92307658, 4087.94871761, 4065.64102523, 4127.30769203, 4126.66666639, 4125.38461511, 4130.76923050, 4191.41025628,8.57
4118.97435870, 4121.66666639, 4122.30769203, 4086.15384581, 4123.84615357, 4092.30769196, 4083.07692273, 4081.79487145, 4072.56410222, 4127.05128178, 4127.05128178, 4119.99999973, 4131.28205101, 4189.87179474,8.57
4123.07692280, 4125.12820485, 4124.23076896, 4088.46153812, 4123.84615357, 4082.69230735, 4072.56410222, 4072.43589709, 4080.64102530, 4125.64102537, 4126.66666639, 4125.76923050, 4132.30769203, 4194.23076910,8.57
4123.58974332, 4124.23076896, 4125.12820485, 4089.74358940, 4123.20512793, 4081.28205094, 4072.94871761, 4079.23076889, 4083.20512786, 4127.43589716, 4125.38461511, 4129.10256383, 4132.05128178, 4193.71794858,8.57
4120.38461511, 4118.33333306, 4119.74358947, 4088.20512786, 4120.76923050, 4087.05128171, 4072.05128171, 4078.97435863, 4069.48717907, 4129.10256383, 4123.71794844, 4124.99999973, 4130.51282024, 4192.69230756,8.57
4128.33333306, 4125.76923050, 4122.30769203, 4089.35897402, 4121.28205101, 4096.15384581, 4074.10256376, 4071.53846119, 4071.53846119, 4127.82051255, 4127.43589716, 4127.43589716, 4131.53846126, 4192.56410243,8.57
4120.51282024, 4125.89743562, 4119.10256383, 4085.76923043, 4120.89743562, 4102.56410229, 4076.66666632, 4070.89743555, 4089.87179453, 4127.30769203, 4126.02564075, 4120.38461511, 4129.74358947, 4188.71794858,8.57
4121.02564075, 4121.66666639, 4120.38461511, 4081.02564068, 4119.87179460, 4097.43589709, 4070.76923043, 4074.61538427, 4088.46153812, 4127.56410229, 4123.58974332, 4123.97435870, 4132.05128178, 4191.15384602,8.57
4124.10256383, 4121.53846126, 4120.89743562, 4078.33333299, 4121.41025614, 4090.25640991, 4064.99999959, 4073.84615350, 4076.28205094, 4125.76923050, 4126.41025614, 4126.53846126, 4132.30769203, 4189.35897422,8.57
4117.43589716, 4123.46153819, 4117.43589716, 4077.30769196, 4122.56410229, 4089.23076889, 4066.15384574, 4069.48717907, 4071.92307658, 4125.51282024, 4127.30769203, 4121.92307665, 4127.94871767, 4189.35897422,8.57
4119.35897408, 4122.69230742, 4119.87179460, 4083.20512786, 4122.17948691, 4096.15384581, 4078.07692273, 4080.38461504, 4082.94871761, 4126.79487152, 4126.53846126, 4127.30769203, 4132.05128178, 4193.58974345,8.57
4117.05128178, 4117.94871767, 4117.30769203, 4088.97435863, 4121.41025614, 4107.82051255, 4088.20512786, 4094.35897402, 4098.33333299, 4126.53846126, 4125.25640998, 4123.58974332, 4133.46153819, 4187.56410243,8.57
4119.48717921, 4123.58974332, 4122.30769203, 4089.74358940, 4121.79487152, 4112.43589716, 4084.35897402, 4088.58974325, 4093.58974325, 4127.17948691, 4128.20512793, 4126.79487152, 4129.35897408, 4188.58974345,8.57
4118.46153819, 4122.56410229, 4124.61538434, 4083.07692273, 4121.79487152, 4111.15384588, 4076.79487145, 4077.82051248, 4083.33333299, 4128.71794844, 4128.20512793, 4127.69230742, 4126.41025614, 4193.84615371,8.57
4114.99999973, 4116.41025614, 4118.97435870, 4079.87179453, 4121.92307665, 4120.51282024, 4080.64102530, 4081.79487145, 4093.71794837, 4127.17948691, 4123.33333306, 4117.30769203, 4126.28205101, 4191.15384602,8.57
4122.43589716, 4122.17948691, 4121.15384588, 4085.89743555, 4123.84615357, 4132.82051255, 4091.15384581, 4094.99999966, 4098.58974325, 4127.05128178, 4123.33333306, 4122.05128178, 4127.69230742, 4189.48717935,8.57
4118.71794844, 4121.28205101, 4117.82051255, 4086.41025607, 4120.89743562, 4129.87179460, 4098.07692273, 4103.97435870, 4091.66666632, 4127.69230742, 4122.69230742, 4121.02564075, 4126.41025614, 4185.12820499,8.57
4119.35897408, 4119.48717921, 4121.92307665, 4084.35897402, 4118.84615357, 4113.20512793, 4092.17948684, 4098.20512786, 4100.38461504, 4125.64102537, 4123.71794844, 4119.87179460, 4128.97435870, 4186.53846140,8.57
4121.28205101, 4121.15384588, 4125.51282024, 4077.82051248, 4122.17948691, 4103.20512793, 4068.07692266, 4071.15384581, 4089.74358940, 4125.25640998, 4123.46153819, 4125.76923050, 4130.64102537, 4191.41025628,8.57
4117.05128178, 4117.43589716, 4118.33333306, 4069.61538420, 4122.69230742, 4109.35897408, 4058.58974318, 4056.53846113, 4068.58974318, 4127.30769203, 4120.51282024, 4120.51282024, 4125.25640998, 4189.61538448,8.57
4124.74358947, 4122.56410229, 4123.84615357, 4074.74358940, 4121.53846126, 4111.02564075, 4072.69230735, 4072.17948684, 4089.61538427, 4127.94871767, 4126.41025614, 4123.58974332, 4126.15384588, 4191.92307679,8.57
4122.56410229, 4123.71794844, 4124.99999973, 4076.66666632, 4120.38461511, 4101.02564068, 4066.79487138, 4070.38461504, 4086.92307658, 4127.69230742, 4128.71794844, 4123.46153819, 4129.23076896, 4191.28205115,8.57
4119.35897408, 4120.12820485, 4123.84615357, 4069.99999966, 4120.38461511, 4101.66666632, 4046.28205087, 4040.12820472, 4037.69230728, 4128.20512793, 4125.89743562, 4122.69230742, 4129.61538434, 4189.99999986,8.57
4123.58974332, 4122.94871767, 4126.02564075, 4070.38461504, 4122.05128178, 4124.99999973, 4054.61538420, 4037.69230728, 4045.76923036, 4127.30769203, 4126.92307665, 4126.15384588, 4129.61538434, 4191.66666653,8.57
4118.97435870, 4124.74358947, 4121.41025614, 4077.30769196, 4121.28205101, 4141.66666646, 4077.69230735, 4071.15384581, 4097.05128171, 4124.74358947, 4126.28205101, 4118.58974332, 4128.58974332, 4191.53846140,8.57
4123.07692280, 4126.53846126, 4126.02564075, 4083.71794837, 4123.20512793, 4127.69230742, 4071.92307658, 4073.97435863, 4086.15384581, 4125.51282024, 4125.76923050, 4125.51282024, 4130.51282024, 4193.71794858,8.57
4122.30769203, 4119.35897408, 4124.87179460, 4077.82051248, 4123.20512793, 4104.48717921, 4049.99999959, 4046.66666625, 4049.35897395, 4128.33333306, 4124.87179460, 4127.94871767, 4129.74358947, 4191.15384602,8.57
4120.51282024, 4117.17948691, 4122.17948691, 4067.17948677, 4119.48717921, 4102.82051255, 4047.94871754, 4048.33333292, 4061.66666625, 4127.69230742, 4125.25640998, 4122.69230742, 4127.43589716, 4191.15384602,8.57
4124.99999973, 4123.46153819, 4126.02564075, 4069.35897395, 4120.89743562, 4108.33333306, 4053.20512779, 4062.94871754, 4073.33333299, 4126.79487152, 4128.33333306, 4127.17948691, 4129.10256383, 4193.20512807,8.57
4117.56410229, 4117.17948691, 4121.28205101, 4075.25640991, 4122.82051255, 4107.17948691, 4059.35897395, 4069.48717907, 4078.07692273, 4128.97435870, 4124.87179460, 4124.74358947, 4129.61538434, 4192.43589730,8.57
4122.05128178, 4121.15384588, 4123.07692280, 4074.87179453, 4123.84615357, 4126.02564075, 4074.48717914, 4082.17948684, 4090.38461504, 4128.46153819, 4122.56410229, 4126.15384588, 4129.61538434, 4195.89743576,8.57
4122.43589716, 4126.28205101, 4122.56410229, 4067.43589702, 4123.97435870, 4144.23076903, 4076.28205094, 4083.07692273, 4086.79487145, 4124.87179460, 4125.25640998, 4123.58974332, 4129.35897408, 4192.94871781,8.57
4118.71794844, 4120.12820485, 4120.76923050, 4063.58974318, 4121.79487152, 4121.41025614, 4058.46153805, 4067.69230728, 4092.05128171, 4126.02564075, 4127.30769203, 4124.87179460, 4129.35897408, 4191.41025628,8.57
4126.28205101, 4122.69230742, 4125.38461511, 4068.58974318, 4121.92307665, 4085.76923043, 4050.51282010, 4068.46153805, 4098.58974325, 4128.97435870, 4127.69230742, 4130.64102537, 4130.38461511, 4192.82051269,8.57
4120.12820485, 4122.56410229, 4118.71794844, 4068.71794830, 4121.15384588, 4094.61538427, 4066.15384574, 4090.38461504, 4093.20512786, 4127.05128178, 4124.61538434, 4119.61538434, 4129.99999973, 4189.23076910,8.57
4121.41025614, 4121.02564075, 4120.12820485, 4068.20512779, 4119.61538434, 4127.69230742, 4078.58974325, 4099.35897402, 4097.94871761, 4124.99999973, 4125.38461511, 4124.10256383, 4133.20512793, 4193.07692294,8.57
4121.92307665, 4122.94871767, 4124.99999973, 4068.20512779, 4120.64102537, 4134.35897408, 4083.58974325, 4096.15384581, 4106.02564075, 4125.89743562, 4125.89743562, 4126.53846126, 4133.84615357, 4191.79487166,8.57
4115.12820485, 4119.99999973, 4121.41025614, 4063.58974318, 4120.25640998, 4128.84615357, 4092.94871761, 4106.66666639, 4113.58974332, 4126.92307665, 4125.12820485, 4118.46153819, 4129.87179460, 4186.92307679,8.57
4123.46153819, 4121.41025614, 4123.97435870, 4063.97435856, 4120.51282024, 4115.76923050, 4086.41025607, 4113.07692280, 4120.12820485, 4125.76923050, 4126.92307665, 4125.25640998, 4130.64102537, 4189.48717935,8.57
4119.87179460, 4122.05128178, 4119.74358947, 4068.33333292, 4121.15384588, 4112.94871767, 4083.46153812, 4105.12820485, 4115.25640998, 4125.38461511, 4126.92307665, 4120.25640998, 4129.48717921, 4188.58974345,8.57
4117.82051255, 4122.82051255, 4118.20512793, 4072.82051248, 4121.79487152, 4136.66666646, 4099.10256376, 4099.10256376, 4099.87179453, 4126.15384588, 4129.74358947, 4120.25640998, 4129.10256383, 4191.41025628,8.57
4123.84615357, 4122.82051255, 4120.51282024, 4070.25640991, 4122.82051255, 4133.20512793, 4099.10256376, 4099.61538427, 4084.10256376, 4126.66666639, 4124.99999973, 4126.41025614, 4129.23076896, 4193.20512807,8.57
4116.28205101, 4115.89743562, 4115.89743562, 4061.28205087, 4121.41025614, 4100.51282017, 4080.76923043, 4098.71794837, 4085.89743555, 4127.17948691, 4118.58974332, 4120.25640998, 4129.74358947, 4189.48717935,8.57
4120.25640998, 4122.56410229, 4122.30769203, 4061.79487138, 4122.82051255, 4108.46153819, 4074.23076889, 4087.17948684, 4103.07692280, 4126.41025614, 4121.79487152, 4121.41025614, 4133.71794844, 4191.41025628,8.57
4121.79487152, 4125.76923050, 4122.30769203, 4060.12820472, 4124.61538434, 4134.10256383, 4075.12820478, 4072.05128171, 4089.61538427, 4126.66666639, 4121.02564075, 4120.25640998, 4130.38461511, 4193.46153833,8.57
4117.82051255, 4119.87179460, 4119.48717921, 4059.87179446, 4122.56410229, 4132.82051255, 4077.30769196, 4072.17948684, 4062.05128164, 4128.33333306, 4121.28205101, 4121.15384588, 4128.97435870, 4194.74358961,8.57
4124.23076896, 4124.87179460, 4125.51282024, 4071.02564068, 4121.15384588, 4145.25641005, 4088.33333299, 4084.10256376, 4078.20512786, 4129.23076896, 4122.94871767, 4121.41025614, 4131.28205101, 4189.61538448,8.57
4119.48717921, 4122.69230742, 4122.69230742, 4073.20512786, 4119.48717921, 4160.76923056, 4087.56410222, 4086.92307658, 4098.33333299, 4128.33333306, 4122.05128178, 4113.20512793, 4128.71794844, 4183.97435884,8.57
4121.53846126, 4122.43589716, 4127.30769203, 4073.84615350, 4120.38461511, 4156.15384595, 4081.02564068, 4082.17948684, 4084.35897402, 4127.43589716, 4124.35897408, 4120.89743562, 4128.20512793, 4190.25641012,8.57
4123.20512793, 4126.41025614, 4125.76923050, 4075.64102530, 4121.41025614, 4163.58974339, 4083.84615350, 4077.43589709, 4083.20512786, 4126.53846126, 4120.64102537, 4122.82051255, 4128.58974332, 4191.66666653,8.57
4115.64102537, 4122.94871767, 4117.05128178, 4068.71794830, 4120.64102537, 4159.99999980, 4065.76923036, 4061.79487138, 4081.66666632, 4126.02564075, 4118.97435870, 4117.69230742, 4130.51282024, 4189.61538448,8.57
4124.74358947, 4125.64102537, 4125.38461511, 4069.61538420, 4124.48717921, 4143.58974339, 4044.48717907, 4057.30769189, 4074.23076889, 4128.84615357, 4122.05128178, 4123.58974332, 4132.69230742, 4188.46153833,8.57
4122.82051255, 4121.41025614, 4124.99999973, 4074.87179453, 4122.94871767, 4152.94871774, 4061.66666625, 4078.46153812, 4089.74358940, 4129.87179460, 4120.12820485, 4123.33333306, 4131.41025614, 4186.02564089,8.57
4121.15384588, 4120.51282024, 4123.58974332, 4079.23076889, 4119.35897408, 4152.05128185, 4083.46153812, 4087.43589709, 4086.02564068, 4127.69230742, 4119.23076896, 4125.64102537, 4131.92307665, 4190.51282038,8.57
4124.23076896, 4125.64102537, 4124.99999973, 4080.38461504, 4121.79487152, 4122.82051255, 4086.92307658, 4085.89743555, 4070.12820478, 4127.30769203, 4118.97435870, 4122.56410229, 4131.15384588, 4189.35897422,8.57
4116.41025614, 4119.23076896, 4121.28205101, 4075.51282017, 4121.92307665, 4117.30769203, 4094.74358940, 4100.51282017, 4097.69230735, 4129.74358947, 4120.38461511, 4120.64102537, 4131.66666639, 4187.94871781,8.57
4124.87179460, 4123.33333306, 4125.25640998, 4073.07692273, 4123.71794844, 4121.15384588, 4086.15384581, 4094.74358940, 4119.35897408, 4131.79487152, 4121.02564075, 4128.46153819, 4133.07692280, 4191.79487166,8.57
4124.23076896, 4125.64102537, 4119.74358947, 4068.97435856, 4123.58974332, 4104.23076896, 4070.12820478, 4075.89743555, 4094.35897402, 4130.51282024, 4116.53846126, 4123.58974332, 4129.74358947, 4192.69230756,8.57
4122.82051255, 4122.69230742, 4121.79487152, 4068.33333292, 4120.76923050, 4090.12820478, 4079.23076889, 4086.28205094, 4091.02564068, 4128.97435870, 4118.84615357, 4125.76923050, 4130.64102537, 4196.28205115,8.57
4127.43589716, 4126.02564075, 4128.07692280, 4077.82051248, 4123.58974332, 4096.41025607, 4085.51282017, 4095.89743555, 4127.43589716, 4128.33333306, 4121.15384588, 4128.84615357, 4130.64102537, 4192.43589730,8.57
4116.92307665, 4119.87179460, 4117.69230742, 4084.10256376, 4123.46153819, 4107.82051255, 4078.07692273, 4088.07692273, 4117.30769203, 4128.46153819, 4120.38461511, 4124.87179460, 4127.82051255, 4187.82051269,8.57
4122.94871767, 4123.33333306, 4122.05128178, 4084.35897402, 4122.43589716, 4098.84615350, 4077.94871761, 4080.38461504, 4062.69230728, 4127.82051255, 4121.53846126, 4128.71794844, 4128.97435870, 4192.69230756,8.57
4122.30769203, 4124.61538434, 4125.38461511, 4072.56410222, 4121.53846126, 4089.48717914, 4075.89743555, 4067.56410215, 4046.53846113, 4127.43589716, 4118.84615357, 4122.82051255, 4129.10256383, 4193.33333320,8.57
4118.71794844, 4120.64102537, 4121.92307665, 4067.94871754, 4119.48717921, 4099.48717914, 4071.02564068, 4071.02564068, 4090.12820478, 4129.48717921, 4120.64102537, 4123.46153819, 4130.76923050, 4193.84615371,8.57
4129.99999973, 4129.10256383, 4125.51282024, 4080.64102530, 4124.10256383, 4098.97435863, 4077.56410222, 4093.97435863, 4119.87179460, 4130.89743562, 4122.05128178, 4128.46153819, 4129.74358947, 4192.82051269,8.57
4116.41025614, 4121.02564075, 4117.82051255, 4080.25640991, 4124.61538434, 4082.17948684, 4082.05128171, 4090.38461504, 4085.51282017, 4129.23076896, 4119.99999973, 4120.51282024, 4127.30769203, 4188.20512807,8.57
4117.05128178, 4117.69230742, 4120.64102537, 4077.43589709, 4122.56410229, 4075.12820478, 4073.84615350, 4064.99999959, 4047.56410215, 4128.84615357, 4122.82051255, 4123.97435870, 4129.87179460, 4189.99999986,8.57
4126.79487152, 4124.87179460, 4122.69230742, 4078.71794837, 4121.53846126, 4068.07692266, 4059.23076882, 4054.87179446, 4053.84615343, 4128.58974332, 4121.41025614, 4122.17948691, 4128.84615357, 4189.10256397,8.57
4115.89743562, 4121.28205101, 4116.92307665, 4078.33333299, 4118.71794844, 4068.20512779, 4060.12820472, 4070.89743555, 4084.87179453, 4127.30769203, 4117.82051255, 4120.38461511, 4128.58974332, 4189.74358961,8.57
4119.74358947, 4125.51282024, 4123.46153819, 4083.33333299, 4122.94871767, 4088.84615350, 4076.53846119, 4090.38461504, 4098.20512786, 4129.35897408, 4120.38461511, 4128.84615357, 4131.02564075, 4193.07692294,8.57
4115.12820485, 4122.82051255, 4116.15384588, 4082.82051248, 4123.71794844, 4089.61538427, 4075.25640991, 4082.69230735, 4084.99999966, 4129.74358947, 4121.15384588, 4120.76923050, 4128.07692280, 4187.30769217,8.57
4117.30769203, 4123.33333306, 4117.05128178, 4086.02564068, 4120.89743562, 4073.20512786, 4059.74358933, 4066.53846113, 4078.84615350, 4127.56410229, 4119.10256383, 4120.12820485, 4127.30769203, 4184.87179474,8.57
4124.74358947, 4126.28205101, 4123.20512793, 4087.69230735, 4121.79487152, 4080.51282017, 4069.23076882, 4080.76923043, 4095.25640991, 4128.58974332, 4119.99999973, 4121.92307665, 4128.71794844, 4186.92307679,8.57
4114.10256383, 4116.41025614, 4115.51282024, 4079.48717914, 4117.43589716, 4080.64102530, 4082.82051248, 4101.28205094, 4104.10256383, 4129.10256383, 4122.82051255, 4121.28205101, 4129.74358947, 4188.58974345,8.57
4122.69230742, 4122.17948691, 4124.10256383, 4082.94871761, 4119.99999973, 4052.30769189, 4058.20512779, 4077.82051248, 4076.02564068, 4126.66666639, 4122.69230742, 4128.46153819, 4130.51282024, 4190.38461525,8.57
4120.89743562, 4122.56410229, 4122.43589716, 4087.82051248, 4123.71794844, 4047.94871754, 4041.28205087, 4050.89743548, 4055.51282010, 4126.79487152, 4120.89743562, 4118.97435870, 4127.94871767, 4186.41025628,8.57
4117.69230742, 4119.61538434, 4117.56410229, 4087.69230735, 4119.99999973, 4058.07692266, 4056.28205087, 4062.82051241, 4064.74358933, 4129.35897408, 4125.25640998, 4118.33333306, 4126.79487152, 4189.10256397,8.57
4124.35897408, 4126.92307665, 4124.99999973, 4092.30769196, 4121.15384588, 4047.56410215, 4063.33333292, 4079.99999966, 4072.30769196, 4128.97435870, 4124.87179460, 4124.99999973, 4125.76923050, 4192.30769217,8.57
4113.84615357, 4123.07692280, 4124.10256383, 4089.61538427, 4120.64102537, 4046.79487138, 4066.41025600, 4086.28205094, 4081.66666632, 4128.20512793, 4120.51282024, 4121.28205101, 4126.15384588, 4189.23076910,8.57
4120.38461511, 4127.69230742, 4128.71794844, 4090.25640991, 4120.76923050, 4048.46153805, 4073.97435863, 4091.02564068, 4097.82051248, 4129.61538434, 4123.33333306, 4125.51282024, 4130.25640998, 4189.61538448,8.57
4122.82051255, 4127.56410229, 4122.30769203, 4094.74358940, 4120.38461511, 4036.79487131, 4072.30769196, 4087.94871761, 4091.66666632, 4129.35897408, 4124.48717921, 4122.82051255, 4128.84615357, 4188.33333320,8.57
4121.02564075, 4121.15384588, 4119.74358947, 4099.87179453, 4117.82051255, 4040.25640984, 4070.64102530, 4076.92307658, 4068.97435856, 4127.30769203, 4123.84615357, 4125.89743562, 4127.94871767, 4191.15384602,8.57
4126.79487152, 4126.79487152, 4128.97435870, 4110.64102537, 4123.84615357, 4054.10256369, 4082.05128171, 4089.61538427, 4077.94871761, 4126.66666639, 4122.69230742, 4129.74358947, 4129.74358947, 4191.15384602,8.57
4114.99999973, 4123.07692280, 4118.97435870, 4103.07692280, 4123.97435870, 4052.30769189, 4087.69230735, 4110.12820485, 4098.97435863, 4127.56410229, 4122.43589716, 4122.43589716, 4129.74358947, 4185.76923063,8.57
4124.35897408, 4124.87179460, 4119.99999973, 4087.17948684, 4120.25640998, 4055.25640984, 4072.56410222, 4086.15384581, 4095.38461504, 4128.20512793, 4125.51282024, 4128.97435870, 4129.74358947, 4190.89743576,8.57
4127.69230742, 4125.76923050, 4122.56410229, 4086.92307658, 4119.48717921, 4067.17948677, 4061.02564061, 4059.48717907, 4086.02564068, 4126.15384588, 4124.48717921, 4129.23076896, 4127.30769203, 4194.35897422,8.57
4118.07692280, 4120.89743562, 4120.12820485, 4099.87179453, 4118.07692280, 4049.99999959, 4066.02564061, 4074.61538427, 4080.64102530, 4125.76923050, 4124.74358947, 4128.07692280, 4127.05128178, 4193.84615371,8.57
4129.74358947, 4127.69230742, 4128.20512793, 4111.66666639, 4122.43589716, 4031.79487131, 4080.51282017, 4097.56410222, 4082.56410222, 4127.94871767, 4125.76923050, 4133.20512793, 4128.07692280, 4192.17948704,8.57
4120.89743562, 4121.66666639, 4121.92307665, 4109.35897408, 4121.66666639, 4058.20512779, 4100.12820478, 4112.30769203, 4107.69230742, 4127.30769203, 4124.99999973, 4128.33333306, 4126.53846126, 4190.38461525,8.57
4118.07692280, 4122.69230742, 4120.12820485, 4107.05128178, 4120.64102537, 4068.97435856, 4098.20512786, 4113.20512793, 4108.71794844, 4124.87179460, 4124.35897408, 4131.02564075, 4127.69230742, 4194.61538448,8.57
4122.94871767, 4129.61538434, 4120.12820485, 4103.07692280, 4123.58974332, 4036.15384567, 4079.87179453, 4095.38461504, 4083.58974325, 4126.66666639, 4119.10256383, 4128.46153819, 4128.33333306, 4192.30769217,8.57
4115.89743562, 4121.92307665, 4115.38461511, 4101.79487145, 4121.41025614, 4035.12820465, 4084.87179453, 4097.05128171, 4110.64102537, 4128.84615357, 4121.53846126, 4124.74358947, 4129.99999973, 4191.02564089,8.57
4126.53846126, 4124.61538434, 4123.84615357, 4113.97435870, 4123.71794844, 4056.66666625, 4097.05128171, 4115.64102537, 4129.61538434, 4128.46153819, 4128.46153819, 4130.12820485, 4131.15384588, 4195.12820499,8.57
4121.79487152, 4121.92307665, 4118.97435870, 4117.17948691, 4123.33333306, 4040.64102523, 4085.12820478, 4107.94871767, 4091.66666632, 4128.20512793, 4123.84615357, 4124.35897408, 4129.10256383, 4193.33333320,8.57
4118.71794844, 4120.38461511, 4118.84615357, 4114.48717921, 4120.12820485, 4031.53846106, 4081.41025607, 4094.61538427, 4087.30769196, 4127.05128178, 4121.15384588, 4127.05128178, 4129.35897408, 4192.43589730,8.57
4123.07692280, 4124.99999973, 4123.58974332, 4114.87179460, 4122.56410229, 4046.66666625, 4095.25640991, 4100.51282017, 4113.07692280, 4127.17948691, 4123.97435870, 4125.89743562, 4127.43589716, 4189.48717935,8.57
4113.58974332, 4119.87179460, 4116.28205101, 4116.92307665, 4121.53846126, 4047.94871754, 4094.87179453, 4103.07692280, 4105.25640998, 4129.23076896, 4124.23076896, 4117.17948691, 4124.61538434, 4189.23076910,8.57
4120.64102537, 4124.23076896, 4123.58974332, 4125.51282024, 4120.51282024, 4042.43589702, 4087.94871761, 4095.38461504, 4087.94871761, 4129.48717921, 4123.97435870, 4124.23076896, 4126.53846126, 4192.30769217,8.57
4117.17948691, 4121.28205101, 4122.43589716, 4121.53846126, 4120.25640998, 4040.25640984, 4092.05128171, 4094.35897402, 4094.74358940, 4129.87179460, 4122.94871767, 4123.20512793, 4127.17948691, 4186.02564089,8.57
4113.46153819, 4119.48717921, 4117.56410229, 4116.28205101, 4123.46153819, 4032.43589695, 4092.43589709, 4098.58974325, 4095.25640991, 4129.87179460, 4121.66666639, 4122.05128178, 4129.48717921, 4187.30769217,8.57
4121.28205101, 4128.20512793, 4121.41025614, 4122.30769203, 4125.76923050, 4031.41025593, 4082.56410222, 4092.69230735, 4094.61538427, 4127.69230742, 4120.64102537, 4122.56410229, 4130.51282024, 4193.07692294,8.57
4115.76923050, 4122.43589716, 4118.71794844, 4123.20512793, 4118.97435870, 4047.82051241, 4094.35897402, 4103.84615357, 4118.71794844, 4127.17948691, 4122.30769203, 4120.38461511, 4127.17948691, 4189.87179474,8.57
4123.07692280, 4123.07692280, 4123.20512793, 4123.07692280, 4118.97435870, 4049.74358933, 4107.94871767, 4121.28205101, 4116.02564075, 4130.12820485, 4126.02564075, 4128.97435870, 4127.82051255, 4186.92307679,8.57
4120.12820485, 4123.97435870, 4119.74358947, 4115.64102537, 4121.79487152, 4034.48717900, 4084.99999966, 4096.15384581, 4070.89743555, 4131.28205101, 4123.97435870, 4125.38461511, 4130.64102537, 4185.76923063,8.57
4118.46153819, 4123.46153819, 4121.15384588, 4108.97435870, 4120.76923050, 4037.56410215, 4071.53846119, 4070.12820478, 4063.07692266, 4129.23076896, 4121.53846126, 4124.10256383, 4131.66666639, 4188.97435884,8.57
4126.66666639, 4126.41025614, 4129.35897408, 4113.07692280, 4122.43589716, 4047.82051241, 4091.41025607, 4089.23076889, 4094.35897402, 4128.20512793, 4123.46153819, 4125.51282024, 4130.25640998, 4189.87179474,8.57
4115.51282024, 4118.84615357, 4121.92307665, 4107.30769203, 4121.53846126, 4044.48717907, 4095.76923043, 4096.79487145, 4084.35897402, 4129.61538434, 4123.58974332, 4121.66666639, 4128.46153819, 4188.46153833,8.57
4121.79487152, 4124.35897408, 4124.74358947, 4103.46153819, 4122.05128178, 4039.48717907, 4081.15384581, 4079.10256376, 4062.05128164, 4128.20512793, 4122.05128178, 4127.43589716, 4128.33333306, 4188.46153833,8.57
4126.28205101, 4127.43589716, 4123.07692280, 4107.43589716, 4121.41025614, 4046.53846113, 4085.38461504, 4087.30769196, 4081.92307658, 4124.99999973, 4120.51282024, 4123.33333306, 4126.66666639, 4183.20512807,8.57
4121.53846126, 4123.33333306, 4121.92307665, 4103.20512793, 4119.61538434, 4044.23076882, 4088.97435863, 4092.17948684, 4078.46153812, 4127.30769203, 4123.71794844, 4124.10256383, 4130.89743562, 4188.07692294,8.57
4127.43589716, 4130.76923050, 4130.51282024, 4095.89743555, 4123.97435870, 4031.92307644, 4081.15384581, 4073.97435863, 4043.84615343, 4129.10256383, 4124.10256383, 4127.82051255, 4132.56410229, 4192.82051269,8.57
4120.38461511, 4125.38461511, 4121.02564075, 4095.12820478, 4122.82051255, 4033.58974311, 4086.28205094, 4078.97435863, 4050.89743548, 4125.25640998, 4120.64102537, 4118.97435870, 4128.07692280, 4188.07692294,8.57
4122.94871767, 4122.05128178, 4122.30769203, 4085.64102530, 4121.66666639, 4022.94871747, 4076.02564068, 4075.76923043, 4049.48717907, 4127.94871767, 4123.58974332, 4126.66666639, 4128.71794844, 4192.82051269,8.57
4114.35897408, 4118.07692280, 4120.89743562, 4088.71794837, 4118.20512793, 4021.28205080, 4083.58974325, 4098.97435863, 4061.66666625, 4128.97435870, 4119.74358947, 4122.94871767, 4129.74358947, 4189.74358961,8.57
4123.71794844, 4125.25640998, 4121.53846126, 4094.87179453, 4118.33333306, 4022.69230721, 4100.12820478, 4107.56410229, 4073.71794837, 4126.92307665, 4120.25640998, 4130.38461511, 4133.33333306, 4189.48717935,8.57
4121.66666639, 4121.28205101, 4113.84615357, 4091.41025607, 4121.15384588, 4018.07692259, 4086.15384581, 4093.07692273, 4069.74358940, 4127.17948691, 4119.87179460, 4124.10256383, 4129.48717921, 4188.97435884,8.57
4120.25640998, 4120.12820485, 4116.79487152, 4096.66666632, 4122.56410229, 3994.74358919, 4075.64102530, 4091.28205094, 4077.05128171, 4130.38461511, 4119.23076896, 4122.69230742, 4127.82051255, 4190.12820499,8.57
4121.66666639, 4127.43589716, 4119.99999973, 4096.79487145, 4120.76923050, 3929.74358905, 4089.87179453, 4097.30769196, 4090.89743555, 4128.46153819, 4121.15384588, 4124.87179460, 4130.51282024, 4187.43589730,8.57
4115.51282024, 4124.35897408, 4114.61538434, 4082.94871761, 4118.84615357, 3863.20512738, 4089.35897402, 4092.82051248, 4104.10256383, 4124.61538434, 4120.64102537, 4121.02564075, 4129.48717921, 4187.69230756,8.57
4120.12820485, 4124.35897408, 4119.87179460, 4085.64102530, 4123.33333306, 3856.79487096, 4081.15384581, 4090.89743555, 4097.05128171, 4126.66666639, 4121.66666639, 4126.15384588, 4128.58974332, 4191.79487166,8.57
4117.94871767, 4123.46153819, 4118.71794844, 4095.12820478, 4124.99999973, 3873.33333257, 4093.07692273, 4103.07692280, 4067.17948677, 4129.74358947, 4121.41025614, 4122.30769203, 4126.66666639, 4189.10256397,8.57
4122.05128178, 4124.35897408, 4123.07692280, 4094.61538427, 4122.43589716, 3857.94871712, 4086.15384581, 4099.87179453, 4056.02564061, 4127.82051255, 4121.53846126, 4122.05128178, 4127.17948691, 4192.82051269,8.57
4125.76923050, 4124.23076896, 4127.05128178, 4085.12820478, 4122.30769203, 3849.48717866, 4057.82051241, 4073.58974325, 4055.89743548, 4126.53846126, 4121.28205101, 4124.74358947, 4127.56410229, 4193.84615371,8.57
4118.84615357, 4119.87179460, 4120.89743562, 4082.43589709, 4121.28205101, 3875.25640950, 4069.99999966, 4080.64102530, 4062.17948677, 4128.58974332, 4119.35897408, 4119.99999973, 4126.53846126, 4185.25641012,8.57
4123.97435870, 4125.64102537, 4126.92307665, 4090.76923043, 4123.20512793, 3888.71794796, 4098.07692273, 4108.71794844, 4081.53846119, 4130.64102537, 4121.53846126, 4124.87179460, 4130.25640998, 4187.94871781,8.57
4119.48717921, 4123.33333306, 4126.66666639, 4085.12820478, 4122.69230742, 3869.23076840, 4086.79487145, 4094.23076889, 4077.43589709, 4128.71794844, 4120.12820485, 4122.17948691, 4130.38461511, 4190.89743576,8.57
4120.76923050, 4121.79487152, 4126.53846126, 4079.48717914, 4119.74358947, 3853.33333250, 4064.74358933, 4064.35897395, 4048.33333292, 4126.79487152, 4118.71794844, 4124.23076896, 4129.61538434, 4189.23076910,8.57
4125.89743562, 4128.33333306, 4127.94871767, 4086.28205094, 4121.53846126, 3856.92307609, 4059.35897395, 4066.92307651, 4043.71794830, 4128.33333306, 4119.87179460, 4129.35897408, 4131.15384588, 4191.53846140,8.57
4116.92307665, 4126.92307665, 4124.35897408, 4086.92307658, 4121.92307665, 3864.10256327, 4055.89743548, 4074.87179453, 4065.25640984, 4128.71794844, 4118.20512793, 4120.89743562, 4128.33333306, 4192.05128192,8.57
4122.69230742, 4130.12820485, 4131.28205101, 4089.35897402, 4123.71794844, 3867.43589661, 4051.15384574, 4063.84615343, 4067.56410215, 4127.69230742, 4118.46153819, 4125.89743562, 4128.20512793, 4192.17948704,8.57
4123.58974332, 4126.41025614, 4126.02564075, 4093.07692273, 4123.07692280, 3862.69230686, 4046.92307651, 4048.97435856, 4051.53846113, 4126.79487152, 4119.23076896, 4127.43589716, 4131.41025614, 4191.66666653,8.57
4123.33333306, 4122.17948691, 4121.41025614, 4091.92307658, 4119.48717921, 3856.53846071, 4043.07692266, 4043.97435856, 4037.56410215, 4125.89743562, 4120.38461511, 4122.30769203, 4130.89743562, 4194.74358961,8.57
4127.94871767, 4128.33333306, 4127.56410229, 4090.25640991, 4120.89743562, 3864.99999917, 4057.17948677, 4059.48717907, 4046.79487138, 4126.79487152, 4122.05128178, 4125.89743562, 4128.97435870, 4194.23076910,8.57
4117.69230742, 4124.48717921, 4122.56410229, 4087.56410222, 4120.25640998, 3872.56410173, 4076.92307658, 4082.17948684, 4064.99999959, 4128.97435870, 4122.69230742, 4124.48717921, 4128.58974332, 4188.58974345,8.57
4125.25640998, 4125.12820485, 4125.51282024, 4091.28205094, 4118.46153819, 3863.46153763, 4071.28205094, 4078.97435863, 4055.12820472, 4127.43589716, 4126.28205101, 4129.74358947, 4130.76923050, 4192.30769217,8.57
4129.87179460, 4126.41025614, 4123.58974332, 4091.79487145, 4119.87179460, 3866.41025558, 4065.51282010, 4065.76923036, 4047.56410215, 4125.89743562, 4125.12820485, 4128.07692280, 4128.71794844, 4191.66666653,8.57
4119.61538434, 4122.56410229, 4119.48717921, 4085.51282017, 4121.02564075, 3876.66666591, 4068.71794830, 4064.48717907, 4072.05128171, 4129.48717921, 4120.12820485, 4125.25640998, 4125.64102537, 4188.20512807,8.57
4124.23076896, 4124.99999973, 4126.02564075, 4083.46153812, 4121.66666639, 3866.92307609, 4055.64102523, 4059.23076882, 4077.17948684, 4131.15384588, 4120.64102537, 4132.94871767, 4129.87179460, 4189.35897422,8.57
4120.76923050, 4121.02564075, 4119.48717921, 4080.38461504, 4119.61538434, 3864.61538379, 4047.69230728, 4054.61538420, 4050.38461497, 4126.92307665, 4119.10256383, 4127.05128178, 4130.38461511, 4191.15384602,8.57
4121.28205101, 4123.46153819, 4120.12820485, 4077.94871761, 4119.23076896, 3872.30769148, 4050.25640984, 4051.79487138, 4037.30769189, 4126.15384588, 4116.79487152, 4126.79487152, 4127.94871767, 4197.05128192,8.57
4123.46153819, 4125.76923050, 4123.97435870, 4077.94871761, 4121.41025614, 3862.82051199, 4036.02564054, 4036.66666618, 4027.82051234, 4129.23076896, 4116.53846126, 4126.53846126, 4129.61538434, 4192.30769217,8.57
4117.56410229, 4121.02564075, 4119.35897408, 4079.99999966, 4119.48717921, 3860.38461455, 4031.79487131, 4040.12820472, 4026.28205080, 4128.58974332, 4117.05128178, 4121.92307665, 4131.66666639, 4187.05128192,8.57
4121.15384588, 4124.23076896, 4122.43589716, 4081.79487145, 4118.71794844, 3879.87179411, 4058.20512779, 4073.46153812, 4067.17948677, 4127.82051255, 4119.10256383, 4128.20512793, 4132.43589716, 4192.43589730,8.57
4116.02564075, 4122.05128178, 4118.20512793, 4080.38461504, 4118.97435870, 3888.33333257, 4075.76923043, 4088.97435863, 4094.48717914, 4128.46153819, 4118.46153819, 4124.35897408, 4131.02564075, 4189.87179474,8.57
4121.53846126, 4121.79487152, 4120.25640998, 4085.51282017, 4119.99999973, 3886.02564027, 4070.25640991, 4077.94871761, 4071.92307658, 4128.71794844, 4120.25640998, 4126.53846126, 4131.02564075, 4188.71794858,8.57
4128.46153819, 4122.94871767, 4123.58974332, 4087.69230735, 4122.43589716, 3899.87179411, 4067.82051241, 4073.97435863, 4053.46153805, 4128.07692280, 4120.12820485, 4129.74358947, 4128.84615357, 4191.41025628,8.57
4116.02564075, 4117.94871767, 4116.28205101, 4079.61538427, 4121.92307665, 3902.69230693, 4067.17948677, 4071.02564068, 4049.48717907, 4127.05128178, 4116.28205101, 4121.02564075, 4126.41025614, 4190.64102551,8.57
4116.28205101, 4121.79487152, 4119.87179460, 4076.79487145, 4122.05128178, 3876.02564027, 4051.41025600, 4054.23076882, 4037.56410215, 4128.71794844, 4119.74358947, 4125.38461511, 4129.48717921, 4192.69230756,8.57
4118.84615357, 4122.17948691, 4121.79487152, 4074.61538427, 4121.28205101, 3876.79487103, 4048.46153805, 4053.33333292, 4044.23076882, 4130.12820485, 4121.53846126, 4124.99999973, 4128.84615357, 4191.15384602,8.57
4121.79487152, 4121.53846126, 4123.33333306, 4068.97435856, 4120.25640998, 3902.82051206, 4058.20512779, 4060.38461497, 4048.07692266, 4127.17948691, 4119.74358947, 4121.66666639, 4127.30769203, 4190.76923063,8.57
4122.17948691, 4124.61538434, 4125.25640998, 4067.17948677, 4120.64102537, 3899.35897360, 4049.35897395, 4050.51282010, 4037.43589702, 4124.74358947, 4118.07692280, 4123.46153819, 4128.58974332, 4191.28205115,8.57
4116.53846126, 4122.05128178, 4121.15384588, 4077.82051248, 4120.51282024, 3891.41025565, 4050.12820472, 4062.82051241, 4053.07692266, 4128.07692280, 4114.87179460, 4120.76923050, 4128.71794844, 4187.94871781,8.57
4126.53846126, 4126.92307665, 4126.66666639, 4085.64102530, 4123.71794844, 3905.38461462, 4066.92307651, 4080.76923043, 4055.38461497, 4130.12820485, 4117.56410229, 4128.46153819, 4130.12820485, 4191.28205115,8.57
4121.28205101, 4125.51282024, 4123.58974332, 4074.23076889, 4122.43589716, 3917.69230700, 4072.56410222, 4069.99999966, 4040.38461497, 4128.58974332, 4119.99999973, 4125.64102537, 4127.43589716, 4192.17948704,8.57
4115.51282024, 4121.79487152, 4122.05128178, 4072.30769196, 4118.97435870, 3923.20512751, 4078.84615350, 4075.51282017, 4054.99999959, 4129.87179460, 4118.46153819, 4119.99999973, 4124.74358947, 4189.35897422,8.57
4125.89743562, 4126.15384588, 4128.46153819, 4081.02564068, 4121.79487152, 3920.25640957, 4078.97435863, 4085.51282017, 4066.66666625, 4131.53846126, 4118.84615357, 4125.76923050, 4128.71794844, 4188.46153833,8.57
4119.99999973, 4122.94871767, 4121.28205101, 4072.30769196, 4119.35897408, 3908.84615316, 4059.87179446, 4065.76923036, 4061.28205087, 4128.07692280, 4119.74358947, 4121.53846126, 4129.87179460, 4188.20512807,8.57
4123.33333306, 4128.58974332, 4124.23076896, 4067.69230728, 4116.79487152, 3908.58974290, 4052.69230728, 4059.48717907, 4064.74358933, 4126.15384588, 4121.15384588, 4124.99999973, 4127.94871767, 4192.56410243,8.57
4124.74358947, 4129.87179460, 4126.02564075, 4071.66666632, 4119.87179460, 3907.05128136, 4058.07692266, 4066.79487138, 4054.99999959, 4127.69230742, 4122.17948691, 4126.28205101, 4127.43589716, 4189.99999986,8.57
4120.64102537, 4121.66666639, 4122.17948691, 4073.58974325, 4121.41025614, 3908.33333264, 4057.69230728, 4058.97435856, 4032.05128157, 4126.92307665, 4125.25640998, 4123.97435870, 4128.58974332, 4188.58974345,8.57
4130.12820485, 4125.64102537, 4127.56410229, 4076.53846119, 4121.28205101, 3931.41025572, 4069.87179453, 4072.30769196, 4043.71794830, 4125.12820485, 4126.92307665, 4129.74358947, 4128.33333306, 4192.56410243,8.57
4123.71794844, 4123.97435870, 4120.76923050, 4066.66666625, 4117.56410229, 3927.94871726, 4070.64102530, 4089.61538427, 4073.07692273, 4126.15384588, 4123.58974332, 4124.35897408, 4126.15384588, 4191.79487166,8.57
4123.84615357, 4125.76923050, 4119.61538434, 4059.74358933, 4118.71794844, 3902.30769155, 4045.38461497, 4062.69230728, 4052.56410215, 4126.28205101, 4123.20512793, 4126.15384588, 4128.84615357, 4194.23076910,8.57
4126.28205101, 4128.58974332, 4123.20512793, 4071.41025607, 4123.20512793, 3918.97435828, 4054.74358933, 4053.58974318, 4026.02564054, 4125.12820485, 4122.05128178, 4129.74358947, 4130.38461511, 4191.15384602,8.57
4120.12820485, 4122.05128178, 4123.58974332, 4077.30769196, 4120.76923050, 3942.43589681, 4075.64102530, 4071.66666632, 4045.89743548, 4126.28205101, 4118.07692280, 4127.69230742, 4129.61538434, 4188.20512807,8.57
4126.92307665, 4125.25640998, 4128.97435870, 4068.71794830, 4119.48717921, 3915.38461469, 4047.17948677, 4046.66666625, 4049.87179446, 4127.82051255, 4119.74358947, 4130.89743562, 4132.05128178, 4193.58974345,8.57
4121.41025614, 4124.74358947, 4122.05128178, 4058.33333292, 4120.76923050, 3889.23076847, 4019.10256362, 4019.74358926, 4020.25640977, 4126.79487152, 4120.64102537, 4122.82051255, 4129.10256383, 4192.69230756,8.57
4119.74358947, 4123.33333306, 4121.79487152, 4065.64102523, 4120.64102537, 3908.33333264, 4035.76923029, 4040.38461497, 4019.87179439, 4126.79487152, 4118.07692280, 4126.28205101, 4124.87179460, 4191.66666653,8.57
4125.12820485, 4126.79487152, 4124.23076896, 4076.53846119, 4119.99999973, 3933.84615316, 4058.58974318, 4061.92307651, 4044.23076882, 4128.84615357, 4116.53846126, 4132.30769203, 4126.41025614, 4190.25641012,8.57
4121.28205101, 4123.20512793, 4116.41025614, 4072.30769196, 4120.76923050, 3935.12820444, 4063.33333292, 4061.41025600, 4053.07692266, 4127.82051255, 4118.07692280, 4122.56410229, 4127.05128178, 4189.74358961,8.57
4124.87179460, 4124.35897408, 4121.79487152, 4074.99999966, 4125.38461511, 3922.82051213, 4064.10256369, 4064.48717907, 4052.05128164, 4126.41025614, 4122.56410229, 4127.82051255, 4129.48717921, 4195.38461525,8.57
4118.46153819, 4121.66666639, 4123.71794844, 4076.15384581, 4123.84615357, 3929.99999931, 4064.61538420, 4064.99999959, 4046.15384574, 4128.84615357, 4118.97435870, 4127.56410229, 4130.89743562, 4193.46153833,8.57
4116.66666639, 4121.02564075, 4122.82051255, 4064.10256369, 4119.10256383, 3947.43589681, 4063.84615343, 4056.66666625, 4034.23076875, 4127.69230742, 4115.25640998, 4122.69230742, 4129.74358947, 4188.97435884,8.57
4121.92307665, 4126.41025614, 4123.20512793, 4061.92307651, 4121.15384588, 3943.46153784, 4069.48717907, 4065.76923036, 4037.56410215, 4123.07692280, 4121.15384588, 4125.51282024, 4128.33333306, 4190.76923063,8.57
4112.05128178, 4122.69230742, 4117.17948691, 4072.43589709, 4122.43589716, 3936.28205059, 4076.53846119, 4084.23076889, 4058.33333292, 4124.23076896, 4121.53846126, 4118.84615357, 4126.15384588, 4190.89743576,8.57
4116.79487152, 4123.71794844, 4125.12820485, 4080.76923043, 4119.74358947, 3933.46153777, 4070.64102530, 4085.76923043, 4075.64102530, 4127.94871767, 4119.48717921, 4121.41025614, 4130.51282024, 4189.87179474,8.57
4120.38461511, 4121.79487152, 4124.10256383, 4073.97435863, 4118.97435870, 3924.61538392, 4059.99999959, 4077.17948684, 4064.99999959, 4127.94871767, 4119.99999973, 4121.66666639, 4131.79487152, 4187.17948704,8.57
4116.28205101, 4121.28205101, 4118.20512793, 4064.74358933, 4121.53846126, 3930.64102495, 4066.15384574, 4071.15384581, 4052.30769189, 4127.56410229, 4121.28205101, 4118.46153819, 4126.53846126, 4188.07692294,8.57
4122.43589716, 4128.84615357, 4124.23076896, 4068.71794830, 4121.28205101, 3959.61538399, 4082.17948684, 4074.87179453, 4069.74358940, 4127.82051255, 4123.07692280, 4123.71794844, 4128.07692280, 4188.46153833,8.57
4118.46153819, 4124.48717921, 4121.53846126, 4077.05128171, 4117.69230742, 3970.51281989, 4090.89743555, 4089.48717914, 4076.28205094, 4127.05128178, 4122.05128178, 4120.64102537, 4131.15384588, 4185.51282038,8.57
4120.76923050, 4125.25640998, 4125.12820485, 4082.94871761, 4120.76923050, 3944.10256348, 4080.51282017, 4091.41025607, 4050.38461497, 4127.05128178, 4122.82051255, 4124.35897408, 4129.61538434, 4189.87179474,8.57
4122.94871767, 4126.92307665, 4125.51282024, 4073.07692273, 4121.66666639, 3928.20512751, 4059.99999959, 4064.48717907, 4036.15384567, 4126.79487152, 4122.69230742, 4123.97435870, 4125.51282024, 4189.61538448,8.57
4118.84615357, 4121.92307665, 4120.76923050, 4065.76923036, 4117.43589716, 3944.35897374, 4063.07692266, 4057.94871754, 4057.69230728, 4126.41025614, 4121.79487152, 4119.61538434, 4126.92307665, 4186.66666653,8.57
4124.99999973, 4124.10256383, 4126.28205101, 4075.38461504, 4121.15384588, 3952.43589681, 4072.69230735, 4079.35897402, 4069.87179453, 4125.51282024, 4123.46153819, 4128.20512793, 4132.94871767, 4189.61538448,8.57
4121.79487152, 4121.15384588, 4124.23076896, 4075.89743555, 4123.33333306, 3938.20512751, 4054.99999959, 4069.99999966, 4048.20512779, 4123.46153819, 4121.28205101, 4123.33333306, 4131.15384588, 4187.43589730,8.57
4125.12820485, 4123.33333306, 4126.79487152, 4076.66666632, 4121.41025614, 3939.10256348, 4052.17948677, 4061.02564061, 4046.53846113, 4124.23076896, 4120.89743562, 4121.28205101, 4127.30769203, 4188.07692294,8.57
4126.15384588, 4127.43589716, 4126.53846126, 4081.66666632, 4121.79487152, 3952.05128143, 4079.61538427, 4083.84615350, 4076.79487145, 4127.56410229, 4121.66666639, 4125.76923050, 4127.17948691, 4188.84615371,8.57
4120.12820485, 4123.84615357, 4121.15384588, 4076.41025607, 4119.99999973, 3951.15384553, 4083.84615350, 4090.25640991, 4081.02564068, 4128.46153819, 4120.51282024, 4124.35897408, 4128.46153819, 4189.35897422,8.57
4129.10256383, 4127.69230742, 4128.84615357, 4071.79487145, 4121.28205101, 3950.76923015, 4070.38461504, 4081.66666632, 4060.25640984, 4129.35897408, 4122.17948691, 4128.46153819, 4129.35897408, 4193.97435884,8.57
4123.20512793, 4123.33333306, 4125.12820485, 4071.15384581, 4122.43589716, 3956.66666605, 4076.15384581, 4089.48717914, 4056.02564061, 4129.74358947, 4119.74358947, 4125.64102537, 4127.82051255, 4192.05128192,8.57
4121.15384588, 4121.92307665, 4122.30769203, 4073.20512786, 4121.02564075, 3951.02564040, 4078.71794837, 4089.35897402, 4053.97435856, 4128.84615357, 4118.71794844, 4128.07692280, 4130.38461511, 4192.69230756,8.57
4127.17948691, 4128.46153819, 4126.92307665, 4071.92307658, 4121.28205101, 3944.87179425, 4069.87179453, 4078.71794837, 4059.10256369, 4126.92307665, 4120.76923050, 4129.61538434, 4131.92307665, 4194.35897422,8.57
4118.07692280, 4123.20512793, 4122.82051255, 4064.35897395, 4119.48717921, 3957.94871733, 4073.33333299, 4079.10256376, 4080.64102530, 4125.25640998, 4118.84615357, 4123.58974332, 4126.53846126, 4191.79487166,8.57
4123.46153819, 4123.33333306, 4126.41025614, 4067.43589702, 4119.61538434, 3968.20512758, 4073.58974325, 4066.41025600, 4065.64102523, 4125.12820485, 4121.02564075, 4130.38461511, 4127.56410229, 4195.25641012,8.57
4122.82051255, 4123.71794844, 4122.43589716, 4074.48717914, 4121.41025614, 3959.61538399, 4067.17948677, 4055.25640984, 4030.38461490, 4125.64102537, 4123.07692280, 4128.46153819, 4129.87179460, 4193.71794858,8.57
4118.84615357, 4122.56410229, 4118.20512793, 4075.38461504, 4120.25640998, 3954.48717887, 4070.25640991, 4069.10256369, 4039.35897395, 4125.51282024, 4120.51282024, 4126.79487152, 4128.97435870, 4190.89743576,8.57
4123.58974332, 4124.74358947, 4122.94871767, 4082.17948684, 4121.15384588, 3963.20512758, 4078.07692273, 4084.99999966, 4073.33333299, 4127.30769203, 4120.89743562, 4130.64102537, 4130.38461511, 4193.46153833,8.57
4119.48717921, 4120.25640998, 4119.48717921, 4088.97435863, 4121.53846126, 3960.12820451, 4078.33333299, 4085.51282017, 4072.69230735, 4129.99999973, 4121.66666639, 4124.23076896, 4129.48717921, 4194.48717935,8.57
4124.74358947, 4122.30769203, 4122.30769203, 4087.05128171, 4121.02564075, 3954.61538399, 4077.94871761, 4088.84615350, 4064.61538420, 4129.23076896, 4121.41025614, 4128.46153819, 4128.58974332, 4195.12820499,8.57
4120.51282024, 4123.84615357, 4121.28205101, 4082.82051248, 4119.48717921, 3978.97435842, 4091.28205094, 4105.64102537, 4092.17948684, 4127.43589716, 4119.48717921, 4128.71794844, 4129.48717921, 4190.89743576,8.57
4114.99999973, 4122.17948691, 4119.61538434, 4083.84615350, 4119.74358947, 3997.94871740, 4089.74358940, 4096.53846119, 4095.76923043, 4127.82051255, 4120.38461511, 4123.71794844, 4129.99999973, 4190.51282038,8.57
4123.84615357, 4123.33333306, 4124.23076896, 4082.94871761, 4122.17948691, 3985.12820458, 4067.17948677, 4065.76923036, 4053.46153805, 4126.92307665, 4122.56410229, 4126.92307665, 4130.51282024, 4193.71794858,8.57
4116.28205101, 4118.33333306, 4116.41025614, 4073.33333299, 4121.28205101, 3968.97435835, 4067.69230728, 4071.92307658, 4044.35897395, 4127.30769203, 4119.23076896, 4120.76923050, 4129.99999973, 4190.89743576,8.57
4117.43589716, 4123.71794844, 4119.23076896, 4071.15384581, 4121.15384588, 3963.97435835, 4080.25640991, 4089.10256376, 4062.17948677, 4129.10256383, 4119.48717921, 4123.84615357, 4130.76923050, 4190.51282038,8.57
4120.89743562, 4125.25640998, 4123.46153819, 4075.64102530, 4122.94871767, 3972.69230714, 4072.05128171, 4069.48717907, 4048.71794830, 4128.07692280, 4120.51282024, 4125.76923050, 4129.23076896, 4188.07692294,8.57
4116.79487152, 4117.94871767, 4120.89743562, 4078.07692273, 4123.33333306, 3988.33333278, 4071.41025607, 4065.12820472, 4053.58974318, 4125.38461511, 4118.46153819, 4119.35897408, 4128.58974332, 4188.46153833,8.57
4121.15384588, 4123.20512793, 4125.64102537, 4085.38461504, 4122.69230742, 3981.79487124, 4087.69230735, 4093.33333299, 4078.84615350, 4122.69230742, 4119.87179460, 4123.20512793, 4130.76923050, 4193.58974345,8.57
4115.76923050, 4122.82051255, 4119.10256383, 4092.30769196, 4119.87179460, 3970.25640963, 4087.69230735, 4100.89743555, 4062.94871754, 4121.79487152, 4122.17948691, 4120.64102537, 4127.69230742, 4188.46153833,8.57
4120.38461511, 4124.87179460, 4119.74358947, 4095.12820478, 4121.66666639, 3976.92307637, 4078.46153812, 4086.92307658, 4061.66666625, 4123.20512793, 4123.20512793, 4122.82051255, 4125.89743562, 4187.82051269,8.57
4125.25640998, 4127.56410229, 4124.48717921, 4090.25640991, 4124.23076896, 3967.56410194, 4077.43589709, 4081.53846119, 4088.20512786, 4125.12820485, 4118.07692280, 4122.56410229, 4128.46153819, 4191.28205115,8.57
4116.92307665, 4121.02564075, 4121.79487152, 4087.05128171, 4119.99999973, 3954.61538399, 4078.20512786, 4085.64102530, 4080.51282017, 4127.17948691, 4114.87179460, 4117.69230742, 4130.25640998, 4187.94871781,8.57
4122.56410229, 4124.87179460, 4126.28205101, 4088.84615350, 4120.12820485, 3970.89743528, 4081.02564068, 4087.30769196, 4065.38461497, 4128.33333306, 4121.41025614, 4128.33333306, 4130.25640998, 4189.48717935,8.57
4120.89743562, 4125.38461511, 4124.10256383, 4074.87179453, 4120.25640998, 3981.15384560, 4083.33333299, 4083.20512786, 4064.61538420, 4124.23076896, 4120.64102537, 4125.25640998, 4125.89743562, 4189.99999986,8.57
4124.23076896, 4125.51282024, 4128.71794844, 4068.97435856, 4118.84615357, 3967.56410194, 4084.48717914, 4086.41025607, 4065.64102523, 4122.82051255, 4115.25640998, 4124.48717921, 4125.25640998, 4188.97435884,8.57
4128.07692280, 4126.28205101, 4130.64102537, 4083.20512786, 4123.20512793, 3963.71794810, 4089.35897402, 4098.33333299, 4090.38461504, 4127.56410229, 4117.05128178, 4131.41025614, 4129.61538434, 4188.33333320,8.57
4119.87179460, 4121.02564075, 4121.66666639, 4093.07692273, 4122.69230742, 3973.07692252, 4093.20512786, 4101.15384581, 4107.56410229, 4127.17948691, 4119.99999973, 4125.38461511, 4129.74358947, 4186.92307679,8.57
4130.25640998, 4128.58974332, 4127.43589716, 4099.99999966, 4122.69230742, 3976.92307637, 4089.74358940, 4088.20512786, 4072.56410222, 4123.97435870, 4120.38461511, 4128.33333306, 4129.48717921, 4189.74358961,8.57
4126.79487152, 4129.87179460, 4125.76923050, 4094.74358940, 4124.10256383, 3984.48717894, 4086.53846119, 4078.07692273, 4051.41025600, 4124.74358947, 4117.43589716, 4127.82051255, 4128.58974332, 4187.94871781,8.57
4118.71794844, 4124.23076896, 4121.92307665, 4081.66666632, 4119.99999973, 3985.12820458, 4084.35897402, 4081.53846119, 4073.07692273, 4125.12820485, 4117.43589716, 4125.38461511, 4129.99999973, 4188.46153833,8.57
4127.82051255, 4127.30769203, 4127.43589716, 4081.02564068, 4119.99999973, 3971.66666611, 4070.89743555, 4080.76923043, 4069.61538420, 4126.92307665, 4121.53846126, 4130.38461511, 4132.05128178, 4192.82051269,8.57
4122.30769203, 4124.35897408, 4124.23076896, 4085.76923043, 4123.58974332, 3968.97435835, 4068.58974318, 4077.43589709, 4049.87179446, 4127.94871767, 4119.74358947, 4126.92307665, 4128.71794844, 4191.28205115,8.57
4121.15384588, 4124.23076896, 4125.38461511, 4086.92307658, 4123.07692280, 3972.17948663, 4083.46153812, 4078.97435863, 4059.99999959, 4127.43589716, 4118.71794844, 4127.82051255, 4129.61538434, 4191.79487166,8.57
4119.99999973, 4122.82051255, 4121.66666639, 4086.66666632, 4118.46153819, 3977.43589688, 4091.15384581, 4083.58974325, 4079.48717914, 4129.23076896, 4120.51282024, 4126.66666639, 4131.41025614, 4191.92307679,8.57
4119.23076896, 4120.25640998, 4118.97435870, 4090.38461504, 4118.58974332, 3997.94871740, 4090.89743555, 4090.51282017, 4086.79487145, 4129.61538434, 4119.48717921, 4125.89743562, 4129.48717921, 4190.89743576,8.57
4124.87179460, 4125.25640998, 4126.53846126, 4089.99999966, 4123.33333306, 4006.28205080, 4091.66666632, 4090.51282017, 4073.97435863, 4126.53846126, 4118.33333306, 4130.38461511, 4130.12820485, 4189.23076910,8.57
4114.99999973, 4121.79487152, 4118.46153819, 4079.99999966, 4120.12820485, 3987.56410201, 4091.28205094, 4085.76923043, 4064.23076882, 4126.66666639, 4119.23076896, 4123.07692280, 4128.84615357, 4189.87179474,8.57
4116.92307665, 4122.94871767, 4117.82051255, 4082.69230735, 4118.58974332, 3979.23076868, 4079.61538427, 4079.48717914, 4079.48717914, 4127.30769203, 4120.51282024, 4125.89743562, 4129.48717921, 4194.87179474,8.57
4116.92307665, 4122.94871767, 4117.82051255, 4082.69230735, 4118.58974332, 3979.23076868, 4079.61538427, 4079.48717914, 4079.48717914, 4127.30769203, 4120.51282024, 4125.89743562, 4129.48717921, 4194.87179474,8.57
4120.51282024, 4126.28205101, 4122.56410229, 4091.15384581, 4120.51282024, 3990.89743535, 4077.56410222, 4085.89743555, 4087.30769196, 4126.28205101, 4116.28205101, 4126.41025614, 4130.76923050, 4188.97435884,8.57
4116.28205101, 4121.79487152, 4117.94871767, 4087.43589709, 4119.74358947, 3988.71794817, 4087.30769196, 4099.61538427, 4075.89743555, 4126.92307665, 4114.61538434, 4119.74358947, 4129.23076896, 4188.07692294,8.57
4122.82051255, 4121.53846126, 4121.15384588, 4081.02564068, 4122.43589716, 3979.87179432, 4072.43589709, 4084.61538427, 4060.25640984, 4127.69230742, 4118.71794844, 4126.41025614, 4128.97435870, 4195.25641012,8.57
4118.58974332, 4119.10256383, 4119.99999973, 4078.46153812, 4121.92307665, 3982.30769176, 4050.25640984, 4052.69230728, 4045.64102523, 4126.53846126, 4118.33333306, 4122.56410229, 4126.41025614, 4190.38461525,8.57
4117.94871767, 4121.66666639, 4119.48717921, 4084.23076889, 4119.61538434, 3987.30769176, 4063.71794830, 4056.92307651, 4059.74358933, 4126.79487152, 4118.58974332, 4120.51282024, 4126.92307665, 4191.15384602,8.57
4117.94871767, 4121.79487152, 4118.58974332, 4080.89743555, 4122.17948691, 3982.56410201, 4083.46153812, 4083.20512786, 4097.82051248, 4126.15384588, 4120.25640998, 4124.61538434, 4129.74358947, 4194.87179474,8.57
4112.05128178, 4117.56410229, 4119.10256383, 4071.53846119, 4122.94871767, 3977.17948663, 4074.61538427, 4079.74358940, 4082.69230735, 4126.41025614, 4118.71794844, 4122.17948691, 4127.30769203, 4189.23076910,8.57
4118.58974332, 4124.10256383, 4124.99999973, 4078.71794837, 4121.15384588, 3982.17948663, 4066.79487138, 4063.20512779, 4038.33333292, 4125.76923050, 4120.38461511, 4123.33333306, 4126.79487152, 4187.30769217,8.57
4116.28205101, 4121.53846126, 4118.33333306, 4084.74358940, 4118.33333306, 3988.07692252, 4073.58974325, 4065.38461497, 4062.56410215, 4123.46153819, 4119.87179460, 4118.58974332, 4127.30769203, 4187.94871781,8.57
4118.58974332, 4122.05128178, 4123.71794844, 4083.71794837, 4119.48717921, 3988.97435842, 4075.38461504, 4065.89743548, 4073.71794837, 4123.33333306, 4117.56410229, 4122.43589716, 4128.71794844, 4190.12820499,8.57
4123.58974332, 4128.97435870, 4129.61538434, 4082.82051248, 4121.79487152, 3981.02564047, 4064.99999959, 4061.92307651, 4042.43589702, 4124.48717921, 4118.58974332, 4125.76923050, 4129.23076896, 4190.89743576,8.57
4116.41025614, 4123.58974332, 4121.66666639, 4076.28205094, 4119.10256383, 3973.58974304, 4052.17948677, 4062.05128164, 4060.76923036, 4124.99999973, 4118.97435870, 4118.58974332, 4125.64102537, 4187.82051269,8.57
4123.46153819, 4124.48717921, 4126.28205101, 4075.38461504, 4119.23076896, 3986.79487124, 4063.97435856, 4068.33333292, 4087.17948684, 4128.07692280, 4119.99999973, 4125.89743562, 4124.99999973, 4189.74358961,8.57
4123.07692280, 4124.10256383, 4125.64102537, 4081.53846119, 4119.61538434, 3994.61538406, 4087.43589709, 4078.07692273, 4067.43589702, 4129.35897408, 4118.46153819, 4126.15384588, 4127.17948691, 4190.12820499,8.57
4120.25640998, 4123.58974332, 4124.61538434, 4081.92307658, 4118.58974332, 3986.53846099, 4085.38461504, 4075.38461504, 4054.87179446, 4124.99999973, 4117.56410229, 4122.43589716, 4129.35897408, 4188.97435884,8.57
4125.76923050, 4127.30769203, 4128.20512793, 4077.69230735, 4120.76923050, 3995.38461483, 4077.43589709, 4073.97435863, 4069.23076882, 4124.87179460, 4119.35897408, 4126.79487152, 4128.46153819, 4190.51282038,8.57
4120.38461511, 4123.71794844, 4123.07692280, 4080.76923043, 4120.51282024, 4010.89743541, 4093.97435863, 4095.25640991, 4091.79487145, 4128.84615357, 4119.61538434, 4122.82051255, 4126.66666639, 4189.99999986,8.57
4124.23076896, 4126.53846126, 4127.17948691, 4096.28205094, 4121.15384588, 4008.97435849, 4108.20512793, 4112.30769203, 4114.87179460, 4128.58974332, 4121.53846126, 4125.25640998, 4129.99999973, 4191.53846140,8.57
4123.97435870, 4124.35897408, 4125.25640998, 4097.94871761, 4121.41025614, 4012.43589695, 4101.15384581, 4104.74358947, 4113.71794844, 4128.46153819, 4120.12820485, 4122.94871767, 4131.28205101, 4188.20512807,8.57
4122.17948691, 4121.53846126, 4121.66666639, 4084.99999966, 4118.20512793, 4018.07692259, 4087.94871761, 4094.87179453, 4089.99999966, 4128.97435870, 4118.46153819, 4123.71794844, 4129.99999973, 4187.43589730,8.57
4127.30769203, 4127.69230742, 4127.82051255, 4079.35897402, 4118.33333306, 3999.10256355, 4074.61538427, 4082.43589709, 4061.66666625, 4129.74358947, 4119.61538434, 4133.33333306, 4128.84615357, 4192.56410243,8.57
4117.17948691, 4123.97435870, 4121.66666639, 4078.71794837, 4121.28205101, 3995.51281996, 4069.48717907, 4064.61538420, 4052.30769189, 4131.53846126, 4117.69230742, 4125.12820485, 4127.30769203, 4189.87179474,8.57
4122.30769203, 4123.84615357, 4121.15384588, 4085.51282017, 4122.56410229, 4026.02564054, 4082.30769196, 4071.15384581, 4094.48717914, 4130.76923050, 4119.61538434, 4123.97435870, 4130.64102537, 4189.74358961,8.57
4124.74358947, 4127.05128178, 4122.82051255, 4089.87179453, 4119.99999973, 4033.33333285, 4091.53846119, 4089.23076889, 4117.56410229, 4127.56410229, 4119.35897408, 4128.46153819, 4130.89743562, 4191.66666653,8.57
4114.74358947, 4125.12820485, 4120.25640998, 4092.69230735, 4118.33333306, 4014.48717900, 4092.82051248, 4091.66666632, 4077.30769196, 4128.07692280, 4117.69230742, 4127.30769203, 4126.41025614, 4192.30769217,8.57
4120.51282024, 4126.15384588, 4124.61538434, 4101.53846119, 4119.61538434, 4010.89743541, 4096.79487145, 4089.87179453, 4059.74358933, 4128.58974332, 4122.56410229, 4130.38461511, 4127.05128178, 4191.92307679,8.57
4117.43589716, 4122.05128178, 4118.58974332, 4098.46153812, 4117.82051255, 4009.74358926, 4090.76923043, 4089.74358940, 4091.41025607, 4126.02564075, 4119.61538434, 4125.25640998, 4127.82051255, 4187.43589730,8.57
4119.35897408, 4123.20512793, 4120.38461511, 4091.41025607, 4119.99999973, 4002.43589688, 4083.07692273, 4091.28205094, 4104.99999973, 4126.92307665, 4117.82051255, 4128.20512793, 4128.71794844, 4190.76923063,8.57
4122.17948691, 4126.79487152, 4122.56410229, 4095.25640991, 4123.71794844, 4013.84615336, 4093.07692273, 4097.56410222, 4091.28205094, 4128.71794844, 4123.20512793, 4129.61538434, 4130.51282024, 4192.56410243,8.57
4113.20512793, 4121.28205101, 4114.87179460, 4097.17948684, 4120.76923050, 4022.17948670, 4098.46153812, 4091.41025607, 4079.48717914, 4128.20512793, 4121.53846126, 4122.82051255, 4129.48717921, 4191.92307679,8.57
4119.99999973, 4123.20512793, 4120.51282024, 4093.33333299, 4120.38461511, 4003.07692252, 4082.05128171, 4069.61538420, 4059.99999959, 4129.10256383, 4119.61538434, 4127.17948691, 4127.82051255, 4194.74358961,8.57
4120.38461511, 4121.41025614, 4119.87179460, 4088.84615350, 4121.66666639, 4003.33333278, 4080.25640991, 4068.33333292, 4055.12820472, 4127.94871767, 4119.61538434, 4123.97435870, 4126.41025614, 4190.25641012,8.57
4119.87179460, 4120.25640998, 4119.10256383, 4096.28205094, 4122.05128178, 4029.48717900, 4099.23076889, 4090.51282017, 4096.79487145, 4125.64102537, 4117.30769203, 4123.97435870, 4127.17948691, 4190.64102551,8.57
4121.41025614, 4124.35897408, 4121.92307665, 4109.35897408, 4122.43589716, 4037.69230728, 4106.53846126, 4101.28205094, 4129.61538434, 4127.43589716, 4116.92307665, 4124.61538434, 4125.64102537, 4192.82051269,8.57
4114.23076896, 4122.17948691, 4117.82051255, 4105.51282024, 4118.84615357, 4032.05128157, 4099.23076889, 4091.41025607, 4104.61538434, 4128.33333306, 4116.66666639, 4115.38461511, 4121.53846126, 4190.12820499,8.57
4121.53846126, 4125.12820485, 4123.33333306, 4096.92307658, 4119.48717921, 4026.41025593, 4086.79487145, 4079.61538427, 4077.94871761, 4128.46153819, 4118.46153819, 4122.82051255, 4125.64102537, 4193.20512807,8.57
4120.64102537, 4123.46153819, 4121.15384588, 4101.02564068, 4122.05128178, 4026.66666618, 4085.51282017, 4086.53846119, 4102.56410229, 4128.84615357, 4121.02564075, 4124.74358947, 4129.48717921, 4192.69230756,8.57
4116.15384588, 4124.74358947, 4118.84615357, 4109.48717921, 4121.15384588, 4033.20512772, 4097.43589709, 4097.94871761, 4118.33333306, 4128.97435870, 4120.51282024, 4118.58974332, 4127.05128178, 4190.38461525,8.57
4121.41025614, 4127.94871767, 4123.58974332, 4103.33333306, 4122.43589716, 4025.12820465, 4101.28205094, 4092.56410222, 4091.15384581, 4129.35897408, 4116.66666639, 4121.79487152, 4126.15384588, 4190.89743576,8.57
4116.79487152, 4118.97435870, 4118.84615357, 4098.33333299, 4121.92307665, 4024.35897388, 4106.28205101, 4097.43589709, 4083.46153812, 4129.23076896, 4116.92307665, 4121.15384588, 4126.02564075, 4189.23076910,8.57
4120.38461511, 4124.10256383, 4121.53846126, 4112.69230742, 4121.15384588, 4050.38461497, 4125.76923050, 4122.43589716, 4119.87179460, 4127.17948691, 4122.94871767, 4127.17948691, 4128.07692280, 4192.05128192,8.57
4122.05128178, 4125.38461511, 4122.69230742, 4116.92307665, 4122.94871767, 4059.23076882, 4145.51282031, 4142.43589723, 4143.33333313, 4126.79487152, 4122.69230742, 4124.61538434, 4128.97435870, 4190.25641012,8.57
4121.66666639, 4117.43589716, 4124.35897408, 4113.46153819, 4123.33333306, 4031.79487131, 4144.10256390, 4142.82051262, 4131.28205101, 4128.84615357, 4118.71794844, 4118.97435870, 4128.07692280, 4187.30769217,8.57
4125.25640998, 4123.97435870, 4129.99999973, 4118.33333306, 4121.28205101, 4023.97435849, 4135.12820485, 4136.15384595, 4130.12820485, 4129.10256383, 4119.61538434, 4126.28205101, 4131.02564075, 4191.92307679,8.57
4117.82051255, 4125.38461511, 4121.92307665, 4114.87179460, 4118.20512793, 4049.48717907, 4134.99999973, 4137.43589723, 4147.05128185, 4127.43589716, 4120.76923050, 4123.20512793, 4131.53846126, 4192.17948704,8.57
4123.71794844, 4125.25640998, 4126.02564075, 4116.28205101, 4121.79487152, 4050.25640984, 4129.87179460, 4130.64102537, 4140.51282031, 4126.53846126, 4122.43589716, 4124.10256383, 4130.76923050, 4192.56410243,8.57
4122.82051255, 4123.97435870, 4129.23076896, 4120.76923050, 4123.84615357, 4025.89743541, 4118.97435870, 4116.92307665, 4123.20512793, 4127.69230742, 4121.15384588, 4125.51282024, 4128.84615357, 4191.15384602,8.57
4116.15384588, 4120.12820485, 4122.69230742, 4116.79487152, 4120.38461511, 4023.46153798, 4119.61538434, 4123.58974332, 4132.82051255, 4128.46153819, 4122.05128178, 4120.89743562, 4127.30769203, 4190.25641012,8.57
4129.74358947, 4125.76923050, 4127.30769203, 4120.76923050, 4120.38461511, 4042.30769189, 4128.97435870, 4136.79487159, 4145.38461518, 4127.69230742, 4127.69230742, 4127.56410229, 4129.99999973, 4194.23076910,8.57
4124.35897408, 4123.20512793, 4125.89743562, 4121.66666639, 4118.71794844, 4040.12820472, 4127.17948691, 4124.87179460, 4121.53846126, 4129.23076896, 4122.43589716, 4126.02564075, 4127.30769203, 4190.25641012,8.57
4119.74358947, 4123.07692280, 4126.79487152, 4116.28205101, 4119.48717921, 4031.53846106, 4120.38461511, 4107.56410229, 4087.30769196, 4130.76923050, 4116.53846126, 4126.66666639, 4126.79487152, 4190.25641012,8.57
4124.99999973, 4126.28205101, 4125.25640998, 4113.97435870, 4122.30769203, 4050.51282010, 4122.69230742, 4111.41025614, 4090.38461504, 4127.69230742, 4121.15384588, 4128.07692280, 4129.74358947, 4193.97435884,8.57
4120.25640998, 4122.05128178, 4120.64102537, 4113.97435870, 4120.64102537, 4061.66666625, 4132.56410229, 4128.20512793, 4117.94871767, 4124.87179460, 4123.46153819, 4122.56410229, 4128.33333306, 4192.82051269,8.57
4122.43589716, 4123.07692280, 4127.17948691, 4117.30769203, 4121.28205101, 4051.15384574, 4141.53846133, 4142.82051262, 4128.20512793, 4127.30769203, 4121.66666639, 4128.84615357, 4126.79487152, 4192.30769217,8.57
4118.58974332, 4121.66666639, 4122.17948691, 4117.17948691, 4120.12820485, 4046.66666625, 4136.28205108, 4141.53846133, 4133.33333306, 4128.46153819, 4117.43589716, 4129.23076896, 4126.28205101, 4189.99999986,8.57
4122.17948691, 4123.46153819, 4119.10256383, 4116.66666639, 4118.07692280, 4051.53846113, 4132.94871767, 4132.69230742, 4138.58974339, 4126.92307665, 4118.58974332, 4128.58974332, 4128.84615357, 4192.94871781,8.57
4126.15384588, 4124.87179460, 4122.30769203, 4115.76923050, 4120.38461511, 4045.76923036, 4143.07692287, 4134.74358947, 4128.46153819, 4126.53846126, 4123.20512793, 4129.74358947, 4131.28205101, 4194.74358961,8.57
4115.76923050, 4119.87179460, 4118.33333306, 4113.07692280, 4121.92307665, 4036.28205080, 4143.46153826, 4135.51282031, 4119.10256383, 4126.41025614, 4121.53846126, 4121.92307665, 4128.71794844, 4193.07692294,8.57
4121.02564075, 4121.92307665, 4123.20512793, 4113.84615357, 4122.82051255, 4035.64102516, 4128.97435870, 4125.12820485, 4122.30769203, 4126.53846126, 4120.76923050, 4125.89743562, 4128.71794844, 4194.35897422,8.57
4121.28205101, 4119.48717921, 4123.20512793, 4112.30769203, 4121.41025614, 4040.51282010, 4125.25640998, 4122.43589716, 4129.99999973, 4127.05128178, 4122.05128178, 4123.33333306, 4130.38461511, 4190.38461525,8.57
4117.05128178, 4118.97435870, 4118.46153819, 4114.87179460, 4119.99999973, 4051.79487138, 4140.76923056, 4138.33333313, 4135.12820485, 4128.97435870, 4120.89743562, 4119.61538434, 4129.35897408, 4191.02564089,8.57
4120.64102537, 4123.84615357, 4119.61538434, 4121.28205101, 4123.71794844, 4057.05128164, 4152.94871774, 4156.28205108, 4136.92307672, 4129.99999973, 4119.87179460, 4127.30769203, 4128.07692280, 4195.89743576,8.57
4115.12820485, 4120.51282024, 4120.12820485, 4119.99999973, 4123.97435870, 4053.84615343, 4149.99999980, 4153.20512800, 4139.61538441, 4127.43589716, 4119.10256383, 4122.56410229, 4128.20512793, 4193.46153833,8.57
4116.53846126, 4123.97435870, 4125.12820485, 4121.02564075, 4119.74358947, 4053.97435856, 4141.02564082, 4132.30769203, 4140.25641005, 4126.02564075, 4122.56410229, 4120.51282024, 4131.79487152, 4192.17948704,8.57
4116.66666639, 4124.99999973, 4120.38461511, 4122.69230742, 4117.94871767, 4054.10256369, 4143.07692287, 4129.10256383, 4137.30769210, 4128.58974332, 4123.07692280, 4119.23076896, 4130.64102537, 4189.10256397,8.57
4118.33333306, 4120.25640998, 4116.53846126, 4118.46153819, 4119.74358947, 4054.61538420, 4142.82051262, 4133.58974332, 4120.76923050, 4128.58974332, 4117.69230742, 4118.46153819, 4127.30769203, 4189.99999986,8.57
4122.05128178, 4123.07692280, 4121.79487152, 4116.15384588, 4121.53846126, 4057.69230728, 4130.89743562, 4120.89743562, 4097.56410222, 4125.76923050, 4119.48717921, 4122.82051255, 4129.87179460, 4192.82051269,8.57
4112.43589716, 4120.64102537, 4118.58974332, 4119.23076896, 4119.99999973, 4059.23076882, 4137.56410236, 4128.84615357, 4106.66666639, 4126.41025614, 4123.20512793, 4118.20512793, 4129.10256383, 4186.79487166,8.57
4120.38461511, 4119.99999973, 4123.33333306, 4128.07692280, 4121.02564075, 4052.43589702, 4150.89743569, 4154.48717928, 4136.41025621, 4128.97435870, 4121.53846126, 4123.33333306, 4126.92307665, 4188.33333320,8.57
4124.48717921, 4120.12820485, 4124.35897408, 4130.25640998, 4122.69230742, 4057.94871754, 4149.99999980, 4152.69230749, 4145.76923056, 4127.82051255, 4120.12820485, 4123.58974332, 4128.33333306, 4191.41025628,8.57
4115.38461511, 4120.38461511, 4122.17948691, 4126.79487152, 4122.17948691, 4074.74358940, 4152.56410236, 4144.35897415, 4147.82051262, 4126.28205101, 4121.53846126, 4118.46153819, 4128.07692280, 4186.15384602,8.57
4121.15384588, 4127.56410229, 4129.74358947, 4126.41025614, 4122.43589716, 4068.46153805, 4152.17948697, 4149.87179467, 4162.69230749, 4126.79487152, 4120.64102537, 4125.38461511, 4128.84615357, 4184.87179474,8.57
4119.74358947, 4122.82051255, 4126.66666639, 4119.87179460, 4120.25640998, 4057.94871754, 4145.89743569, 4149.23076903, 4167.30769210, 4126.28205101, 4117.30769203, 4122.17948691, 4128.46153819, 4186.92307679,8.57
4124.10256383, 4122.43589716, 4127.56410229, 4119.48717921, 4121.66666639, 4058.58974318, 4148.46153826, 4145.25641005, 4149.48717928, 4124.99999973, 4122.69230742, 4123.07692280, 4128.20512793, 4192.69230756,8.57
4126.41025614, 4126.28205101, 4125.64102537, 4125.76923050, 4122.82051255, 4051.66666625, 4151.66666646, 4145.64102544, 4133.20512793, 4127.17948691, 4124.10256383, 4125.38461511, 4128.07692280, 4192.43589730,8.57
4117.17948691, 4121.41025614, 4118.33333306, 4121.53846126, 4118.46153819, 4044.99999959, 4143.71794851, 4143.97435877, 4138.58974339, 4129.35897408, 4119.23076896, 4121.15384588, 4127.69230742, 4186.92307679,8.57
4124.23076896, 4123.97435870, 4127.05128178, 4117.17948691, 4119.61538434, 4046.02564061, 4138.71794851, 4146.92307672, 4150.76923056, 4128.58974332, 4121.79487152, 4128.71794844, 4130.51282024, 4189.61538448,8.57
4123.20512793, 4122.30769203, 4125.25640998, 4117.56410229, 4121.66666639, 4036.66666618, 4135.64102544, 4142.94871774, 4133.20512793, 4127.82051255, 4121.92307665, 4127.05128178, 4130.12820485, 4191.28205115,8.57
4123.20512793, 4122.30769203, 4125.25640998, 4117.56410229, 4121.66666639, 4036.66666618, 4135.64102544, 4142.94871774, 4133.20512793, 4127.82051255, 4121.92307665, 4127.05128178, 4130.12820485, 4191.28205115,8.57
4121.92307665, 4121.92307665, 4123.71794844, 4123.20512793, 4120.51282024, 4020.38461490, 4132.05128178, 4131.66666639, 4118.33333306, 4128.33333306, 4119.61538434, 4123.71794844, 4129.99999973, 4191.41025628,8.57
4124.48717921, 4125.25640998, 4126.79487152, 4121.15384588, 4120.76923050, 4022.56410208, 4134.10256383, 4133.58974332, 4147.43589723, 4128.58974332, 4120.38461511, 4125.89743562, 4131.53846126, 4191.02564089,8.57
4118.71794844, 4121.15384588, 4120.76923050, 4116.02564075, 4121.79487152, 4032.17948670, 4134.87179460, 4141.02564082, 4167.94871774, 4128.20512793, 4120.89743562, 4123.20512793, 4129.87179460, 4189.61538448,8.57
4125.51282024, 4124.48717921, 4125.25640998, 4125.12820485, 4123.33333306, 4029.99999952, 4135.89743569, 4142.94871774, 4152.56410236, 4128.71794844, 4121.92307665, 4129.99999973, 4130.38461511, 4190.76923063,8.57
4124.10256383, 4122.30769203, 4123.58974332, 4122.17948691, 4121.53846126, 4030.64102516, 4138.71794851, 4140.51282031, 4131.02564075, 4129.87179460, 4119.35897408, 4129.10256383, 4130.76923050, 4191.02564089,8.57
4122.30769203, 4120.64102537, 4120.25640998, 4112.56410229, 4120.76923050, 4041.28205087, 4138.33333313, 4140.25641005, 4123.84615357, 4128.58974332, 4119.10256383, 4126.28205101, 4131.53846126, 4193.58974345,8.57
4126.41025614, 4125.12820485, 4122.30769203, 4119.10256383, 4125.25640998, 4044.10256369, 4140.89743569, 4150.51282031, 4135.38461518, 4126.15384588, 4123.33333306, 4130.12820485, 4131.92307665, 4193.20512807,8.57
4117.30769203, 4118.07692280, 4117.17948691, 4124.74358947, 4125.12820485, 4030.76923029, 4144.61538441, 4158.84615364, 4147.05128185, 4127.17948691, 4121.79487152, 4126.15384588, 4129.35897408, 4189.74358961,8.57
4120.76923050, 4120.64102537, 4119.23076896, 4119.87179460, 4121.28205101, 4020.89743541, 4141.66666646, 4153.20512800, 4132.43589716, 4130.89743562, 4121.28205101, 4128.58974332, 4128.33333306, 4194.10256397,8.57
4120.76923050, 4120.64102537, 4119.23076896, 4119.87179460, 4121.28205101, 4020.89743541, 4141.66666646, 4153.20512800, 4132.43589716, 4130.89743562, 4121.28205101, 4128.58974332, 4128.33333306, 4194.10256397,8.57
4121.41025614, 4127.43589716, 4119.35897408, 4115.51282024, 4120.12820485, 4029.87179439, 4143.46153826, 4158.33333313, 4128.20512793, 4129.48717921, 4122.56410229, 4124.35897408, 4126.41025614, 4194.10256397,8.57
4115.25640998, 4124.35897408, 4118.46153819, 4121.41025614, 4122.56410229, 4044.10256369, 4155.38461518, 4175.12820499, 4153.33333313, 4125.12820485, 4120.51282024, 4120.12820485, 4127.69230742, 4192.30769217,8.57
4119.87179460, 4122.82051255, 4120.89743562, 4127.82051255, 4127.05128178, 4055.38461497, 4162.05128185, 4173.97435884, 4157.56410236, 4126.41025614, 4120.51282024, 4127.69230742, 4129.87179460, 4193.46153833,8.57
4117.05128178, 4121.41025614, 4118.20512793, 4120.51282024, 4125.89743562, 4057.82051241, 4152.30769210, 4157.56410236, 4141.53846133, 4129.35897408, 4120.12820485, 4122.82051255, 4127.17948691, 4189.74358961,8.57
4118.58974332, 4124.99999973, 4124.35897408, 4117.43589716, 4121.53846126, 4041.53846113, 4131.66666639, 4137.17948697, 4137.82051262, 4128.46153819, 4121.02564075, 4123.33333306, 4130.12820485, 4190.38461525,8.57
4115.76923050, 4123.97435870, 4119.99999973, 4123.07692280, 4122.56410229, 4031.79487131, 4123.58974332, 4126.02564075, 4138.71794851, 4127.30769203, 4119.61538434, 4122.69230742, 4133.71794844, 4188.97435884,8.57
4112.30769203, 4120.51282024, 4112.43589716, 4121.92307665, 4124.99999973, 4044.35897395, 4132.30769203, 4130.51282024, 4118.97435870, 4127.56410229, 4116.92307665, 4117.05128178, 4128.71794844, 4187.30769217,8.57
4123.71794844, 4124.61538434, 4121.79487152, 4122.94871767, 4125.25640998, 4047.94871754, 4137.69230749, 4139.87179467, 4108.33333306, 4127.56410229, 4119.10256383, 4122.05128178, 4127.94871767, 4191.41025628,8.57
4119.61538434, 4121.41025614, 4119.48717921, 4127.82051255, 4122.69230742, 4045.25640984, 4147.17948697, 4154.99999980, 4137.17948697, 4127.82051255, 4119.74358947, 4118.33333306, 4131.15384588, 4190.64102551,8.57
4117.05128178, 4123.97435870, 4119.61538434, 4129.87179460, 4121.28205101, 4058.07692266, 4163.46153826, 4166.41025621, 4156.02564082, 4127.82051255, 4119.10256383, 4119.10256383, 4129.74358947, 4192.69230756,8.57
4119.35897408, 4126.02564075, 4124.74358947, 4126.92307665, 4123.97435870, 4054.35897395, 4162.43589723, 4166.15384595, 4154.35897415, 4126.53846126, 4117.17948691, 4122.05128178, 4126.15384588, 4190.89743576,8.57
4117.94871767, 4118.46153819, 4120.51282024, 4123.84615357, 4123.46153819, 4034.48717900, 4147.05128185, 4160.64102544, 4150.12820492, 4127.43589716, 4115.51282024, 4119.87179460, 4124.61538434, 4186.53846140,8.57
4124.35897408, 4123.97435870, 4123.07692280, 4124.48717921, 4121.28205101, 4043.46153805, 4146.28205108, 4150.25641005, 4128.97435870, 4129.48717921, 4119.23076896, 4125.38461511, 4128.58974332, 4189.10256397,8.57
4117.30769203, 4124.35897408, 4121.41025614, 4119.99999973, 4119.74358947, 4066.79487138, 4155.12820492, 4141.66666646, 4118.33333306, 4129.10256383, 4121.28205101, 4120.76923050, 4129.99999973, 4188.97435884,8.57
4119.35897408, 4119.87179460, 4123.33333306, 4116.02564075, 4121.79487152, 4061.66666625, 4140.51282031, 4136.28205108, 4139.99999980, 4127.56410229, 4121.41025614, 4119.99999973, 4128.20512793, 4189.48717935,8.57
4125.38461511, 4124.99999973, 4127.94871767, 4110.38461511, 4124.87179460, 4046.02564061, 4119.35897408, 4130.76923050, 4146.53846133, 4127.17948691, 4119.10256383, 4123.07692280, 4128.97435870, 4189.74358961,8.57
4116.02564075, 4125.12820485, 4122.30769203, 4106.66666639, 4120.89743562, 4055.51282010, 4134.35897408, 4138.84615364, 4136.02564082, 4128.46153819, 4117.30769203, 4118.58974332, 4130.25640998, 4188.58974345,8.57
4123.97435870, 4126.28205101, 4127.56410229, 4119.99999973, 4123.46153819, 4067.82051241, 4156.28205108, 4153.33333313, 4124.48717921, 4130.12820485, 4122.82051255, 4124.74358947, 4132.56410229, 4192.30769217,8.57
4124.87179460, 4125.64102537, 4126.92307665, 4124.61538434, 4126.02564075, 4054.61538420, 4146.15384595, 4150.12820492, 4116.66666639, 4128.07692280, 4123.58974332, 4124.35897408, 4130.76923050, 4189.35897422,8.57
4120.38461511, 4126.15384588, 4122.69230742, 4116.66666639, 4120.64102537, 4049.23076882, 4132.56410229, 4141.92307672, 4153.46153826, 4126.02564075, 4120.25640998, 4123.46153819, 4128.84615357, 4187.17948704,8.57
4127.30769203, 4128.20512793, 4127.94871767, 4116.15384588, 4121.15384588, 4061.66666625, 4137.43589723, 4137.94871774, 4171.15384602, 4128.84615357, 4121.66666639, 4129.35897408, 4128.71794844, 4191.79487166,8.57
4121.41025614, 4120.64102537, 4124.87179460, 4113.97435870, 4122.05128178, 4046.15384574, 4133.71794844, 4122.56410229, 4110.25640998, 4129.23076896, 4120.51282024, 4124.48717921, 4128.84615357, 4190.38461525,8.57
4125.89743562, 4124.10256383, 4126.41025614, 4113.46153819, 4120.76923050, 4031.53846106, 4127.69230742, 4118.97435870, 4084.74358940, 4127.43589716, 4118.20512793, 4126.79487152, 4132.56410229, 4188.84615371,8.57
4127.05128178, 4126.53846126, 4122.82051255, 4115.89743562, 4119.99999973, 4056.92307651, 4136.41025621, 4139.61538441, 4127.69230742, 4129.48717921, 4116.79487152, 4126.15384588, 4130.64102537, 4188.97435884,8.57
4118.71794844, 4120.12820485, 4119.35897408, 4109.35897408, 4120.51282024, 4064.35897395, 4138.33333313, 4145.51282031, 4133.71794844, 4130.12820485, 4118.33333306, 4122.82051255, 4127.69230742, 4190.76923063,8.57
4124.61538434, 4123.71794844, 4125.76923050, 4110.51282024, 4121.02564075, 4041.66666625, 4132.43589716, 4136.53846133, 4118.97435870, 4126.28205101, 4123.20512793, 4130.64102537, 4130.89743562, 4192.56410243,8.57
4121.02564075, 4121.28205101, 4118.97435870, 4118.97435870, 4119.61538434, 4045.38461497, 4141.15384595, 4143.33333313, 4144.10256390, 4124.74358947, 4121.15384588, 4126.53846126, 4129.74358947, 4189.99999986,8.57
4121.92307665, 4121.53846126, 4118.97435870, 4118.58974332, 4122.17948691, 4061.66666625, 4146.15384595, 4145.38461518, 4144.87179467, 4127.56410229, 4117.43589716, 4126.41025614, 4127.82051255, 4191.53846140,8.57
4124.10256383, 4125.25640998, 4122.05128178, 4111.41025614, 4123.71794844, 4057.17948677, 4135.76923056, 4124.74358947, 4103.33333306, 4128.33333306, 4119.61538434, 4127.94871767, 4129.99999973, 4190.89743576,8.57
4118.07692280, 4120.89743562, 4117.43589716, 4113.46153819, 4118.84615357, 4053.07692266, 4135.89743569, 4117.82051255, 4093.97435863, 4127.43589716, 4123.46153819, 4123.97435870, 4130.51282024, 4191.02564089,8.57
4124.10256383, 4123.58974332, 4122.43589716, 4120.25640998, 4119.61538434, 4051.66666625, 4137.43589723, 4128.33333306, 4120.89743562, 4126.66666639, 4123.97435870, 4130.25640998, 4129.35897408, 4193.58974345,8.57
4119.48717921, 4123.07692280, 4118.33333306, 4119.10256383, 4122.82051255, 4048.33333292, 4132.05128178, 4132.30769203, 4141.02564082, 4126.02564075, 4119.35897408, 4126.02564075, 4128.97435870, 4189.23076910,8.57
4120.12820485, 4123.07692280, 4115.38461511, 4126.28205101, 4123.20512793, 4054.87179446, 4142.17948697, 4141.02564082, 4150.51282031, 4127.05128178, 4118.97435870, 4124.23076896, 4130.64102537, 4191.53846140,8.57
4125.76923050, 4124.10256383, 4121.02564075, 4132.43589716, 4124.10256383, 4063.58974318, 4151.28205108, 4149.10256390, 4153.07692287, 4128.33333306, 4121.15384588, 4127.17948691, 4130.51282024, 4194.99999986,8.57
4117.17948691, 4118.71794844, 4118.84615357, 4123.97435870, 4122.56410229, 4070.25640991, 4140.89743569, 4140.76923056, 4151.66666646, 4127.82051255, 4119.23076896, 4120.25640998, 4128.71794844, 4192.56410243,8.57
4121.15384588, 4124.35897408, 4121.41025614, 4128.07692280, 4122.43589716, 4073.84615350, 4135.89743569, 4138.84615364, 4146.53846133, 4127.17948691, 4120.51282024, 4122.43589716, 4132.17948691, 4193.97435884,8.57
4119.61538434, 4126.79487152, 4121.53846126, 4135.76923056, 4123.71794844, 4066.28205087, 4143.20512800, 4153.07692287, 4143.58974339, 4127.43589716, 4121.92307665, 4120.38461511, 4132.94871767, 4189.87179474,8.57
4116.53846126, 4122.94871767, 4122.17948691, 4129.10256383, 4122.05128178, 4069.74358940, 4140.64102544, 4150.12820492, 4147.69230749, 4126.41025614, 4120.89743562, 4118.97435870, 4129.87179460, 4188.58974345,8.57
4124.10256383, 4123.20512793, 4124.35897408, 4122.69230742, 4119.87179460, 4090.76923043, 4134.48717921, 4133.20512793, 4144.48717928, 4126.41025614, 4119.48717921, 4120.12820485, 4129.87179460, 4191.66666653,8.57
4118.71794844, 4122.94871767, 4119.87179460, 4126.41025614, 4120.76923050, 4093.20512786, 4145.12820492, 4140.51282031, 4140.51282031, 4126.15384588, 4117.69230742, 4112.43589716, 4128.33333306, 4187.30769217,8.57
4119.74358947, 4128.58974332, 4124.87179460, 4135.64102544, 4124.87179460, 4072.05128171, 4149.99999980, 4146.15384595, 4135.38461518, 4126.41025614, 4119.35897408, 4119.35897408, 4127.82051255, 4187.43589730,8.57
4119.74358947, 4125.12820485, 4123.33333306, 4132.17948691, 4122.17948691, 4063.71794830, 4138.20512800, 4123.20512793, 4114.48717921, 4128.20512793, 4118.71794844, 4122.82051255, 4128.46153819, 4189.99999986,8.57
4116.92307665, 4120.25640998, 4121.28205101, 4124.99999973, 4118.84615357, 4070.76923043, 4132.56410229, 4116.92307665, 4117.56410229, 4127.43589716, 4117.56410229, 4120.76923050, 4130.64102537, 4190.25641012,8.57
4122.30769203, 4128.46153819, 4126.41025614, 4130.25640998, 4123.84615357, 4072.69230735, 4136.79487159, 4143.71794851, 4169.23076910, 4126.28205101, 4119.10256383, 4126.66666639, 4131.41025614, 4189.61538448,8.57
4118.58974332, 4126.66666639, 4121.28205101, 4135.76923056, 4121.66666639, 4080.76923043, 4139.35897415, 4156.41025621, 4176.15384602, 4127.94871767, 4117.94871767, 4121.41025614, 4127.94871767, 4186.92307679,8.57
4123.97435870, 4124.74358947, 4127.30769203, 4140.38461518, 4120.12820485, 4095.64102530, 4144.74358954, 4146.66666646, 4129.48717921, 4126.53846126, 4120.64102537, 4121.92307665, 4130.38461511, 4189.10256397,8.57
4124.61538434, 4124.23076896, 4128.20512793, 4138.46153826, 4125.38461511, 4093.46153812, 4150.89743569, 4149.10256390, 4141.41025621, 4124.61538434, 4122.82051255, 4123.07692280, 4131.15384588, 4186.53846140,8.57
4117.17948691, 4122.05128178, 4121.02564075, 4128.84615357, 4122.56410229, 4081.15384581, 4147.82051262, 4157.69230749, 4166.92307672, 4127.43589716, 4119.87179460, 4121.66666639, 4128.33333306, 4184.99999986,8.57
4125.64102537, 4129.10256383, 4126.66666639, 4127.17948691, 4121.79487152, 4084.48717914, 4140.64102544, 4151.15384595, 4137.05128185, 4128.71794844, 4118.97435870, 4127.82051255, 4129.87179460, 4190.89743576,8.57
4122.05128178, 4124.87179460, 4123.33333306, 4131.53846126, 4125.64102537, 4107.94871767, 4145.25641005, 4148.58974339, 4135.12820485, 4126.02564075, 4118.20512793, 4124.74358947, 4130.51282024, 4189.48717935,8.57
4122.82051255, 4124.61538434, 4123.84615357, 4142.30769210, 4124.99999973, 4123.71794844, 4156.53846133, 4150.76923056, 4154.87179467, 4124.87179460, 4118.46153819, 4124.74358947, 4132.17948691, 4189.61538448,8.57
4126.66666639, 4128.84615357, 4126.15384588, 4148.46153826, 4121.92307665, 4119.99999973, 4162.69230749, 4150.12820492, 4141.02564082, 4125.38461511, 4119.61538434, 4125.12820485, 4133.46153819, 4190.51282038,8.57
4117.43589716, 4122.30769203, 4120.25640998, 4146.28205108, 4120.76923050, 4113.46153819, 4162.05128185, 4165.12820492, 4154.48717928, 4126.15384588, 4120.51282024, 4122.69230742, 4131.15384588, 4189.74358961,8.57
4122.69230742, 4122.56410229, 4125.76923050, 4152.05128185, 4122.69230742, 4111.53846126, 4158.46153826, 4175.38461525, 4184.35897422, 4128.20512793, 4123.97435870, 4129.48717921, 4131.02564075, 4192.94871781,8.57
4120.89743562, 4122.69230742, 4125.12820485, 4152.94871774, 4122.05128178, 4100.64102530, 4143.71794851, 4148.84615364, 4154.23076903, 4127.43589716, 4123.71794844, 4126.02564075, 4131.28205101, 4190.51282038,8.57
4119.10256383, 4124.10256383, 4124.35897408, 4144.23076903, 4123.46153819, 4086.53846119, 4122.30769203, 4122.17948691, 4128.33333306, 4126.02564075, 4123.33333306, 4125.51282024, 4131.15384588, 4189.74358961,8.57
4125.51282024, 4126.28205101, 4125.64102537, 4140.25641005, 4125.25640998, 4096.41025607, 4125.89743562, 4135.51282031, 4150.25641005, 4128.97435870, 4122.17948691, 4128.97435870, 4132.17948691, 4192.82051269,8.57
4119.74358947, 4119.87179460, 4118.71794844, 4139.10256390, 4122.82051255, 4109.74358947, 4141.02564082, 4147.69230749, 4146.15384595, 4130.51282024, 4119.35897408, 4123.46153819, 4130.12820485, 4192.94871781,8.57
4123.33333306, 4123.71794844, 4123.07692280, 4139.74358954, 4123.07692280, 4103.84615357, 4135.12820485, 4131.15384588, 4114.87179460, 4126.79487152, 4122.56410229, 4126.79487152, 4128.20512793, 4191.15384602,8.57
4121.79487152, 4125.89743562, 4122.69230742, 4142.17948697, 4122.30769203, 4107.30769203, 4139.48717928, 4133.20512793, 4116.92307665, 4125.64102537, 4119.87179460, 4124.48717921, 4126.41025614, 4187.82051269,8.57
4117.17948691, 4122.56410229, 4119.74358947, 4150.12820492, 4119.35897408, 4117.82051255, 4169.61538448, 4165.12820492, 4157.56410236, 4128.71794844, 4116.41025614, 4125.64102537, 4126.41025614, 4192.69230756,8.57
4120.89743562, 4124.74358947, 4123.84615357, 4154.61538441, 4119.74358947, 4113.20512793, 4176.79487166, 4178.84615371, 4180.76923063, 4128.46153819, 4120.51282024, 4131.28205101, 4130.12820485, 4195.12820499,8.57
4115.38461511, 4120.76923050, 4118.71794844, 4146.79487159, 4121.15384588, 4112.56410229, 4154.74358954, 4157.30769210, 4159.35897415, 4126.53846126, 4122.17948691, 4119.74358947, 4129.61538434, 4188.33333320,8.57
4120.25640998, 4121.79487152, 4119.87179460, 4145.64102544, 4123.33333306, 4126.41025614, 4146.79487159, 4137.69230749, 4131.28205101, 4128.07692280, 4121.66666639, 4121.02564075, 4127.94871767, 4190.89743576,8.57
4121.53846126, 4121.41025614, 4119.61538434, 4144.74358954, 4123.07692280, 4124.61538434, 4142.30769210, 4133.20512793, 4124.48717921, 4129.48717921, 4121.02564075, 4125.38461511, 4126.92307665, 4193.33333320,8.57
4118.20512793, 4117.56410229, 4120.38461511, 4140.25641005, 4121.15384588, 4117.05128178, 4132.30769203, 4127.56410229, 4129.87179460, 4129.35897408, 4122.30769203, 4121.66666639, 4128.71794844, 4189.87179474,8.57
4124.74358947, 4121.41025614, 4125.25640998, 4145.38461518, 4124.74358947, 4120.25640998, 4140.51282031, 4134.10256383, 4134.61538434, 4127.56410229, 4123.58974332, 4124.23076896, 4132.94871767, 4188.84615371,8.57
4119.48717921, 4118.71794844, 4119.48717921, 4146.28205108, 4122.56410229, 4121.41025614, 4155.25641005, 4147.56410236, 4135.89743569, 4124.35897408, 4122.05128178, 4121.53846126, 4130.38461511, 4188.71794858,8.57
4120.12820485, 4119.99999973, 4123.46153819, 4143.84615364, 4117.17948691, 4121.28205101, 4151.92307672, 4140.76923056, 4147.05128185, 4125.51282024, 4122.69230742, 4124.10256383, 4127.30769203, 4192.43589730,8.57
4118.20512793, 4122.05128178, 4122.43589716, 4144.74358954, 4120.38461511, 4127.17948691, 4150.38461518, 4139.48717928, 4160.51282031, 4129.23076896, 4124.61538434, 4124.87179460, 4129.23076896, 4191.15384602,8.57
4113.97435870, 4121.66666639, 4117.43589716, 4148.33333313, 4122.69230742, 4133.84615357, 4163.58974339, 4163.97435877, 4150.51282031, 4128.07692280, 4124.61538434, 4121.92307665, 4131.66666639, 4189.48717935,8.57
4122.69230742, 4125.76923050, 4125.25640998, 4152.69230749, 4121.02564075, 4138.71794851, 4164.61538441, 4170.76923063, 4142.05128185, 4125.76923050, 4122.82051255, 4125.38461511, 4131.66666639, 4192.17948704,8.57
4116.79487152, 4122.43589716, 4122.56410229, 4149.87179467, 4120.89743562, 4146.15384595, 4157.56410236, 4153.20512800, 4152.69230749, 4126.66666639, 4120.25640998, 4119.99999973, 4129.74358947, 4187.69230756,8.57
4118.20512793, 4124.87179460, 4122.69230742, 4150.76923056, 4125.89743562, 4144.99999980, 4163.58974339, 4158.58974339, 4158.71794851, 4126.79487152, 4121.92307665, 4121.02564075, 4130.89743562, 4187.43589730,8.57
4124.99999973, 4127.17948691, 4126.66666639, 4149.23076903, 4127.30769203, 4139.99999980, 4170.76923063, 4172.17948704, 4161.28205108, 4125.12820485, 4124.61538434, 4122.05128178, 4131.02564075, 4189.99999986,8.57
4118.71794844, 4121.53846126, 4123.71794844, 4139.87179467, 4122.94871767, 4146.15384595, 4163.20512800, 4162.82051262, 4162.30769210, 4125.89743562, 4123.97435870, 4119.48717921, 4130.89743562, 4189.48717935,8.57
4122.94871767, 4124.99999973, 4126.02564075, 4137.69230749, 4124.61538434, 4149.48717928, 4157.17948697, 4153.84615364, 4156.15384595, 4126.92307665, 4124.23076896, 4127.30769203, 4132.56410229, 4191.15384602,8.57
4121.79487152, 4124.99999973, 4124.61538434, 4135.51282031, 4125.51282024, 4151.53846133, 4166.92307672, 4166.15384595, 4166.28205108, 4126.53846126, 4122.82051255, 4121.66666639, 4129.35897408, 4189.99999986,8.57
4124.99999973, 4126.79487152, 4128.46153819, 4135.12820485, 4124.23076896, 4156.53846133, 4166.41025621, 4173.07692294, 4175.89743576, 4126.79487152, 4121.92307665, 4121.79487152, 4130.89743562, 4192.82051269,8.57
4130.51282024, 4128.46153819, 4129.35897408, 4133.20512793, 4124.35897408, 4150.25641005, 4149.99999980, 4155.25641005, 4150.76923056, 4125.12820485, 4120.89743562, 4131.02564075, 4133.20512793, 4192.30769217,8.57
4119.61538434, 4118.58974332, 4121.28205101, 4127.30769203, 4122.30769203, 4139.10256390, 4146.28205108, 4145.12820492, 4140.64102544, 4123.71794844, 4118.97435870, 4124.35897408, 4127.56410229, 4186.28205115,8.57
4121.79487152, 4121.66666639, 4127.17948691, 4133.07692280, 4125.51282024, 4146.53846133, 4154.61538441, 4154.74358954, 4158.84615364, 4127.56410229, 4121.92307665, 4122.82051255, 4126.66666639, 4189.99999986,8.57
4121.92307665, 4124.87179460, 4124.61538434, 4139.35897415, 4125.12820485, 4162.56410236, 4159.99999980, 4166.41025621, 4166.41025621, 4129.23076896, 4122.30769203, 4125.76923050, 4128.33333306, 4191.53846140,8.57
4122.17948691, 4122.43589716, 4120.25640998, 4132.05128178, 4121.02564075, 4154.48717928, 4157.05128185, 4162.17948697, 4157.82051262, 4125.12820485, 4122.05128178, 4130.64102537, 4129.35897408, 4189.61538448,8.57
4125.76923050, 4124.35897408, 4123.84615357, 4119.99999973, 4121.79487152, 4136.66666646, 4147.56410236, 4143.46153826, 4147.56410236, 4127.05128178, 4125.51282024, 4130.12820485, 4132.05128178, 4188.71794858,8.57
4118.33333306, 4121.15384588, 4117.94871767, 4120.76923050, 4121.15384588, 4149.23076903, 4149.35897415, 4147.56410236, 4150.38461518, 4132.05128178, 4123.84615357, 4121.41025614, 4131.53846126, 4187.17948704,8.57
4125.76923050, 4124.10256383, 4121.41025614, 4131.02564075, 4121.28205101, 4169.74358961, 4156.02564082, 4164.99999980, 4155.25641005, 4128.84615357, 4121.79487152, 4129.48717921, 4132.17948691, 4190.25641012,8.57
4125.25640998, 4122.56410229, 4121.66666639, 4129.99999973, 4121.92307665, 4162.30769210, 4149.99999980, 4155.38461518, 4140.12820492, 4124.87179460, 4120.12820485, 4130.12820485, 4133.46153819, 4191.41025628,8.57
4117.82051255, 4119.10256383, 4118.58974332, 4127.69230742, 4121.92307665, 4145.64102544, 4140.64102544, 4134.35897408, 4123.07692280, 4127.43589716, 4119.99999973, 4123.84615357, 4131.66666639, 4191.02564089,8.57
4122.56410229, 4124.61538434, 4121.66666639, 4132.17948691, 4123.97435870, 4146.15384595, 4138.84615364, 4133.71794844, 4135.12820485, 4130.12820485, 4122.69230742, 4126.66666639, 4131.02564075, 4190.12820499,8.57
4117.94871767, 4122.94871767, 4117.05128178, 4128.58974332, 4123.97435870, 4160.51282031, 4149.61538441, 4153.58974339, 4161.28205108, 4126.92307665, 4122.43589716, 4120.76923050, 4131.02564075, 4188.33333320,8.57
4119.48717921, 4123.97435870, 4120.12820485, 4128.46153819, 4122.05128178, 4173.84615371, 4168.71794858, 4174.48717935, 4173.46153833, 4125.12820485, 4124.10256383, 4123.20512793, 4129.74358947, 4191.53846140,8.57
4118.46153819, 4122.05128178, 4121.41025614, 4136.02564082, 4121.15384588, 4175.38461525, 4176.79487166, 4181.41025628, 4174.23076910, 4126.92307665, 4123.33333306, 4125.64102537, 4128.58974332, 4189.35897422,8.57
4115.12820485, 4117.17948691, 4119.10256383, 4137.43589723, 4121.28205101, 4168.58974345, 4169.48717935, 4172.94871781, 4164.74358954, 4126.28205101, 4119.74358947, 4122.30769203, 4129.23076896, 4188.71794858,8.57
4124.10256383, 4120.89743562, 4123.07692280, 4134.74358947, 4120.76923050, 4161.02564082, 4159.23076903, 4160.38461518, 4149.10256390, 4125.25640998, 4122.43589716, 4125.25640998, 4129.87179460, 4194.48717935,8.57
4119.48717921, 4118.33333306, 4117.43589716, 4129.99999973, 4120.76923050, 4160.64102544, 4151.15384595, 4152.69230749, 4150.51282031, 4127.05128178, 4122.30769203, 4119.61538434, 4128.71794844, 4192.82051269,8.57
4118.84615357, 4119.35897408, 4119.35897408, 4127.30769203, 4123.71794844, 4164.23076903, 4144.99999980, 4151.02564082, 4156.66666646, 4128.84615357, 4120.12820485, 4120.64102537, 4131.79487152, 4190.51282038,8.57
4119.23076896, 4122.43589716, 4121.41025614, 4122.30769203, 4124.10256383, 4168.33333320, 4151.15384595, 4156.79487159, 4148.58974339, 4128.20512793, 4119.35897408, 4121.66666639, 4131.41025614, 4188.46153833,8.57
4113.46153819, 4119.48717921, 4118.07692280, 4119.99999973, 4120.51282024, 4176.92307679, 4169.35897422, 4165.38461518, 4143.71794851, 4127.94871767, 4119.87179460, 4117.30769203, 4127.43589716, 4189.35897422,8.57
4121.79487152, 4124.35897408, 4123.46153819, 4130.25640998, 4122.43589716, 4174.99999986, 4172.30769217, 4174.74358961, 4157.82051262, 4127.82051255, 4123.20512793, 4121.66666639, 4128.07692280, 4192.56410243,8.57
4119.99999973, 4122.94871767, 4119.23076896, 4132.69230742, 4124.23076896, 4155.76923056, 4150.64102544, 4167.05128185, 4165.76923056, 4128.20512793, 4122.82051255, 4119.87179460, 4127.17948691, 4186.66666653,8.57
4118.33333306, 4121.02564075, 4119.35897408, 4127.17948691, 4122.17948691, 4156.79487159, 4136.02564082, 4138.84615364, 4144.99999980, 4129.35897408, 4121.15384588, 4122.56410229, 4125.64102537, 4187.94871781,8.57
4120.76923050, 4123.46153819, 4123.84615357, 4127.94871767, 4122.69230742, 4187.82051269, 4158.97435877, 4149.48717928, 4145.38461518, 4129.35897408, 4121.92307665, 4127.43589716, 4126.41025614, 4192.05128192,8.57
4117.17948691, 4119.23076896, 4118.97435870, 4130.51282024, 4120.76923050, 4201.41025634, 4182.94871781, 4189.35897422, 4179.48717935, 4128.71794844, 4122.43589716, 4121.92307665, 4127.43589716, 4187.56410243,8.57
4123.58974332, 4123.46153819, 4124.10256383, 4134.61538434, 4120.64102537, 4196.41025628, 4171.92307679, 4180.76923063, 4181.15384602, 4130.25640998, 4121.28205101, 4125.89743562, 4130.64102537, 4188.58974345,8.57
4121.28205101, 4125.38461511, 4126.79487152, 4133.84615357, 4121.28205101, 4197.82051269, 4160.76923056, 4150.25641005, 4146.02564082, 4128.84615357, 4117.82051255, 4125.64102537, 4129.10256383, 4190.76923063,8.57
4119.23076896, 4122.82051255, 4126.92307665, 4132.69230742, 4120.64102537, 4197.94871781, 4167.94871774, 4158.71794851, 4135.38461518, 4124.99999973, 4119.10256383, 4123.97435870, 4128.97435870, 4191.02564089,8.57
4124.23076896, 4123.58974332, 4126.15384588, 4133.07692280, 4124.10256383, 4203.71794865, 4178.33333320, 4179.87179474, 4154.74358954, 4127.17948691, 4123.07692280, 4126.92307665, 4132.56410229, 4191.53846140,8.57
4120.51282024, 4120.64102537, 4122.05128178, 4129.87179460, 4122.69230742, 4204.61538455, 4177.69230756, 4177.94871781, 4168.07692287, 4129.23076896, 4121.92307665, 4120.89743562, 4129.10256383, 4190.51282038,8.57
4126.53846126, 4123.58974332, 4128.71794844, 4129.48717921, 4120.64102537, 4188.97435884, 4166.79487159, 4167.43589723, 4174.74358961, 4127.69230742, 4121.15384588, 4124.10256383, 4128.07692280, 4192.05128192,8.57
4125.76923050, 4122.94871767, 4126.79487152, 4123.07692280, 4122.94871767, 4180.12820499, 4155.38461518, 4160.25641005, 4167.30769210, 4127.82051255, 4121.41025614, 4126.41025614, 4131.53846126, 4189.48717935,8.57
4120.51282024, 4122.69230742, 4123.84615357, 4114.87179460, 4123.20512793, 4187.69230756, 4155.89743569, 4160.64102544, 4142.30769210, 4128.07692280, 4121.53846126, 4124.99999973, 4130.38461511, 4188.84615371,8.57
4124.99999973, 4126.41025614, 4128.07692280, 4120.38461511, 4121.92307665, 4196.02564089, 4165.38461518, 4162.69230749, 4125.12820485, 4126.79487152, 4121.02564075, 4127.82051255, 4130.64102537, 4193.71794858,8.57
4118.71794844, 4118.84615357, 4117.56410229, 4124.87179460, 4119.74358947, 4200.64102551, 4171.53846140, 4166.28205108, 4148.97435877, 4126.79487152, 4117.43589716, 4123.07692280, 4132.43589716, 4192.17948704,8.57
4123.97435870, 4120.38461511, 4121.15384588, 4123.33333306, 4120.89743562, 4201.02564096, 4174.35897422, 4177.05128192, 4187.82051269, 4127.94871767, 4118.71794844, 4127.05128178, 4131.28205101, 4191.15384602,8.57
4124.23076896, 4124.99999973, 4129.10256383, 4121.79487152, 4123.71794844, 4201.02564096, 4171.02564089, 4171.66666653, 4169.48717935, 4128.07692280, 4121.92307665, 4127.56410229, 4127.56410229, 4191.53846140,8.57
4114.35897408, 4121.66666639, 4122.30769203, 4119.87179460, 4125.51282024, 4208.58974352, 4166.79487159, 4156.79487159, 4131.79487152, 4128.20512793, 4119.87179460, 4125.25640998, 4128.58974332, 4192.05128192,8.57
4122.82051255, 4124.87179460, 4123.20512793, 4119.48717921, 4125.76923050, 4205.76923070, 4164.23076903, 4155.51282031, 4135.38461518, 4126.92307665, 4119.35897408, 4132.69230742, 4132.94871767, 4190.38461525,8.57
4120.76923050, 4123.71794844, 4121.02564075, 4121.53846126, 4122.30769203, 4196.53846140, 4162.69230749, 4159.23076903, 4156.66666646, 4125.76923050, 4120.25640998, 4125.89743562, 4129.87179460, 4186.15384602,8.57
4119.74358947, 4124.35897408, 4119.61538434, 4128.71794844, 4122.94871767, 4201.92307686, 4169.87179474, 4166.28205108, 4167.94871774, 4126.92307665, 4122.05128178, 4124.10256383, 4127.94871767, 4192.43589730,8.57
4122.43589716, 4124.99999973, 4118.97435870, 4123.58974332, 4124.23076896, 4205.12820506, 4174.61538448, 4177.82051269, 4176.41025628, 4128.07692280, 4121.66666639, 4127.17948691, 4130.38461511, 4195.25641012,8.57
4116.02564075, 4118.58974332, 4115.64102537, 4117.69230742, 4122.30769203, 4208.71794865, 4172.30769217, 4178.46153833, 4180.51282038, 4127.30769203, 4120.89743562, 4121.92307665, 4128.46153819, 4191.66666653,8.57
4122.05128178, 4123.84615357, 4121.53846126, 4133.33333306, 4123.84615357, 4225.76923070, 4174.74358961, 4172.94871781, 4173.20512807, 4127.17948691, 4125.64102537, 4126.02564075, 4127.69230742, 4193.71794858,8.57
4118.20512793, 4123.20512793, 4119.61538434, 4135.25640998, 4122.69230742, 4223.84615378, 4172.82051269, 4167.17948697, 4155.12820492, 4127.56410229, 4124.23076896, 4124.10256383, 4130.51282024, 4191.02564089,8.57
4116.28205101, 4117.43589716, 4120.38461511, 4120.89743562, 4120.12820485, 4203.84615378, 4157.69230749, 4151.28205108, 4144.74358954, 4128.58974332, 4120.76923050, 4126.28205101, 4131.66666639, 4190.64102551,8.57
4122.69230742, 4122.05128178, 4122.30769203, 4117.56410229, 4121.53846126, 4202.17948711, 4151.41025621, 4146.41025621, 4159.61538441, 4129.10256383, 4122.82051255, 4131.02564075, 4130.12820485, 4192.17948704,8.57
4115.64102537, 4122.82051255, 4115.89743562, 4116.92307665, 4121.15384588, 4205.89743583, 4161.15384595, 4162.94871774, 4160.51282031, 4128.58974332, 4121.28205101, 4121.28205101, 4127.17948691, 4191.28205115,8.57
4120.76923050, 4124.48717921, 4123.07692280, 4115.51282024, 4123.07692280, 4198.46153833, 4166.15384595, 4174.48717935, 4144.35897415, 4127.69230742, 4120.51282024, 4120.64102537, 4127.30769203, 4194.23076910,8.57
4122.43589716, 4122.94871767, 4125.76923050, 4118.20512793, 4124.61538434, 4197.82051269, 4166.79487159, 4178.33333320, 4160.76923056, 4125.76923050, 4121.53846126, 4120.12820485, 4127.82051255, 4191.28205115,8.57
4118.20512793, 4122.69230742, 4119.74358947, 4125.64102537, 4121.79487152, 4204.23076917, 4169.74358961, 4175.64102551, 4171.92307679, 4127.43589716, 4122.94871767, 4118.33333306, 4129.48717921, 4191.41025628,8.57
4120.76923050, 4125.64102537, 4122.30769203, 4129.87179460, 4123.71794844, 4207.56410250, 4166.15384595, 4162.30769210, 4147.94871774, 4130.64102537, 4125.76923050, 4122.69230742, 4130.51282024, 4194.99999986,8.57
4117.56410229, 4120.89743562, 4124.10256383, 4123.97435870, 4124.74358947, 4205.12820506, 4159.87179467, 4156.79487159, 4146.15384595, 4128.33333306, 4124.74358947, 4117.69230742, 4126.41025614, 4190.38461525,8.57
4121.79487152, 4122.56410229, 4126.92307665, 4120.51282024, 4122.69230742, 4190.89743576, 4154.74358954, 4158.58974339, 4173.71794858, 4123.58974332, 4122.82051255, 4118.33333306, 4126.15384588, 4188.58974345,8.57
4118.71794844, 4123.33333306, 4121.41025614, 4119.87179460, 4123.71794844, 4185.76923063, 4149.48717928, 4150.25641005, 4173.84615371, 4124.74358947, 4121.79487152, 4119.99999973, 4128.84615357, 4188.58974345,8.57
4116.92307665, 4121.92307665, 4119.87179460, 4118.97435870, 4124.10256383, 4200.25641012, 4150.89743569, 4144.10256390, 4138.84615364, 4128.46153819, 4122.56410229, 4121.53846126, 4128.71794844, 4190.76923063,8.57
4123.97435870, 4125.64102537, 4124.87179460, 4117.30769203, 4121.92307665, 4210.25641019, 4156.28205108, 4152.82051262, 4131.66666639, 4128.71794844, 4122.82051255, 4129.10256383, 4128.71794844, 4193.84615371,8.57
4115.89743562, 4121.53846126, 4118.07692280, 4113.84615357, 4118.46153819, 4210.51282045, 4162.82051262, 4170.12820499, 4170.51282038, 4129.48717921, 4119.74358947, 4123.71794844, 4127.82051255, 4190.51282038,8.57
4119.48717921, 4124.23076896, 4123.58974332, 4121.28205101, 4120.38461511, 4205.38461532, 4165.38461518, 4172.17948704, 4173.33333320, 4128.84615357, 4121.02564075, 4122.94871767, 4130.25640998, 4190.25641012,8.57
4126.92307665, 4127.30769203, 4127.94871767, 4124.74358947, 4124.35897408, 4202.17948711, 4165.25641005, 4160.38461518, 4136.41025621, 4127.43589716, 4124.10256383, 4125.25640998, 4130.25640998, 4189.48717935,8.57
4122.69230742, 4122.30769203, 4123.33333306, 4116.28205101, 4123.07692280, 4202.69230763, 4166.53846133, 4158.84615364, 4138.84615364, 4128.58974332, 4122.82051255, 4124.10256383, 4127.43589716, 4188.20512807,8.57
4125.64102537, 4124.61538434, 4127.17948691, 4117.94871767, 4124.99999973, 4195.25641012, 4166.28205108, 4169.23076910, 4167.56410236, 4128.20512793, 4121.79487152, 4128.07692280, 4128.84615357, 4191.92307679,8.57
4120.12820485, 4122.56410229, 4120.89743562, 4123.46153819, 4125.64102537, 4194.10256397, 4167.94871774, 4179.99999986, 4172.69230756, 4127.94871767, 4122.94871767, 4121.15384588, 4129.23076896, 4192.56410243,8.57
4121.92307665, 4125.25640998, 4123.46153819, 4122.69230742, 4123.71794844, 4205.76923070, 4162.69230749, 4167.69230749, 4157.17948697, 4128.33333306, 4123.58974332, 4123.20512793, 4129.61538434, 4194.87179474,8.57
4127.05128178, 4127.82051255, 4129.99999973, 4116.66666639, 4123.58974332, 4205.12820506, 4148.46153826, 4136.53846133, 4136.28205108, 4128.07692280, 4119.87179460, 4128.33333306, 4129.35897408, 4193.84615371,8.57
4120.64102537, 4120.76923050, 4123.33333306, 4109.87179460, 4121.41025614, 4193.46153833, 4147.05128185, 4130.12820485, 4125.12820485, 4128.20512793, 4117.94871767, 4124.74358947, 4127.05128178, 4187.94871781,8.57
4125.25640998, 4125.51282024, 4124.99999973, 4115.25640998, 4121.28205101, 4196.02564089, 4162.94871774, 4154.99999980, 4139.87179467, 4129.23076896, 4123.33333306, 4129.99999973, 4127.82051255, 4190.12820499,8.57
4121.66666639, 4125.64102537, 4121.53846126, 4123.84615357, 4121.41025614, 4211.02564096, 4173.46153833, 4172.69230756, 4164.99999980, 4127.56410229, 4122.94871767, 4127.30769203, 4129.87179460, 4192.82051269,8.57
4121.92307665, 4123.97435870, 4120.38461511, 4125.76923050, 4122.94871767, 4217.94871788, 4176.41025628, 4171.79487166, 4167.43589723, 4127.17948691, 4119.74358947, 4126.66666639, 4132.69230742, 4192.30769217,8.57
4127.43589716, 4127.56410229, 4123.58974332, 4124.23076896, 4124.87179460, 4206.66666660, 4177.94871781, 4169.74358961, 4143.71794851, 4128.97435870, 4121.02564075, 4132.05128178, 4131.53846126, 4191.41025628,8.57
4117.56410229, 4121.66666639, 4117.05128178, 4120.51282024, 4122.56410229, 4196.41025628, 4168.84615371, 4163.84615364, 4137.05128185, 4127.17948691, 4119.87179460, 4126.53846126, 4130.38461511, 4191.79487166,8.57
4122.69230742, 4121.92307665, 4119.87179460, 4124.74358947, 4124.35897408, 4207.94871788, 4164.48717928, 4158.33333313, 4161.79487159, 4126.79487152, 4122.94871767, 4127.17948691, 4134.61538434, 4192.56410243,8.57
4125.25640998, 4122.94871767, 4119.10256383, 4126.79487152, 4125.89743562, 4217.82051275, 4171.53846140, 4159.48717928, 4154.99999980, 4128.46153819, 4123.97435870, 4124.48717921, 4131.15384588, 4188.33333320,8.57
4120.76923050, 4120.76923050, 4118.20512793, 4125.64102537, 4124.48717921, 4209.23076917, 4173.71794858, 4168.07692287, 4138.20512800, 4127.82051255, 4120.38461511, 4124.48717921, 4127.43589716, 4193.46153833,8.57
4124.10256383, 4122.05128178, 4124.23076896, 4125.51282024, 4124.61538434, 4201.28205122, 4171.92307679, 4183.71794858, 4168.97435884, 4127.43589716, 4120.89743562, 4129.74358947, 4131.92307665, 4198.07692294,8.57
4119.61538434, 4118.84615357, 4119.74358947, 4123.84615357, 4123.46153819, 4206.02564096, 4175.38461525, 4183.58974345, 4178.33333320, 4127.30769203, 4120.76923050, 4122.43589716, 4130.12820485, 4189.48717935,8.57
4121.53846126, 4122.30769203, 4120.51282024, 4127.05128178, 4124.10256383, 4213.07692301, 4177.94871781, 4166.66666646, 4149.35897415, 4126.15384588, 4122.30769203, 4124.87179460, 4128.33333306, 4189.87179474,8.57
4119.10256383, 4121.15384588, 4119.61538434, 4122.56410229, 4124.74358947, 4207.17948711, 4175.76923063, 4163.46153826, 4155.25641005, 4126.92307665, 4123.46153819, 4124.61538434, 4132.30769203, 4192.56410243,8.57
4114.87179460, 4115.89743562, 4118.07692280, 4116.41025614, 4122.82051255, 4198.20512807, 4177.05128192, 4176.41025628, 4171.15384602, 4129.48717921, 4122.43589716, 4119.74358947, 4130.89743562, 4190.51282038,8.57
4119.87179460, 4122.69230742, 4124.87179460, 4118.07692280, 4122.94871767, 4204.74358968, 4172.17948704, 4168.20512807, 4142.05128185, 4128.58974332, 4122.82051255, 4125.89743562, 4127.43589716, 4190.76923063,8.57
4114.74358947, 4123.20512793, 4122.69230742, 4116.41025614, 4123.71794844, 4209.23076917, 4160.25641005, 4155.51282031, 4148.07692287, 4127.17948691, 4122.56410229, 4122.94871767, 4129.35897408, 4188.84615371,8.57
4118.97435870, 4123.20512793, 4120.64102537, 4118.58974332, 4124.61538434, 4192.82051269, 4158.33333313, 4167.17948697, 4185.89743576, 4128.71794844, 4121.02564075, 4122.05128178, 4132.43589716, 4192.43589730,8.57
4121.41025614, 4123.07692280, 4117.43589716, 4122.56410229, 4124.61538434, 4189.48717935, 4163.46153826, 4171.28205115, 4168.07692287, 4127.94871767, 4119.35897408, 4122.17948691, 4130.25640998, 4191.41025628,8.57
4118.20512793, 4120.76923050, 4119.23076896, 4117.43589716, 4122.56410229, 4199.23076910, 4154.99999980, 4155.38461518, 4137.17948697, 4126.28205101, 4120.64102537, 4119.10256383, 4127.82051255, 4186.92307679,8.57
4125.89743562, 4125.38461511, 4127.43589716, 4116.28205101, 4122.30769203, 4186.92307679, 4138.84615364, 4141.41025621, 4131.15384588, 4127.69230742, 4122.82051255, 4126.15384588, 4130.51282024, 4190.25641012,8.57
4119.61538434, 4122.17948691, 4118.97435870, 4120.89743562, 4122.43589716, 4177.82051269, 4144.48717928, 4139.35897415, 4126.28205101, 4126.53846126, 4121.79487152, 4122.69230742, 4129.74358947, 4188.97435884,8.57
4118.46153819, 4120.89743562, 4119.87179460, 4120.76923050, 4123.07692280, 4184.48717935, 4154.10256390, 4143.20512800, 4135.76923056, 4125.89743562, 4123.71794844, 4120.12820485, 4128.71794844, 4188.71794858,8.57
4122.82051255, 4125.12820485, 4127.94871767, 4117.82051255, 4123.46153819, 4193.46153833, 4152.94871774, 4150.76923056, 4158.84615364, 4126.41025614, 4125.25640998, 4122.43589716, 4130.89743562, 4188.71794858,8.57
4119.35897408, 4124.23076896, 4123.84615357, 4117.30769203, 4121.92307665, 4207.94871788, 4154.48717928, 4155.51282031, 4164.10256390, 4124.35897408, 4122.17948691, 4120.38461511, 4129.99999973, 4188.20512807,8.57
4125.12820485, 4124.87179460, 4127.17948691, 4119.23076896, 4123.71794844, 4214.35897429, 4154.74358954, 4150.51282031, 4149.99999980, 4127.17948691, 4122.69230742, 4125.76923050, 4127.69230742, 4193.33333320,8.57
4124.23076896, 4122.69230742, 4127.05128178, 4117.17948691, 4124.61538434, 4196.92307679, 4153.33333313, 4144.23076903, 4133.20512793, 4130.76923050, 4124.35897408, 4124.23076896, 4126.53846126, 4191.41025628,8.57
4126.53846126, 4124.48717921, 4127.56410229, 4117.69230742, 4124.35897408, 4179.35897422, 4146.02564082, 4137.94871774, 4128.20512793, 4129.23076896, 4125.38461511, 4126.15384588, 4130.76923050, 4187.43589730,8.57
4127.69230742, 4125.38461511, 4129.10256383, 4120.12820485, 4126.02564075, 4183.20512807, 4136.02564082, 4134.74358947, 4144.61538441, 4127.82051255, 4123.71794844, 4127.56410229, 4133.07692280, 4189.99999986,8.57
4117.56410229, 4118.97435870, 4121.41025614, 4119.87179460, 4124.23076896, 4192.05128192, 4140.12820492, 4136.53846133, 4142.94871774, 4128.20512793, 4121.28205101, 4119.74358947, 4128.58974332, 4193.71794858,8.57
4128.20512793, 4124.99999973, 4128.84615357, 4121.53846126, 4124.10256383, 4183.46153833, 4144.48717928, 4129.87179460, 4112.43589716, 4127.17948691, 4125.51282024, 4128.58974332, 4128.58974332, 4193.84615371,8.57
4129.23076896, 4125.64102537, 4131.28205101, 4116.41025614, 4124.23076896, 4177.30769217, 4137.94871774, 4124.23076896, 4108.33333306, 4125.76923050, 4126.92307665, 4130.64102537, 4130.25640998, 4189.10256397,8.57
4120.25640998, 4121.53846126, 4123.20512793, 4117.30769203, 4123.07692280, 4197.94871781, 4145.12820492, 4134.10256383, 4135.51282031, 4124.74358947, 4126.02564075, 4124.87179460, 4131.41025614, 4189.35897422,8.57
4123.97435870, 4126.53846126, 4123.20512793, 4122.56410229, 4124.87179460, 4211.02564096, 4154.23076903, 4135.89743569, 4140.38461518, 4126.92307665, 4126.41025614, 4128.46153819, 4131.41025614, 4191.15384602,8.57
4120.76923050, 4122.17948691, 4121.15384588, 4112.56410229, 4122.17948691, 4200.64102551, 4146.15384595, 4126.28205101, 4127.17948691, 4130.51282024, 4124.23076896, 4126.02564075, 4127.82051255, 4188.07692294,8.57
4125.12820485, 4121.28205101, 4124.48717921, 4108.84615357, 4120.76923050, 4203.33333327, 4154.74358954, 4138.46153826, 4138.20512800, 4127.30769203, 4124.61538434, 4127.94871767, 4130.12820485, 4188.97435884,8.57
4122.43589716, 4123.33333306, 4121.02564075, 4112.43589716, 4121.02564075, 4216.28205122, 4171.15384602, 4154.74358954, 4168.97435884, 4124.23076896, 4123.84615357, 4128.84615357, 4133.07692280, 4189.61538448,8.57
4115.89743562, 4121.92307665, 4117.30769203, 4111.41025614, 4118.97435870, 4231.66666660, 4174.23076910, 4157.94871774, 4178.71794858, 4127.17948691, 4122.82051255, 4126.02564075, 4129.61538434, 4190.89743576,8.57
4124.35897408, 4124.35897408, 4122.17948691, 4113.33333306, 4121.28205101, 4233.07692301, 4174.10256397, 4166.92307672, 4169.61538448, 4128.20512793, 4125.89743562, 4127.43589716, 4129.23076896, 4193.07692294,8.57
4121.79487152, 4120.25640998, 4117.94871767, 4113.20512793, 4122.94871767, 4203.46153840, 4162.56410236, 4163.84615364, 4156.79487159, 4125.25640998, 4125.51282024, 4123.97435870, 4130.76923050, 4189.10256397,8.57
4120.64102537, 4121.53846126, 4121.53846126, 4117.43589716, 4123.07692280, 4190.64102551, 4152.17948697, 4150.64102544, 4140.12820492, 4126.41025614, 4124.23076896, 4126.92307665, 4129.61538434, 4190.89743576,8.57
4118.58974332, 4124.61538434, 4123.71794844, 4121.41025614, 4122.82051255, 4217.17948711, 4169.61538448, 4162.30769210, 4140.76923056, 4128.97435870, 4123.84615357, 4123.46153819, 4128.20512793, 4192.43589730,8.57
4113.97435870, 4121.41025614, 4120.76923050, 4112.82051255, 4121.53846126, 4231.15384609, 4178.46153833, 4166.66666646, 4159.10256390, 4127.56410229, 4119.87179460, 4117.94871767, 4128.58974332, 4191.15384602,8.57
4123.33333306, 4125.25640998, 4123.58974332, 4109.99999973, 4123.58974332, 4225.25641019, 4166.02564082, 4149.74358954, 4161.28205108, 4126.53846126, 4121.79487152, 4127.05128178, 4130.76923050, 4192.43589730,8.57
4119.10256383, 4124.10256383, 4117.43589716, 4115.25640998, 4123.46153819, 4223.97435891, 4174.61538448, 4160.12820492, 4162.82051262, 4127.82051255, 4125.25640998, 4123.58974332, 4129.35897408, 4191.41025628,8.57
4115.64102537, 4122.30769203, 4119.48717921, 4117.56410229, 4121.66666639, 4210.76923070, 4181.28205115, 4172.17948704, 4170.64102551, 4127.56410229, 4124.10256383, 4122.17948691, 4128.71794844, 4192.94871781,8.57
4122.17948691, 4123.33333306, 4122.69230742, 4113.71794844, 4123.07692280, 4199.74358961, 4161.66666646, 4153.46153826, 4157.56410236, 4126.79487152, 4122.82051255, 4125.89743562, 4130.25640998, 4190.89743576,8.57
4119.87179460, 4118.84615357, 4112.82051255, 4111.02564075, 4123.20512793, 4208.20512814, 4155.64102544, 4153.07692287, 4150.89743569, 4127.82051255, 4122.30769203, 4120.64102537, 4129.61538434, 4188.84615371,8.57
4123.33333306, 4123.97435870, 4116.15384588, 4117.05128178, 4122.82051255, 4197.94871781, 4156.79487159, 4163.84615364, 4166.79487159, 4128.33333306, 4123.33333306, 4123.20512793, 4130.38461511, 4194.10256397,8.57
4119.35897408, 4124.61538434, 4121.41025614, 4114.23076896, 4122.56410229, 4185.76923063, 4139.74358954, 4142.17948697, 4157.94871774, 4127.69230742, 4122.69230742, 4121.66666639, 4129.74358947, 4192.17948704,8.57
4117.30769203, 4122.69230742, 4123.58974332, 4108.84615357, 4123.97435870, 4204.99999993, 4141.53846133, 4128.97435870, 4132.82051255, 4127.69230742, 4123.58974332, 4121.79487152, 4128.58974332, 4191.28205115,8.57
4121.53846126, 4126.28205101, 4127.56410229, 4113.58974332, 4127.69230742, 4217.43589737, 4172.30769217, 4156.28205108, 4148.71794851, 4127.69230742, 4125.25640998, 4124.35897408, 4129.74358947, 4194.48717935,8.57
4114.74358947, 4121.66666639, 4124.35897408, 4116.79487152, 4124.87179460, 4209.74358968, 4182.05128192, 4176.41025628, 4178.58974345, 4127.82051255, 4123.84615357, 4119.35897408, 4128.97435870, 4190.76923063,8.57
4120.25640998, 4122.56410229, 4128.20512793, 4121.41025614, 4123.07692280, 4216.02564096, 4166.79487159, 4165.25641005, 4170.51282038, 4128.84615357, 4123.97435870, 4125.64102537, 4128.07692280, 4189.87179474,8.57
4122.17948691, 4123.20512793, 4127.43589716, 4125.51282024, 4124.99999973, 4225.38461532, 4167.05128185, 4162.05128185, 4160.89743569, 4128.07692280, 4121.66666639, 4126.02564075, 4127.82051255, 4189.23076910,8.57
4120.38461511, 4121.28205101, 4123.33333306, 4124.61538434, 4124.23076896, 4216.41025634, 4181.92307679, 4176.41025628, 4175.12820499, 4126.79487152, 4120.64102537, 4121.41025614, 4131.92307665, 4189.61538448,8.57
4124.61538434, 4126.02564075, 4125.12820485, 4118.84615357, 4124.74358947, 4197.94871781, 4171.92307679, 4170.64102551, 4173.58974345, 4128.20512793, 4123.97435870, 4124.74358947, 4134.35897408, 4190.51282038,8.57
4117.56410229, 4124.74358947, 4123.71794844, 4113.33333306, 4122.94871767, 4193.07692294, 4151.92307672, 4155.76923056, 4160.12820492, 4128.84615357, 4123.46153819, 4120.38461511, 4128.71794844, 4188.84615371,8.57
4122.05128178, 4126.79487152, 4130.38461511, 4120.25640998, 4121.02564075, 4206.15384609, 4157.56410236, 4161.15384595, 4172.05128192, 4127.30769203, 4124.48717921, 4122.56410229, 4128.84615357, 4193.58974345,8.57
4123.58974332, 4126.28205101, 4127.30769203, 4124.48717921, 4122.56410229, 4206.02564096, 4168.07692287, 4160.64102544, 4175.12820499, 4126.92307665, 4126.41025614, 4124.23076896, 4132.30769203, 4192.30769217,8.57
4116.41025614, 4121.28205101, 4118.97435870, 4121.02564075, 4123.71794844, 4186.66666653, 4164.74358954, 4152.30769210, 4151.02564082, 4129.61538434, 4125.25640998, 4121.53846126, 4129.87179460, 4187.43589730,8.57
4125.89743562, 4122.94871767, 4124.99999973, 4125.64102537, 4123.58974332, 4175.25641012, 4162.82051262, 4157.94871774, 4147.30769210, 4129.87179460, 4124.48717921, 4127.94871767, 4128.33333306, 4191.41025628,8.57
4124.99999973, 4119.74358947, 4122.94871767, 4124.48717921, 4121.02564075, 4166.15384595, 4162.82051262, 4162.43589723, 4162.82051262, 4125.25640998, 4123.07692280, 4125.25640998, 4128.33333306, 4189.99999986,8.57
4124.10256383, 4122.43589716, 4123.97435870, 4119.61538434, 4122.17948691, 4147.17948697, 4158.33333313, 4159.61538441, 4164.87179467, 4125.38461511, 4125.12820485, 4125.64102537, 4132.30769203, 4189.10256397,8.57
4124.23076896, 4123.84615357, 4124.10256383, 4124.61538434, 4124.10256383, 4150.12820492, 4159.87179467, 4163.07692287, 4163.71794851, 4128.71794844, 4126.53846126, 4129.61538434, 4134.35897408, 4192.69230756,8.57
4118.07692280, 4117.17948691, 4117.94871767, 4128.33333306, 4121.53846126, 4169.99999986, 4166.92307672, 4165.12820492, 4166.15384595, 4127.69230742, 4123.33333306, 4126.41025614, 4131.02564075, 4192.17948704,8.57
4125.64102537, 4122.43589716, 4124.35897408, 4124.87179460, 4122.69230742, 4164.99999980, 4161.92307672, 4160.25641005, 4161.15384595, 4126.28205101, 4122.69230742, 4128.20512793, 4129.74358947, 4188.97435884,8.57
4121.41025614, 4123.20512793, 4122.56410229, 4120.25640998, 4123.71794844, 4151.15384595, 4152.82051262, 4155.38461518, 4157.17948697, 4127.69230742, 4122.56410229, 4125.12820485, 4129.23076896, 4187.94871781,8.57
4123.20512793, 4122.56410229, 4123.20512793, 4120.76923050, 4120.51282024, 4152.56410236, 4152.94871774, 4153.58974339, 4158.20512800, 4128.20512793, 4123.58974332, 4128.71794844, 4131.28205101, 4191.66666653,8.57
4130.51282024, 4126.53846126, 4128.46153819, 4117.05128178, 4121.79487152, 4156.41025621, 4154.48717928, 4153.07692287, 4146.15384595, 4128.20512793, 4125.64102537, 4130.25640998, 4132.05128178, 4188.58974345,8.57
4118.07692280, 4122.30769203, 4120.12820485, 4114.87179460, 4122.30769203, 4160.12820492, 4148.97435877, 4147.17948697, 4140.38461518, 4128.84615357, 4125.89743562, 4121.41025614, 4128.58974332, 4185.25641012,8.57
4121.02564075, 4123.71794844, 4121.28205101, 4131.28205101, 4119.99999973, 4180.25641012, 4157.05128185, 4151.66666646, 4168.71794858, 4129.10256383, 4126.92307665, 4128.07692280, 4128.71794844, 4192.56410243,8.57
4122.30769203, 4125.76923050, 4120.25640998, 4136.79487159, 4119.61538434, 4200.12820499, 4181.66666653, 4177.05128192, 4195.76923063, 4127.30769203, 4125.25640998, 4126.92307665, 4130.38461511, 4193.58974345,8.57
4117.69230742, 4124.48717921, 4116.66666639, 4124.99999973, 4121.02564075, 4190.64102551, 4180.51282038, 4179.74358961, 4181.66666653, 4125.89743562, 4123.84615357, 4120.38461511, 4130.38461511, 4191.41025628,8.57
4119.74358947, 4123.84615357, 4122.30769203, 4124.35897408, 4123.20512793, 4174.48717935, 4163.33333313, 4157.30769210, 4149.48717928, 4126.92307665, 4124.99999973, 4123.33333306, 4129.48717921, 4190.38461525,8.57
4113.84615357, 4116.79487152, 4118.33333306, 4131.79487152, 4121.79487152, 4185.38461525, 4168.33333320, 4160.12820492, 4158.58974339, 4127.94871767, 4122.94871767, 4123.84615357, 4128.20512793, 4188.97435884,8.57
4117.17948691, 4120.51282024, 4117.05128178, 4130.76923050, 4123.58974332, 4200.51282038, 4169.48717935, 4173.07692294, 4195.38461525, 4128.07692280, 4121.66666639, 4126.66666639, 4128.97435870, 4192.82051269,8.57
4117.69230742, 4123.97435870, 4116.66666639, 4123.84615357, 4125.51282024, 4197.30769217, 4161.02564082, 4165.76923056, 4191.15384602, 4129.61538434, 4120.51282024, 4119.61538434, 4127.43589716, 4189.74358961,8.57
4113.84615357, 4119.35897408, 4120.12820485, 4130.51282024, 4123.33333306, 4194.99999986, 4173.97435884, 4163.20512800, 4148.07692287, 4131.15384588, 4123.33333306, 4116.79487152, 4124.87179460, 4188.84615371,8.57
4120.89743562, 4123.71794844, 4127.43589716, 4140.12820492, 4123.71794844, 4206.79487173, 4188.07692294, 4169.61538448, 4132.69230742, 4125.38461511, 4127.82051255, 4125.76923050, 4128.20512793, 4192.69230756,8.57
4118.07692280, 4122.43589716, 4120.51282024, 4130.51282024, 4122.43589716, 4214.23076917, 4181.15384602, 4167.82051262, 4159.23076903, 4122.17948691, 4123.71794844, 4121.53846126, 4129.35897408, 4187.43589730,8.57
