AF3,F7,F3,FC5,T7,P7,O1,O2,P8,T8,FC6,F4,F8,AF4,Label
4126.28205101, 4128.84615357, 4126.15384588, 4089.48717914, 4127.56410229, 4152.30769210, 4176.79487166, 4177.69230756, 4167.05128185, 4128.20512793, 4129.61538434, 4126.53846126, 4133.46153819, 4197.69230756,8.57
4115.76923050, 4124.48717921, 4122.82051255, 4104.74358947, 4126.02564075, 4175.89743576, 4202.69230763, 4202.30769224, 4188.33333320, 4130.25640998, 4133.20512793, 4122.43589716, 4131.66666639, 4192.69230756,8.57
4126.28205101, 4128.97435870, 4127.56410229, 4111.92307665, 4128.20512793, 4179.99999986, 4205.89743583, 4203.71794865, 4181.28205115, 4130.38461511, 4131.92307665, 4119.87179460, 4131.02564075, 4193.46153833,8.57
4125.25640998, 4127.17948691, 4123.84615357, 4094.74358940, 4124.35897408, 4157.05128185, 4179.48717935, 4164.99999980, 4146.66666646, 4128.97435870, 4130.12820485, 4133.07692280, 4136.02564082, 4193.84615371,8.57
4118.58974332, 4123.97435870, 4124.87179460, 4075.12820478, 4124.23076896, 4137.30769210, 4156.92307672, 4134.61538434, 4113.84615357, 4129.61538434, 4127.94871767, 4120.64102537, 4132.43589716, 4191.15384602,8.57
4123.58974332, 4128.84615357, 4133.84615357, 4075.76923043, 4125.12820485, 4132.82051255, 4155.89743569, 4139.23076903, 4104.35897408, 4129.99999973, 4128.07692280, 4121.66666639, 4133.07692280, 4196.02564089,8.57
4118.84615357, 4125.25640998, 4123.20512793, 4083.20512786, 4120.89743562, 4132.69230742, 4157.30769210, 4144.35897415, 4113.33333306, 4127.94871767, 4130.12820485, 4129.99999973, 4134.74358947, 4194.74358961,8.57
4126.15384588, 4127.82051255, 4126.53846126, 4079.10256376, 4127.82051255, 4132.17948691, 4153.20512800, 4138.20512800, 4124.87179460, 4127.56410229, 4130.76923050, 4123.84615357, 4132.30769203, 4195.38461525,8.57
4122.30769203, 4126.28205101, 4126.28205101, 4074.61538427, 4127.82051255, 4144.10256390, 4164.48717928, 4148.97435877, 4137.05128185, 4130.12820485, 4129.48717921, 4128.84615357, 4133.58974332, 4196.41025628,8.57
4118.46153819, 4123.07692280, 4117.82051255, 4071.66666632, 4123.97435870, 4148.71794851, 4168.33333320, 4160.12820492, 4137.82051262, 4130.25640998, 4128.58974332, 4124.10256383, 4133.84615357, 4192.94871781,8.57
4128.84615357, 4130.51282024, 4128.33333306, 4067.30769189, 4126.15384588, 4141.02564082, 4153.33333313, 4149.61538441, 4132.43589716, 4128.71794844, 4134.23076896, 4126.92307665, 4135.64102544, 4198.20512807,8.57
4120.12820485, 4126.15384588, 4125.89743562, 4069.99999966, 4123.84615357, 4143.33333313, 4154.10256390, 4150.76923056, 4143.58974339, 4128.46153819, 4136.79487159, 4131.53846126, 4131.53846126, 4197.94871781,8.57
4122.30769203, 4123.84615357, 4123.33333306, 4074.10256376, 4125.51282024, 4154.48717928, 4175.25641012, 4173.07692294, 4156.28205108, 4130.25640998, 4134.87179460, 4125.25640998, 4128.97435870, 4197.43589730,8.57
4121.28205101, 4124.99999973, 4123.71794844, 4068.58974318, 4123.07692280, 4153.58974339, 4179.87179474, 4174.23076910, 4146.28205108, 4130.38461511, 4134.23076896, 4129.87179460, 4136.41025621, 4198.71794858,8.57
4114.35897408, 4122.69230742, 4119.87179460, 4061.41025600, 4123.33333306, 4139.23076903, 4159.35897415, 4147.05128185, 4124.61538434, 4125.51282024, 4129.61538434, 4122.05128178, 4134.35897408, 4194.35897422,8.57
4127.43589716, 4128.20512793, 4130.38461511, 4067.56410215, 4127.69230742, 4140.76923056, 4154.35897415, 4139.35897415, 4118.46153819, 4126.02564075, 4128.46153819, 4123.58974332, 4129.87179460, 4198.33333320,8.57
4124.48717921, 4127.82051255, 4128.84615357, 4072.94871761, 4123.07692280, 4144.61538441, 4161.15384595, 4147.30769210, 4118.46153819, 4131.02564075, 4131.02564075, 4128.58974332, 4129.10256383, 4196.41025628,8.57
4121.66666639, 4124.74358947, 4124.10256383, 4064.10256369, 4124.48717921, 4126.28205101, 4146.28205108, 4135.76923056, 4112.30769203, 4129.99999973, 4128.46153819, 4120.38461511, 4129.35897408, 4193.71794858,8.57
4121.79487152, 4124.61538434, 4123.71794844, 4060.25640984, 4124.99999973, 4119.74358947, 4140.51282031, 4143.07692287, 4134.48717921, 4127.82051255, 4127.43589716, 4130.38461511, 4132.94871767, 4195.64102551,8.57
4118.46153819, 4123.84615357, 4119.61538434, 4052.43589702, 4123.46153819, 4117.30769203, 4138.07692287, 4150.76923056, 4148.33333313, 4130.38461511, 4127.82051255, 4124.87179460, 4130.38461511, 4189.35897422,8.57
4126.79487152, 4127.43589716, 4129.48717921, 4034.74358926, 4125.76923050, 4096.66666632, 4112.56410229, 4112.94871767, 4111.41025614, 4130.89743562, 4127.05128178, 4120.76923050, 4130.76923050, 4192.56410243,8.57
4120.76923050, 4125.38461511, 4126.66666639, 4038.20512779, 4123.07692280, 4098.33333299, 4115.12820485, 4102.17948684, 4094.48717914, 4128.33333306, 4127.05128178, 4132.05128178, 4134.35897408, 4195.38461525,8.57
4124.61538434, 4126.53846126, 4122.56410229, 4051.28205087, 4126.41025614, 4111.53846126, 4136.02564082, 4121.79487152, 4102.05128171, 4128.71794844, 4128.46153819, 4126.41025614, 4131.66666639, 4190.89743576,8.57
4132.17948691, 4129.61538434, 4128.58974332, 4052.69230728, 4126.79487152, 4106.53846126, 4128.07692280, 4110.89743562, 4085.12820478, 4131.15384588, 4132.69230742, 4131.79487152, 4131.92307665, 4192.05128192,8.57
4119.10256383, 4124.10256383, 4124.99999973, 4056.28205087, 4122.56410229, 4109.10256383, 4121.79487152, 4104.23076896, 4081.28205094, 4130.76923050, 4132.30769203, 4130.25640998, 4131.15384588, 4192.94871781,8.57
4123.97435870, 4126.41025614, 4126.92307665, 4066.28205087, 4128.46153819, 4113.84615357, 4129.74358947, 4119.61538434, 4105.25640998, 4128.97435870, 4131.53846126, 4124.87179460, 4132.30769203, 4199.74358961,8.57
4123.20512793, 4126.41025614, 4120.64102537, 4067.30769189, 4127.43589716, 4103.58974332, 4128.97435870, 4124.61538434, 4119.87179460, 4128.97435870, 4134.87179460, 4133.46153819, 4133.84615357, 4199.99999986,8.57
4121.28205101, 4124.99999973, 4118.46153819, 4054.87179446, 4124.48717921, 4094.23076889, 4120.76923050, 4113.07692280, 4107.69230742, 4129.23076896, 4129.48717921, 4125.76923050, 4129.87179460, 4194.74358961,8.57
4125.51282024, 4125.76923050, 4124.99999973, 4043.20512779, 4125.38461511, 4098.46153812, 4124.87179460, 4113.20512793, 4095.89743555, 4129.99999973, 4122.30769203, 4124.74358947, 4132.43589716, 4198.46153833,8.57
4117.82051255, 4121.79487152, 4115.25640998, 4038.71794830, 4121.15384588, 4096.28205094, 4124.99999973, 4117.82051255, 4096.41025607, 4130.51282024, 4122.82051255, 4123.33333306, 4133.07692280, 4195.51282038,8.57
4126.02564075, 4127.05128178, 4121.02564075, 4045.51282010, 4121.79487152, 4089.48717914, 4115.64102537, 4109.35897408, 4094.23076889, 4130.25640998, 4124.48717921, 4118.97435870, 4130.76923050, 4194.35897422,8.57
4124.74358947, 4126.79487152, 4127.17948691, 4057.30769189, 4122.17948691, 4100.89743555, 4119.99999973, 4108.07692280, 4096.66666632, 4129.61538434, 4123.20512793, 4126.79487152, 4131.79487152, 4195.12820499,8.57
4119.87179460, 4123.33333306, 4123.07692280, 4052.17948677, 4125.25640998, 4095.64102530, 4113.46153819, 4101.92307658, 4092.05128171, 4127.69230742, 4122.69230742, 4119.87179460, 4129.87179460, 4193.46153833,8.57
4127.69230742, 4129.10256383, 4127.17948691, 4043.97435856, 4128.07692280, 4082.43589709, 4107.94871767, 4101.66666632, 4095.25640991, 4127.17948691, 4125.51282024, 4125.25640998, 4132.43589716, 4197.43589730,8.57
4121.15384588, 4126.41025614, 4123.58974332, 4052.17948677, 4121.41025614, 4097.56410222, 4123.46153819, 4122.69230742, 4116.66666639, 4127.05128178, 4125.38461511, 4129.87179460, 4131.79487152, 4193.58974345,8.57
4127.05128178, 4127.17948691, 4127.43589716, 4058.84615343, 4122.30769203, 4102.17948684, 4124.87179460, 4122.82051255, 4107.56410229, 4128.84615357, 4123.97435870, 4122.43589716, 4128.46153819, 4193.20512807,8.57
4126.79487152, 4128.71794844, 4126.28205101, 4053.46153805, 4124.48717921, 4087.30769196, 4116.15384588, 4102.82051255, 4079.23076889, 4131.15384588, 4121.41025614, 4132.17948691, 4132.82051255, 4196.92307679,8.57
4120.76923050, 4125.64102537, 4119.99999973, 4047.94871754, 4124.61538434, 4083.71794837, 4115.76923050, 4093.58974325, 4077.69230735, 4129.87179460, 4117.69230742, 4124.87179460, 4131.92307665, 4192.05128192,8.57
4130.25640998, 4129.87179460, 4128.46153819, 4058.07692266, 4125.64102537, 4101.92307658, 4125.25640998, 4105.89743562, 4101.15384581, 4127.82051255, 4122.17948691, 4122.30769203, 4132.43589716, 4194.48717935,8.57
4123.33333306, 4127.05128178, 4123.46153819, 4066.92307651, 4121.66666639, 4111.02564075, 4125.12820485, 4113.71794844, 4106.28205101, 4127.56410229, 4124.48717921, 4131.15384588, 4133.71794844, 4195.89743576,8.57
4126.02564075, 4127.30769203, 4122.17948691, 4047.94871754, 4123.97435870, 4084.87179453, 4097.43589709, 4087.43589709, 4072.82051248, 4128.97435870, 4118.46153819, 4125.51282024, 4131.53846126, 4194.99999986,8.57
4125.25640998, 4129.35897408, 4123.07692280, 4035.76923029, 4125.12820485, 4065.38461497, 4080.64102530, 4064.23076882, 4051.79487138, 4129.61538434, 4117.17948691, 4128.71794844, 4133.58974332, 4194.48717935,8.57
4112.56410229, 4126.02564075, 4116.79487152, 4049.23076882, 4123.71794844, 4068.58974318, 4085.89743555, 4070.89743555, 4059.10256369, 4128.33333306, 4118.07692280, 4124.23076896, 4129.99999973, 4191.02564089,8.57
4123.46153819, 4128.07692280, 4124.74358947, 4056.66666625, 4127.56410229, 4070.38461504, 4088.71794837, 4078.97435863, 4058.84615343, 4128.46153819, 4118.84615357, 4123.20512793, 4131.28205101, 4196.53846140,8.57
4122.94871767, 4122.69230742, 4122.56410229, 4061.79487138, 4125.64102537, 4080.76923043, 4105.38461511, 4094.61538427, 4078.20512786, 4129.35897408, 4125.12820485, 4127.56410229, 4135.64102544, 4197.30769217,8.57
4122.43589716, 4123.46153819, 4120.64102537, 4070.12820478, 4125.89743562, 4091.41025607, 4123.46153819, 4115.51282024, 4111.28205101, 4128.46153819, 4127.05128178, 4118.07692280, 4129.61538434, 4193.97435884,8.57
4122.43589716, 4123.46153819, 4120.64102537, 4070.12820478, 4125.89743562, 4091.41025607, 4123.46153819, 4115.51282024, 4111.28205101, 4128.46153819, 4127.05128178, 4118.07692280, 4129.61538434, 4193.97435884,8.57
4124.23076896, 4127.82051255, 4124.74358947, 4070.64102530, 4124.10256383, 4088.33333299, 4115.89743562, 4110.89743562, 4103.84615357, 4126.66666639, 4123.20512793, 4124.74358947, 4129.74358947, 4193.46153833,8.57
4114.74358947, 4123.20512793, 4119.48717921, 4072.69230735, 4121.53846126, 4089.35897402, 4109.48717921, 4100.12820478, 4090.12820478, 4128.07692280, 4122.56410229, 4121.79487152, 4130.12820485, 4190.38461525,8.57
4122.69230742, 4126.79487152, 4127.30769203, 4073.58974325, 4126.02564075, 4087.56410222, 4107.43589716, 4099.35897402, 4099.48717914, 4130.64102537, 4126.79487152, 4119.35897408, 4126.92307665, 4196.92307679,8.57
4124.23076896, 4128.58974332, 4127.94871767, 4060.76923036, 4122.30769203, 4074.48717914, 4096.15384581, 4088.46153812, 4090.64102530, 4130.25640998, 4128.71794844, 4133.20512793, 4128.46153819, 4195.12820499,8.57
4127.56410229, 4127.69230742, 4126.28205101, 4050.38461497, 4123.46153819, 4066.79487138, 4089.10256376, 4075.76923043, 4068.20512779, 4129.23076896, 4124.35897408, 4124.10256383, 4130.38461511, 4187.43589730,8.57
4131.28205101, 4129.48717921, 4129.10256383, 4057.69230728, 4125.38461511, 4073.46153812, 4093.97435863, 4081.15384581, 4075.25640991, 4129.35897408, 4124.61538434, 4126.02564075, 4132.94871767, 4193.58974345,8.57
4121.53846126, 4126.15384588, 4119.23076896, 4067.94871754, 4121.66666639, 4081.66666632, 4103.97435870, 4094.99999966, 4091.15384581, 4129.23076896, 4127.94871767, 4130.64102537, 4129.10256383, 4194.23076910,8.57
4130.12820485, 4127.43589716, 4125.76923050, 4074.61538427, 4125.51282024, 4088.97435863, 4118.97435870, 4111.79487152, 4094.87179453, 4129.74358947, 4128.71794844, 4126.79487152, 4128.58974332, 4195.51282038,8.57
4124.10256383, 4122.94871767, 4126.41025614, 4080.25640991, 4122.30769203, 4091.28205094, 4127.94871767, 4126.15384588, 4104.35897408, 4130.89743562, 4128.97435870, 4132.05128178, 4135.25640998, 4199.48717935,8.57
4118.46153819, 4121.02564075, 4117.17948691, 4071.92307658, 4121.41025614, 4075.25640991, 4110.64102537, 4111.15384588, 4093.33333299, 4127.82051255, 4126.53846126, 4124.87179460, 4133.20512793, 4201.15384609,8.57
4130.76923050, 4127.82051255, 4124.61538434, 4064.74358933, 4126.79487152, 4067.69230728, 4100.12820478, 4092.94871761, 4079.87179453, 4126.02564075, 4124.35897408, 4128.33333306, 4132.17948691, 4202.82051275,8.57
4121.28205101, 4122.94871767, 4122.82051255, 4067.17948677, 4124.48717921, 4074.87179453, 4104.74358947, 4096.41025607, 4090.25640991, 4128.07692280, 4124.35897408, 4128.84615357, 4131.79487152, 4193.97435884,8.57
4122.05128178, 4125.25640998, 4124.74358947, 4056.28205087, 4127.05128178, 4064.48717907, 4091.53846119, 4088.58974325, 4082.56410222, 4129.10256383, 4124.99999973, 4121.66666639, 4130.89743562, 4196.28205115,8.57
4125.38461511, 4128.46153819, 4127.43589716, 4044.99999959, 4124.99999973, 4063.58974318, 4085.25640991, 4075.64102530, 4066.66666625, 4130.38461511, 4125.89743562, 4129.74358947, 4134.23076896, 4200.51282038,8.57
4120.38461511, 4124.61538434, 4122.69230742, 4047.94871754, 4122.56410229, 4074.10256376, 4088.58974325, 4072.17948684, 4062.43589702, 4131.28205101, 4126.66666639, 4121.79487152, 4132.05128178, 4191.92307679,8.57
4125.76923050, 4127.82051255, 4127.30769203, 4054.99999959, 4126.66666639, 4063.97435856, 4081.92307658, 4075.25640991, 4066.92307651, 4129.87179460, 4131.02564075, 4121.15384588, 4132.69230742, 4192.94871781,8.57
4122.56410229, 4126.66666639, 4125.51282024, 4052.05128164, 4123.71794844, 4054.74358933, 4079.74358940, 4079.48717914, 4077.56410222, 4130.76923050, 4131.53846126, 4126.02564075, 4134.35897408, 4193.71794858,8.57
4129.99999973, 4127.56410229, 4128.84615357, 4041.66666625, 4125.38461511, 4058.20512779, 4081.53846119, 4072.30769196, 4071.92307658, 4133.33333306, 4125.51282024, 4120.12820485, 4133.33333306, 4192.56410243,8.57
4126.53846126, 4126.92307665, 4125.89743562, 4041.92307651, 4125.12820485, 4061.92307651, 4083.07692273, 4070.76923043, 4067.30769189, 4131.53846126, 4125.89743562, 4128.46153819, 4134.61538434, 4192.82051269,8.57
4116.79487152, 4122.56410229, 4118.84615357, 4044.61538420, 4120.89743562, 4056.79487138, 4079.35897402, 4075.12820478, 4075.12820478, 4127.43589716, 4127.82051255, 4123.20512793, 4129.48717921, 4191.41025628,8.57
4128.71794844, 4126.79487152, 4132.30769203, 4035.25640977, 4124.10256383, 4048.07692266, 4070.76923043, 4066.02564061, 4068.71794830, 4128.84615357, 4126.79487152, 4123.84615357, 4130.64102537, 4196.79487166,8.57
4128.71794844, 4126.79487152, 4132.30769203, 4035.25640977, 4124.10256383, 4048.07692266, 4070.76923043, 4066.02564061, 4068.71794830, 4128.84615357, 4126.79487152, 4123.84615357, 4130.64102537, 4196.79487166,8.57
4122.82051255, 4125.25640998, 4127.82051255, 4033.46153798, 4124.23076896, 4052.43589702, 4080.89743555, 4065.89743548, 4063.46153805, 4130.51282024, 4125.51282024, 4132.43589716, 4133.46153819, 4195.89743576,8.57
4124.87179460, 4125.64102537, 4121.79487152, 4040.76923036, 4124.48717921, 4050.89743548, 4089.35897402, 4074.61538427, 4072.69230735, 4128.71794844, 4124.87179460, 4125.51282024, 4129.10256383, 4194.23076910,8.57
4130.38461511, 4126.92307665, 4126.41025614, 4042.94871754, 4122.05128178, 4042.94871754, 4077.82051248, 4067.69230728, 4070.76923043, 4129.23076896, 4128.97435870, 4134.10256383, 4133.33333306, 4196.02564089,8.57
4119.87179460, 4122.30769203, 4120.64102537, 4045.89743548, 4123.58974332, 4053.07692266, 4082.05128171, 4064.35897395, 4061.28205087, 4131.02564075, 4129.74358947, 4129.74358947, 4135.89743569, 4194.99999986,8.57
4126.53846126, 4126.28205101, 4123.71794844, 4048.58974318, 4127.17948691, 4060.89743548, 4096.92307658, 4070.64102530, 4063.97435856, 4132.17948691, 4125.38461511, 4123.07692280, 4134.48717921, 4202.56410250,8.57
4123.20512793, 4124.87179460, 4121.79487152, 4047.56410215, 4120.51282024, 4052.94871754, 4097.43589709, 4076.79487145, 4075.89743555, 4131.15384588, 4123.58974332, 4131.02564075, 4132.17948691, 4199.61538448,8.57
4120.12820485, 4122.05128178, 4122.05128178, 4052.43589702, 4122.69230742, 4048.97435856, 4097.69230735, 4090.38461504, 4089.10256376, 4128.07692280, 4122.69230742, 4121.15384588, 4129.23076896, 4190.25641012,8.57
4122.56410229, 4124.99999973, 4127.82051255, 4058.07692266, 4125.25640998, 4052.56410215, 4102.94871767, 4098.84615350, 4092.56410222, 4128.58974332, 4122.69230742, 4125.12820485, 4132.30769203, 4193.97435884,8.57
4113.58974332, 4122.82051255, 4119.87179460, 4054.10256369, 4119.23076896, 4045.76923036, 4097.82051248, 4086.79487145, 4081.15384581, 4129.87179460, 4123.46153819, 4126.79487152, 4128.84615357, 4193.07692294,8.57
4121.28205101, 4125.89743562, 4125.12820485, 4043.07692266, 4123.20512793, 4034.87179439, 4084.87179453, 4068.71794830, 4069.48717907, 4130.25640998, 4124.74358947, 4121.41025614, 4128.71794844, 4193.20512807,8.57
4121.53846126, 4125.25640998, 4128.07692280, 4041.92307651, 4125.38461511, 4038.20512779, 4086.28205094, 4075.12820478, 4079.74358940, 4129.61538434, 4123.71794844, 4128.33333306, 4135.89743569, 4194.99999986,8.57
4120.76923050, 4125.25640998, 4125.76923050, 4050.64102523, 4126.02564075, 4041.53846113, 4097.82051248, 4096.66666632, 4097.30769196, 4125.89743562, 4121.02564075, 4121.66666639, 4131.92307665, 4193.46153833,8.57
4126.92307665, 4128.20512793, 4131.66666639, 4060.89743548, 4126.15384588, 4042.17948677, 4104.61538434, 4099.61538427, 4098.33333299, 4126.66666639, 4125.64102537, 4124.99999973, 4131.02564075, 4196.41025628,8.57
4119.10256383, 4120.38461511, 4125.51282024, 4057.05128164, 4120.51282024, 4043.84615343, 4100.38461504, 4081.02564068, 4083.33333299, 4130.76923050, 4128.58974332, 4128.33333306, 4133.07692280, 4193.20512807,8.57
4126.92307665, 4124.10256383, 4128.84615357, 4044.87179446, 4124.23076896, 4037.69230728, 4090.25640991, 4067.94871754, 4069.35897395, 4130.64102537, 4127.17948691, 4122.17948691, 4131.66666639, 4195.25641012,8.57
4126.79487152, 4129.10256383, 4129.35897408, 4056.41025600, 4124.74358947, 4039.74358933, 4094.10256376, 4076.28205094, 4082.43589709, 4128.33333306, 4129.87179460, 4129.10256383, 4131.92307665, 4197.43589730,8.57
4120.76923050, 4124.48717921, 4121.92307665, 4068.46153805, 4121.66666639, 4043.71794830, 4095.38461504, 4075.64102530, 4094.87179453, 4127.43589716, 4130.76923050, 4124.74358947, 4128.71794844, 4190.76923063,8.57
4129.10256383, 4127.17948691, 4127.30769203, 4062.69230728, 4122.56410229, 4043.20512779, 4094.74358940, 4075.38461504, 4091.15384581, 4127.94871767, 4129.87179460, 4129.61538434, 4131.53846126, 4194.23076910,8.57
4122.82051255, 4126.79487152, 4121.79487152, 4063.58974318, 4119.61538434, 4048.20512779, 4102.82051255, 4094.35897402, 4096.28205094, 4128.33333306, 4128.71794844, 4133.33333306, 4134.48717921, 4194.48717935,8.57
4126.41025614, 4127.94871767, 4122.30769203, 4058.71794830, 4120.12820485, 4038.97435856, 4089.99999966, 4087.43589709, 4088.58974325, 4129.23076896, 4126.53846126, 4124.74358947, 4132.56410229, 4195.51282038,8.57
4125.12820485, 4125.12820485, 4125.25640998, 4046.53846113, 4119.10256383, 4028.07692259, 4076.15384581, 4071.15384581, 4076.66666632, 4129.87179460, 4125.64102537, 4132.05128178, 4133.58974332, 4198.84615371,8.57
4116.15384588, 4120.25640998, 4119.87179460, 4049.61538420, 4122.30769203, 4033.20512772, 4089.10256376, 4088.58974325, 4092.56410222, 4128.20512793, 4125.64102537, 4125.38461511, 4132.30769203, 4194.23076910,8.57
4127.56410229, 4124.74358947, 4126.92307665, 4051.02564061, 4126.15384588, 4032.82051234, 4094.61538427, 4096.15384581, 4098.84615350, 4127.82051255, 4125.76923050, 4125.38461511, 4132.94871767, 4196.79487166,8.57
4122.43589716, 4123.07692280, 4124.61538434, 4042.56410215, 4118.71794844, 4027.82051234, 4086.53846119, 4076.41025607, 4078.33333299, 4129.99999973, 4123.71794844, 4131.79487152, 4131.02564075, 4196.41025628,8.57
4120.89743562, 4123.97435870, 4125.25640998, 4052.69230728, 4121.02564075, 4040.76923036, 4093.20512786, 4078.20512786, 4077.30769196, 4130.51282024, 4123.07692280, 4119.48717921, 4126.28205101, 4194.74358961,8.57
4127.17948691, 4126.02564075, 4128.20512793, 4064.74358933, 4123.84615357, 4051.41025600, 4096.41025607, 4086.28205094, 4085.12820478, 4128.84615357, 4125.38461511, 4125.25640998, 4130.51282024, 4196.28205115,8.57
4121.28205101, 4122.05128178, 4120.38461511, 4051.53846113, 4122.69230742, 4033.46153798, 4074.87179453, 4059.61538420, 4061.15384574, 4129.23076896, 4122.94871767, 4124.87179460, 4131.92307665, 4193.33333320,8.57
4124.74358947, 4127.05128178, 4126.02564075, 4047.30769189, 4126.15384588, 4021.41025593, 4066.41025600, 4050.89743548, 4054.48717907, 4130.12820485, 4120.76923050, 4123.58974332, 4130.38461511, 4196.02564089,8.57
4122.05128178, 4127.82051255, 4124.61538434, 4063.07692266, 4122.17948691, 4034.99999952, 4081.53846119, 4074.61538427, 4082.43589709, 4128.58974332, 4123.97435870, 4132.43589716, 4130.25640998, 4195.64102551,8.57
4128.97435870, 4127.17948691, 4125.89743562, 4062.82051241, 4122.56410229, 4037.56410215, 4077.05128171, 4064.61538420, 4074.10256376, 4126.41025614, 4126.15384588, 4124.61538434, 4130.38461511, 4194.10256397,8.57
4131.41025614, 4128.58974332, 4131.79487152, 4054.10256369, 4122.69230742, 4035.89743541, 4069.35897395, 4050.25640984, 4053.58974318, 4126.28205101, 4126.79487152, 4127.17948691, 4132.82051255, 4197.17948704,8.57
4118.07692280, 4123.07692280, 4122.56410229, 4051.92307651, 4118.71794844, 4045.25640984, 4082.43589709, 4067.69230728, 4065.38461497, 4127.56410229, 4126.02564075, 4125.38461511, 4128.97435870, 4191.66666653,8.57
4128.20512793, 4125.64102537, 4126.41025614, 4048.71794830, 4122.17948691, 4041.41025600, 4081.53846119, 4069.23076882, 4070.12820478, 4129.74358947, 4124.23076896, 4125.38461511, 4129.74358947, 4193.20512807,8.57
4124.74358947, 4127.05128178, 4127.82051255, 4059.35897395, 4118.97435870, 4039.99999959, 4076.79487145, 4065.38461497, 4077.56410222, 4129.48717921, 4124.35897408, 4134.35897408, 4135.12820485, 4195.89743576,8.57
4117.56410229, 4124.99999973, 4123.97435870, 4072.30769196, 4118.71794844, 4043.33333292, 4077.17948684, 4067.69230728, 4080.76923043, 4127.30769203, 4122.17948691, 4123.84615357, 4129.10256383, 4193.84615371,8.57
4125.38461511, 4123.71794844, 4126.15384588, 4066.41025600, 4123.33333306, 4037.43589702, 4076.79487145, 4066.41025600, 4065.89743548, 4130.64102537, 4121.02564075, 4127.94871767, 4129.87179460, 4197.56410243,8.57
4120.25640998, 4119.74358947, 4119.48717921, 4059.23076882, 4121.53846126, 4033.46153798, 4077.82051248, 4070.25640991, 4069.10256369, 4132.30769203, 4121.28205101, 4128.46153819, 4133.71794844, 4194.48717935,8.57
4125.12820485, 4126.53846126, 4125.38461511, 4064.23076882, 4123.84615357, 4031.15384567, 4071.79487145, 4065.89743548, 4072.05128171, 4128.84615357, 4119.99999973, 4119.99999973, 4131.28205101, 4196.28205115,8.57
4124.74358947, 4126.53846126, 4127.56410229, 4070.12820478, 4122.05128178, 4031.92307644, 4067.05128164, 4053.58974318, 4059.61538420, 4128.58974332, 4119.61538434, 4129.10256383, 4131.15384588, 4198.58974345,8.57
4120.38461511, 4122.30769203, 4122.43589716, 4057.82051241, 4122.30769203, 4022.94871747, 4056.02564061, 4044.87179446, 4052.94871754, 4129.99999973, 4118.07692280, 4121.92307665, 4129.99999973, 4192.43589730,8.57
4125.76923050, 4127.05128178, 4128.33333306, 4046.53846113, 4124.99999973, 4009.74358926, 4047.94871754, 4041.92307651, 4053.07692266, 4129.48717921, 4116.79487152, 4122.94871767, 4134.35897408, 4195.25641012,8.57
4119.74358947, 4124.74358947, 4124.10256383, 4052.56410215, 4119.99999973, 4016.53846106, 4058.46153805, 4049.23076882, 4050.76923036, 4127.94871767, 4117.43589716, 4127.30769203, 4134.99999973, 4194.99999986,8.57
4124.87179460, 4126.41025614, 4126.28205101, 4051.15384574, 4122.05128178, 4018.58974311, 4055.51282010, 4044.61538420, 4036.28205080, 4128.20512793, 4118.71794844, 4119.99999973, 4128.84615357, 4192.43589730,8.57
4122.30769203, 4126.79487152, 4129.10256383, 4048.71794830, 4123.46153819, 4011.02564054, 4041.92307651, 4029.74358926, 4031.41025593, 4130.12820485, 4119.61538434, 4130.51282024, 4129.74358947, 4194.99999986,8.57
4119.35897408, 4125.51282024, 4127.05128178, 4056.02564061, 4124.23076896, 4009.48717900, 4040.64102523, 4030.76923029, 4041.28205087, 4129.87179460, 4118.71794844, 4127.69230742, 4129.61538434, 4195.25641012,8.57
4132.30769203, 4130.76923050, 4133.46153819, 4051.53846113, 4126.79487152, 4005.76923029, 4038.33333292, 4036.15384567, 4043.71794830, 4128.33333306, 4120.89743562, 4124.10256383, 4133.33333306, 4195.76923063,8.57
4122.43589716, 4125.25640998, 4128.71794844, 4038.07692266, 4123.84615357, 3998.46153791, 4028.46153798, 4024.23076875, 4033.20512772, 4127.17948691, 4120.51282024, 4128.58974332, 4133.20512793, 4194.10256397,8.57
4124.48717921, 4124.23076896, 4129.99999973, 4038.84615343, 4125.89743562, 3996.15384560, 4028.71794824, 4019.48717900, 4030.51282003, 4127.30769203, 4116.92307665, 4125.64102537, 4127.69230742, 4197.43589730,8.57
4127.56410229, 4125.64102537, 4127.82051255, 4045.25640984, 4123.07692280, 4004.23076875, 4046.28205087, 4045.25640984, 4051.28205087, 4128.84615357, 4118.07692280, 4133.71794844, 4130.25640998, 4196.66666653,8.57
4118.84615357, 4122.17948691, 4118.71794844, 4043.07692266, 4120.51282024, 4011.41025593, 4054.23076882, 4056.15384574, 4059.61538420, 4129.99999973, 4115.89743562, 4125.64102537, 4130.64102537, 4191.15384602,8.57
4129.87179460, 4127.82051255, 4127.94871767, 4037.94871754, 4125.51282024, 4003.97435842, 4037.05128164, 4029.23076875, 4032.43589695, 4129.35897408, 4111.41025614, 4124.87179460, 4132.69230742, 4199.35897422,8.57
4124.35897408, 4123.71794844, 4123.07692280, 4031.92307644, 4121.92307665, 3992.43589688, 4020.64102516, 4013.84615336, 4011.79487131, 4128.46153819, 4114.23076896, 4133.20512793, 4134.61538434, 4197.69230756,8.57
4121.66666639, 4121.28205101, 4118.07692280, 4024.48717900, 4122.05128178, 3982.69230714, 4011.41025593, 4007.69230721, 4006.92307644, 4128.33333306, 4118.07692280, 4117.82051255, 4131.28205101, 4192.82051269,8.57
4126.41025614, 4129.35897408, 4125.64102537, 4026.66666618, 4124.61538434, 3982.69230714, 4009.23076875, 3994.48717894, 4001.53846099, 4129.61538434, 4117.56410229, 4119.48717921, 4133.07692280, 4197.17948704,8.57
4118.58974332, 4126.79487152, 4120.25640998, 4031.41025593, 4123.46153819, 3986.53846099, 4013.71794824, 3992.05128150, 3996.41025586, 4130.25640998, 4116.02564075, 4122.69230742, 4130.12820485, 4191.92307679,8.57
4123.84615357, 4125.38461511, 4125.64102537, 4030.12820465, 4125.64102537, 3987.17948663, 4016.79487131, 4003.97435842, 4007.30769183, 4130.38461511, 4121.53846126, 4123.46153819, 4129.23076896, 4193.71794858,8.57
4121.53846126, 4123.46153819, 4125.64102537, 4031.53846106, 4120.25640998, 3997.69230714, 4024.87179439, 4021.02564054, 4037.43589702, 4130.38461511, 4127.56410229, 4131.28205101, 4133.84615357, 4197.30769217,8.57
4122.56410229, 4123.20512793, 4121.92307665, 4030.38461490, 4119.87179460, 3999.99999945, 4026.02564054, 4020.64102516, 4039.87179446, 4128.71794844, 4123.71794844, 4121.41025614, 4130.64102537, 4193.84615371,8.57
4126.66666639, 4126.79487152, 4126.02564075, 4038.33333292, 4123.97435870, 4005.64102516, 4033.84615336, 4023.07692259, 4032.56410208, 4129.35897408, 4121.28205101, 4125.89743562, 4128.71794844, 4194.61538448,8.57
4116.02564075, 4123.20512793, 4120.51282024, 4053.33333292, 4119.87179460, 4020.51282003, 4049.48717907, 4041.02564061, 4048.46153805, 4131.28205101, 4124.10256383, 4127.43589716, 4129.10256383, 4192.05128192,8.57
4126.02564075, 4126.92307665, 4128.71794844, 4045.12820472, 4120.12820485, 4012.82051234, 4038.20512779, 4034.99999952, 4043.71794830, 4130.25640998, 4123.46153819, 4122.05128178, 4130.89743562, 4193.07692294,8.57
4125.76923050, 4125.38461511, 4129.99999973, 4040.76923036, 4118.58974332, 4009.61538413, 4031.53846106, 4027.56410208, 4034.74358926, 4129.99999973, 4123.71794844, 4129.99999973, 4134.87179460, 4195.12820499,8.57
4117.82051255, 4121.66666639, 4121.92307665, 4057.43589702, 4120.51282024, 4023.71794824, 4043.84615343, 4038.97435856, 4041.02564061, 4130.51282024, 4124.99999973, 4125.38461511, 4132.05128178, 4196.66666653,8.57
4123.33333306, 4127.30769203, 4124.10256383, 4060.38461497, 4124.35897408, 4026.79487131, 4044.61538420, 4041.02564061, 4037.94871754, 4129.74358947, 4123.84615357, 4130.76923050, 4132.05128178, 4199.23076910,8.57
4116.28205101, 4123.71794844, 4116.53846126, 4047.43589702, 4119.99999973, 4020.25640977, 4036.92307651, 4036.66666618, 4038.20512779, 4129.61538434, 4121.66666639, 4131.92307665, 4132.30769203, 4191.28205115,8.57
4123.46153819, 4122.69230742, 4122.94871767, 4043.07692266, 4121.79487152, 4019.99999952, 4038.33333292, 4040.12820472, 4048.07692266, 4129.87179460, 4120.51282024, 4124.10256383, 4132.43589716, 4196.41025628,8.57
4123.07692280, 4121.79487152, 4126.41025614, 4045.89743548, 4120.12820485, 4027.17948670, 4043.46153805, 4039.10256369, 4042.69230728, 4129.74358947, 4120.76923050, 4131.15384588, 4134.99999973, 4202.30769224,8.57
4114.87179460, 4121.02564075, 4120.38461511, 4051.66666625, 4118.20512793, 4040.89743548, 4055.51282010, 4041.15384574, 4038.58974318, 4130.12820485, 4123.71794844, 4120.76923050, 4131.66666639, 4192.56410243,8.57
4125.51282024, 4127.94871767, 4130.51282024, 4059.87179446, 4122.17948691, 4051.53846113, 4070.76923043, 4058.84615343, 4059.61538420, 4130.76923050, 4130.51282024, 4119.74358947, 4134.99999973, 4196.28205115,8.57
4121.15384588, 4123.97435870, 4125.51282024, 4056.79487138, 4120.51282024, 4039.10256369, 4058.84615343, 4061.66666625, 4067.69230728, 4130.38461511, 4131.28205101, 4126.28205101, 4136.15384595, 4196.66666653,8.57
4123.84615357, 4122.30769203, 4120.38461511, 4047.30769189, 4123.20512793, 4015.51282003, 4033.33333285, 4044.10256369, 4049.10256369, 4129.99999973, 4125.76923050, 4119.61538434, 4129.87179460, 4192.17948704,8.57
4126.15384588, 4124.99999973, 4123.46153819, 4052.94871754, 4122.94871767, 4016.15384567, 4034.48717900, 4043.97435856, 4047.56410215, 4128.58974332, 4128.33333306, 4128.07692280, 4132.17948691, 4195.64102551,8.57
4118.58974332, 4122.94871767, 4120.76923050, 4062.43589702, 4122.30769203, 4029.74358926, 4043.20512779, 4051.79487138, 4065.38461497, 4127.17948691, 4129.48717921, 4124.35897408, 4131.92307665, 4192.82051269,8.57
4127.94871767, 4128.71794844, 4128.07692280, 4057.05128164, 4127.05128178, 4030.25640977, 4039.10256369, 4047.30769189, 4068.71794830, 4129.48717921, 4127.17948691, 4125.51282024, 4131.28205101, 4194.48717935,8.57
4125.64102537, 4127.69230742, 4127.05128178, 4047.94871754, 4122.94871767, 4029.87179439, 4042.30769189, 4041.66666625, 4050.12820472, 4129.99999973, 4128.20512793, 4133.33333306, 4131.53846126, 4195.64102551,8.57
4126.92307665, 4125.51282024, 4127.43589716, 4039.35897395, 4121.53846126, 4029.35897388, 4043.07692266, 4028.33333285, 4025.25640977, 4129.35897408, 4125.51282024, 4120.51282024, 4130.64102537, 4194.87179474,8.57
4129.35897408, 4126.79487152, 4129.74358947, 4039.48717907, 4122.05128178, 4030.51282003, 4041.92307651, 4024.87179439, 4023.97435849, 4130.12820485, 4123.84615357, 4126.02564075, 4134.23076896, 4195.64102551,8.57
4122.30769203, 4123.46153819, 4121.66666639, 4049.48717907, 4121.41025614, 4033.71794824, 4044.87179446, 4035.76923029, 4038.58974318, 4127.56410229, 4124.35897408, 4129.35897408, 4129.48717921, 4189.74358961,8.57
4130.51282024, 4127.82051255, 4127.69230742, 4059.35897395, 4123.58974332, 4032.43589695, 4043.58974318, 4038.20512779, 4046.92307651, 4125.64102537, 4127.17948691, 4128.20512793, 4129.61538434, 4192.30769217,8.57
4123.33333306, 4127.30769203, 4126.53846126, 4066.28205087, 4119.23076896, 4035.25640977, 4044.87179446, 4040.51282010, 4059.74358933, 4128.71794844, 4129.87179460, 4134.10256383, 4136.28205108, 4195.12820499,8.57
4121.02564075, 4126.02564075, 4123.97435870, 4063.07692266, 4121.53846126, 4028.20512772, 4034.23076875, 4038.46153805, 4060.25640984, 4130.64102537, 4128.71794844, 4125.12820485, 4131.02564075, 4195.12820499,8.57
4126.28205101, 4127.05128178, 4126.66666639, 4067.05128164, 4123.33333306, 4034.23076875, 4036.41025593, 4048.07692266, 4064.87179446, 4129.23076896, 4130.64102537, 4128.84615357, 4127.82051255, 4197.05128192,8.57
4114.35897408, 4120.25640998, 4116.92307665, 4079.87179453, 4117.17948691, 4058.07692266, 4065.38461497, 4077.69230735, 4088.58974325, 4127.94871767, 4131.53846126, 4126.53846126, 4128.58974332, 4191.28205115,8.57
4122.82051255, 4125.38461511, 4124.74358947, 4073.07692273, 4121.15384588, 4048.84615343, 4063.84615343, 4070.38461504, 4075.12820478, 4129.35897408, 4130.51282024, 4122.43589716, 4128.84615357, 4196.15384602,8.57
4127.30769203, 4128.46153819, 4129.48717921, 4057.69230728, 4123.46153819, 4029.35897388, 4037.69230728, 4028.07692259, 4034.99999952, 4131.66666639, 4128.46153819, 4130.89743562, 4129.61538434, 4199.23076910,8.57
4122.69230742, 4126.15384588, 4124.48717921, 4062.94871754, 4124.99999973, 4035.76923029, 4040.51282010, 4019.48717900, 4027.82051234, 4129.10256383, 4126.79487152, 4120.51282024, 4127.30769203, 4190.76923063,8.57
4125.25640998, 4127.17948691, 4129.74358947, 4077.30769196, 4125.38461511, 4044.87179446, 4059.10256369, 4042.17948677, 4047.69230728, 4127.17948691, 4131.92307665, 4124.35897408, 4128.71794844, 4192.30769217,8.57
4121.92307665, 4123.71794844, 4127.56410229, 4077.56410222, 4121.28205101, 4043.71794830, 4057.43589702, 4046.15384574, 4054.61538420, 4129.61538434, 4138.84615364, 4129.74358947, 4129.99999973, 4193.71794858,8.57
4132.30769203, 4126.41025614, 4131.41025614, 4072.56410222, 4124.61538434, 4039.74358933, 4042.30769189, 4031.15384567, 4043.20512779, 4129.74358947, 4140.89743569, 4125.12820485, 4132.56410229, 4193.84615371,8.57
4125.76923050, 4125.38461511, 4128.97435870, 4080.25640991, 4121.41025614, 4043.97435856, 4042.17948677, 4031.92307644, 4048.07692266, 4129.61538434, 4138.58974339, 4133.07692280, 4134.74358947, 4192.82051269,8.57
4116.53846126, 4122.94871767, 4123.46153819, 4083.97435863, 4120.76923050, 4049.48717907, 4049.23076882, 4046.41025600, 4066.53846113, 4131.15384588, 4134.99999973, 4126.15384588, 4127.82051255, 4191.02564089,8.57
4131.41025614, 4128.07692280, 4131.66666639, 4071.41025607, 4127.05128178, 4047.17948677, 4048.07692266, 4051.79487138, 4064.74358933, 4130.25640998, 4135.25640998, 4130.12820485, 4131.53846126, 4198.20512807,8.57
4127.56410229, 4124.61538434, 4123.71794844, 4064.10256369, 4121.53846126, 4044.74358933, 4057.05128164, 4066.66666625, 4065.89743548, 4127.94871767, 4135.76923056, 4135.12820485, 4136.28205108, 4197.82051269,8.57
4126.53846126, 4123.84615357, 4123.58974332, 4062.43589702, 4119.61538434, 4042.69230728, 4063.58974318, 4073.97435863, 4071.79487145, 4128.97435870, 4132.69230742, 4123.58974332, 4131.28205101, 4197.56410243,8.57
4124.74358947, 4123.46153819, 4125.38461511, 4056.66666625, 4119.99999973, 4038.58974318, 4055.25640984, 4053.20512779, 4052.82051241, 4131.02564075, 4132.30769203, 4130.89743562, 4131.41025614, 4197.82051269,8.57
4119.35897408, 4121.41025614, 4117.43589716, 4065.64102523, 4119.87179460, 4043.58974318, 4059.35897395, 4047.30769189, 4043.71794830, 4129.61538434, 4132.30769203, 4126.41025614, 4131.41025614, 4193.20512807,8.57
4128.33333306, 4126.92307665, 4126.28205101, 4083.84615350, 4124.61538434, 4057.30769189, 4072.94871761, 4066.28205087, 4066.53846113, 4129.23076896, 4132.69230742, 4122.05128178, 4131.66666639, 4197.17948704,8.57
4128.33333306, 4126.92307665, 4126.28205101, 4083.84615350, 4124.61538434, 4057.30769189, 4072.94871761, 4066.28205087, 4066.53846113, 4129.23076896, 4132.69230742, 4122.05128178, 4131.66666639, 4197.17948704,8.57
4118.84615357, 4122.94871767, 4123.20512793, 4084.35897402, 4124.23076896, 4059.99999959, 4066.53846113, 4065.76923036, 4076.53846119, 4131.53846126, 4134.74358947, 4127.56410229, 4131.53846126, 4193.97435884,8.57
4120.25640998, 4123.84615357, 4120.64102537, 4073.33333299, 4124.10256383, 4054.48717907, 4048.46153805, 4038.84615343, 4057.43589702, 4132.17948691, 4135.12820485, 4122.30769203, 4129.87179460, 4193.71794858,8.57
4126.41025614, 4127.82051255, 4127.17948691, 4076.15384581, 4120.51282024, 4059.74358933, 4044.99999959, 4031.79487131, 4052.17948677, 4129.87179460, 4134.23076896, 4128.71794844, 4131.53846126, 4198.84615371,8.57
4118.33333306, 4122.56410229, 4123.58974332, 4086.79487145, 4119.74358947, 4053.97435856, 4042.69230728, 4042.69230728, 4056.79487138, 4127.69230742, 4131.79487152, 4124.23076896, 4127.82051255, 4191.02564089,8.57
4118.33333306, 4122.56410229, 4123.58974332, 4086.79487145, 4119.74358947, 4053.97435856, 4042.69230728, 4042.69230728, 4056.79487138, 4127.69230742, 4131.79487152, 4124.23076896, 4127.82051255, 4191.02564089,8.57
4127.43589716, 4127.43589716, 4128.46153819, 4087.43589709, 4125.64102537, 4036.79487131, 4037.17948677, 4044.23076882, 4047.30769189, 4128.84615357, 4134.10256383, 4123.97435870, 4127.94871767, 4192.43589730,8.57
4127.30769203, 4126.53846126, 4126.41025614, 4087.69230735, 4120.76923050, 4044.87179446, 4051.53846113, 4054.10256369, 4055.76923036, 4129.10256383, 4138.07692287, 4130.12820485, 4128.46153819, 4196.92307679,8.57
4129.23076896, 4124.10256383, 4127.30769203, 4092.05128171, 4121.28205101, 4053.58974318, 4062.17948677, 4067.69230728, 4070.89743555, 4127.82051255, 4136.41025621, 4120.64102537, 4125.89743562, 4193.58974345,8.57
4128.71794844, 4127.69230742, 4129.35897408, 4108.71794844, 4123.84615357, 4051.28205087, 4061.15384574, 4066.28205087, 4065.89743548, 4128.97435870, 4135.12820485, 4131.02564075, 4132.56410229, 4193.84615371,8.57
4115.12820485, 4124.48717921, 4118.97435870, 4127.30769203, 4121.15384588, 4056.41025600, 4059.87179446, 4051.92307651, 4054.61538420, 4128.46153819, 4134.61538434, 4128.97435870, 4131.15384588, 4193.97435884,8.57
4126.53846126, 4127.82051255, 4126.79487152, 4123.71794844, 4123.20512793, 4047.05128164, 4044.23076882, 4035.89743541, 4047.56410215, 4127.56410229, 4137.17948697, 4121.28205101, 4127.05128178, 4194.99999986,8.57
4126.66666639, 4126.28205101, 4126.28205101, 4119.74358947, 4119.74358947, 4035.25640977, 4034.74358926, 4031.28205080, 4046.41025600, 4128.71794844, 4140.38461518, 4133.20512793, 4132.82051255, 4194.10256397,8.57
4124.74358947, 4123.84615357, 4122.69230742, 4122.05128178, 4121.66666639, 4032.82051234, 4030.38461490, 4023.33333285, 4032.94871747, 4126.92307665, 4137.43589723, 4128.97435870, 4133.07692280, 4195.25641012,8.57
4130.76923050, 4128.58974332, 4132.82051255, 4121.41025614, 4126.28205101, 4033.46153798, 4025.64102516, 4017.05128157, 4028.33333285, 4127.43589716, 4136.79487159, 4130.51282024, 4133.07692280, 4197.56410243,8.57
4118.84615357, 4124.87179460, 4124.99999973, 4122.05128178, 4122.30769203, 4037.30769189, 4026.15384567, 4023.20512772, 4041.66666625, 4130.64102537, 4138.20512800, 4128.71794844, 4130.76923050, 4191.53846140,8.57
4123.46153819, 4126.79487152, 4123.46153819, 4124.10256383, 4123.20512793, 4036.66666618, 4022.69230721, 4025.25640977, 4038.07692266, 4129.99999973, 4136.79487159, 4122.05128178, 4129.99999973, 4196.53846140,8.57
4121.66666639, 4126.41025614, 4124.23076896, 4118.71794844, 4122.94871767, 4033.46153798, 4018.71794824, 4021.66666618, 4022.56410208, 4129.10256383, 4135.89743569, 4131.66666639, 4134.48717921, 4198.20512807,8.57
4117.69230742, 4124.10256383, 4121.66666639, 4108.20512793, 4124.35897408, 4022.82051234, 4010.38461490, 4012.82051234, 4008.20512772, 4130.12820485, 4132.30769203, 4124.23076896, 4130.51282024, 4191.15384602,8.57
4128.33333306, 4129.61538434, 4128.07692280, 4117.69230742, 4125.25640998, 4023.71794824, 4013.07692259, 4011.92307644, 4012.05128157, 4129.48717921, 4131.41025614, 4123.07692280, 4128.84615357, 4197.05128192,8.57
4119.87179460, 4126.53846126, 4121.66666639, 4132.82051255, 4119.87179460, 4041.66666625, 4029.99999952, 4032.05128157, 4035.89743541, 4128.20512793, 4134.23076896, 4127.17948691, 4128.58974332, 4193.20512807,8.57
4122.43589716, 4127.05128178, 4124.48717921, 4130.64102537, 4123.71794844, 4046.79487138, 4037.30769189, 4047.17948677, 4052.17948677, 4129.87179460, 4135.51282031, 4119.61538434, 4126.79487152, 4189.61538448,8.57
4123.71794844, 4127.82051255, 4127.69230742, 4128.46153819, 4122.30769203, 4043.84615343, 4035.76923029, 4043.46153805, 4058.97435856, 4130.38461511, 4137.82051262, 4126.02564075, 4130.38461511, 4196.79487166,8.57
4117.56410229, 4123.71794844, 4122.43589716, 4126.79487152, 4118.33333306, 4040.51282010, 4030.51282003, 4032.30769183, 4052.30769189, 4128.20512793, 4136.02564082, 4122.30769203, 4129.35897408, 4193.20512807,8.57
4126.92307665, 4128.33333306, 4129.87179460, 4123.33333306, 4122.17948691, 4046.92307651, 4034.48717900, 4031.53846106, 4040.25640984, 4126.79487152, 4132.05128178, 4126.02564075, 4129.87179460, 4194.23076910,8.57
4123.58974332, 4127.17948691, 4124.99999973, 4129.87179460, 4121.02564075, 4061.79487138, 4049.74358933, 4043.84615343, 4046.41025600, 4126.66666639, 4132.43589716, 4133.07692280, 4130.89743562, 4197.56410243,8.57
4125.51282024, 4128.46153819, 4124.10256383, 4131.53846126, 4123.20512793, 4052.05128164, 4043.58974318, 4043.33333292, 4048.07692266, 4128.58974332, 4132.56410229, 4123.20512793, 4127.05128178, 4196.66666653,8.57
4126.15384588, 4128.84615357, 4127.69230742, 4117.82051255, 4123.20512793, 4023.71794824, 4018.58974311, 4029.23076875, 4029.87179439, 4131.66666639, 4132.17948691, 4129.87179460, 4131.53846126, 4194.48717935,8.57
4122.05128178, 4122.94871767, 4121.79487152, 4108.71794844, 4121.92307665, 4020.25640977, 4016.28205080, 4023.71794824, 4018.84615336, 4129.87179460, 4132.56410229, 4127.30769203, 4134.10256383, 4192.05128192,8.57
4132.82051255, 4127.17948691, 4126.79487152, 4132.69230742, 4126.53846126, 4044.87179446, 4041.02564061, 4044.35897395, 4043.71794830, 4126.41025614, 4132.69230742, 4127.30769203, 4133.46153819, 4200.89743576,8.57
4123.84615357, 4125.76923050, 4123.20512793, 4166.53846133, 4123.20512793, 4053.71794830, 4049.23076882, 4061.79487138, 4072.30769196, 4128.46153819, 4132.43589716, 4134.10256383, 4133.07692280, 4199.35897422,8.57
4120.89743562, 4125.38461511, 4121.79487152, 4164.99999980, 4123.58974332, 4036.41025593, 4026.02564054, 4035.12820465, 4047.43589702, 4130.76923050, 4131.15384588, 4123.58974332, 4130.38461511, 4193.58974345,8.57
4126.02564075, 4126.92307665, 4125.64102537, 4148.71794851, 4123.33333306, 4024.35897388, 4008.07692259, 4009.74358926, 4016.53846106, 4129.61538434, 4129.61538434, 4128.33333306, 4130.76923050, 4197.17948704,8.57
4115.51282024, 4120.38461511, 4119.10256383, 4148.58974339, 4119.10256383, 4017.43589695, 3997.82051227, 4004.99999952, 4020.64102516, 4127.30769203, 4128.07692280, 4124.35897408, 4127.43589716, 4193.46153833,8.57
4122.69230742, 4123.71794844, 4126.53846126, 4149.61538441, 4122.69230742, 4007.82051234, 3986.02564047, 3991.15384560, 4017.05128157, 4128.33333306, 4130.12820485, 4119.10256383, 4127.05128178, 4194.61538448,8.57
4125.89743562, 4125.89743562, 4128.20512793, 4152.69230749, 4122.17948691, 4018.46153798, 4003.97435842, 4000.64102509, 4011.41025593, 4130.76923050, 4133.07692280, 4128.07692280, 4129.74358947, 4196.53846140,8.57
4123.84615357, 4125.38461511, 4124.35897408, 4155.76923056, 4122.30769203, 4026.28205080, 4023.84615336, 4031.41025593, 4029.61538413, 4129.10256383, 4131.15384588, 4119.87179460, 4125.89743562, 4193.46153833,8.57
4123.84615357, 4124.74358947, 4126.66666639, 4148.33333313, 4122.82051255, 4019.61538413, 4020.25640977, 4039.61538420, 4047.30769189, 4127.82051255, 4131.28205101, 4124.23076896, 4130.12820485, 4195.12820499,8.57
4118.71794844, 4120.89743562, 4122.56410229, 4149.74358954, 4120.25640998, 4031.53846106, 4032.30769183, 4042.30769189, 4048.33333292, 4129.87179460, 4132.56410229, 4126.41025614, 4132.43589716, 4193.20512807,8.57
4130.51282024, 4127.30769203, 4128.46153819, 4158.07692287, 4123.33333306, 4040.12820472, 4043.46153805, 4040.38461497, 4034.87179439, 4130.76923050, 4129.99999973, 4122.30769203, 4128.84615357, 4193.58974345,8.57
4125.25640998, 4126.79487152, 4124.87179460, 4161.92307672, 4121.92307665, 4049.87179446, 4050.51282010, 4040.12820472, 4037.05128164, 4128.58974332, 4127.43589716, 4134.87179460, 4131.28205101, 4196.02564089,8.57
4118.84615357, 4123.58974332, 4120.51282024, 4161.66666646, 4122.56410229, 4067.05128164, 4065.25640984, 4059.35897395, 4062.94871754, 4127.69230742, 4124.48717921, 4129.23076896, 4132.17948691, 4195.38461525,8.57
4127.82051255, 4127.82051255, 4128.33333306, 4163.33333313, 4123.84615357, 4070.89743555, 4071.15384581, 4069.74358940, 4076.92307658, 4129.48717921, 4127.82051255, 4127.82051255, 4131.53846126, 4196.02564089,8.57
4120.12820485, 4122.94871767, 4121.15384588, 4175.12820499, 4119.48717921, 4087.43589709, 4085.12820478, 4075.64102530, 4091.41025607, 4130.64102537, 4135.25640998, 4130.38461511, 4127.43589716, 4192.56410243,8.57
4126.66666639, 4125.38461511, 4123.07692280, 4181.66666653, 4121.41025614, 4107.30769203, 4096.15384581, 4082.56410222, 4102.56410229, 4128.97435870, 4137.30769210, 4125.89743562, 4127.69230742, 4198.46153833,8.57
4125.25640998, 4128.46153819, 4125.38461511, 4172.82051269, 4121.53846126, 4097.94871761, 4085.64102530, 4077.05128171, 4090.89743555, 4126.53846126, 4133.71794844, 4133.07692280, 4134.48717921, 4199.87179474,8.57
4115.12820485, 4125.12820485, 4118.46153819, 4165.76923056, 4122.17948691, 4082.56410222, 4083.33333299, 4076.79487145, 4086.41025607, 4126.66666639, 4126.79487152, 4124.10256383, 4131.15384588, 4189.99999986,8.57
4125.25640998, 4127.43589716, 4124.48717921, 4174.74358961, 4124.61538434, 4094.99999966, 4102.30769196, 4096.02564068, 4102.56410229, 4128.71794844, 4125.76923050, 4124.74358947, 4130.38461511, 4196.41025628,8.57
4121.79487152, 4124.61538434, 4124.10256383, 4184.61538448, 4121.41025614, 4114.61538434, 4112.82051255, 4108.46153819, 4111.53846126, 4128.46153819, 4130.38461511, 4130.89743562, 4134.23076896, 4197.30769217,8.57
4121.41025614, 4125.89743562, 4124.74358947, 4182.69230756, 4124.87179460, 4116.02564075, 4111.53846126, 4104.23076896, 4106.79487152, 4127.82051255, 4129.35897408, 4119.99999973, 4132.43589716, 4191.28205115,8.57
4121.41025614, 4127.05128178, 4123.71794844, 4174.87179474, 4123.20512793, 4111.79487152, 4110.89743562, 4102.82051255, 4105.64102537, 4129.48717921, 4126.28205101, 4125.38461511, 4131.28205101, 4193.84615371,8.57
4117.56410229, 4123.58974332, 4118.84615357, 4173.46153833, 4118.84615357, 4108.97435870, 4106.92307665, 4102.17948684, 4107.69230742, 4129.99999973, 4125.76923050, 4121.53846126, 4127.56410229, 4189.61538448,8.57
4126.66666639, 4129.61538434, 4130.76923050, 4183.46153833, 4123.33333306, 4119.10256383, 4124.87179460, 4121.41025614, 4132.69230742, 4129.99999973, 4130.76923050, 4120.76923050, 4131.53846126, 4191.92307679,8.57
4123.20512793, 4129.99999973, 4127.82051255, 4184.48717935, 4121.53846126, 4129.61538434, 4145.76923056, 4145.12820492, 4159.61538441, 4130.25640998, 4131.53846126, 4129.99999973, 4136.66666646, 4195.38461525,8.57
4127.69230742, 4128.58974332, 4122.05128178, 4161.28205108, 4121.15384588, 4112.43589716, 4122.17948691, 4120.51282024, 4130.25640998, 4128.71794844, 4125.12820485, 4121.28205101, 4128.20512793, 4193.20512807,8.57
4128.58974332, 4128.97435870, 4126.28205101, 4147.69230749, 4121.28205101, 4099.61538427, 4101.92307658, 4093.97435863, 4101.15384581, 4127.94871767, 4122.69230742, 4127.82051255, 4128.71794844, 4194.61538448,8.57
4116.92307665, 4125.12820485, 4122.69230742, 4154.48717928, 4122.43589716, 4108.33333306, 4112.30769203, 4107.05128178, 4114.87179460, 4128.58974332, 4121.53846126, 4128.97435870, 4134.74358947, 4194.61538448,8.57
4126.66666639, 4127.94871767, 4129.35897408, 4151.79487159, 4127.82051255, 4114.48717921, 4118.84615357, 4116.66666639, 4118.84615357, 4128.20512793, 4120.51282024, 4125.12820485, 4134.23076896, 4198.71794858,8.57
4124.61538434, 4124.99999973, 4127.17948691, 4146.92307672, 4123.84615357, 4126.41025614, 4127.69230742, 4117.56410229, 4112.43589716, 4127.69230742, 4123.71794844, 4130.89743562, 4129.99999973, 4197.82051269,8.57
4122.17948691, 4124.35897408, 4121.79487152, 4153.97435877, 4121.28205101, 4135.64102544, 4134.23076896, 4120.25640998, 4113.71794844, 4128.58974332, 4125.51282024, 4123.33333306, 4124.99999973, 4195.12820499,8.57
4123.33333306, 4127.43589716, 4123.97435870, 4167.69230749, 4119.48717921, 4138.58974339, 4136.41025621, 4124.87179460, 4130.25640998, 4129.10256383, 4126.15384588, 4128.97435870, 4131.02564075, 4198.84615371,8.57
4112.56410229, 4120.89743562, 4118.71794844, 4170.38461525, 4118.58974332, 4144.99999980, 4149.74358954, 4140.51282031, 4156.53846133, 4128.33333306, 4127.17948691, 4127.43589716, 4132.05128178, 4195.64102551,8.57
4122.30769203, 4124.61538434, 4124.99999973, 4158.33333313, 4127.05128178, 4138.33333313, 4146.28205108, 4140.76923056, 4152.56410236, 4128.46153819, 4127.94871767, 4121.53846126, 4127.43589716, 4195.76923063,8.57
4120.38461511, 4127.30769203, 4122.17948691, 4156.41025621, 4125.38461511, 4138.07692287, 4137.56410236, 4132.05128178, 4141.53846133, 4130.25640998, 4127.69230742, 4128.33333306, 4128.97435870, 4192.30769217,8.57
4115.64102537, 4126.15384588, 4118.97435870, 4160.89743569, 4121.79487152, 4151.79487159, 4152.94871774, 4144.99999980, 4157.94871774, 4129.99999973, 4124.99999973, 4119.23076896, 4129.23076896, 4191.28205115,8.57
4124.74358947, 4127.43589716, 4128.33333306, 4152.94871774, 4123.46153819, 4155.89743569, 4167.05128185, 4164.87179467, 4175.51282038, 4130.38461511, 4122.69230742, 4125.12820485, 4131.15384588, 4198.97435884,8.57
4117.82051255, 4122.82051255, 4122.94871767, 4141.15384595, 4121.92307665, 4147.56410236, 4158.33333313, 4158.84615364, 4164.87179467, 4130.64102537, 4119.48717921, 4128.46153819, 4129.74358947, 4193.84615371,8.57
4121.28205101, 4127.17948691, 4126.15384588, 4138.71794851, 4126.15384588, 4146.92307672, 4153.33333313, 4146.41025621, 4151.41025621, 4129.35897408, 4117.94871767, 4120.64102537, 4127.82051255, 4193.46153833,8.57
4120.12820485, 4126.28205101, 4127.30769203, 4144.99999980, 4122.43589716, 4160.12820492, 4168.07692287, 4160.12820492, 4171.15384602, 4129.23076896, 4122.69230742, 4130.76923050, 4130.25640998, 4197.43589730,8.57
4119.48717921, 4120.25640998, 4123.58974332, 4144.74358954, 4119.74358947, 4158.46153826, 4165.76923056, 4159.61538441, 4173.58974345, 4126.66666639, 4124.23076896, 4123.58974332, 4128.33333306, 4192.43589730,8.57
4131.28205101, 4126.66666639, 4131.28205101, 4137.43589723, 4125.38461511, 4150.38461518, 4150.38461518, 4131.15384588, 4135.51282031, 4126.53846126, 4123.97435870, 4124.61538434, 4131.02564075, 4194.99999986,8.57
4120.76923050, 4123.97435870, 4125.25640998, 4147.69230749, 4121.79487152, 4172.43589730, 4169.35897422, 4139.74358954, 4142.82051262, 4129.10256383, 4126.41025614, 4131.53846126, 4132.30769203, 4196.15384602,8.57
4123.97435870, 4124.10256383, 4127.17948691, 4163.46153826, 4122.30769203, 4198.97435884, 4195.64102551, 4177.82051269, 4189.23076910, 4129.48717921, 4128.71794844, 4124.48717921, 4130.89743562, 4194.99999986,8.57
4128.07692280, 4127.82051255, 4128.58974332, 4153.71794851, 4124.48717921, 4193.20512807, 4193.07692294, 4187.56410243, 4195.51282038, 4130.76923050, 4125.76923050, 4128.71794844, 4133.58974332, 4194.74358961,8.57
4121.66666639, 4124.74358947, 4119.10256383, 4137.05128185, 4119.99999973, 4172.94871781, 4180.12820499, 4178.71794858, 4181.02564089, 4131.02564075, 4119.23076896, 4122.05128178, 4129.99999973, 4192.56410243,8.57
4129.74358947, 4127.30769203, 4125.76923050, 4141.79487159, 4119.35897408, 4170.51282038, 4181.02564089, 4181.02564089, 4184.23076910, 4130.38461511, 4122.17948691, 4124.48717921, 4131.02564075, 4199.74358961,8.57
4118.84615357, 4125.51282024, 4123.07692280, 4151.28205108, 4121.92307665, 4187.05128192, 4193.20512807, 4182.69230756, 4180.51282038, 4130.51282024, 4126.28205101, 4130.76923050, 4134.99999973, 4199.48717935,8.57
4118.46153819, 4126.41025614, 4123.97435870, 4145.89743569, 4126.53846126, 4194.35897422, 4196.41025628, 4179.61538448, 4175.89743576, 4129.48717921, 4122.17948691, 4120.76923050, 4129.48717921, 4195.12820499,8.57
4127.43589716, 4126.79487152, 4131.15384588, 4153.58974339, 4121.02564075, 4205.51282045, 4209.87179481, 4202.30769224, 4209.99999993, 4128.97435870, 4122.94871767, 4128.20512793, 4129.48717921, 4195.64102551,8.57
4120.25640998, 4123.07692280, 4123.33333306, 4174.48717935, 4118.58974332, 4228.71794865, 4233.33333327, 4224.48717942, 4234.23076923, 4130.38461511, 4124.61538434, 4123.07692280, 4129.61538434, 4189.61538448,8.57
4124.99999973, 4128.58974332, 4125.38461511, 4172.30769217, 4127.43589716, 4227.43589737, 4229.23076917, 4209.10256404, 4210.64102558, 4129.74358947, 4122.69230742, 4117.94871767, 4128.58974332, 4193.46153833,8.57
4122.94871767, 4125.89743562, 4123.33333306, 4153.58974339, 4123.46153819, 4206.92307686, 4206.15384609, 4190.38461525, 4192.82051269, 4126.92307665, 4120.25640998, 4127.30769203, 4128.84615357, 4195.12820499,8.57
4122.56410229, 4123.46153819, 4121.66666639, 4143.07692287, 4121.02564075, 4196.02564089, 4196.53846140, 4186.41025628, 4193.20512807, 4127.17948691, 4117.69230742, 4120.64102537, 4127.30769203, 4190.89743576,8.57
4121.53846126, 4126.79487152, 4125.25640998, 4148.46153826, 4123.97435870, 4207.82051275, 4211.02564096, 4194.99999986, 4205.38461532, 4129.74358947, 4120.64102537, 4126.28205101, 4133.97435870, 4194.87179474,8.57
4113.46153819, 4123.97435870, 4118.46153819, 4153.33333313, 4122.82051255, 4219.87179481, 4217.30769224, 4210.76923070, 4225.51282045, 4129.61538434, 4124.48717921, 4124.87179460, 4134.35897408, 4193.97435884,8.57
4127.17948691, 4127.69230742, 4125.12820485, 4154.35897415, 4125.51282024, 4224.10256404, 4218.46153840, 4225.38461532, 4236.41025641, 4128.33333306, 4124.10256383, 4119.61538434, 4132.94871767, 4196.92307679,8.57
4126.28205101, 4126.66666639, 4128.07692280, 4162.69230749, 4123.20512793, 4236.79487180, 4242.94871795, 4246.02564103, 4250.25641026, 4127.43589716, 4124.48717921, 4130.64102537, 4136.28205108, 4199.23076910,8.57
4120.89743562, 4123.33333306, 4124.23076896, 4157.30769210, 4122.69230742, 4232.82051275, 4249.61538462, 4251.79487180, 4255.89743590, 4127.43589716, 4123.20512793, 4124.61538434, 4133.84615357, 4196.15384602,8.57
4127.30769203, 4126.53846126, 4125.38461511, 4137.05128185, 4123.71794844, 4210.38461532, 4219.61538455, 4221.66666660, 4225.89743583, 4129.23076896, 4118.71794844, 4127.43589716, 4135.64102544, 4196.92307679,8.57
4121.28205101, 4124.87179460, 4119.74358947, 4127.43589716, 4122.17948691, 4200.25641012, 4197.94871781, 4191.02564089, 4194.48717935, 4130.76923050, 4116.28205101, 4127.94871767, 4133.58974332, 4195.89743576,8.57
4127.69230742, 4126.92307665, 4126.41025614, 4129.35897408, 4122.69230742, 4201.53846147, 4201.66666660, 4193.46153833, 4193.71794858, 4128.84615357, 4119.74358947, 4122.17948691, 4132.56410229, 4200.51282038,8.57
4123.97435870, 4124.35897408, 4123.20512793, 4127.30769203, 4117.43589716, 4205.38461532, 4209.35897429, 4203.20512814, 4200.64102551, 4127.17948691, 4121.02564075, 4130.76923050, 4137.69230749, 4198.46153833,8.57
4117.69230742, 4121.66666639, 4114.87179460, 4124.48717921, 4120.38461511, 4210.51282045, 4211.15384609, 4194.74358961, 4195.89743576, 4129.48717921, 4119.99999973, 4121.41025614, 4132.56410229, 4190.51282038,8.57
4128.58974332, 4127.30769203, 4126.15384588, 4130.76923050, 4127.43589716, 4212.82051275, 4214.61538455, 4194.74358961, 4203.33333327, 4130.25640998, 4124.10256383, 4123.46153819, 4131.92307665, 4195.51282038,8.57
4121.66666639, 4124.61538434, 4125.12820485, 4128.84615357, 4122.94871767, 4205.25641019, 4206.02564096, 4194.74358961, 4211.41025634, 4127.43589716, 4121.28205101, 4127.56410229, 4133.97435870, 4192.17948704,8.57
4121.53846126, 4125.25640998, 4125.12820485, 4119.23076896, 4124.23076896, 4195.76923063, 4189.48717935, 4178.33333320, 4196.66666653, 4126.41025614, 4114.10256383, 4116.66666639, 4132.43589716, 4191.02564089,8.57
4123.20512793, 4126.28205101, 4124.99999973, 4124.61538434, 4124.61538434, 4204.99999993, 4200.12820499, 4188.58974345, 4199.10256397, 4128.07692280, 4117.05128178, 4126.15384588, 4135.64102544, 4196.92307679,8.57
4121.02564075, 4124.99999973, 4118.97435870, 4128.20512793, 4123.07692280, 4213.07692301, 4211.53846147, 4208.46153840, 4215.12820506, 4128.97435870, 4122.17948691, 4126.53846126, 4132.30769203, 4193.84615371,8.57
4125.89743562, 4128.46153819, 4125.89743562, 4120.76923050, 4126.28205101, 4213.46153840, 4207.43589737, 4210.76923070, 4222.82051275, 4128.84615357, 4122.05128178, 4125.76923050, 4129.74358947, 4196.15384602,8.57
4117.17948691, 4124.35897408, 4123.33333306, 4122.43589716, 4121.28205101, 4216.53846147, 4211.28205122, 4213.58974352, 4223.33333327, 4128.58974332, 4119.48717921, 4128.07692280, 4132.94871767, 4196.92307679,8.57
4124.99999973, 4126.02564075, 4126.79487152, 4124.23076896, 4122.05128178, 4201.53846147, 4203.97435891, 4193.84615371, 4192.17948704, 4129.23076896, 4116.53846126, 4123.71794844, 4133.58974332, 4195.38461525,8.57
4129.35897408, 4127.82051255, 4130.89743562, 4122.56410229, 4123.20512793, 4198.58974345, 4202.94871788, 4183.33333320, 4173.97435884, 4130.51282024, 4117.69230742, 4133.58974332, 4132.82051255, 4196.15384602,8.57
4120.89743562, 4122.69230742, 4121.41025614, 4128.20512793, 4122.17948691, 4218.20512814, 4221.15384609, 4209.99999993, 4203.46153840, 4129.99999973, 4116.92307665, 4126.15384588, 4128.84615357, 4193.46153833,8.57
4129.23076896, 4126.15384588, 4126.02564075, 4127.30769203, 4126.15384588, 4216.92307686, 4217.05128199, 4208.84615378, 4216.02564096, 4129.61538434, 4113.20512793, 4122.94871767, 4133.84615357, 4197.30769217,8.57
4120.76923050, 4122.94871767, 4123.33333306, 4123.46153819, 4122.43589716, 4209.61538455, 4206.28205122, 4187.94871781, 4200.64102551, 4129.35897408, 4114.23076896, 4131.53846126, 4138.07692287, 4196.79487166,8.57
4120.38461511, 4122.43589716, 4121.41025614, 4125.12820485, 4122.56410229, 4214.48717942, 4209.23076917, 4190.89743576, 4193.07692294, 4127.69230742, 4118.33333306, 4121.02564075, 4131.92307665, 4196.41025628,8.57
4127.05128178, 4126.53846126, 4124.99999973, 4127.94871767, 4123.97435870, 4215.64102558, 4210.25641019, 4199.48717935, 4201.53846147, 4128.97435870, 4120.12820485, 4124.23076896, 4131.41025614, 4199.74358961,8.57
4115.89743562, 4122.30769203, 4116.92307665, 4129.74358947, 4120.89743562, 4219.74358968, 4210.51282045, 4208.84615378, 4218.58974352, 4129.99999973, 4117.30769203, 4122.94871767, 4130.25640998, 4193.33333320,8.57
4122.56410229, 4126.41025614, 4121.92307665, 4130.76923050, 4123.46153819, 4229.23076917, 4208.20512814, 4229.87179481, 4230.51282045, 4131.28205101, 4117.94871767, 4121.02564075, 4130.76923050, 4195.51282038,8.57
4122.82051255, 4125.38461511, 4123.97435870, 4137.43589723, 4122.17948691, 4240.89743590, 4206.92307686, 4253.58974359, 4252.56410257, 4132.94871767, 4123.84615357, 4130.38461511, 4134.10256383, 4195.25641012,8.57
4118.97435870, 4121.79487152, 4121.41025614, 4145.25641005, 4124.48717921, 4252.69230770, 4216.28205122, 4267.17948725, 4279.87179495, 4129.35897408, 4126.28205101, 4122.30769203, 4130.12820485, 4191.02564089,8.57
4123.07692280, 4125.51282024, 4125.12820485, 4144.35897415, 4126.15384588, 4257.30769231, 4226.02564096, 4268.33333341, 4275.00000007, 4127.82051255, 4125.89743562, 4126.66666639, 4132.43589716, 4196.92307679,8.57
4118.20512793, 4121.92307665, 4120.76923050, 4132.82051255, 4121.79487152, 4251.02564103, 4215.76923070, 4250.25641026, 4241.15384616, 4130.89743562, 4120.76923050, 4125.64102537, 4133.33333306, 4192.94871781,8.57
4125.64102537, 4123.97435870, 4128.46153819, 4125.89743562, 4124.61538434, 4242.17948718, 4202.05128199, 4234.87179488, 4227.82051275, 4131.28205101, 4118.71794844, 4120.64102537, 4130.64102537, 4193.58974345,8.57
4122.56410229, 4125.76923050, 4127.05128178, 4136.41025621, 4123.20512793, 4252.94871795, 4216.79487173, 4250.89743590, 4253.20512821, 4129.23076896, 4123.20512793, 4133.33333306, 4133.33333306, 4197.94871781,8.57
4119.87179460, 4122.82051255, 4118.33333306, 4137.17948697, 4123.07692280, 4255.89743590, 4219.23076917, 4255.12820513, 4257.30769231, 4129.74358947, 4119.10256383, 4126.92307665, 4132.43589716, 4193.58974345,8.57
4128.20512793, 4123.58974332, 4126.92307665, 4118.97435870, 4124.99999973, 4231.28205122, 4187.30769217, 4224.10256404, 4230.38461532, 4131.02564075, 4114.48717921, 4128.07692280, 4134.61538434, 4195.38461525,8.57
4119.74358947, 4122.17948691, 4124.48717921, 4109.87179460, 4120.89743562, 4218.58974352, 4173.33333320, 4210.64102558, 4227.69230763, 4128.71794844, 4116.92307665, 4128.07692280, 4132.82051255, 4196.02564089,8.57
4126.15384588, 4125.64102537, 4125.51282024, 4109.23076896, 4125.38461511, 4226.53846147, 4186.53846140, 4227.82051275, 4242.69230770, 4127.56410229, 4116.15384588, 4119.61538434, 4129.23076896, 4196.53846140,8.57
4126.28205101, 4125.89743562, 4125.76923050, 4105.89743562, 4124.23076896, 4241.66666667, 4201.79487173, 4245.38461539, 4252.30769231, 4129.48717921, 4115.12820485, 4131.41025614, 4133.46153819, 4195.89743576,8.57
4118.20512793, 4122.56410229, 4119.99999973, 4098.46153812, 4121.15384588, 4242.30769231, 4201.02564096, 4245.51282052, 4251.92307693, 4129.61538434, 4115.25640998, 4125.64102537, 4133.97435870, 4194.48717935,8.57
4127.82051255, 4126.92307665, 4127.05128178, 4091.66666632, 4125.51282024, 4231.28205122, 4191.79487166, 4231.28205122, 4231.92307686, 4129.10256383, 4111.53846126, 4122.69230742, 4133.97435870, 4200.89743576,8.57
4121.02564075, 4124.74358947, 4121.92307665, 4092.17948684, 4124.35897408, 4235.12820513, 4196.28205115, 4223.20512814, 4214.74358968, 4129.61538434, 4109.87179460, 4127.94871767, 4129.48717921, 4196.15384602,8.57
4121.15384588, 4124.23076896, 4121.53846126, 4094.74358940, 4125.51282024, 4241.66666667, 4202.69230763, 4226.15384609, 4228.46153840, 4128.33333306, 4112.05128178, 4120.25640998, 4127.17948691, 4192.30769217,8.57
4124.10256383, 4124.35897408, 4125.12820485, 4086.53846119, 4121.79487152, 4227.30769224, 4186.92307679, 4220.89743583, 4232.82051275, 4128.33333306, 4112.43589716, 4124.99999973, 4132.30769203, 4193.84615371,8.57
4118.07692280, 4121.02564075, 4120.12820485, 4064.74358933, 4119.48717921, 4195.12820499, 4158.07692287, 4199.35897422, 4200.89743576, 4128.97435870, 4110.12820485, 4119.61538434, 4129.23076896, 4188.46153833,8.57
4126.28205101, 4127.94871767, 4126.92307665, 4055.89743548, 4125.89743562, 4187.94871781, 4156.41025621, 4191.92307679, 4186.28205115, 4130.25640998, 4113.84615357, 4122.82051255, 4131.28205101, 4195.12820499,8.57
4122.82051255, 4126.92307665, 4125.12820485, 4061.28205087, 4123.33333306, 4203.84615378, 4169.99999986, 4201.92307686, 4197.43589730, 4131.92307665, 4118.46153819, 4131.41025614, 4136.02564082, 4197.56410243,8.57
4126.02564075, 4124.99999973, 4127.56410229, 4049.99999959, 4124.35897408, 4195.12820499, 4155.51282031, 4194.35897422, 4189.48717935, 4129.99999973, 4114.74358947, 4119.35897408, 4130.64102537, 4193.71794858,8.57
4128.07692280, 4126.53846126, 4130.64102537, 4043.20512779, 4124.99999973, 4184.74358961, 4144.35897415, 4181.28205115, 4183.58974345, 4129.61538434, 4112.05128178, 4125.25640998, 4131.02564075, 4195.38461525,8.57
4116.92307665, 4122.17948691, 4119.35897408, 4059.23076882, 4120.12820485, 4198.71794858, 4161.92307672, 4185.51282038, 4195.25641012, 4130.25640998, 4111.02564075, 4126.92307665, 4131.79487152, 4191.28205115,8.57
4127.05128178, 4125.51282024, 4125.89743562, 4067.56410215, 4122.17948691, 4210.76923070, 4172.82051269, 4198.71794858, 4198.07692294, 4129.61538434, 4111.41025614, 4123.84615357, 4132.43589716, 4193.84615371,8.57
4124.74358947, 4124.61538434, 4124.48717921, 4062.05128164, 4122.05128178, 4215.25641019, 4175.89743576, 4216.53846147, 4209.10256404, 4127.82051255, 4112.17948691, 4129.61538434, 4133.84615357, 4196.79487166,8.57
4120.51282024, 4123.58974332, 4117.05128178, 4055.51282010, 4124.99999973, 4211.53846147, 4176.28205115, 4212.05128199, 4211.02564096, 4127.69230742, 4108.33333306, 4123.33333306, 4130.64102537, 4195.89743576,8.57
4124.23076896, 4124.35897408, 4122.17948691, 4055.12820472, 4125.64102537, 4205.51282045, 4174.23076910, 4198.84615371, 4199.99999986, 4129.74358947, 4108.07692280, 4128.58974332, 4133.84615357, 4197.56410243,8.57
4117.30769203, 4119.23076896, 4119.35897408, 4060.38461497, 4121.92307665, 4212.30769224, 4182.56410243, 4219.35897429, 4216.28205122, 4131.28205101, 4108.84615357, 4123.97435870, 4133.46153819, 4193.20512807,8.57
4125.25640998, 4124.74358947, 4123.97435870, 4057.05128164, 4125.51282024, 4213.20512814, 4180.12820499, 4223.97435891, 4217.94871788, 4130.64102537, 4107.30769203, 4117.43589716, 4131.15384588, 4195.38461525,8.57
4122.17948691, 4125.12820485, 4124.74358947, 4051.41025600, 4122.69230742, 4206.28205122, 4165.64102544, 4192.30769217, 4191.02564089, 4127.43589716, 4109.74358947, 4129.23076896, 4132.82051255, 4195.51282038,8.57
4117.69230742, 4118.07692280, 4124.87179460, 4051.79487138, 4122.17948691, 4201.79487173, 4157.94871774, 4175.76923063, 4177.69230756, 4126.79487152, 4109.23076896, 4123.07692280, 4129.74358947, 4190.76923063,8.57
4124.10256383, 4121.79487152, 4130.25640998, 4054.35897395, 4126.15384588, 4201.02564096, 4158.58974339, 4183.58974345, 4190.89743576, 4129.74358947, 4106.66666639, 4124.48717921, 4132.43589716, 4196.15384602,8.57
4117.05128178, 4123.58974332, 4120.64102537, 4049.35897395, 4121.92307665, 4199.23076910, 4156.02564082, 4184.23076910, 4199.87179474, 4129.61538434, 4109.61538434, 4123.20512793, 4133.33333306, 4193.20512807,8.57
4123.97435870, 4125.12820485, 4125.89743562, 4042.43589702, 4122.69230742, 4201.66666660, 4157.94871774, 4181.15384602, 4197.17948704, 4127.56410229, 4115.12820485, 4116.53846126, 4132.30769203, 4193.07692294,8.57
4124.99999973, 4125.12820485, 4131.66666639, 4050.51282010, 4121.53846126, 4222.05128199, 4182.82051269, 4204.23076917, 4214.87179481, 4128.20512793, 4117.05128178, 4131.41025614, 4134.87179460, 4196.66666653,8.57
4119.99999973, 4125.76923050, 4125.76923050, 4052.17948677, 4120.12820485, 4226.28205122, 4193.71794858, 4222.69230763, 4223.71794865, 4129.35897408, 4114.74358947, 4125.89743562, 4129.87179460, 4191.41025628,8.57
4127.05128178, 4128.46153819, 4131.28205101, 4040.25640984, 4123.84615357, 4210.76923070, 4187.82051269, 4222.56410250, 4212.05128199, 4128.07692280, 4115.89743562, 4123.20512793, 4131.15384588, 4194.10256397,8.57
4121.92307665, 4122.56410229, 4126.41025614, 4036.15384567, 4122.94871767, 4209.99999993, 4191.28205115, 4224.23076917, 4211.92307686, 4127.69230742, 4116.53846126, 4129.23076896, 4136.66666646, 4196.66666653,8.57
4128.33333306, 4126.15384588, 4126.28205101, 4036.02564054, 4124.87179460, 4206.02564096, 4175.89743576, 4209.48717942, 4206.41025634, 4127.43589716, 4113.46153819, 4123.07692280, 4135.51282031, 4197.56410243,8.57
4127.82051255, 4127.30769203, 4128.20512793, 4032.05128157, 4121.66666639, 4194.99999986, 4160.12820492, 4191.15384602, 4190.12820499, 4126.79487152, 4111.41025614, 4129.10256383, 4135.25640998, 4197.05128192,8.57
4118.07692280, 4120.38461511, 4121.92307665, 4026.53846106, 4119.99999973, 4192.05128192, 4164.61538441, 4187.56410243, 4181.53846140, 4126.79487152, 4109.99999973, 4125.51282024, 4132.30769203, 4194.48717935,8.57
4128.84615357, 4124.99999973, 4127.43589716, 4020.76923029, 4123.97435870, 4187.17948704, 4154.61538441, 4177.30769217, 4176.41025628, 4128.97435870, 4109.87179460, 4126.66666639, 4133.20512793, 4201.53846147,8.57
4125.64102537, 4124.61538434, 4123.84615357, 4017.43589695, 4120.38461511, 4182.82051269, 4140.25641005, 4162.56410236, 4172.43589730, 4131.02564075, 4107.17948691, 4130.76923050, 4134.23076896, 4199.35897422,8.57
4123.84615357, 4122.82051255, 4122.17948691, 4019.23076875, 4122.56410229, 4182.69230756, 4144.74358954, 4161.41025621, 4169.35897422, 4131.15384588, 4104.23076896, 4118.71794844, 4132.17948691, 4193.20512807,8.57
4121.92307665, 4122.17948691, 4123.84615357, 4025.25640977, 4122.56410229, 4185.51282038, 4161.79487159, 4182.05128192, 4175.64102551, 4129.74358947, 4107.69230742, 4124.74358947, 4132.82051255, 4194.48717935,8.57
4113.97435870, 4119.35897408, 4120.64102537, 4026.15384567, 4120.64102537, 4187.94871781, 4171.79487166, 4198.46153833, 4184.23076910, 4127.30769203, 4109.99999973, 4121.41025614, 4128.33333306, 4191.28205115,8.57
4128.46153819, 4126.15384588, 4131.92307665, 4019.87179439, 4127.56410229, 4185.89743576, 4167.94871774, 4189.48717935, 4179.10256397, 4128.58974332, 4110.89743562, 4119.10256383, 4129.10256383, 4192.94871781,8.57
4125.38461511, 4123.71794844, 4128.84615357, 4017.69230721, 4125.38461511, 4190.38461525, 4170.76923063, 4189.61538448, 4182.05128192, 4130.51282024, 4109.35897408, 4126.92307665, 4132.69230742, 4192.30769217,8.57
4119.48717921, 4122.30769203, 4122.94871767, 4019.10256362, 4123.07692280, 4192.05128192, 4173.58974345, 4197.17948704, 4186.28205115, 4128.07692280, 4104.61538434, 4115.64102537, 4128.46153819, 4191.41025628,8.57
4124.87179460, 4127.56410229, 4127.17948691, 4013.71794824, 4124.23076896, 4183.97435884, 4160.64102544, 4184.10256397, 4174.74358961, 4128.20512793, 4103.46153819, 4121.53846126, 4131.15384588, 4195.38461525,8.57
4118.97435870, 4123.84615357, 4121.02564075, 4009.35897388, 4121.66666639, 4185.12820499, 4155.12820492, 4174.61538448, 4168.71794858, 4130.51282024, 4103.33333306, 4124.61538434, 4131.53846126, 4189.61538448,8.57
4126.15384588, 4126.66666639, 4126.79487152, 4015.76923029, 4123.46153819, 4195.89743576, 4170.38461525, 4188.46153833, 4179.74358961, 4129.99999973, 4104.99999973, 4122.94871767, 4129.87179460, 4192.94871781,8.57
4123.46153819, 4126.53846126, 4125.38461511, 4020.89743541, 4121.53846126, 4197.56410243, 4174.87179474, 4196.92307679, 4187.69230756, 4127.94871767, 4106.28205101, 4131.66666639, 4133.58974332, 4198.46153833,8.57
4121.79487152, 4124.61538434, 4120.12820485, 4011.53846106, 4122.43589716, 4184.99999986, 4158.58974339, 4184.35897422, 4175.12820499, 4126.79487152, 4102.30769196, 4122.56410229, 4131.92307665, 4195.51282038,8.57
4129.10256383, 4126.92307665, 4127.05128178, 4005.51282003, 4125.76923050, 4182.94871781, 4156.41025621, 4181.66666653, 4175.25641012, 4128.07692280, 4101.92307658, 4126.92307665, 4133.46153819, 4196.66666653,8.57
4120.64102537, 4122.43589716, 4121.41025614, 4012.17948670, 4121.66666639, 4193.46153833, 4168.46153833, 4195.89743576, 4193.71794858, 4128.58974332, 4104.23076896, 4127.94871767, 4133.46153819, 4196.02564089,8.57
4125.51282024, 4125.25640998, 4125.12820485, 4015.38461490, 4120.89743562, 4193.20512807, 4170.12820499, 4196.79487166, 4185.64102551, 4128.20512793, 4105.89743562, 4119.61538434, 4130.12820485, 4200.89743576,8.57
4123.97435870, 4127.82051255, 4125.51282024, 4018.58974311, 4122.30769203, 4195.64102551, 4172.69230756, 4189.23076910, 4164.23076903, 4128.20512793, 4112.05128178, 4128.46153819, 4131.53846126, 4199.87179474,8.57
4119.48717921, 4125.12820485, 4118.97435870, 4019.23076875, 4126.66666639, 4195.89743576, 4171.53846140, 4186.15384602, 4162.56410236, 4126.92307665, 4112.30769203, 4121.02564075, 4130.12820485, 4192.82051269,8.57
4128.71794844, 4124.74358947, 4127.05128178, 4014.10256362, 4123.71794844, 4191.66666653, 4169.74358961, 4189.61538448, 4172.94871781, 4126.66666639, 4110.38461511, 4122.94871767, 4133.33333306, 4198.71794858,8.57
4119.87179460, 4122.17948691, 4121.02564075, 4019.35897388, 4115.89743562, 4208.71794865, 4186.53846140, 4210.76923070, 4192.82051269, 4128.71794844, 4112.43589716, 4128.07692280, 4131.41025614, 4195.25641012,8.57
4121.53846126, 4128.46153819, 4119.87179460, 4028.07692259, 4125.12820485, 4217.69230763, 4191.28205115, 4217.94871788, 4201.92307686, 4130.89743562, 4111.15384588, 4117.69230742, 4125.64102537, 4191.15384602,8.57
4126.79487152, 4129.48717921, 4124.74358947, 4031.28205080, 4126.02564075, 4208.71794865, 4181.79487166, 4201.02564096, 4196.53846140, 4131.41025614, 4112.05128178, 4124.10256383, 4129.23076896, 4194.74358961,8.57
4124.35897408, 4121.02564075, 4122.82051255, 4031.92307644, 4119.99999973, 4205.25641019, 4181.02564089, 4194.61538448, 4196.28205115, 4128.97435870, 4112.43589716, 4122.17948691, 4130.25640998, 4191.41025628,8.57
4129.23076896, 4125.38461511, 4129.74358947, 4033.20512772, 4124.99999973, 4208.20512814, 4186.41025628, 4205.51282045, 4196.15384602, 4127.05128178, 4109.48717921, 4124.61538434, 4131.41025614, 4193.71794858,8.57
4121.02564075, 4126.41025614, 4123.58974332, 4036.79487131, 4123.33333306, 4216.15384609, 4195.38461525, 4212.69230763, 4194.61538448, 4129.35897408, 4109.10256383, 4128.71794844, 4131.41025614, 4194.61538448,8.57
4123.71794844, 4125.76923050, 4122.69230742, 4034.35897388, 4123.07692280, 4211.92307686, 4191.92307679, 4207.05128199, 4193.20512807, 4130.51282024, 4109.61538434, 4119.23076896, 4129.23076896, 4193.97435884,8.57
4125.64102537, 4126.41025614, 4130.38461511, 4032.17948670, 4123.07692280, 4202.94871788, 4186.02564089, 4210.64102558, 4194.99999986, 4128.07692280, 4109.99999973, 4128.71794844, 4133.46153819, 4195.64102551,8.57
4118.71794844, 4123.84615357, 4126.53846126, 4034.48717900, 4122.43589716, 4206.79487173, 4193.07692294, 4216.02564096, 4193.20512807, 4129.23076896, 4109.10256383, 4127.17948691, 4133.07692280, 4192.56410243,8.57
4128.20512793, 4128.58974332, 4129.23076896, 4032.82051234, 4122.69230742, 4211.92307686, 4197.56410243, 4214.35897429, 4192.43589730, 4131.02564075, 4110.89743562, 4124.61538434, 4132.82051255, 4195.51282038,8.57
4122.69230742, 4125.25640998, 4123.71794844, 4030.76923029, 4117.30769203, 4215.76923070, 4197.82051269, 4224.74358968, 4207.43589737, 4128.97435870, 4114.10256383, 4131.66666639, 4135.89743569, 4195.89743576,8.57
4123.33333306, 4122.82051255, 4121.53846126, 4036.02564054, 4121.15384588, 4233.20512814, 4208.97435891, 4234.35897436, 4219.23076917, 4127.82051255, 4114.35897408, 4125.25640998, 4133.97435870, 4195.76923063,8.57
4127.69230742, 4125.76923050, 4123.71794844, 4046.28205087, 4122.69230742, 4258.71794872, 4226.15384609, 4231.28205122, 4214.10256404, 4130.38461511, 4113.07692280, 4130.25640998, 4131.66666639, 4201.02564096,8.57
4117.30769203, 4123.20512793, 4117.05128178, 4049.35897395, 4119.23076896, 4259.35897436, 4227.82051275, 4227.69230763, 4205.38461532, 4131.02564075, 4111.15384588, 4123.97435870, 4127.69230742, 4196.28205115,8.57
4127.43589716, 4127.05128178, 4125.25640998, 4037.82051241, 4124.35897408, 4242.94871795, 4214.74358968, 4222.94871788, 4202.05128199, 4128.97435870, 4109.35897408, 4119.74358947, 4131.66666639, 4193.84615371,8.57
4126.66666639, 4123.71794844, 4127.17948691, 4024.87179439, 4122.43589716, 4234.23076923, 4203.07692301, 4212.43589737, 4199.99999986, 4129.48717921, 4106.41025614, 4130.12820485, 4135.76923056, 4192.82051269,8.57
4121.66666639, 4120.64102537, 4126.79487152, 4019.10256362, 4122.43589716, 4219.23076917, 4190.89743576, 4204.35897429, 4189.61538448, 4129.48717921, 4105.12820485, 4117.69230742, 4129.10256383, 4192.30769217,8.57
4125.51282024, 4124.99999973, 4133.46153819, 4019.23076875, 4126.02564075, 4210.51282045, 4189.23076910, 4208.20512814, 4187.69230756, 4129.10256383, 4108.58974332, 4119.61538434, 4130.89743562, 4196.66666653,8.57
4119.23076896, 4123.20512793, 4124.61538434, 4021.02564054, 4121.79487152, 4216.92307686, 4196.92307679, 4211.02564096, 4194.35897422, 4129.48717921, 4109.61538434, 4123.20512793, 4129.35897408, 4189.87179474,8.57
4127.69230742, 4125.76923050, 4126.79487152, 4021.79487131, 4123.97435870, 4219.87179481, 4199.48717935, 4207.56410250, 4186.02564089, 4129.87179460, 4111.53846126, 4120.51282024, 4125.89743562, 4190.89743576,8.57
4122.69230742, 4123.84615357, 4125.51282024, 4031.02564054, 4123.97435870, 4230.89743583, 4212.30769224, 4218.33333327, 4185.64102551, 4130.51282024, 4115.38461511, 4131.53846126, 4133.84615357, 4196.41025628,8.57
4116.66666639, 4122.82051255, 4118.58974332, 4035.25640977, 4121.41025614, 4235.00000000, 4217.69230763, 4224.61538455, 4189.48717935, 4130.25640998, 4113.58974332, 4122.30769203, 4133.20512793, 4194.87179474,8.57
4126.79487152, 4129.23076896, 4126.66666639, 4025.89743541, 4121.66666639, 4221.02564096, 4204.87179481, 4209.23076917, 4175.64102551, 4131.53846126, 4110.76923050, 4123.97435870, 4131.02564075, 4198.71794858,8.57
4119.74358947, 4124.48717921, 4122.56410229, 4019.10256362, 4118.07692280, 4216.66666660, 4201.79487173, 4201.53846147, 4171.41025628, 4130.38461511, 4108.58974332, 4129.23076896, 4132.43589716, 4195.12820499,8.57
4126.02564075, 4123.20512793, 4123.58974332, 4019.99999952, 4120.76923050, 4211.53846147, 4196.28205115, 4203.20512814, 4178.46153833, 4128.58974332, 4106.28205101, 4123.20512793, 4131.15384588, 4195.12820499,8.57
4127.17948691, 4124.99999973, 4127.69230742, 4024.87179439, 4122.05128178, 4200.89743576, 4182.82051269, 4199.10256397, 4181.53846140, 4129.61538434, 4109.10256383, 4130.76923050, 4130.38461511, 4197.82051269,8.57
4117.56410229, 4123.33333306, 4124.10256383, 4022.17948670, 4120.64102537, 4204.48717942, 4181.92307679, 4192.82051269, 4177.30769217, 4129.61538434, 4109.87179460, 4123.20512793, 4127.30769203, 4194.35897422,8.57
4126.66666639, 4125.89743562, 4127.69230742, 4012.94871747, 4121.02564075, 4210.25641019, 4186.41025628, 4195.64102551, 4175.51282038, 4128.97435870, 4107.69230742, 4123.07692280, 4132.17948691, 4199.23076910,8.57
4123.71794844, 4120.51282024, 4120.51282024, 4004.87179439, 4118.07692280, 4193.71794858, 4173.97435884, 4187.69230756, 4168.07692287, 4129.35897408, 4104.10256383, 4130.38461511, 4133.84615357, 4194.99999986,8.57
4125.25640998, 4122.30769203, 4123.33333306, 3996.92307637, 4120.64102537, 4178.84615371, 4160.89743569, 4168.07692287, 4141.28205108, 4129.35897408, 4100.76923043, 4123.58974332, 4128.46153819, 4189.10256397,8.57
4124.87179460, 4128.20512793, 4127.94871767, 3995.25640970, 4117.82051255, 4189.48717935, 4168.84615371, 4169.23076910, 4127.43589716, 4130.51282024, 4101.41025607, 4128.84615357, 4131.28205101, 4191.79487166,8.57
4115.12820485, 4125.12820485, 4120.38461511, 3990.89743535, 4117.43589716, 4184.10256397, 4163.46153826, 4167.43589723, 4127.43589716, 4130.51282024, 4097.43589709, 4121.28205101, 4130.25640998, 4190.38461525,8.57
4126.02564075, 4126.28205101, 4128.84615357, 3980.38461483, 4126.41025614, 4162.30769210, 4151.02564082, 4157.82051262, 4128.71794844, 4128.97435870, 4095.12820478, 4121.41025614, 4131.02564075, 4195.76923063,8.57
4124.99999973, 4124.10256383, 4130.64102537, 3979.35897381, 4123.58974332, 4168.33333320, 4163.33333313, 4174.87179474, 4140.89743569, 4128.46153819, 4101.15384581, 4131.53846126, 4133.58974332, 4194.74358961,8.57
4121.15384588, 4125.76923050, 4128.71794844, 3980.64102509, 4122.69230742, 4175.38461525, 4164.74358954, 4179.61538448, 4142.56410236, 4130.12820485, 4103.33333306, 4120.64102537, 4130.25640998, 4190.89743576,8.57
4123.84615357, 4128.71794844, 4128.84615357, 3979.99999945, 4123.46153819, 4171.28205115, 4157.30769210, 4164.99999980, 4139.74358954, 4132.17948691, 4101.92307658, 4126.53846126, 4133.58974332, 4196.15384602,8.57
4118.84615357, 4123.84615357, 4121.15384588, 3980.51281996, 4119.61538434, 4174.74358961, 4168.07692287, 4175.25641012, 4148.84615364, 4131.66666639, 4100.76923043, 4126.41025614, 4131.53846126, 4196.28205115,8.57
4126.41025614, 4127.43589716, 4128.84615357, 3971.02564040, 4121.92307665, 4162.94871774, 4162.82051262, 4177.30769217, 4139.61538441, 4130.64102537, 4098.71794837, 4122.94871767, 4127.30769203, 4199.99999986,8.57
4122.56410229, 4126.28205101, 4126.79487152, 3963.97435835, 4120.25640998, 4148.46153826, 4146.92307672, 4155.89743569, 4114.74358947, 4130.12820485, 4096.28205094, 4130.12820485, 4131.53846126, 4200.25641012,8.57
4123.20512793, 4124.23076896, 4122.43589716, 3967.69230707, 4120.89743562, 4158.46153826, 4150.51282031, 4145.76923056, 4105.89743562, 4128.07692280, 4094.35897402, 4122.82051255, 4131.79487152, 4195.89743576,8.57
4125.51282024, 4126.66666639, 4128.20512793, 3972.43589688, 4120.51282024, 4171.02564089, 4157.94871774, 4150.64102544, 4119.23076896, 4127.56410229, 4095.76923043, 4127.94871767, 4132.30769203, 4197.05128192,8.57
4116.41025614, 4122.56410229, 4121.79487152, 3975.38461483, 4117.94871767, 4167.69230749, 4155.38461518, 4156.15384595, 4130.64102537, 4127.82051255, 4096.15384581, 4126.28205101, 4133.33333306, 4194.61538448,8.57
4126.15384588, 4126.15384588, 4125.51282024, 3981.79487124, 4122.82051255, 4158.84615364, 4150.25641005, 4159.10256390, 4131.15384588, 4127.82051255, 4096.41025607, 4122.17948691, 4134.10256383, 4195.76923063,8.57
4121.15384588, 4126.02564075, 4124.35897408, 3982.17948663, 4119.61538434, 4157.94871774, 4149.87179467, 4162.94871774, 4139.74358954, 4129.35897408, 4097.94871761, 4132.56410229, 4131.92307665, 4196.53846140,8.57
4115.25640998, 4122.43589716, 4119.48717921, 3974.87179432, 4121.02564075, 4159.48717928, 4149.48717928, 4159.23076903, 4142.17948697, 4130.25640998, 4095.51282017, 4120.76923050, 4128.58974332, 4193.20512807,8.57
4123.97435870, 4126.28205101, 4126.41025614, 3977.43589688, 4123.33333306, 4159.10256390, 4151.92307672, 4157.17948697, 4134.23076896, 4128.58974332, 4096.79487145, 4122.82051255, 4133.20512793, 4194.99999986,8.57
4119.23076896, 4125.12820485, 4123.97435870, 3975.76923022, 4115.89743562, 4146.28205108, 4146.41025621, 4150.38461518, 4125.76923050, 4128.07692280, 4096.92307658, 4128.58974332, 4131.28205101, 4190.89743576,8.57
4126.28205101, 4128.46153819, 4127.43589716, 3962.82051220, 4120.12820485, 4125.25640998, 4127.69230742, 4130.38461511, 4108.71794844, 4130.38461511, 4091.92307658, 4119.87179460, 4129.48717921, 4191.15384602,8.57
4124.10256383, 4127.05128178, 4123.33333306, 3963.97435835, 4123.58974332, 4133.84615357, 4133.33333306, 4134.10256383, 4107.17948691, 4130.51282024, 4091.92307658, 4128.07692280, 4136.02564082, 4194.10256397,8.57
4117.30769203, 4122.30769203, 4119.23076896, 3968.97435835, 4123.46153819, 4145.38461518, 4146.15384595, 4145.89743569, 4112.30769203, 4128.97435870, 4096.02564068, 4125.25640998, 4131.15384588, 4191.02564089,8.57
4127.56410229, 4126.79487152, 4133.46153819, 3965.64102502, 4122.56410229, 4135.89743569, 4145.89743569, 4143.58974339, 4109.99999973, 4130.12820485, 4099.61538427, 4126.28205101, 4129.87179460, 4197.69230756,8.57
4119.99999973, 4124.23076896, 4126.15384588, 3971.79487124, 4114.10256383, 4146.15384595, 4162.05128185, 4159.48717928, 4128.20512793, 4130.76923050, 4100.25640991, 4129.61538434, 4133.58974332, 4197.56410243,8.57
4121.02564075, 4123.84615357, 4119.74358947, 3974.23076868, 4118.46153819, 4154.87179467, 4162.17948697, 4166.66666646, 4139.10256390, 4129.74358947, 4100.12820478, 4122.30769203, 4130.76923050, 4194.48717935,8.57
4124.48717921, 4123.07692280, 4123.71794844, 3961.79487117, 4122.05128178, 4139.48717928, 4136.15384595, 4142.69230749, 4119.87179460, 4129.23076896, 4101.02564068, 4130.89743562, 4131.53846126, 4195.25641012,8.57
4119.74358947, 4120.51282024, 4120.64102537, 3961.79487117, 4117.56410229, 4141.92307672, 4142.17948697, 4140.38461518, 4117.17948691, 4128.71794844, 4098.20512786, 4126.28205101, 4129.87179460, 4192.43589730,8.57
4125.25640998, 4127.05128178, 4124.99999973, 3970.38461476, 4119.99999973, 4159.23076903, 4161.66666646, 4154.10256390, 4129.74358947, 4129.48717921, 4097.69230735, 4124.99999973, 4132.17948691, 4197.82051269,8.57
4115.89743562, 4124.61538434, 4120.12820485, 3963.71794810, 4121.28205101, 4153.71794851, 4148.07692287, 4145.64102544, 4123.71794844, 4127.56410229, 4098.33333299, 4130.12820485, 4135.51282031, 4196.15384602,8.57
4118.97435870, 4122.17948691, 4121.92307665, 3952.82051220, 4122.30769203, 4136.41025621, 4132.82051255, 4136.53846133, 4113.33333306, 4124.74358947, 4095.38461504, 4119.74358947, 4129.87179460, 4193.46153833,8.57
4124.61538434, 4123.97435870, 4128.58974332, 3962.56410194, 4121.79487152, 4150.38461518, 4152.05128185, 4150.25641005, 4125.51282024, 4127.69230742, 4096.28205094, 4123.97435870, 4130.51282024, 4197.82051269,8.57
4114.61538434, 4120.51282024, 4120.64102537, 3974.23076868, 4122.94871767, 4165.51282031, 4161.28205108, 4151.41025621, 4131.41025614, 4128.33333306, 4096.53846119, 4122.30769203, 4131.79487152, 4193.58974345,8.57
4122.94871767, 4126.15384588, 4123.07692280, 3966.02564040, 4126.92307665, 4151.41025621, 4148.07692287, 4140.51282031, 4119.74358947, 4126.92307665, 4092.69230735, 4118.71794844, 4129.99999973, 4193.07692294,8.57
4123.71794844, 4125.38461511, 4123.46153819, 3955.38461476, 4120.64102537, 4143.33333313, 4147.17948697, 4148.20512800, 4123.58974332, 4129.35897408, 4092.94871761, 4123.20512793, 4128.07692280, 4194.35897422,8.57
4121.92307665, 4122.82051255, 4125.38461511, 3949.10256348, 4120.51282024, 4143.33333313, 4143.97435877, 4146.92307672, 4122.94871767, 4129.48717921, 4093.07692273, 4117.56410229, 4128.07692280, 4192.69230756,8.57
4125.25640998, 4126.92307665, 4128.84615357, 3948.46153784, 4122.30769203, 4142.43589723, 4136.79487159, 4135.64102544, 4111.15384588, 4128.20512793, 4092.05128171, 4129.10256383, 4134.61538434, 4192.82051269,8.57
4121.02564075, 4123.84615357, 4123.07692280, 3955.64102502, 4119.48717921, 4144.61538441, 4139.87179467, 4137.17948697, 4118.07692280, 4128.97435870, 4095.51282017, 4126.92307665, 4131.79487152, 4188.20512807,8.57
4128.07692280, 4126.66666639, 4133.07692280, 3952.30769169, 4122.69230742, 4141.53846133, 4138.97435877, 4133.71794844, 4121.41025614, 4130.25640998, 4101.41025607, 4118.20512793, 4129.35897408, 4192.82051269,8.57
4121.92307665, 4126.28205101, 4130.89743562, 3942.05128143, 4119.35897408, 4133.20512793, 4132.05128178, 4124.99999973, 4112.56410229, 4129.10256383, 4101.28205094, 4130.76923050, 4135.51282031, 4197.69230756,8.57
4121.92307665, 4125.51282024, 4123.20512793, 3945.12820451, 4117.05128178, 4131.66666639, 4127.69230742, 4128.97435870, 4116.15384588, 4127.30769203, 4096.79487145, 4127.56410229, 4133.20512793, 4194.23076910,8.57
4133.07692280, 4129.35897408, 4131.79487152, 3949.74358912, 4120.38461511, 4137.94871774, 4133.97435870, 4140.38461518, 4120.64102537, 4130.64102537, 4098.46153812, 4130.51282024, 4132.82051255, 4196.28205115,8.57
4119.23076896, 4123.33333306, 4124.10256383, 3931.15384546, 4119.48717921, 4127.56410229, 4131.28205101, 4127.69230742, 4096.66666632, 4132.94871767, 4095.89743555, 4127.82051255, 4133.46153819, 4194.99999986,8.57
4123.20512793, 4124.48717921, 4122.30769203, 3913.84615316, 4120.64102537, 4107.82051255, 4114.61538434, 4103.58974332, 4077.82051248, 4130.38461511, 4088.84615350, 4121.41025614, 4132.17948691, 4199.48717935,8.57
4127.69230742, 4124.87179460, 4126.15384588, 3929.48717880, 4119.10256383, 4120.25640998, 4126.92307665, 4117.17948691, 4100.76923043, 4128.84615357, 4092.17948684, 4135.76923056, 4134.87179460, 4202.30769224,8.57
4122.05128178, 4121.28205101, 4124.99999973, 3945.89743528, 4120.89743562, 4140.38461518, 4148.97435877, 4139.23076903, 4117.69230742, 4129.74358947, 4095.76923043, 4126.79487152, 4132.94871767, 4194.35897422,8.57
4128.58974332, 4126.28205101, 4129.35897408, 3937.43589674, 4121.79487152, 4126.02564075, 4134.23076896, 4124.99999973, 4102.05128171, 4129.35897408, 4092.17948684, 4120.51282024, 4133.97435870, 4196.53846140,8.57
4121.79487152, 4125.64102537, 4122.69230742, 3930.89743521, 4117.43589716, 4115.76923050, 4120.89743562, 4117.17948691, 4098.46153812, 4128.97435870, 4087.94871761, 4122.82051255, 4132.69230742, 4194.74358961,8.57
4124.87179460, 4124.99999973, 4126.28205101, 3940.38461476, 4121.53846126, 4129.87179460, 4129.61538434, 4125.89743562, 4110.89743562, 4128.84615357, 4089.23076889, 4117.94871767, 4130.51282024, 4193.07692294,8.57
4124.35897408, 4123.33333306, 4128.58974332, 3955.64102502, 4119.99999973, 4139.23076903, 4135.76923056, 4128.46153819, 4126.79487152, 4128.07692280, 4094.99999966, 4125.51282024, 4136.41025621, 4195.51282038,8.57
4116.53846126, 4123.71794844, 4119.87179460, 3957.82051220, 4116.66666639, 4132.05128178, 4131.41025614, 4127.17948691, 4128.20512793, 4128.97435870, 4092.43589709, 4119.61538434, 4131.02564075, 4192.05128192,8.57
4126.15384588, 4130.64102537, 4128.33333306, 3957.30769169, 4120.76923050, 4138.58974339, 4140.64102544, 4135.76923056, 4125.25640998, 4130.89743562, 4091.15384581, 4123.20512793, 4128.20512793, 4194.87179474,8.57
4124.23076896, 4125.76923050, 4127.43589716, 3969.87179425, 4117.56410229, 4161.79487159, 4163.71794851, 4152.94871774, 4141.79487159, 4130.89743562, 4097.94871761, 4130.51282024, 4133.07692280, 4192.69230756,8.57
4126.28205101, 4124.10256383, 4127.30769203, 3972.05128150, 4119.99999973, 4152.17948697, 4157.05128185, 4146.02564082, 4138.20512800, 4130.76923050, 4100.12820478, 4118.07692280, 4129.74358947, 4193.20512807,8.57
4124.99999973, 4127.30769203, 4129.74358947, 3965.89743528, 4123.33333306, 4134.10256383, 4140.38461518, 4131.28205101, 4119.48717921, 4130.38461511, 4097.94871761, 4125.89743562, 4128.33333306, 4198.97435884,8.57
4118.33333306, 4125.51282024, 4118.71794844, 3966.28205066, 4120.51282024, 4136.53846133, 4142.94871774, 4138.97435877, 4127.43589716, 4128.07692280, 4094.61538427, 4124.35897408, 4128.97435870, 4193.84615371,8.57
4130.12820485, 4130.38461511, 4124.87179460, 3965.51281989, 4120.12820485, 4135.38461518, 4145.64102544, 4146.92307672, 4138.84615364, 4127.17948691, 4093.58974325, 4122.69230742, 4133.33333306, 4196.15384602,8.57
4124.10256383, 4124.99999973, 4128.33333306, 3966.92307630, 4117.05128178, 4133.97435870, 4146.92307672, 4143.07692287, 4135.89743569, 4129.87179460, 4093.58974325, 4133.84615357, 4136.02564082, 4198.20512807,8.57
4121.92307665, 4122.56410229, 4126.02564075, 3972.82051227, 4119.99999973, 4131.79487152, 4142.82051262, 4130.12820485, 4124.35897408, 4130.25640998, 4092.69230735, 4126.66666639, 4132.43589716, 4197.30769217,8.57
4125.51282024, 4128.97435870, 4125.89743562, 3974.48717894, 4121.41025614, 4121.66666639, 4130.51282024, 4116.79487152, 4111.79487152, 4128.97435870, 4091.92307658, 4129.74358947, 4134.23076896, 4199.23076910,8.57
4117.05128178, 4123.97435870, 4120.12820485, 3967.30769169, 4117.69230742, 4109.74358947, 4122.05128178, 4113.84615357, 4107.82051255, 4129.48717921, 4088.33333299, 4125.25640998, 4131.66666639, 4194.99999986,8.57
4125.25640998, 4124.23076896, 4129.99999973, 3959.74358912, 4119.35897408, 4105.51282024, 4119.23076896, 4112.94871767, 4104.74358947, 4130.25640998, 4088.84615350, 4119.99999973, 4129.87179460, 4195.89743576,8.57
4121.15384588, 4124.61538434, 4128.46153819, 3963.07692246, 4115.38461511, 4112.56410229, 4122.05128178, 4108.33333306, 4104.99999973, 4129.99999973, 4092.43589709, 4127.69230742, 4133.20512793, 4195.25641012,8.57
4119.10256383, 4124.87179460, 4124.10256383, 3967.94871733, 4118.71794844, 4113.58974332, 4122.82051255, 4106.28205101, 4109.35897408, 4128.84615357, 4091.66666632, 4119.99999973, 4132.17948691, 4194.61538448,8.57
4126.92307665, 4129.48717921, 4131.92307665, 3970.76923015, 4124.35897408, 4112.56410229, 4122.05128178, 4108.20512793, 4110.64102537, 4128.46153819, 4090.25640991, 4125.25640998, 4133.33333306, 4198.97435884,8.57
4116.92307665, 4125.25640998, 4127.30769203, 3985.38461483, 4119.74358947, 4124.74358947, 4129.10256383, 4116.92307665, 4119.35897408, 4128.71794844, 4091.02564068, 4124.35897408, 4130.12820485, 4191.41025628,8.57
4122.43589716, 4127.43589716, 4129.35897408, 3997.69230714, 4121.02564075, 4128.07692280, 4132.94871767, 4123.58974332, 4129.99999973, 4129.99999973, 4092.69230735, 4118.71794844, 4128.58974332, 4191.66666653,8.57
4123.71794844, 4128.20512793, 4124.74358947, 3990.89743535, 4120.12820485, 4122.05128178, 4129.23076896, 4118.20512793, 4124.74358947, 4130.38461511, 4091.15384581, 4129.10256383, 4132.43589716, 4196.66666653,8.57
4122.56410229, 4125.12820485, 4121.02564075, 3981.28205073, 4119.48717921, 4121.66666639, 4121.15384588, 4108.20512793, 4110.38461511, 4128.07692280, 4087.43589709, 4120.89743562, 4130.76923050, 4192.43589730,8.57
4132.43589716, 4128.33333306, 4132.30769203, 3985.76923022, 4121.15384588, 4119.48717921, 4120.38461511, 4110.38461511, 4111.41025614, 4129.99999973, 4088.84615350, 4125.89743562, 4133.58974332, 4196.02564089,8.57
4121.92307665, 4126.02564075, 4124.23076896, 3995.25640970, 4118.58974332, 4114.99999973, 4124.35897408, 4120.51282024, 4122.69230742, 4131.79487152, 4093.58974325, 4133.07692280, 4134.23076896, 4196.41025628,8.57
4122.94871767, 4126.79487152, 4122.82051255, 3992.05128150, 4121.66666639, 4109.99999973, 4112.17948691, 4117.94871767, 4117.82051255, 4130.38461511, 4097.17948684, 4124.10256383, 4132.05128178, 4196.66666653,8.57
4124.23076896, 4126.66666639, 4126.53846126, 3986.41025586, 4118.71794844, 4109.61538434, 4100.51282017, 4114.48717921, 4112.56410229, 4131.15384588, 4097.05128171, 4130.51282024, 4134.35897408, 4198.20512807,8.57
4120.38461511, 4124.87179460, 4122.05128178, 3989.48717894, 4116.28205101, 4111.53846126, 4102.05128171, 4110.51282024, 4114.35897408, 4130.89743562, 4090.89743555, 4127.69230742, 4131.28205101, 4194.74358961,8.57
4126.15384588, 4127.30769203, 4127.43589716, 3994.74358919, 4122.17948691, 4118.71794844, 4107.43589716, 4102.56410229, 4114.61538434, 4130.25640998, 4089.35897402, 4128.46153819, 4133.46153819, 4199.99999986,8.57
4113.97435870, 4121.15384588, 4122.56410229, 3989.74358919, 4119.74358947, 4124.87179460, 4113.07692280, 4107.56410229, 4112.82051255, 4129.48717921, 4094.61538427, 4126.53846126, 4132.05128178, 4197.94871781,8.57
4118.33333306, 4124.48717921, 4123.46153819, 3977.82051227, 4119.10256383, 4106.92307665, 4101.66666632, 4099.48717914, 4097.17948684, 4128.71794844, 4096.02564068, 4115.89743562, 4126.15384588, 4194.48717935,8.57
4124.61538434, 4129.23076896, 4126.53846126, 3979.74358919, 4119.48717921, 4094.74358940, 4085.89743555, 4076.79487145, 4085.51282017, 4129.99999973, 4095.38461504, 4127.05128178, 4130.38461511, 4195.64102551,8.57
4115.38461511, 4123.84615357, 4119.35897408, 3989.10256355, 4119.35897408, 4106.02564075, 4089.48717914, 4075.51282017, 4091.92307658, 4130.12820485, 4094.61538427, 4119.23076896, 4127.82051255, 4189.74358961,8.57
4124.48717921, 4126.15384588, 4126.66666639, 3989.99999945, 4121.92307665, 4111.53846126, 4094.74358940, 4088.71794837, 4100.12820478, 4128.71794844, 4094.61538427, 4114.48717921, 4126.15384588, 4193.84615371,8.57
4123.20512793, 4125.38461511, 4127.30769203, 3992.05128150, 4117.69230742, 4105.89743562, 4088.33333299, 4088.71794837, 4102.17948684, 4130.12820485, 4096.15384581, 4127.05128178, 4131.79487152, 4195.38461525,8.57
4121.92307665, 4126.79487152, 4125.51282024, 3994.35897381, 4120.64102537, 4101.02564068, 4079.35897402, 4073.84615350, 4092.43589709, 4131.53846126, 4094.48717914, 4120.51282024, 4130.12820485, 4193.46153833,8.57
4122.17948691, 4128.33333306, 4126.02564075, 3992.30769176, 4122.30769203, 4104.87179460, 4090.51282017, 4082.94871761, 4096.15384581, 4129.23076896, 4093.84615350, 4125.12820485, 4130.89743562, 4197.05128192,8.57
4114.87179460, 4121.53846126, 4120.12820485, 3987.82051227, 4119.10256383, 4104.74358947, 4103.71794844, 4104.10256383, 4108.71794844, 4126.41025614, 4092.82051248, 4125.51282024, 4130.76923050, 4193.58974345,8.57
4124.35897408, 4126.02564075, 4129.74358947, 3981.15384560, 4120.64102537, 4090.76923043, 4083.84615350, 4081.28205094, 4087.69230735, 4126.02564075, 4090.64102530, 4125.12820485, 4129.23076896, 4196.66666653,8.57
4120.25640998, 4126.02564075, 4125.89743562, 3981.92307637, 4116.28205101, 4088.84615350, 4070.25640991, 4054.61538420, 4072.17948684, 4128.58974332, 4092.30769196, 4133.58974332, 4132.05128178, 4198.33333320,8.57
4118.84615357, 4123.97435870, 4117.82051255, 3991.79487124, 4117.56410229, 4099.87179453, 4086.79487145, 4071.15384581, 4095.12820478, 4131.28205101, 4093.07692273, 4126.15384588, 4133.58974332, 4195.76923063,8.57
4127.69230742, 4126.41025614, 4124.99999973, 3992.56410201, 4119.48717921, 4099.74358940, 4095.76923043, 4082.94871761, 4100.64102530, 4129.74358947, 4087.94871761, 4131.28205101, 4136.15384595, 4197.56410243,8.57
4120.12820485, 4121.53846126, 4120.12820485, 3978.71794817, 4113.20512793, 4078.84615350, 4070.51282017, 4050.25640984, 4059.87179446, 4128.84615357, 4081.15384581, 4128.33333306, 4133.97435870, 4195.38461525,8.57
4125.38461511, 4122.94871767, 4122.17948691, 3976.41025586, 4117.82051255, 4067.17948677, 4054.74358933, 4031.79487131, 4046.66666625, 4130.76923050, 4087.05128171, 4120.38461511, 4134.87179460, 4199.99999986,8.57
4124.35897408, 4123.97435870, 4122.69230742, 3994.61538406, 4122.82051255, 4083.33333299, 4076.28205094, 4062.43589702, 4094.35897402, 4130.64102537, 4093.46153812, 4127.56410229, 4137.69230749, 4197.05128192,8.57
4120.38461511, 4121.79487152, 4120.38461511, 3996.41025586, 4121.02564075, 4086.15384581, 4082.94871761, 4077.43589709, 4112.56410229, 4128.20512793, 4087.05128171, 4117.30769203, 4130.12820485, 4187.43589730,8.57
4125.12820485, 4125.25640998, 4129.23076896, 3986.92307637, 4116.79487152, 4081.15384581, 4077.05128171, 4072.17948684, 4095.64102530, 4129.74358947, 4089.48717914, 4122.30769203, 4130.89743562, 4192.69230756,8.57
4114.87179460, 4124.87179460, 4123.84615357, 3991.28205073, 4117.82051255, 4098.07692273, 4088.07692273, 4079.48717914, 4101.41025607, 4130.76923050, 4096.66666632, 4125.89743562, 4133.07692280, 4192.05128192,8.57
4121.02564075, 4127.69230742, 4124.61538434, 3990.38461483, 4125.76923050, 4102.82051255, 4093.84615350, 4080.89743555, 4103.20512793, 4129.87179460, 4092.30769196, 4117.30769203, 4131.53846126, 4192.56410243,8.57
4125.89743562, 4125.89743562, 4127.56410229, 3982.56410201, 4119.35897408, 4090.12820478, 4089.87179453, 4079.35897402, 4091.92307658, 4131.41025614, 4090.51282017, 4127.82051255, 4133.07692280, 4195.76923063,8.57
4122.43589716, 4123.07692280, 4127.56410229, 3982.94871740, 4117.05128178, 4085.89743555, 4090.51282017, 4084.10256376, 4094.99999966, 4131.41025614, 4093.58974325, 4122.82051255, 4127.56410229, 4189.87179474,8.57
4128.33333306, 4128.46153819, 4132.43589716, 3991.28205073, 4123.97435870, 4088.84615350, 4095.12820478, 4086.15384581, 4108.97435870, 4128.46153819, 4096.53846119, 4125.25640998, 4130.64102537, 4194.48717935,8.57
4118.71794844, 4125.51282024, 4121.92307665, 3995.89743535, 4118.97435870, 4086.79487145, 4091.66666632, 4076.28205094, 4103.20512793, 4128.84615357, 4098.46153812, 4131.79487152, 4134.23076896, 4195.76923063,8.57
4123.97435870, 4124.23076896, 4124.99999973, 3987.05128150, 4119.61538434, 4072.17948684, 4079.99999966, 4061.79487138, 4084.10256376, 4130.76923050, 4096.79487145, 4121.02564075, 4129.61538434, 4192.17948704,8.57
4128.84615357, 4126.02564075, 4131.02564075, 3984.10256355, 4120.76923050, 4071.15384581, 4080.38461504, 4068.84615343, 4094.35897402, 4129.74358947, 4096.66666632, 4129.10256383, 4133.97435870, 4195.25641012,8.57
4119.61538434, 4124.23076896, 4119.87179460, 3996.79487124, 4118.71794844, 4085.89743555, 4086.02564068, 4079.99999966, 4110.76923050, 4128.20512793, 4096.02564068, 4126.92307665, 4135.89743569, 4196.02564089,8.57
4119.61538434, 4124.23076896, 4119.87179460, 3996.79487124, 4118.71794844, 4085.89743555, 4086.02564068, 4079.99999966, 4110.76923050, 4128.20512793, 4096.02564068, 4126.92307665, 4135.89743569, 4196.02564089,8.57
4126.92307665, 4128.58974332, 4125.64102537, 4001.28205073, 4120.64102537, 4080.25640991, 4079.35897402, 4067.17948677, 4096.41025607, 4129.61538434, 4095.64102530, 4125.76923050, 4134.74358947, 4198.07692294,8.57
4124.10256383, 4125.51282024, 4127.43589716, 3989.23076868, 4118.71794844, 4065.38461497, 4070.64102530, 4054.87179446, 4085.12820478, 4129.87179460, 4097.69230735, 4132.69230742, 4133.84615357, 4194.74358961,8.57
4123.07692280, 4125.64102537, 4124.35897408, 3981.02564047, 4118.46153819, 4064.10256369, 4066.53846113, 4057.05128164, 4091.15384581, 4128.58974332, 4098.07692273, 4120.76923050, 4132.82051255, 4194.10256397,8.57
4123.07692280, 4125.64102537, 4124.35897408, 3981.02564047, 4118.46153819, 4064.10256369, 4066.53846113, 4057.05128164, 4091.15384581, 4128.58974332, 4098.07692273, 4120.76923050, 4132.82051255, 4194.10256397,8.57
4123.84615357, 4129.61538434, 4125.38461511, 3986.66666611, 4116.53846126, 4076.66666632, 4074.35897402, 4062.69230728, 4092.30769196, 4129.87179460, 4098.71794837, 4125.76923050, 4136.28205108, 4198.71794858,8.57
4116.53846126, 4124.10256383, 4121.28205101, 3986.15384560, 4116.79487152, 4082.82051248, 4080.38461504, 4057.82051241, 4081.53846119, 4131.02564075, 4096.92307658, 4126.92307665, 4131.02564075, 4193.58974345,8.57
4123.07692280, 4125.89743562, 4126.66666639, 3972.94871740, 4122.56410229, 4068.71794830, 4063.97435856, 4041.53846113, 4067.17948677, 4131.28205101, 4094.61538427, 4124.23076896, 4129.99999973, 4193.58974345,8.57
4118.71794844, 4126.41025614, 4124.61538434, 3969.23076861, 4120.38461511, 4055.89743548, 4051.15384574, 4036.92307651, 4068.71794830, 4131.66666639, 4093.97435863, 4128.07692280, 4133.97435870, 4192.56410243,8.57
4118.58974332, 4126.79487152, 4121.66666639, 3970.76923015, 4120.64102537, 4055.64102523, 4055.12820472, 4043.07692266, 4078.20512786, 4130.12820485, 4093.46153812, 4116.28205101, 4126.79487152, 4189.10256397,8.57
4124.23076896, 4127.94871767, 4125.25640998, 3973.07692252, 4119.35897408, 4060.12820472, 4057.82051241, 4035.89743541, 4074.87179453, 4129.23076896, 4096.15384581, 4124.35897408, 4126.02564075, 4192.17948704,8.57
4117.56410229, 4123.71794844, 4121.28205101, 3982.17948663, 4116.02564075, 4061.53846113, 4062.69230728, 4031.15384567, 4070.51282017, 4129.99999973, 4096.66666632, 4126.15384588, 4129.48717921, 4189.10256397,8.57
4125.89743562, 4128.07692280, 4127.94871767, 3981.02564047, 4122.17948691, 4058.46153805, 4063.46153805, 4038.20512779, 4067.43589702, 4129.99999973, 4093.58974325, 4118.46153819, 4128.84615357, 4192.69230756,8.57
4123.58974332, 4126.15384588, 4127.05128178, 3973.97435842, 4118.97435870, 4057.05128164, 4055.76923036, 4039.35897395, 4063.97435856, 4129.10256383, 4093.58974325, 4129.61538434, 4130.51282024, 4196.53846140,8.57
4118.84615357, 4124.35897408, 4122.56410229, 3982.94871740, 4116.28205101, 4058.07692266, 4055.12820472, 4036.41025593, 4069.48717907, 4129.87179460, 4094.99999966, 4125.76923050, 4132.82051255, 4193.07692294,8.57
4127.05128178, 4129.23076896, 4127.30769203, 4000.51281996, 4121.66666639, 4066.28205087, 4065.89743548, 4042.69230728, 4081.66666632, 4131.15384588, 4096.66666632, 4128.20512793, 4137.43589723, 4195.64102551,8.57
4116.92307665, 4124.87179460, 4119.35897408, 4008.33333285, 4118.33333306, 4075.51282017, 4073.20512786, 4052.30769189, 4086.41025607, 4130.12820485, 4099.74358940, 4129.87179460, 4132.43589716, 4193.07692294,8.57
4117.17948691, 4125.76923050, 4120.64102537, 4009.61538413, 4118.33333306, 4075.89743555, 4072.43589709, 4050.89743548, 4078.33333299, 4128.97435870, 4104.10256383, 4124.99999973, 4128.33333306, 4195.64102551,8.57
4121.53846126, 4127.69230742, 4121.66666639, 4013.58974311, 4119.99999973, 4077.82051248, 4072.94871761, 4046.15384574, 4076.66666632, 4128.71794844, 4104.61538434, 4133.07692280, 4134.99999973, 4199.61538448,8.57
4121.15384588, 4123.58974332, 4118.33333306, 4015.25640977, 4120.64102537, 4078.71794837, 4068.58974318, 4045.25640984, 4081.15384581, 4128.58974332, 4100.89743555, 4124.35897408, 4132.30769203, 4193.07692294,8.57
4121.41025614, 4124.61538434, 4125.89743562, 4019.35897388, 4120.64102537, 4083.33333299, 4074.35897402, 4057.30769189, 4096.28205094, 4129.74358947, 4102.94871767, 4124.10256383, 4130.38461511, 4194.99999986,8.57
4113.71794844, 4125.25640998, 4119.87179460, 4019.23076875, 4117.56410229, 4090.12820478, 4086.53846119, 4071.02564068, 4113.97435870, 4129.99999973, 4103.71794844, 4125.38461511, 4132.82051255, 4195.38461525,8.57
4124.99999973, 4129.10256383, 4121.02564075, 4008.71794824, 4122.30769203, 4083.33333299, 4076.41025607, 4060.51282010, 4098.97435863, 4128.97435870, 4099.61538427, 4117.30769203, 4131.53846126, 4193.07692294,8.57
4124.48717921, 4128.20512793, 4124.99999973, 4006.79487131, 4121.02564075, 4077.30769196, 4065.89743548, 4044.87179446, 4080.38461504, 4129.23076896, 4101.02564068, 4128.58974332, 4132.43589716, 4193.97435884,8.57
4115.89743562, 4123.71794844, 4119.61538434, 4004.74358926, 4119.48717921, 4066.53846113, 4055.25640984, 4029.23076875, 4071.92307658, 4128.20512793, 4099.74358940, 4122.94871767, 4128.84615357, 4192.43589730,8.57
4126.92307665, 4130.76923050, 4125.38461511, 3998.46153791, 4122.94871767, 4055.38461497, 4044.61538420, 4022.05128157, 4068.33333292, 4127.94871767, 4096.92307658, 4122.17948691, 4129.48717921, 4196.15384602,8.57
4121.53846126, 4130.76923050, 4123.46153819, 4007.69230721, 4118.84615357, 4074.74358940, 4063.46153805, 4040.89743548, 4082.17948684, 4129.61538434, 4097.82051248, 4129.87179460, 4130.89743562, 4194.48717935,8.57
4124.23076896, 4129.35897408, 4126.28205101, 4017.05128157, 4121.41025614, 4086.53846119, 4077.69230735, 4052.94871754, 4085.12820478, 4130.12820485, 4101.15384581, 4120.25640998, 4128.97435870, 4192.43589730,8.57
4126.92307665, 4130.51282024, 4127.69230742, 4014.10256362, 4121.41025614, 4069.74358940, 4063.84615343, 4048.33333292, 4079.23076889, 4129.48717921, 4105.38461511, 4127.17948691, 4133.33333306, 4196.15384602,8.57
4119.10256383, 4126.79487152, 4119.61538434, 4013.20512772, 4119.35897408, 4058.97435856, 4049.61538420, 4040.12820472, 4077.43589709, 4128.71794844, 4104.35897408, 4126.66666639, 4131.79487152, 4196.28205115,8.57
4129.35897408, 4129.35897408, 4128.07692280, 4019.35897388, 4121.92307665, 4063.07692266, 4047.43589702, 4029.87179439, 4070.12820478, 4129.48717921, 4102.43589709, 4124.23076896, 4130.25640998, 4200.51282038,8.57
4126.53846126, 4126.28205101, 4124.99999973, 4031.28205080, 4115.51282024, 4080.12820478, 4062.05128164, 4037.56410215, 4071.28205094, 4129.48717921, 4105.76923050, 4130.64102537, 4132.05128178, 4197.69230756,8.57
4124.23076896, 4124.99999973, 4119.61538434, 4039.35897395, 4118.20512793, 4094.99999966, 4076.92307658, 4050.12820472, 4075.76923043, 4127.69230742, 4109.35897408, 4124.61538434, 4130.64102537, 4196.15384602,8.57
4124.61538434, 4129.23076896, 4125.38461511, 4033.97435849, 4123.20512793, 4087.94871761, 4066.92307651, 4036.28205080, 4065.25640984, 4128.58974332, 4108.71794844, 4132.94871767, 4134.10256383, 4200.64102551,8.57
4116.02564075, 4126.79487152, 4120.89743562, 4021.28205080, 4118.71794844, 4068.58974318, 4045.25640984, 4016.92307644, 4054.61538420, 4129.99999973, 4104.61538434, 4128.20512793, 4133.97435870, 4194.10256397,8.57
4125.76923050, 4127.43589716, 4125.51282024, 4020.38461490, 4118.71794844, 4066.53846113, 4042.56410215, 4018.84615336, 4057.94871754, 4129.74358947, 4104.23076896, 4119.87179460, 4133.97435870, 4194.74358961,8.57
4121.79487152, 4124.74358947, 4124.99999973, 4028.84615336, 4119.23076896, 4082.69230735, 4059.23076882, 4035.12820465, 4067.94871754, 4130.76923050, 4107.94871767, 4128.33333306, 4135.25640998, 4195.64102551,8.57
4117.94871767, 4124.48717921, 4123.07692280, 4028.58974311, 4120.76923050, 4079.23076889, 4059.87179446, 4043.20512779, 4079.74358940, 4129.48717921, 4108.20512793, 4119.99999973, 4130.76923050, 4192.17948704,8.57
4127.43589716, 4127.56410229, 4130.25640998, 4026.02564054, 4118.71794844, 4065.38461497, 4049.10256369, 4040.12820472, 4083.97435863, 4127.69230742, 4107.17948691, 4124.99999973, 4134.10256383, 4196.66666653,8.57
4121.66666639, 4123.33333306, 4123.84615357, 4031.53846106, 4116.15384588, 4069.87179453, 4052.94871754, 4039.10256369, 4076.02564068, 4129.23076896, 4107.05128178, 4126.28205101, 4133.20512793, 4193.07692294,8.57
4125.25640998, 4127.30769203, 4131.92307665, 4035.38461490, 4122.17948691, 4064.74358933, 4051.53846113, 4034.87179439, 4062.30769189, 4129.23076896, 4112.05128178, 4129.48717921, 4132.82051255, 4194.99999986,8.57
4117.56410229, 4122.30769203, 4125.12820485, 4034.74358926, 4117.82051255, 4063.97435856, 4047.30769189, 4035.12820465, 4068.71794830, 4125.89743562, 4112.05128178, 4122.56410229, 4129.48717921, 4192.82051269,8.57
4125.25640998, 4128.07692280, 4125.64102537, 4028.33333285, 4119.48717921, 4047.94871754, 4031.92307644, 4014.61538413, 4061.41025600, 4128.58974332, 4114.35897408, 4125.64102537, 4134.48717921, 4198.46153833,8.57
4121.79487152, 4127.05128178, 4122.05128178, 4029.35897388, 4118.58974332, 4044.35897395, 4030.76923029, 4013.58974311, 4058.46153805, 4129.87179460, 4117.17948691, 4128.20512793, 4136.28205108, 4197.94871781,8.57
4121.15384588, 4125.38461511, 4123.07692280, 4033.07692259, 4118.71794844, 4058.97435856, 4037.69230728, 4021.02564054, 4051.28205087, 4126.28205101, 4118.33333306, 4114.87179460, 4129.35897408, 4195.12820499,8.57
4119.74358947, 4127.43589716, 4126.79487152, 4037.43589702, 4117.43589716, 4067.56410215, 4040.12820472, 4019.23076875, 4047.69230728, 4127.30769203, 4117.05128178, 4125.38461511, 4132.56410229, 4197.05128192,8.57
4115.12820485, 4125.12820485, 4122.69230742, 4040.38461497, 4116.53846126, 4059.35897395, 4040.12820472, 4024.61538413, 4061.28205087, 4129.23076896, 4112.69230742, 4123.97435870, 4134.23076896, 4191.53846140,8.57
4126.53846126, 4128.71794844, 4126.41025614, 4035.64102516, 4118.20512793, 4052.17948677, 4035.51282003, 4021.02564054, 4053.71794830, 4127.43589716, 4112.69230742, 4121.53846126, 4134.10256383, 4193.07692294,8.57
4119.99999973, 4127.05128178, 4122.05128178, 4036.79487131, 4116.02564075, 4059.23076882, 4036.15384567, 4016.66666618, 4046.15384574, 4129.35897408, 4113.84615357, 4128.33333306, 4133.71794844, 4193.97435884,8.57
4120.64102537, 4124.61538434, 4123.97435870, 4043.46153805, 4122.56410229, 4052.17948677, 4032.17948670, 4017.05128157, 4052.56410215, 4132.17948691, 4113.20512793, 4117.17948691, 4131.53846126, 4191.92307679,8.57
4127.30769203, 4125.64102537, 4128.97435870, 4048.33333292, 4123.20512793, 4047.30769189, 4033.58974311, 4022.56410208, 4060.76923036, 4129.99999973, 4117.30769203, 4123.84615357, 4133.58974332, 4196.02564089,8.57
4116.41025614, 4122.43589716, 4120.64102537, 4049.61538420, 4117.82051255, 4057.69230728, 4046.02564061, 4029.99999952, 4074.48717914, 4127.17948691, 4117.05128178, 4124.99999973, 4130.76923050, 4193.07692294,8.57
4122.56410229, 4127.56410229, 4128.97435870, 4049.10256369, 4120.64102537, 4052.30769189, 4039.48717907, 4019.48717900, 4066.53846113, 4128.71794844, 4112.94871767, 4123.58974332, 4131.53846126, 4194.23076910,8.57
4123.97435870, 4124.99999973, 4130.38461511, 4054.74358933, 4117.17948691, 4046.79487138, 4030.76923029, 4010.25640977, 4047.56410215, 4129.99999973, 4116.41025614, 4131.41025614, 4136.28205108, 4193.71794858,8.57
4125.25640998, 4122.17948691, 4125.76923050, 4049.99999959, 4117.94871767, 4046.79487138, 4027.30769183, 4005.64102516, 4041.79487138, 4129.35897408, 4115.64102537, 4123.46153819, 4132.94871767, 4193.97435884,8.57
4127.43589716, 4126.79487152, 4129.35897408, 4039.48717907, 4120.64102537, 4040.38461497, 4018.97435849, 3997.69230714, 4044.10256369, 4131.02564075, 4112.05128178, 4130.89743562, 4133.46153819, 4201.53846147,8.57
4115.89743562, 4123.84615357, 4118.97435870, 4049.10256369, 4116.41025614, 4043.97435856, 4019.74358926, 3998.84615329, 4046.15384574, 4131.53846126, 4114.35897408, 4129.23076896, 4133.84615357, 4196.41025628,8.57
4123.20512793, 4125.25640998, 4121.28205101, 4060.89743548, 4119.74358947, 4052.30769189, 4026.28205080, 4004.23076875, 4047.17948677, 4131.41025614, 4116.28205101, 4119.23076896, 4132.94871767, 4196.79487166,8.57
4120.64102537, 4124.35897408, 4125.12820485, 4057.94871754, 4120.64102537, 4049.99999959, 4029.23076875, 4006.28205080, 4050.76923036, 4131.28205101, 4112.30769203, 4127.05128178, 4134.48717921, 4199.23076910,8.57
4116.28205101, 4123.33333306, 4120.51282024, 4051.28205087, 4119.99999973, 4041.02564061, 4024.87179439, 3999.74358919, 4045.51282010, 4128.07692280, 4107.30769203, 4119.23076896, 4132.82051255, 4195.12820499,8.57
4124.48717921, 4126.41025614, 4124.61538434, 4050.89743548, 4119.23076896, 4039.74358933, 4021.28205080, 3993.20512765, 4039.87179446, 4127.17948691, 4112.17948691, 4123.33333306, 4135.12820485, 4197.56410243,8.57
4113.33333306, 4119.61538434, 4121.41025614, 4054.48717907, 4116.28205101, 4039.87179446, 4021.66666618, 3999.87179432, 4047.17948677, 4128.20512793, 4115.38461511, 4127.17948691, 4133.20512793, 4191.53846140,8.57
4118.33333306, 4122.30769203, 4126.15384588, 4053.20512779, 4121.92307665, 4032.69230721, 4021.92307644, 4013.33333285, 4059.74358933, 4128.84615357, 4112.17948691, 4115.89743562, 4129.87179460, 4190.25641012,8.57
4127.69230742, 4127.94871767, 4126.02564075, 4053.84615343, 4120.12820485, 4038.71794830, 4024.23076875, 4015.89743541, 4068.33333292, 4130.89743562, 4115.89743562, 4125.25640998, 4132.69230742, 4195.76923063,8.57
4123.58974332, 4125.51282024, 4122.17948691, 4058.33333292, 4115.38461511, 4045.76923036, 4018.07692259, 4000.76923022, 4057.43589702, 4132.56410229, 4121.02564075, 4124.35897408, 4127.56410229, 4191.66666653,8.57
4125.64102537, 4128.84615357, 4130.25640998, 4055.76923036, 4118.97435870, 4031.02564054, 4005.64102516, 3984.10256355, 4032.30769183, 4130.89743562, 4118.97435870, 4125.51282024, 4130.64102537, 4192.82051269,8.57
4119.23076896, 4127.43589716, 4122.69230742, 4053.58974318, 4119.35897408, 4025.12820465, 4007.94871747, 3981.66666611, 4022.69230721, 4128.71794844, 4114.61538434, 4127.82051255, 4135.76923056, 4194.48717935,8.57
4125.64102537, 4127.82051255, 4123.33333306, 4060.76923036, 4120.89743562, 4039.87179446, 4021.15384567, 3991.92307637, 4035.38461490, 4129.23076896, 4116.15384588, 4122.17948691, 4133.84615357, 4195.64102551,8.57
4125.12820485, 4126.92307665, 4127.30769203, 4062.17948677, 4118.84615357, 4049.87179446, 4024.23076875, 4002.82051227, 4049.74358933, 4129.74358947, 4118.46153819, 4134.10256383, 4138.07692287, 4196.92307679,8.57
4117.17948691, 4123.71794844, 4119.61538434, 4046.92307651, 4117.82051255, 4034.10256362, 4004.35897388, 3985.25640970, 4034.61538413, 4128.58974332, 4114.10256383, 4126.28205101, 4135.25640998, 4193.97435884,8.57
4129.23076896, 4128.46153819, 4126.66666639, 4047.56410215, 4124.10256383, 4019.10256362, 3992.56410201, 3969.61538399, 4018.58974311, 4129.23076896, 4114.10256383, 4123.71794844, 4134.10256383, 4198.07692294,8.57
4121.92307665, 4124.10256383, 4122.43589716, 4064.35897395, 4120.12820485, 4026.15384567, 4003.46153791, 3985.64102509, 4029.10256362, 4130.25640998, 4118.07692280, 4132.17948691, 4136.02564082, 4195.51282038,8.57
4121.02564075, 4122.30769203, 4120.38461511, 4062.17948677, 4117.69230742, 4030.38461490, 4007.94871747, 3992.94871740, 4033.97435849, 4128.84615357, 4118.46153819, 4124.23076896, 4132.30769203, 4194.74358961,8.57
4125.89743562, 4125.89743562, 4127.69230742, 4058.58974318, 4118.97435870, 4036.41025593, 4012.56410208, 3995.38461483, 4040.38461497, 4126.66666639, 4118.97435870, 4128.46153819, 4133.33333306, 4199.48717935,8.57
4116.41025614, 4123.07692280, 4121.79487152, 4066.15384574, 4118.33333306, 4039.99999959, 4012.05128157, 3996.79487124, 4044.48717907, 4126.66666639, 4116.53846126, 4122.56410229, 4133.97435870, 4194.99999986,8.57
4125.76923050, 4125.76923050, 4126.79487152, 4066.92307651, 4119.61538434, 4028.71794824, 4000.51281996, 3989.61538406, 4034.10256362, 4129.35897408, 4112.69230742, 4121.92307665, 4134.23076896, 4197.17948704,8.57
4123.84615357, 4125.64102537, 4126.66666639, 4069.61538420, 4114.87179460, 4037.56410215, 4013.46153798, 4002.05128150, 4042.82051241, 4131.66666639, 4113.97435870, 4128.58974332, 4132.82051255, 4195.64102551,8.57
4121.28205101, 4125.76923050, 4122.94871767, 4074.74358940, 4119.35897408, 4055.25640984, 4023.97435849, 4007.82051234, 4049.74358933, 4129.87179460, 4116.15384588, 4115.89743562, 4130.64102537, 4191.66666653,8.57
4128.07692280, 4126.53846126, 4125.25640998, 4079.48717914, 4122.05128178, 4056.53846113, 4016.53846106, 3995.76923022, 4041.92307651, 4129.74358947, 4118.58974332, 4124.74358947, 4136.66666646, 4196.66666653,8.57
4121.02564075, 4122.30769203, 4118.97435870, 4090.25640991, 4116.92307665, 4056.53846113, 4022.43589695, 4003.58974304, 4052.43589702, 4130.89743562, 4119.35897408, 4126.92307665, 4131.92307665, 4190.89743576,8.57
4125.76923050, 4128.97435870, 4124.35897408, 4097.69230735, 4121.15384588, 4061.66666625, 4032.56410208, 4021.92307644, 4073.07692273, 4129.23076896, 4118.84615357, 4121.41025614, 4126.02564075, 4190.38461525,8.57
4124.10256383, 4128.58974332, 4124.61538434, 4101.92307658, 4120.51282024, 4073.97435863, 4040.76923036, 4029.99999952, 4081.92307658, 4128.58974332, 4121.92307665, 4131.79487152, 4132.69230742, 4197.05128192,8.57
4122.82051255, 4125.64102537, 4123.33333306, 4104.74358947, 4121.02564075, 4082.82051248, 4050.64102523, 4035.76923029, 4078.71794837, 4129.23076896, 4124.99999973, 4123.58974332, 4132.17948691, 4195.12820499,8.57
4128.84615357, 4131.79487152, 4128.84615357, 4100.12820478, 4121.28205101, 4077.05128171, 4047.05128164, 4038.97435856, 4075.12820478, 4129.99999973, 4124.23076896, 4125.76923050, 4131.41025614, 4193.71794858,8.57
4119.61538434, 4125.38461511, 4119.99999973, 4093.46153812, 4115.89743562, 4068.20512779, 4039.74358933, 4039.10256369, 4077.05128171, 4130.64102537, 4118.07692280, 4127.56410229, 4133.84615357, 4189.10256397,8.57
4124.10256383, 4123.71794844, 4123.58974332, 4091.41025607, 4118.20512793, 4072.94871761, 4050.25640984, 4040.89743548, 4078.84615350, 4130.64102537, 4119.23076896, 4120.64102537, 4134.99999973, 4193.84615371,8.57
4121.02564075, 4127.43589716, 4127.17948691, 4095.76923043, 4117.69230742, 4088.46153812, 4064.23076882, 4045.51282010, 4088.58974325, 4129.74358947, 4126.02564075, 4129.99999973, 4135.64102544, 4198.71794858,8.57
4117.05128178, 4125.38461511, 4121.02564075, 4097.69230735, 4116.92307665, 4085.64102530, 4052.30769189, 4036.66666618, 4089.23076889, 4127.30769203, 4121.41025614, 4124.23076896, 4131.79487152, 4195.76923063,8.57
4128.20512793, 4126.28205101, 4126.28205101, 4096.53846119, 4118.84615357, 4068.33333292, 4032.82051234, 4018.58974311, 4069.23076882, 4128.20512793, 4118.20512793, 4127.05128178, 4134.10256383, 4198.33333320,8.57
4117.82051255, 4123.33333306, 4121.02564075, 4093.97435863, 4116.53846126, 4061.15384574, 4029.61538413, 4015.25640977, 4060.51282010, 4131.02564075, 4124.61538434, 4128.71794844, 4134.74358947, 4190.12820499,8.57
4118.71794844, 4125.12820485, 4121.41025614, 4089.87179453, 4120.51282024, 4058.58974318, 4028.20512772, 4015.38461490, 4061.28205087, 4130.25640998, 4126.66666639, 4117.17948691, 4131.02564075, 4188.71794858,8.57
4124.61538434, 4125.51282024, 4126.53846126, 4089.10256376, 4118.71794844, 4059.23076882, 4028.33333285, 4012.69230721, 4058.33333292, 4130.25640998, 4121.15384588, 4127.17948691, 4133.46153819, 4195.64102551,8.57
4119.74358947, 4120.89743562, 4122.69230742, 4089.99999966, 4114.48717921, 4062.56410215, 4034.61538413, 4022.17948670, 4063.97435856, 4130.89743562, 4118.07692280, 4125.12820485, 4131.53846126, 4188.97435884,8.57
4126.41025614, 4126.15384588, 4128.46153819, 4085.89743555, 4119.48717921, 4061.92307651, 4034.35897388, 4027.43589695, 4066.53846113, 4129.87179460, 4121.15384588, 4124.48717921, 4132.43589716, 4191.15384602,8.57
4124.35897408, 4126.92307665, 4126.41025614, 4085.76923043, 4118.71794844, 4063.97435856, 4034.10256362, 4025.76923029, 4065.89743548, 4127.56410229, 4120.38461511, 4129.23076896, 4133.20512793, 4194.61538448,8.57
4126.41025614, 4126.66666639, 4127.43589716, 4095.25640991, 4118.71794844, 4067.43589702, 4042.05128164, 4038.46153805, 4081.02564068, 4127.30769203, 4119.35897408, 4118.33333306, 4129.74358947, 4191.53846140,8.57
4124.61538434, 4125.76923050, 4128.97435870, 4097.69230735, 4118.46153819, 4063.84615343, 4042.43589702, 4045.64102523, 4089.87179453, 4130.38461511, 4121.79487152, 4125.89743562, 4135.25640998, 4193.84615371,8.57
