AF3,F7,F3,FC5,T7,P7,O1,O2,P8,T8,FC6,F4,F8,AF4,Label
4126.41025614, 4122.82051255, 4120.64102537, 4051.92307651, 4120.51282024, 4040.64102523, 4020.38461490, 4020.25640977, 4019.61538413, 4127.56410229, 4126.79487152, 4122.56410229, 4131.53846126, 4191.53846140,8.57
4131.28205101, 4126.28205101, 4125.89743562, 4042.69230728, 4124.74358947, 4048.07692266, 4011.41025593, 4003.46153791, 4012.94871747, 4125.89743562, 4130.51282024, 4130.51282024, 4134.61538434, 4196.92307679,8.57
4125.12820485, 4122.43589716, 4122.82051255, 4038.71794830, 4120.64102537, 4046.28205087, 4004.87179439, 4010.76923029, 4011.53846106, 4124.23076896, 4128.07692280, 4127.05128178, 4132.43589716, 4191.02564089,8.57
4126.41025614, 4126.28205101, 4124.48717921, 4044.61538420, 4119.61538434, 4035.76923029, 4007.69230721, 4024.99999952, 4018.33333285, 4124.61538434, 4124.87179460, 4121.53846126, 4131.53846126, 4188.58974345,8.57
4127.05128178, 4128.46153819, 4124.87179460, 4049.74358933, 4124.99999973, 4034.87179439, 4019.87179439, 4039.87179446, 4035.38461490, 4127.82051255, 4127.17948691, 4126.92307665, 4133.58974332, 4194.35897422,8.57
4119.48717921, 4123.07692280, 4118.84615357, 4053.33333292, 4125.25640998, 4063.07692266, 4042.69230728, 4058.33333292, 4049.35897395, 4130.12820485, 4125.25640998, 4119.10256383, 4130.89743562, 4187.30769217,8.57
4127.17948691, 4129.23076896, 4127.94871767, 4045.76923036, 4121.28205101, 4059.48717907, 4043.97435856, 4053.84615343, 4040.64102523, 4127.82051255, 4128.71794844, 4125.89743562, 4133.84615357, 4189.23076910,8.57
4121.66666639, 4124.74358947, 4123.71794844, 4015.25640977, 4119.87179460, 4004.48717900, 3996.15384560, 4006.15384567, 4006.66666618, 4125.12820485, 4125.51282024, 4122.05128178, 4130.38461511, 4186.41025628,8.57
4124.35897408, 4122.56410229, 4125.51282024, 4022.43589695, 4123.97435870, 4016.41025593, 3993.71794817, 3990.51281996, 4000.76923022, 4128.46153819, 4122.94871767, 4116.92307665, 4126.28205101, 4183.46153833,8.57
4134.74358947, 4132.05128178, 4132.94871767, 4074.23076889, 4124.10256383, 4085.89743555, 4062.94871754, 4040.51282010, 4041.53846113, 4131.02564075, 4129.99999973, 4125.76923050, 4131.28205101, 4189.99999986,8.57
4126.15384588, 4128.46153819, 4123.71794844, 4064.99999959, 4119.87179460, 4046.41025600, 4047.30769189, 4042.56410215, 4040.51282010, 4125.89743562, 4123.71794844, 4116.66666639, 4128.33333306, 4183.71794858,8.57
4130.51282024, 4130.25640998, 4129.48717921, 4018.33333285, 4122.94871767, 3974.99999945, 3974.87179432, 3990.38461483, 3999.23076868, 4124.35897408, 4122.94871767, 4122.05128178, 4127.94871767, 4184.74358961,8.57
4128.97435870, 4129.35897408, 4132.05128178, 4037.69230728, 4126.15384588, 4036.15384567, 4009.61538413, 3999.99999945, 4015.64102516, 4127.82051255, 4126.53846126, 4121.41025614, 4127.56410229, 4184.87179474,8.57
4125.25640998, 4124.61538434, 4128.46153819, 4054.48717907, 4122.94871767, 4059.74358933, 4031.66666618, 4010.76923029, 4021.66666618, 4124.99999973, 4125.64102537, 4112.82051255, 4126.79487152, 4181.15384602,8.57
4133.97435870, 4131.41025614, 4135.76923056, 4032.05128157, 4119.99999973, 3995.76923022, 3982.05128150, 3988.84615329, 3996.53846099, 4123.97435870, 4127.30769203, 4125.76923050, 4132.43589716, 4185.25641012,8.57
4128.84615357, 4129.35897408, 4129.48717921, 4046.66666625, 4121.28205101, 4033.07692259, 4013.20512772, 4027.30769183, 4038.84615343, 4127.17948691, 4121.15384588, 4118.71794844, 4127.05128178, 4182.56410243,8.57
4128.84615357, 4127.56410229, 4126.66666639, 4074.48717914, 4123.33333306, 4108.97435870, 4079.48717914, 4078.46153812, 4088.58974325, 4126.02564075, 4125.25640998, 4119.10256383, 4128.46153819, 4186.41025628,8.57
4131.92307665, 4130.25640998, 4131.53846126, 4057.30769189, 4122.17948691, 4070.38461504, 4055.12820472, 4052.56410215, 4060.12820472, 4125.76923050, 4131.53846126, 4127.69230742, 4133.84615357, 4184.48717935,8.57
4123.20512793, 4126.66666639, 4127.56410229, 4043.20512779, 4121.02564075, 4018.07692259, 4016.02564054, 4012.82051234, 4029.87179439, 4127.69230742, 4123.46153819, 4119.23076896, 4129.35897408, 4178.07692294,8.57
4128.20512793, 4129.35897408, 4129.10256383, 4060.12820472, 4121.53846126, 4044.87179446, 4034.10256362, 4025.76923029, 4047.17948677, 4126.28205101, 4125.12820485, 4128.07692280, 4131.53846126, 4188.20512807,8.57
4132.82051255, 4130.25640998, 4128.07692280, 4074.48717914, 4120.76923050, 4077.17948684, 4057.43589702, 4050.64102523, 4058.58974318, 4123.84615357, 4127.43589716, 4129.23076896, 4132.82051255, 4187.43589730,8.57
4122.17948691, 4122.05128178, 4122.69230742, 4085.12820478, 4118.84615357, 4078.33333299, 4064.23076882, 4060.12820472, 4066.02564061, 4124.74358947, 4126.02564075, 4126.92307665, 4133.07692280, 4184.10256397,8.57
4117.30769203, 4119.87179460, 4119.10256383, 4079.61538427, 4118.97435870, 4057.69230728, 4057.56410215, 4059.87179446, 4076.28205094, 4127.69230742, 4127.69230742, 4130.64102537, 4133.58974332, 4188.33333320,8.57
4118.58974332, 4122.43589716, 4113.71794844, 4067.17948677, 4116.53846126, 4054.87179446, 4055.12820472, 4057.05128164, 4071.92307658, 4128.33333306, 4124.61538434, 4121.92307665, 4128.84615357, 4185.51282038,8.57
4124.87179460, 4125.64102537, 4122.05128178, 4068.58974318, 4114.48717921, 4065.25640984, 4057.94871754, 4052.30769189, 4064.23076882, 4126.02564075, 4126.53846126, 4130.89743562, 4132.17948691, 4190.12820499,8.57
4124.10256383, 4124.48717921, 4124.87179460, 4056.02564061, 4117.17948691, 4040.76923036, 4044.10256369, 4046.41025600, 4064.48717907, 4124.87179460, 4128.07692280, 4128.84615357, 4132.56410229, 4188.84615371,8.57
4118.71794844, 4121.15384588, 4116.92307665, 4043.71794830, 4113.97435870, 4028.97435849, 4036.28205080, 4045.38461497, 4069.74358940, 4124.99999973, 4127.56410229, 4121.41025614, 4130.25640998, 4186.02564089,8.57
4122.43589716, 4123.20512793, 4119.74358947, 4067.05128164, 4112.94871767, 4056.53846113, 4053.97435856, 4049.99999959, 4082.30769196, 4123.71794844, 4126.41025614, 4133.97435870, 4134.87179460, 4195.12820499,8.57
4116.41025614, 4119.74358947, 4116.53846126, 4068.33333292, 4117.56410229, 4047.56410215, 4060.51282010, 4044.61538420, 4072.43589709, 4122.69230742, 4122.17948691, 4127.94871767, 4132.30769203, 4194.87179474,8.57
4118.71794844, 4122.69230742, 4117.05128178, 4027.82051234, 4118.46153819, 4013.20512772, 4040.38461497, 4014.10256362, 4016.79487131, 4124.87179460, 4128.33333306, 4128.58974332, 4132.05128178, 4191.66666653,8.57
4124.99999973, 4129.10256383, 4122.69230742, 4033.46153798, 4117.69230742, 4030.38461490, 4041.41025600, 4004.48717900, 4007.17948670, 4126.79487152, 4127.82051255, 4130.64102537, 4135.38461518, 4190.64102551,8.57
4122.69230742, 4127.94871767, 4123.84615357, 4064.10256369, 4118.84615357, 4054.35897395, 4061.66666625, 4034.61538413, 4063.97435856, 4126.15384588, 4122.69230742, 4124.23076896, 4132.94871767, 4194.10256397,8.57
4131.66666639, 4133.07692280, 4128.97435870, 4051.92307651, 4123.71794844, 4050.38461497, 4067.05128164, 4045.76923036, 4068.33333292, 4126.15384588, 4128.46153819, 4131.41025614, 4133.07692280, 4198.20512807,8.57
4134.48717921, 4133.58974332, 4128.84615357, 4046.66666625, 4125.51282024, 4050.64102523, 4068.07692266, 4031.92307644, 4031.15384567, 4125.89743562, 4126.41025614, 4126.15384588, 4132.05128178, 4191.28205115,8.57
4131.28205101, 4132.43589716, 4128.84615357, 4058.71794830, 4123.20512793, 4041.15384574, 4066.79487138, 4028.46153798, 4031.15384567, 4125.38461511, 4125.76923050, 4124.61538434, 4131.66666639, 4188.97435884,8.57
4125.51282024, 4131.15384588, 4124.10256383, 4034.87179439, 4123.46153819, 4014.87179439, 4045.51282010, 4019.48717900, 4026.53846106, 4126.15384588, 4128.46153819, 4124.99999973, 4130.51282024, 4187.82051269,8.57
4119.61538434, 4124.74358947, 4121.79487152, 4028.97435849, 4122.56410229, 4028.07692259, 4044.61538420, 4025.38461490, 4031.02564054, 4127.43589716, 4125.25640998, 4118.46153819, 4129.99999973, 4187.17948704,8.57
4124.48717921, 4128.07692280, 4129.35897408, 4062.43589702, 4120.25640998, 4061.41025600, 4072.56410222, 4048.58974318, 4066.15384574, 4128.33333306, 4125.25640998, 4122.17948691, 4132.69230742, 4189.61538448,8.57
4121.92307665, 4129.99999973, 4122.82051255, 4062.17948677, 4120.76923050, 4057.17948677, 4076.41025607, 4047.69230728, 4063.46153805, 4129.74358947, 4123.58974332, 4115.64102537, 4127.17948691, 4183.84615371,8.57
4125.89743562, 4129.87179460, 4123.20512793, 4043.46153805, 4122.94871767, 4036.79487131, 4057.94871754, 4031.41025593, 4031.79487131, 4129.87179460, 4125.89743562, 4121.79487152, 4129.87179460, 4187.05128192,8.57
4133.20512793, 4132.82051255, 4133.20512793, 4044.87179446, 4123.58974332, 4012.82051234, 4033.07692259, 4011.02564054, 4021.66666618, 4127.56410229, 4126.28205101, 4126.41025614, 4133.46153819, 4187.94871781,8.57
4131.66666639, 4134.61538434, 4135.51282031, 4041.92307651, 4124.61538434, 4003.07692252, 4017.43589695, 3996.15384560, 4021.66666618, 4124.48717921, 4122.56410229, 4117.17948691, 4127.94871767, 4181.79487166,8.57
4138.07692287, 4138.84615364, 4138.97435877, 4046.02564061, 4125.76923050, 4045.51282010, 4049.10256369, 4027.17948670, 4036.41025593, 4125.76923050, 4128.07692280, 4128.58974332, 4131.66666639, 4187.43589730,8.57
4132.17948691, 4133.97435870, 4132.05128178, 4080.12820478, 4121.41025614, 4093.33333299, 4101.15384581, 4083.33333299, 4068.07692266, 4129.35897408, 4123.46153819, 4120.38461511, 4131.28205101, 4184.10256397,8.57
4123.84615357, 4129.61538434, 4128.20512793, 4082.43589709, 4119.74358947, 4056.41025600, 4074.35897402, 4066.92307651, 4057.05128164, 4128.71794844, 4122.05128178, 4115.51282024, 4131.41025614, 4184.35897422,8.57
4125.51282024, 4130.89743562, 4127.17948691, 4042.82051241, 4123.97435870, 4002.56410201, 4016.53846106, 4020.38461490, 4032.94871747, 4125.38461511, 4128.46153819, 4127.94871767, 4134.23076896, 4187.43589730,8.57
4122.05128178, 4124.74358947, 4122.43589716, 4044.99999959, 4121.41025614, 4027.94871747, 4037.94871754, 4038.07692266, 4047.30769189, 4123.46153819, 4124.35897408, 4120.64102537, 4127.82051255, 4180.64102551,8.57
4122.94871767, 4124.48717921, 4127.56410229, 4081.79487145, 4116.79487152, 4062.82051241, 4076.79487145, 4071.15384581, 4066.02564061, 4126.53846126, 4125.89743562, 4125.51282024, 4130.12820485, 4188.33333320,8.57
4119.87179460, 4125.25640998, 4121.79487152, 4079.23076889, 4119.87179460, 4051.66666625, 4066.53846113, 4067.17948677, 4068.33333292, 4129.61538434, 4125.51282024, 4126.02564075, 4132.17948691, 4190.38461525,8.57
4119.61538434, 4124.74358947, 4119.23076896, 4075.76923043, 4120.64102537, 4062.94871754, 4074.23076889, 4072.94871761, 4078.97435863, 4129.74358947, 4122.43589716, 4124.74358947, 4129.61538434, 4186.28205115,8.57
4121.02564075, 4126.41025614, 4124.48717921, 4103.84615357, 4115.12820485, 4092.69230735, 4105.38461511, 4107.30769203, 4099.35897402, 4128.46153819, 4124.87179460, 4130.76923050, 4130.89743562, 4187.43589730,8.57
4112.56410229, 4119.10256383, 4114.74358947, 4088.71794837, 4112.43589716, 4065.76923036, 4081.92307658, 4089.61538427, 4072.56410222, 4127.56410229, 4124.87179460, 4120.76923050, 4129.61538434, 4183.97435884,8.57
4115.89743562, 4118.71794844, 4116.79487152, 4071.15384581, 4114.48717921, 4051.66666625, 4064.48717907, 4063.84615343, 4052.30769189, 4127.56410229, 4128.33333306, 4125.38461511, 4131.02564075, 4190.51282038,8.57
4114.48717921, 4121.15384588, 4117.43589716, 4099.74358940, 4113.33333306, 4076.41025607, 4090.38461504, 4089.74358940, 4084.10256376, 4125.89743562, 4126.66666639, 4125.51282024, 4129.23076896, 4189.48717935,8.57
4114.23076896, 4120.38461511, 4112.94871767, 4099.99999966, 4110.51282024, 4059.48717907, 4086.53846119, 4097.05128171, 4092.69230735, 4128.58974332, 4122.82051255, 4123.33333306, 4129.61538434, 4184.87179474,8.57
4127.17948691, 4124.99999973, 4121.92307665, 4090.25640991, 4115.51282024, 4068.20512779, 4095.38461504, 4108.46153819, 4094.87179453, 4131.15384588, 4127.17948691, 4136.15384595, 4136.66666646, 4196.02564089,8.57
4120.25640998, 4120.64102537, 4120.89743562, 4110.25640998, 4117.69230742, 4122.17948691, 4132.56410229, 4138.20512800, 4116.53846126, 4125.38461511, 4124.61538434, 4127.17948691, 4132.43589716, 4195.89743576,8.57
4118.20512793, 4121.92307665, 4120.25640998, 4096.28205094, 4113.97435870, 4088.58974325, 4101.15384581, 4102.94871767, 4091.28205094, 4123.20512793, 4124.35897408, 4126.66666639, 4132.56410229, 4190.51282038,8.57
4122.56410229, 4124.99999973, 4118.71794844, 4072.69230735, 4116.15384588, 4038.07692266, 4060.25640984, 4067.94871754, 4058.71794830, 4126.79487152, 4125.89743562, 4125.89743562, 4135.12820485, 4189.99999986,8.57
4117.43589716, 4118.84615357, 4112.43589716, 4097.05128171, 4117.82051255, 4080.89743555, 4099.87179453, 4116.02564075, 4092.56410222, 4125.51282024, 4119.99999973, 4116.15384588, 4130.76923050, 4192.17948704,8.57
4128.33333306, 4124.87179460, 4122.30769203, 4104.99999973, 4118.46153819, 4097.69230735, 4124.48717921, 4133.46153819, 4111.53846126, 4122.69230742, 4121.79487152, 4131.92307665, 4133.07692280, 4197.69230756,8.57
4128.97435870, 4127.30769203, 4123.33333306, 4088.20512786, 4119.35897408, 4070.76923043, 4106.53846126, 4107.05128178, 4098.20512786, 4126.53846126, 4123.20512793, 4128.07692280, 4131.41025614, 4191.28205115,8.57
4121.28205101, 4125.51282024, 4120.89743562, 4093.71794837, 4119.23076896, 4093.46153812, 4111.79487152, 4112.43589716, 4103.97435870, 4127.82051255, 4124.87179460, 4122.69230742, 4131.28205101, 4189.99999986,8.57
4121.66666639, 4127.17948691, 4121.79487152, 4090.38461504, 4119.87179460, 4111.92307665, 4110.76923050, 4101.02564068, 4086.79487145, 4123.46153819, 4124.61538434, 4128.97435870, 4132.56410229, 4190.25641012,8.57
4119.61538434, 4123.71794844, 4119.10256383, 4071.53846119, 4118.33333306, 4077.56410222, 4082.43589709, 4064.48717907, 4052.94871754, 4125.38461511, 4119.99999973, 4119.35897408, 4125.51282024, 4183.71794858,8.57
4126.79487152, 4126.79487152, 4126.02564075, 4083.20512786, 4118.97435870, 4063.58974318, 4081.92307658, 4071.15384581, 4069.35897395, 4130.64102537, 4123.97435870, 4125.64102537, 4127.17948691, 4192.69230756,8.57
4126.41025614, 4126.92307665, 4123.84615357, 4114.35897408, 4120.76923050, 4097.56410222, 4118.97435870, 4116.53846126, 4120.12820485, 4128.46153819, 4122.43589716, 4123.97435870, 4128.71794844, 4192.56410243,8.57
4121.92307665, 4124.35897408, 4122.69230742, 4106.66666639, 4120.89743562, 4103.71794844, 4121.15384588, 4122.56410229, 4120.76923050, 4124.87179460, 4121.15384588, 4119.35897408, 4126.41025614, 4186.02564089,8.57
4124.48717921, 4128.20512793, 4129.87179460, 4097.17948684, 4122.94871767, 4088.84615350, 4103.97435870, 4104.35897408, 4103.97435870, 4124.74358947, 4123.84615357, 4123.20512793, 4127.56410229, 4188.33333320,8.57
4121.28205101, 4127.56410229, 4124.61538434, 4122.82051255, 4123.97435870, 4103.20512793, 4119.99999973, 4124.10256383, 4134.61538434, 4125.51282024, 4120.12820485, 4112.69230742, 4125.25640998, 4183.46153833,8.57
4128.20512793, 4127.94871767, 4125.12820485, 4116.02564075, 4122.82051255, 4102.69230742, 4111.92307665, 4124.99999973, 4130.64102537, 4128.97435870, 4126.28205101, 4120.64102537, 4128.46153819, 4186.15384602,8.57
4127.30769203, 4127.56410229, 4127.56410229, 4084.61538427, 4122.94871767, 4076.41025607, 4079.23076889, 4078.07692273, 4079.61538427, 4129.10256383, 4125.76923050, 4122.94871767, 4128.84615357, 4185.64102551,8.57
4120.76923050, 4127.82051255, 4129.48717921, 4086.02564068, 4122.05128178, 4075.38461504, 4085.12820478, 4063.97435856, 4069.10256369, 4125.25640998, 4120.89743562, 4119.35897408, 4127.82051255, 4182.17948704,8.57
4127.94871767, 4132.30769203, 4130.64102537, 4100.89743555, 4120.38461511, 4092.56410222, 4105.89743562, 4095.76923043, 4090.64102530, 4126.53846126, 4125.64102537, 4127.69230742, 4132.94871767, 4185.12820499,8.57
4124.35897408, 4128.33333306, 4122.43589716, 4121.92307665, 4121.15384588, 4115.64102537, 4129.87179460, 4129.23076896, 4120.12820485, 4128.46153819, 4122.69230742, 4119.35897408, 4128.07692280, 4181.66666653,8.57
4124.35897408, 4129.10256383, 4126.92307665, 4140.51282031, 4123.33333306, 4131.79487152, 4147.94871774, 4135.12820485, 4136.15384595, 4127.82051255, 4125.64102537, 4123.97435870, 4128.07692280, 4187.05128192,8.57
4126.92307665, 4132.56410229, 4129.35897408, 4126.92307665, 4121.66666639, 4110.38461511, 4121.92307665, 4113.58974332, 4115.89743562, 4129.74358947, 4129.23076896, 4125.76923050, 4132.30769203, 4187.17948704,8.57
4122.94871767, 4129.10256383, 4123.71794844, 4112.69230742, 4117.43589716, 4088.71794837, 4095.76923043, 4107.82051255, 4104.23076896, 4128.33333306, 4125.38461511, 4119.48717921, 4129.61538434, 4182.94871781,8.57
4128.84615357, 4129.87179460, 4129.23076896, 4118.46153819, 4120.76923050, 4099.61538427, 4108.33333306, 4109.99999973, 4109.10256383, 4124.23076896, 4128.46153819, 4131.92307665, 4131.41025614, 4189.87179474,8.57
4126.02564075, 4128.46153819, 4127.17948691, 4127.30769203, 4123.84615357, 4116.28205101, 4126.02564075, 4096.53846119, 4105.12820485, 4124.74358947, 4127.94871767, 4127.30769203, 4127.82051255, 4185.51282038,8.57
4122.94871767, 4128.46153819, 4125.38461511, 4144.99999980, 4117.56410229, 4128.46153819, 4137.05128185, 4096.79487145, 4116.92307665, 4126.15384588, 4127.94871767, 4129.10256383, 4127.05128178, 4187.69230756,8.57
4127.17948691, 4129.74358947, 4123.84615357, 4142.56410236, 4115.25640998, 4115.51282024, 4125.89743562, 4086.53846119, 4113.58974332, 4125.51282024, 4127.69230742, 4134.10256383, 4131.92307665, 4191.02564089,8.57
4126.15384588, 4126.41025614, 4120.89743562, 4112.94871767, 4120.38461511, 4072.56410222, 4086.92307658, 4047.43589702, 4069.99999966, 4127.05128178, 4124.35897408, 4126.02564075, 4132.94871767, 4183.07692294,8.57
4129.23076896, 4129.35897408, 4128.84615357, 4117.94871767, 4122.69230742, 4077.82051248, 4095.25640991, 4063.97435856, 4092.30769196, 4127.30769203, 4130.76923050, 4136.53846133, 4135.25640998, 4189.23076910,8.57
4128.20512793, 4128.07692280, 4125.25640998, 4151.28205108, 4119.61538434, 4129.35897408, 4142.43589723, 4120.64102537, 4162.69230749, 4125.64102537, 4130.25640998, 4132.30769203, 4131.15384588, 4193.84615371,8.57
4126.41025614, 4124.74358947, 4122.56410229, 4156.92307672, 4117.05128178, 4130.89743562, 4138.97435877, 4116.41025614, 4147.05128185, 4127.82051255, 4126.41025614, 4127.17948691, 4129.61538434, 4191.15384602,8.57
4123.84615357, 4126.53846126, 4126.66666639, 4149.48717928, 4118.07692280, 4109.23076896, 4121.02564075, 4087.69230735, 4099.10256376, 4130.89743562, 4127.69230742, 4132.05128178, 4131.28205101, 4187.69230756,8.57
4120.38461511, 4125.12820485, 4121.28205101, 4146.41025621, 4119.99999973, 4117.30769203, 4126.41025614, 4078.07692273, 4094.87179453, 4127.56410229, 4123.46153819, 4123.46153819, 4128.97435870, 4185.89743576,8.57
4126.53846126, 4126.66666639, 4122.94871767, 4134.23076896, 4119.35897408, 4108.07692280, 4108.58974332, 4056.28205087, 4083.84615350, 4125.12820485, 4125.64102537, 4127.94871767, 4133.71794844, 4192.30769217,8.57
4121.41025614, 4126.53846126, 4125.64102537, 4128.07692280, 4120.12820485, 4096.92307658, 4094.87179453, 4049.61538420, 4075.12820478, 4128.71794844, 4125.76923050, 4123.84615357, 4131.41025614, 4190.25641012,8.57
4117.17948691, 4127.05128178, 4125.89743562, 4138.97435877, 4122.69230742, 4112.30769203, 4114.10256383, 4075.64102530, 4106.53846126, 4129.99999973, 4123.07692280, 4123.07692280, 4128.84615357, 4190.89743576,8.57
4122.05128178, 4129.35897408, 4121.79487152, 4142.30769210, 4120.38461511, 4095.89743555, 4108.46153819, 4073.46153812, 4115.64102537, 4126.53846126, 4123.46153819, 4127.17948691, 4131.02564075, 4192.05128192,8.57
4120.38461511, 4125.38461511, 4117.17948691, 4145.76923056, 4116.28205101, 4086.02564068, 4103.71794844, 4076.15384581, 4105.76923050, 4122.94871767, 4120.51282024, 4114.74358947, 4126.79487152, 4183.58974345,8.57
4120.25640998, 4128.33333306, 4124.35897408, 4169.23076910, 4117.69230742, 4130.89743562, 4139.48717928, 4118.20512793, 4131.15384588, 4122.94871767, 4124.74358947, 4121.15384588, 4128.84615357, 4186.28205115,8.57
4117.30769203, 4126.79487152, 4120.51282024, 4173.97435884, 4119.35897408, 4142.17948697, 4145.12820492, 4118.07692280, 4137.56410236, 4126.66666639, 4124.35897408, 4120.76923050, 4130.76923050, 4187.82051269,8.57
4121.28205101, 4122.43589716, 4118.58974332, 4144.99999980, 4119.61538434, 4097.43589709, 4103.20512793, 4068.33333292, 4100.12820478, 4127.69230742, 4121.41025614, 4119.99999973, 4131.92307665, 4188.20512807,8.57
4124.10256383, 4124.23076896, 4123.58974332, 4137.30769210, 4119.74358947, 4084.87179453, 4090.12820478, 4056.28205087, 4088.20512786, 4124.74358947, 4121.92307665, 4126.53846126, 4131.53846126, 4188.84615371,8.57
4117.69230742, 4124.99999973, 4122.17948691, 4160.64102544, 4119.61538434, 4117.69230742, 4118.97435870, 4087.05128171, 4110.38461511, 4123.58974332, 4119.61538434, 4114.61538434, 4126.28205101, 4183.58974345,8.57
4122.94871767, 4128.20512793, 4128.07692280, 4160.64102544, 4120.64102537, 4130.76923050, 4128.46153819, 4090.51282017, 4114.10256383, 4127.56410229, 4123.71794844, 4121.53846126, 4128.84615357, 4187.17948704,8.57
4121.28205101, 4126.02564075, 4123.58974332, 4149.99999980, 4122.30769203, 4112.94871767, 4114.48717921, 4083.07692273, 4111.53846126, 4127.94871767, 4120.89743562, 4124.10256383, 4125.25640998, 4183.33333320,8.57
4119.74358947, 4124.87179460, 4121.66666639, 4164.10256390, 4122.69230742, 4100.38461504, 4111.92307665, 4097.82051248, 4123.20512793, 4125.64102537, 4120.51282024, 4117.82051255, 4123.20512793, 4181.53846140,8.57
4129.61538434, 4127.94871767, 4129.23076896, 4180.38461525, 4121.79487152, 4113.07692280, 4125.25640998, 4112.30769203, 4136.79487159, 4126.02564075, 4127.56410229, 4125.76923050, 4133.71794844, 4187.82051269,8.57
4125.64102537, 4125.89743562, 4122.82051255, 4184.23076910, 4121.41025614, 4133.46153819, 4136.79487159, 4115.64102537, 4147.30769210, 4125.38461511, 4122.82051255, 4120.38461511, 4132.69230742, 4181.92307679,8.57
4123.46153819, 4127.05128178, 4121.92307665, 4166.41025621, 4121.92307665, 4120.64102537, 4119.99999973, 4090.38461504, 4118.84615357, 4126.79487152, 4123.07692280, 4123.71794844, 4129.23076896, 4184.35897422,8.57
4124.74358947, 4125.51282024, 4123.71794844, 4159.35897415, 4122.43589716, 4120.38461511, 4118.33333306, 4083.97435863, 4103.07692280, 4127.43589716, 4123.71794844, 4126.28205101, 4128.97435870, 4186.53846140,8.57
4123.71794844, 4124.74358947, 4124.87179460, 4186.15384602, 4121.41025614, 4149.35897415, 4147.56410236, 4117.17948691, 4139.87179467, 4125.64102537, 4123.07692280, 4122.43589716, 4128.46153819, 4181.41025628,8.57
4128.20512793, 4130.38461511, 4128.97435870, 4201.53846147, 4119.35897408, 4151.79487159, 4155.51282031, 4131.92307665, 4157.17948697, 4126.66666639, 4128.97435870, 4132.30769203, 4132.30769203, 4186.28205115,8.57
4126.02564075, 4126.41025614, 4122.05128178, 4191.28205115, 4120.89743562, 4130.64102537, 4136.28205108, 4114.61538434, 4142.43589723, 4128.20512793, 4124.87179460, 4125.38461511, 4128.33333306, 4186.66666653,8.57
4129.23076896, 4126.66666639, 4125.12820485, 4182.30769217, 4123.33333306, 4119.99999973, 4120.12820485, 4095.38461504, 4135.51282031, 4126.53846126, 4125.89743562, 4128.97435870, 4128.20512793, 4190.89743576,8.57
4130.12820485, 4131.41025614, 4129.10256383, 4191.28205115, 4121.92307665, 4134.87179460, 4127.56410229, 4098.33333299, 4139.23076903, 4125.89743562, 4128.97435870, 4133.58974332, 4132.94871767, 4191.92307679,8.57
4121.66666639, 4125.25640998, 4121.53846126, 4201.66666660, 4118.58974332, 4150.51282031, 4146.41025621, 4117.17948691, 4146.15384595, 4127.05128178, 4121.02564075, 4121.92307665, 4129.10256383, 4185.25641012,8.57
4128.46153819, 4126.53846126, 4127.05128178, 4205.64102558, 4119.48717921, 4160.89743569, 4163.71794851, 4136.66666646, 4160.38461518, 4127.56410229, 4124.61538434, 4134.87179460, 4131.79487152, 4192.17948704,8.57
4129.74358947, 4127.05128178, 4126.15384588, 4192.30769217, 4121.41025614, 4151.41025621, 4150.51282031, 4119.10256383, 4139.74358954, 4126.15384588, 4126.02564075, 4132.69230742, 4133.07692280, 4192.43589730,8.57
4124.23076896, 4122.82051255, 4119.99999973, 4171.79487166, 4120.25640998, 4118.84615357, 4118.84615357, 4089.87179453, 4104.48717921, 4124.99999973, 4121.79487152, 4126.15384588, 4131.79487152, 4190.38461525,8.57
4125.89743562, 4125.64102537, 4122.43589716, 4188.20512807, 4120.38461511, 4127.69230742, 4133.07692280, 4109.87179460, 4128.58974332, 4128.71794844, 4125.25640998, 4134.74358947, 4132.17948691, 4192.94871781,8.57
4121.79487152, 4123.97435870, 4118.58974332, 4217.05128199, 4120.76923050, 4171.53846140, 4167.05128185, 4133.58974332, 4158.84615364, 4129.87179460, 4125.12820485, 4123.84615357, 4130.51282024, 4190.51282038,8.57
4123.84615357, 4124.35897408, 4119.99999973, 4199.99999986, 4122.94871767, 4157.56410236, 4142.94871774, 4107.30769203, 4136.41025621, 4126.15384588, 4126.02564075, 4125.89743562, 4134.10256383, 4196.15384602,8.57
4123.97435870, 4124.74358947, 4119.48717921, 4184.10256397, 4124.10256383, 4121.28205101, 4118.58974332, 4091.92307658, 4126.92307665, 4125.51282024, 4124.74358947, 4127.69230742, 4129.99999973, 4195.25641012,8.57
4119.87179460, 4121.02564075, 4119.48717921, 4216.92307686, 4120.25640998, 4164.74358954, 4166.79487159, 4139.99999980, 4173.46153833, 4127.30769203, 4121.28205101, 4122.17948691, 4126.79487152, 4191.02564089,8.57
4125.12820485, 4123.71794844, 4127.17948691, 4207.69230763, 4119.87179460, 4168.97435884, 4160.64102544, 4135.51282031, 4158.71794851, 4125.89743562, 4123.33333306, 4127.94871767, 4131.15384588, 4194.48717935,8.57
4121.02564075, 4123.71794844, 4123.71794844, 4170.76923063, 4119.99999973, 4117.43589716, 4112.43589716, 4086.79487145, 4106.53846126, 4125.12820485, 4120.25640998, 4121.66666639, 4128.71794844, 4188.58974345,8.57
4118.84615357, 4127.82051255, 4123.20512793, 4201.41025634, 4117.82051255, 4149.10256390, 4153.07692287, 4118.84615357, 4139.74358954, 4126.15384588, 4123.07692280, 4125.38461511, 4130.25640998, 4185.51282038,8.57
4120.38461511, 4128.71794844, 4120.76923050, 4208.46153840, 4119.35897408, 4175.89743576, 4172.17948704, 4138.58974339, 4146.41025621, 4123.58974332, 4123.71794844, 4124.87179460, 4130.38461511, 4182.69230756,8.57
4119.23076896, 4122.05128178, 4116.53846126, 4160.64102544, 4120.64102537, 4138.46153826, 4121.79487152, 4096.02564068, 4098.97435863, 4121.92307665, 4120.64102537, 4118.07692280, 4129.10256383, 4183.07692294,8.57
4128.20512793, 4126.92307665, 4127.05128178, 4165.89743569, 4120.38461511, 4136.15384595, 4122.17948691, 4095.89743555, 4115.64102537, 4125.12820485, 4126.41025614, 4128.33333306, 4133.84615357, 4190.25641012,8.57
4127.30769203, 4127.69230742, 4128.58974332, 4196.53846140, 4122.94871767, 4153.20512800, 4156.66666646, 4137.17948697, 4163.58974339, 4127.56410229, 4123.71794844, 4118.97435870, 4131.02564075, 4183.20512807,8.57
4127.43589716, 4127.56410229, 4129.61538434, 4190.64102551, 4127.43589716, 4136.92307672, 4149.23076903, 4144.10256390, 4168.58974345, 4127.30769203, 4122.05128178, 4117.94871767, 4130.38461511, 4184.61538448,8.57
4128.97435870, 4131.28205101, 4130.38461511, 4201.02564096, 4128.20512793, 4159.10256390, 4163.20512800, 4153.58974339, 4176.15384602, 4126.41025614, 4123.71794844, 4124.23076896, 4131.53846126, 4187.17948704,8.57
4119.74358947, 4124.87179460, 4122.69230742, 4202.30769224, 4122.30769203, 4181.79487166, 4183.20512807, 4169.23076910, 4177.05128192, 4125.38461511, 4121.28205101, 4120.25640998, 4128.46153819, 4180.38461525,8.57
4125.38461511, 4124.61538434, 4125.76923050, 4174.87179474, 4119.99999973, 4139.48717928, 4145.64102544, 4143.46153826, 4142.82051262, 4125.89743562, 4122.05128178, 4126.66666639, 4131.15384588, 4184.87179474,8.57
4126.92307665, 4127.05128178, 4126.15384588, 4206.15384609, 4122.94871767, 4151.02564082, 4153.07692287, 4142.94871774, 4154.48717928, 4127.30769203, 4120.25640998, 4119.23076896, 4130.76923050, 4183.20512807,8.57
4122.82051255, 4126.53846126, 4126.79487152, 4259.35897436, 4121.28205101, 4224.61538455, 4222.56410250, 4188.07692294, 4209.48717942, 4127.43589716, 4125.64102537, 4122.43589716, 4134.10256383, 4182.17948704,8.57
4122.56410229, 4127.69230742, 4127.82051255, 4226.41025634, 4120.38461511, 4210.51282045, 4208.84615378, 4179.35897422, 4203.46153840, 4127.43589716, 4127.05128178, 4127.43589716, 4135.38461518, 4182.56410243,8.57
4118.97435870, 4124.61538434, 4122.56410229, 4172.69230756, 4121.28205101, 4119.35897408, 4113.07692280, 4108.07692280, 4135.25640998, 4129.10256383, 4121.92307665, 4117.43589716, 4128.58974332, 4180.89743576,8.57
4127.94871767, 4128.46153819, 4127.17948691, 4199.10256397, 4119.48717921, 4126.15384588, 4113.71794844, 4102.82051255, 4127.05128178, 4129.61538434, 4128.71794844, 4131.79487152, 4133.20512793, 4187.82051269,8.57
4126.02564075, 4128.07692280, 4123.20512793, 4247.94871795, 4119.10256383, 4206.15384609, 4193.33333320, 4163.58974339, 4190.76923063, 4125.64102537, 4128.07692280, 4130.51282024, 4133.07692280, 4184.99999986,8.57
4115.38461511, 4120.38461511, 4115.51282024, 4254.35897436, 4120.38461511, 4197.94871781, 4185.51282038, 4159.48717928, 4198.46153833, 4125.51282024, 4125.64102537, 4123.58974332, 4129.87179460, 4185.64102551,8.57
4115.12820485, 4118.33333306, 4114.61538434, 4235.64102564, 4119.10256383, 4158.46153826, 4145.64102544, 4122.43589716, 4155.51282031, 4129.48717921, 4127.30769203, 4128.33333306, 4133.46153819, 4187.56410243,8.57
4105.12820485, 4108.84615357, 4103.07692280, 4221.92307686, 4113.97435870, 4173.33333320, 4165.51282031, 4137.69230749, 4163.20512800, 4127.94871767, 4120.89743562, 4118.58974332, 4130.89743562, 4179.61538448,8.57
4108.97435870, 4111.15384588, 4109.48717921, 4220.25641019, 4114.23076896, 4172.05128192, 4173.07692294, 4157.43589723, 4191.66666653, 4125.25640998, 4125.25640998, 4126.79487152, 4132.17948691, 4187.94871781,8.57
4119.87179460, 4120.76923050, 4119.23076896, 4226.53846147, 4119.74358947, 4153.46153826, 4152.69230749, 4152.94871774, 4189.61538448, 4125.76923050, 4126.66666639, 4128.84615357, 4132.17948691, 4193.20512807,8.57
4116.66666639, 4117.94871767, 4112.82051255, 4226.28205122, 4117.82051255, 4170.25641012, 4161.92307672, 4157.30769210, 4183.58974345, 4126.79487152, 4122.94871767, 4125.64102537, 4130.89743562, 4190.38461525,8.57
4125.51282024, 4127.30769203, 4122.30769203, 4223.71794865, 4117.17948691, 4181.79487166, 4172.43589730, 4164.35897415, 4184.35897422, 4127.94871767, 4129.74358947, 4135.89743569, 4134.23076896, 4196.53846140,8.57
4120.89743562, 4124.87179460, 4123.20512793, 4250.00000000, 4121.92307665, 4187.82051269, 4175.51282038, 4176.92307679, 4195.64102551, 4125.89743562, 4128.20512793, 4121.92307665, 4131.28205101, 4195.38461525,8.57
4116.28205101, 4117.82051255, 4118.97435870, 4257.30769231, 4122.17948691, 4193.58974345, 4181.66666653, 4179.23076910, 4203.71794865, 4124.87179460, 4126.66666639, 4122.82051255, 4131.66666639, 4192.94871781,8.57
4128.20512793, 4127.17948691, 4124.10256383, 4210.12820506, 4119.99999973, 4160.76923056, 4158.46153826, 4149.35897415, 4197.17948704, 4129.35897408, 4126.92307665, 4127.05128178, 4133.97435870, 4191.79487166,8.57
4121.02564075, 4122.94871767, 4120.51282024, 4193.84615371, 4119.61538434, 4156.92307672, 4149.35897415, 4150.12820492, 4197.56410243, 4130.51282024, 4125.64102537, 4117.82051255, 4133.58974332, 4193.97435884,8.57
4120.89743562, 4123.58974332, 4122.56410229, 4208.20512814, 4120.64102537, 4177.43589730, 4158.97435877, 4168.46153833, 4189.99999986, 4127.82051255, 4129.74358947, 4127.30769203, 4134.48717921, 4196.02564089,8.57
4123.07692280, 4127.30769203, 4117.82051255, 4200.76923063, 4120.76923050, 4157.05128185, 4156.28205108, 4159.23076903, 4172.82051269, 4127.05128178, 4125.89743562, 4121.53846126, 4128.46153819, 4184.23076910,8.57
4119.35897408, 4124.48717921, 4114.10256383, 4203.84615378, 4120.25640998, 4149.23076903, 4164.35897415, 4159.10256390, 4151.02564082, 4126.92307665, 4125.12820485, 4117.05128178, 4129.48717921, 4185.12820499,8.57
4122.17948691, 4128.58974332, 4122.56410229, 4210.12820506, 4121.41025614, 4162.43589723, 4169.10256397, 4164.23076903, 4122.82051255, 4127.43589716, 4126.79487152, 4119.48717921, 4132.94871767, 4191.66666653,8.57
4118.71794844, 4123.97435870, 4123.07692280, 4194.74358961, 4119.74358947, 4159.48717928, 4154.74358954, 4154.87179467, 4123.07692280, 4127.94871767, 4121.02564075, 4115.12820485, 4127.56410229, 4187.69230756,8.57
4124.61538434, 4123.46153819, 4122.82051255, 4188.71794858, 4121.92307665, 4159.87179467, 4148.58974339, 4145.64102544, 4143.20512800, 4125.51282024, 4121.92307665, 4123.84615357, 4126.79487152, 4187.82051269,8.57
4123.07692280, 4124.74358947, 4117.94871767, 4195.38461525, 4124.87179460, 4169.99999986, 4152.82051262, 4153.58974339, 4150.76923056, 4125.76923050, 4123.84615357, 4118.71794844, 4125.38461511, 4182.30769217,8.57
4121.02564075, 4123.33333306, 4123.20512793, 4202.43589737, 4121.79487152, 4179.87179474, 4153.84615364, 4165.51282031, 4163.71794851, 4131.15384588, 4124.99999973, 4119.74358947, 4129.10256383, 4182.82051269,8.57
4128.84615357, 4126.53846126, 4130.76923050, 4216.02564096, 4123.84615357, 4194.61538448, 4165.51282031, 4169.10256397, 4179.35897422, 4131.28205101, 4123.33333306, 4121.02564075, 4129.87179460, 4185.25641012,8.57
4120.51282024, 4121.53846126, 4120.89743562, 4215.51282045, 4125.51282024, 4189.61538448, 4163.20512800, 4158.58974339, 4169.87179474, 4127.94871767, 4120.25640998, 4107.69230742, 4122.30769203, 4180.51282038,8.57
4123.71794844, 4125.51282024, 4126.53846126, 4211.79487173, 4123.84615357, 4168.33333320, 4147.30769210, 4155.38461518, 4162.94871774, 4130.89743562, 4129.61538434, 4122.05128178, 4127.94871767, 4187.69230756,8.57
4128.58974332, 4133.07692280, 4128.33333306, 4231.15384609, 4124.61538434, 4180.12820499, 4159.23076903, 4165.38461518, 4164.61538441, 4132.17948691, 4129.99999973, 4121.28205101, 4128.84615357, 4184.99999986,8.57
4127.69230742, 4130.51282024, 4122.30769203, 4237.56410257, 4123.71794844, 4192.30769217, 4164.87179467, 4158.20512800, 4160.51282031, 4128.84615357, 4124.23076896, 4116.79487152, 4127.94871767, 4181.79487166,8.57
4130.64102537, 4130.38461511, 4127.17948691, 4218.71794865, 4125.51282024, 4176.28205115, 4148.46153826, 4151.53846133, 4164.23076903, 4131.15384588, 4127.69230742, 4127.43589716, 4133.07692280, 4187.82051269,8.57
4121.15384588, 4126.28205101, 4127.43589716, 4214.23076917, 4126.02564075, 4175.38461525, 4152.56410236, 4164.23076903, 4171.79487166, 4133.07692280, 4126.79487152, 4120.89743562, 4127.82051255, 4183.71794858,8.57
4123.58974332, 4128.84615357, 4130.64102537, 4241.02564103, 4122.56410229, 4194.10256397, 4169.99999986, 4175.12820499, 4181.02564089, 4129.35897408, 4127.94871767, 4129.23076896, 4128.20512793, 4187.69230756,8.57
4128.07692280, 4129.74358947, 4125.51282024, 4252.17948718, 4122.56410229, 4187.05128192, 4150.64102544, 4149.99999980, 4171.41025628, 4125.12820485, 4126.28205101, 4128.46153819, 4129.23076896, 4187.94871781,8.57
4123.71794844, 4124.61538434, 4121.02564075, 4227.05128199, 4123.58974332, 4161.92307672, 4126.15384588, 4118.07692280, 4144.35897415, 4125.64102537, 4125.12820485, 4122.17948691, 4129.10256383, 4185.64102551,8.57
4128.46153819, 4128.97435870, 4126.66666639, 4223.84615378, 4123.07692280, 4171.92307679, 4147.30769210, 4139.48717928, 4154.48717928, 4128.20512793, 4129.48717921, 4134.23076896, 4133.71794844, 4190.76923063,8.57
4128.33333306, 4127.05128178, 4118.97435870, 4260.00000000, 4121.79487152, 4202.94871788, 4180.51282038, 4179.48717935, 4192.94871781, 4125.89743562, 4124.48717921, 4126.15384588, 4130.76923050, 4186.66666653,8.57
4129.48717921, 4125.64102537, 4118.71794844, 4264.74358975, 4123.46153819, 4187.17948704, 4158.84615364, 4150.38461518, 4173.20512807, 4124.23076896, 4126.66666639, 4125.76923050, 4130.38461511, 4189.10256397,8.57
4127.30769203, 4126.28205101, 4123.33333306, 4240.64102564, 4126.02564075, 4167.94871774, 4136.02564082, 4117.56410229, 4142.82051262, 4127.05128178, 4127.30769203, 4129.10256383, 4131.92307665, 4189.74358961,8.57
4122.82051255, 4123.97435870, 4122.69230742, 4268.71794879, 4123.97435870, 4222.56410250, 4193.71794858, 4195.64102551, 4211.41025634, 4127.82051255, 4121.79487152, 4125.76923050, 4130.25640998, 4186.53846140,8.57
4129.23076896, 4128.71794844, 4127.43589716, 4317.17948732, 4123.71794844, 4265.38461539, 4235.25641026, 4251.92307693, 4262.69230770, 4127.05128178, 4127.17948691, 4135.51282031, 4133.46153819, 4191.53846140,8.57
4124.74358947, 4127.17948691, 4123.20512793, 4323.33333348, 4126.15384588, 4238.20512821, 4210.38461532, 4218.46153840, 4235.64102564, 4129.23076896, 4125.38461511, 4127.94871767, 4131.53846126, 4190.12820499,8.57
4123.07692280, 4125.51282024, 4122.82051255, 4319.35897450, 4123.46153819, 4223.20512814, 4205.12820506, 4215.76923070, 4236.66666667, 4129.48717921, 4123.20512793, 4125.64102537, 4133.46153819, 4193.07692294,8.57
4126.15384588, 4124.23076896, 4120.76923050, 4342.82051303, 4121.15384588, 4252.05128206, 4231.92307686, 4247.82051282, 4267.05128212, 4126.28205101, 4124.23076896, 4128.20512793, 4135.25640998, 4191.66666653,8.57
4122.94871767, 4122.94871767, 4117.82051255, 4359.23076944, 4123.84615357, 4259.74358975, 4229.35897429, 4240.25641026, 4257.69230770, 4125.64102537, 4122.56410229, 4120.64102537, 4128.46153819, 4188.33333320,8.57
4127.17948691, 4128.20512793, 4124.99999973, 4339.48717970, 4124.99999973, 4227.30769224, 4188.58974345, 4193.71794858, 4214.87179481, 4128.07692280, 4125.76923050, 4128.71794844, 4130.76923050, 4194.35897422,8.57
4121.28205101, 4126.02564075, 4120.25640998, 4325.89743604, 4121.28205101, 4208.33333327, 4167.30769210, 4169.35897422, 4193.84615371, 4129.35897408, 4122.94871767, 4122.05128178, 4134.61538434, 4186.92307679,8.57
4119.99999973, 4126.41025614, 4121.66666639, 4346.79487201, 4122.17948691, 4222.94871788, 4188.84615371, 4184.99999986, 4201.92307686, 4129.87179460, 4122.56410229, 4122.56410229, 4135.25640998, 4187.43589730,8.57
4118.58974332, 4125.25640998, 4124.10256383, 4369.74359003, 4126.92307665, 4246.28205129, 4218.71794865, 4217.82051275, 4231.28205122, 4130.38461511, 4123.46153819, 4126.92307665, 4130.38461511, 4191.28205115,8.57
4112.56410229, 4121.53846126, 4121.15384588, 4372.30769259, 4126.41025614, 4253.97435898, 4221.66666660, 4230.12820506, 4255.25641026, 4129.74358947, 4118.46153819, 4112.56410229, 4124.87179460, 4181.41025628,8.57
4123.07692280, 4126.92307665, 4127.30769203, 4365.64102592, 4125.76923050, 4253.84615385, 4216.41025634, 4222.05128199, 4247.05128206, 4128.33333306, 4122.43589716, 4120.64102537, 4131.92307665, 4184.74358961,8.57
4121.02564075, 4122.94871767, 4122.30769203, 4358.07692329, 4126.66666639, 4255.00000000, 4223.97435891, 4229.23076917, 4237.82051282, 4126.02564075, 4121.02564075, 4122.43589716, 4128.84615357, 4187.05128192,8.57
4119.23076896, 4123.71794844, 4125.25640998, 4349.87179508, 4126.92307665, 4245.64102564, 4218.20512814, 4225.76923070, 4236.79487180, 4125.38461511, 4119.99999973, 4121.41025614, 4125.12820485, 4187.30769217,8.57
4124.87179460, 4128.07692280, 4129.99999973, 4360.12820534, 4126.15384588, 4258.71794872, 4231.66666660, 4232.05128199, 4253.20512821, 4128.46153819, 4124.61538434, 4124.61538434, 4128.58974332, 4188.20512807,8.57
4121.41025614, 4123.07692280, 4122.30769203, 4369.23076951, 4124.99999973, 4278.07692315, 4258.07692308, 4253.58974359, 4263.33333334, 4130.25640998, 4121.66666639, 4112.82051255, 4125.76923050, 4182.82051269,8.57
4123.97435870, 4127.82051255, 4128.33333306, 4351.15384637, 4126.41025614, 4250.89743590, 4228.84615378, 4227.56410250, 4233.33333327, 4131.66666639, 4123.71794844, 4121.28205101, 4130.38461511, 4186.92307679,8.57
4119.23076896, 4126.15384588, 4125.25640998, 4353.20512842, 4127.69230742, 4245.25641026, 4211.02564096, 4209.99999993, 4232.56410250, 4133.07692280, 4122.94871767, 4121.53846126, 4130.89743562, 4184.23076910,8.57
4122.30769203, 4122.82051255, 4124.48717921, 4376.79487208, 4128.20512793, 4287.05128212, 4251.79487180, 4247.56410257, 4272.30769238, 4129.87179460, 4120.89743562, 4119.35897408, 4127.82051255, 4183.46153833,8.57
4128.20512793, 4126.92307665, 4133.07692280, 4372.56410285, 4129.23076896, 4286.79487187, 4256.41025641, 4265.51282052, 4281.66666674, 4127.69230742, 4124.23076896, 4127.43589716, 4129.23076896, 4186.79487166,8.57
4120.89743562, 4122.17948691, 4126.92307665, 4342.17948739, 4126.92307665, 4241.02564103, 4206.28205122, 4228.46153840, 4246.66666667, 4130.12820485, 4121.15384588, 4118.46153819, 4126.53846126, 4180.76923063,8.57
4127.82051255, 4125.76923050, 4129.48717921, 4352.82051303, 4125.38461511, 4256.15384616, 4220.64102558, 4237.17948718, 4255.89743590, 4129.61538434, 4125.51282024, 4126.92307665, 4132.17948691, 4187.17948704,8.57
4126.15384588, 4127.69230742, 4126.53846126, 4424.61538497, 4126.02564075, 4345.25641047, 4318.58974373, 4326.28205142, 4344.23076944, 4125.12820485, 4129.23076896, 4126.53846126, 4131.02564075, 4187.17948704,8.57
4122.82051255, 4123.33333306, 4124.10256383, 4491.15384664, 4125.76923050, 4418.33333368, 4394.61538490, 4396.92307720, 4425.12820548, 4125.51282024, 4126.41025614, 4120.64102537, 4126.53846126, 4185.89743576,8.57
4130.25640998, 4127.69230742, 4130.89743562, 4511.15384671, 4126.41025614, 4439.87179529, 4415.00000035, 4418.20512856, 4457.94871837, 4130.76923050, 4126.92307665, 4132.82051255, 4134.10256383, 4192.56410243,8.57
4121.15384588, 4125.89743562, 4123.84615357, 4498.33333389, 4127.05128178, 4434.10256452, 4405.89743625, 4414.48717984, 4451.53846196, 4131.15384588, 4123.33333306, 4121.66666639, 4133.07692280, 4186.15384602,8.57
4124.48717921, 4124.61538434, 4127.30769203, 4495.00000049, 4126.41025614, 4429.74359009, 4396.02564131, 4397.43589772, 4426.41025676, 4128.71794844, 4128.20512793, 4127.30769203, 4132.69230742, 4190.38461525,8.57
4128.97435870, 4126.02564075, 4127.05128178, 4489.87179536, 4126.79487152, 4415.51282086, 4376.79487208, 4360.38461560, 4385.51282079, 4128.46153819, 4129.74358947, 4138.58974339, 4135.12820485, 4192.69230756,8.57
4119.35897408, 4124.35897408, 4119.35897408, 4466.66666716, 4127.82051255, 4396.79487208, 4352.56410278, 4331.02564117, 4350.89743611, 4129.23076896, 4122.17948691, 4126.02564075, 4130.12820485, 4185.12820499,8.57
4124.87179460, 4128.46153819, 4126.79487152, 4459.48717991, 4129.74358947, 4413.20512856, 4366.92307720, 4357.30769252, 4374.87179515, 4130.51282024, 4128.84615357, 4134.10256383, 4131.41025614, 4191.92307679,8.57
4123.20512793, 4125.25640998, 4122.94871767, 4474.48717998, 4129.23076896, 4442.56410298, 4409.61538497, 4417.82051317, 4435.12820555, 4128.97435870, 4127.94871767, 4130.64102537, 4131.66666639, 4191.66666653,8.57
4119.99999973, 4124.74358947, 4122.30769203, 4481.28205177, 4128.46153819, 4428.71794907, 4407.05128240, 4427.05128240, 4446.02564145, 4127.17948691, 4121.92307665, 4125.76923050, 4132.30769203, 4190.64102551,8.57
4127.05128178, 4128.97435870, 4128.58974332, 4485.89743639, 4129.35897408, 4409.87179522, 4377.94871823, 4389.61538490, 4409.74359009, 4129.74358947, 4124.35897408, 4133.97435870, 4137.43589723, 4195.89743576,8.57
4118.07692280, 4118.71794844, 4116.79487152, 4516.28205184, 4125.76923050, 4445.89743632, 4408.58974394, 4409.23076958, 4428.20512856, 4132.56410229, 4119.61538434, 4117.05128178, 4132.69230742, 4188.33333320,8.57
4122.56410229, 4121.15384588, 4118.97435870, 4523.33333389, 4126.02564075, 4456.53846196, 4425.00000035, 4427.17948753, 4447.05128247, 4131.92307665, 4122.56410229, 4121.15384588, 4131.92307665, 4192.30769217,8.57
4127.17948691, 4126.92307665, 4122.69230742, 4494.23076972, 4130.12820485, 4424.23076958, 4382.69230797, 4382.69230797, 4402.30769266, 4126.15384588, 4125.12820485, 4126.28205101, 4131.15384588, 4190.25641012,8.57
4115.89743562, 4120.12820485, 4116.53846126, 4480.25641075, 4126.28205101, 4423.71794907, 4372.56410285, 4373.71794900, 4396.28205156, 4123.07692280, 4121.92307665, 4116.79487152, 4126.53846126, 4182.56410243,8.57
4122.43589716, 4124.48717921, 4125.51282024, 4480.51282100, 4126.41025614, 4425.64102599, 4384.10256438, 4390.64102592, 4417.05128240, 4129.10256383, 4128.33333306, 4128.07692280, 4133.97435870, 4195.51282038,8.57
4118.33333306, 4122.82051255, 4119.87179460, 4485.51282100, 4130.76923050, 4409.23076958, 4377.30769259, 4383.46153874, 4402.69230804, 4130.51282024, 4124.99999973, 4116.92307665, 4129.99999973, 4188.07692294,8.57
4117.17948691, 4122.94871767, 4117.43589716, 4493.58974408, 4129.74358947, 4413.97435933, 4392.43589772, 4411.28205163, 4408.97435933, 4126.53846126, 4123.58974332, 4116.53846126, 4127.69230742, 4183.20512807,8.57
4122.30769203, 4127.56410229, 4124.87179460, 4486.53846203, 4127.94871767, 4416.92307727, 4409.74359009, 4442.94871837, 4432.30769273, 4128.07692280, 4124.23076896, 4124.99999973, 4130.38461511, 4188.71794858,8.57
4114.48717921, 4123.71794844, 4121.66666639, 4469.10256459, 4127.17948691, 4391.02564131, 4377.56410285, 4401.02564138, 4406.79487215, 4130.12820485, 4117.94871767, 4114.87179460, 4125.38461511, 4181.66666653,8.57
4123.07692280, 4126.79487152, 4126.66666639, 4471.41025690, 4128.33333306, 4391.41025669, 4369.48717977, 4385.25641054, 4399.61538497, 4128.58974332, 4125.64102537, 4125.25640998, 4130.51282024, 4186.02564089,8.57
4119.74358947, 4123.84615357, 4121.02564075, 4483.20512870, 4127.30769203, 4415.51282086, 4401.53846189, 4428.58974394, 4436.02564145, 4129.61538434, 4123.33333306, 4118.07692280, 4126.02564075, 4180.64102551,8.57
4116.02564075, 4123.46153819, 4119.87179460, 4481.79487229, 4125.76923050, 4402.43589779, 4389.10256438, 4421.41025676, 4421.28205163, 4132.56410229, 4118.33333306, 4115.25640998, 4124.74358947, 4181.41025628,8.57
4124.87179460, 4127.56410229, 4126.02564075, 4474.10256459, 4129.10256383, 4376.41025669, 4353.84615406, 4375.64102592, 4380.51282079, 4130.89743562, 4122.69230742, 4124.23076896, 4133.97435870, 4187.43589730,8.57
4121.66666639, 4122.17948691, 4123.33333306, 4475.89743639, 4129.23076896, 4380.38461567, 4352.30769252, 4367.17948746, 4383.58974387, 4128.20512793, 4121.79487152, 4113.58974332, 4129.10256383, 4180.76923063,8.57
4126.41025614, 4125.38461511, 4129.23076896, 4482.56410305, 4130.25640998, 4390.51282079, 4360.25641047, 4379.74359003, 4393.33333362, 4129.48717921, 4127.17948691, 4127.69230742, 4130.12820485, 4190.51282038,8.57
4124.23076896, 4126.15384588, 4124.23076896, 4473.46153895, 4131.53846126, 4378.07692336, 4351.41025662, 4376.15384644, 4377.17948746, 4129.99999973, 4124.87179460, 4126.66666639, 4130.76923050, 4188.58974345,8.57
4122.69230742, 4125.12820485, 4123.46153819, 4440.76923119, 4130.51282024, 4355.25641047, 4333.20512842, 4361.28205149, 4357.30769252, 4130.12820485, 4122.17948691, 4119.35897408, 4129.99999973, 4183.58974345,8.57
4126.02564075, 4127.05128178, 4127.82051255, 4408.71794907, 4132.94871767, 4345.89743611, 4321.79487194, 4357.56410278, 4353.33333355, 4131.41025614, 4126.02564075, 4127.94871767, 4131.02564075, 4188.33333320,8.57
4117.17948691, 4124.23076896, 4119.74358947, 4407.05128240, 4132.56410229, 4352.30769252, 4328.84615399, 4368.58974387, 4356.02564124, 4128.46153819, 4122.05128178, 4119.74358947, 4125.38461511, 4183.33333320,8.57
4126.92307665, 4129.74358947, 4126.15384588, 4423.71794907, 4128.58974332, 4362.17948739, 4338.58974380, 4369.61538490, 4348.84615406, 4126.92307665, 4127.69230742, 4133.71794844, 4130.76923050, 4192.30769217,8.57
4131.53846126, 4128.07692280, 4125.89743562, 4427.82051317, 4128.84615357, 4366.28205156, 4339.74358996, 4368.46153874, 4346.79487201, 4131.41025614, 4127.82051255, 4131.15384588, 4129.99999973, 4190.51282038,8.57
4123.46153819, 4125.38461511, 4124.10256383, 4416.92307727, 4131.53846126, 4355.51282073, 4329.48717963, 4370.89743618, 4360.12820534, 4131.53846126, 4125.12820485, 4121.28205101, 4125.25640998, 4184.74358961,8.57
4127.69230742, 4128.97435870, 4132.17948691, 4412.56410292, 4129.99999973, 4342.82051303, 4320.00000014, 4360.89743611, 4368.58974387, 4128.84615357, 4130.51282024, 4138.07692287, 4133.33333306, 4194.35897422,8.57
4123.84615357, 4122.69230742, 4121.92307665, 4413.97435933, 4125.38461511, 4344.48717970, 4323.07692322, 4354.74358996, 4362.82051303, 4129.61538434, 4121.66666639, 4125.76923050, 4129.61538434, 4187.30769217,8.57
4125.76923050, 4124.99999973, 4122.17948691, 4394.74359003, 4127.43589716, 4330.25641040, 4305.12820527, 4335.89743611, 4336.66666688, 4131.79487152, 4124.87179460, 4125.12820485, 4132.17948691, 4190.51282038,8.57
4122.43589716, 4125.51282024, 4125.12820485, 4381.66666695, 4131.41025614, 4316.28205142, 4286.66666674, 4316.15384630, 4319.87179501, 4131.15384588, 4130.64102537, 4127.82051255, 4138.58974339, 4194.48717935,8.57
4116.92307665, 4121.53846126, 4121.41025614, 4398.84615420, 4129.48717921, 4330.64102578, 4307.43589758, 4342.94871816, 4341.02564124, 4128.20512793, 4120.76923050, 4117.30769203, 4131.41025614, 4188.33333320,8.57
4127.82051255, 4128.58974332, 4125.38461511, 4402.30769266, 4130.12820485, 4328.58974373, 4317.56410271, 4368.46153874, 4349.48717970, 4129.10256383, 4123.33333306, 4129.10256383, 4131.92307665, 4195.64102551,8.57
4119.61538434, 4123.97435870, 4117.56410229, 4388.97435926, 4131.28205101, 4315.64102578, 4302.30769245, 4351.41025662, 4331.41025655, 4130.38461511, 4123.97435870, 4120.25640998, 4131.15384588, 4189.48717935,8.57
4119.10256383, 4119.74358947, 4120.89743562, 4401.15384651, 4131.79487152, 4335.12820534, 4318.07692322, 4353.20512842, 4338.58974380, 4130.38461511, 4123.20512793, 4119.74358947, 4132.82051255, 4189.48717935,8.57
4124.87179460, 4121.66666639, 4125.38461511, 4409.23076958, 4132.94871767, 4341.66666688, 4330.12820527, 4368.97435926, 4352.30769252, 4129.35897408, 4123.84615357, 4126.28205101, 4132.94871767, 4193.46153833,8.57
4115.25640998, 4119.99999973, 4118.20512793, 4388.20512849, 4131.15384588, 4315.25641040, 4298.58974366, 4344.61538483, 4337.69230790, 4128.33333306, 4122.17948691, 4117.17948691, 4127.69230742, 4185.12820499,8.57
4123.33333306, 4127.82051255, 4125.38461511, 4376.92307720, 4132.82051255, 4299.74358989, 4273.20512828, 4306.53846168, 4308.46153860, 4130.51282024, 4128.58974332, 4127.43589716, 4135.51282031, 4190.64102551,8.57
4119.99999973, 4125.38461511, 4121.15384588, 4385.64102592, 4134.10256383, 4306.02564117, 4288.20512828, 4316.41025655, 4310.51282066, 4130.76923050, 4122.56410229, 4117.69230742, 4132.94871767, 4186.92307679,8.57
4115.64102537, 4120.76923050, 4119.74358947, 4391.15384644, 4133.84615357, 4311.79487194, 4307.05128219, 4357.56410278, 4347.30769252, 4128.71794844, 4119.35897408, 4115.64102537, 4129.10256383, 4184.61538448,8.57
4122.05128178, 4125.76923050, 4125.89743562, 4381.53846182, 4133.46153819, 4303.46153860, 4291.79487187, 4354.61538483, 4347.17948739, 4129.74358947, 4122.82051255, 4123.97435870, 4130.76923050, 4186.15384602,8.57
4118.33333306, 4123.97435870, 4123.46153819, 4378.07692336, 4130.51282024, 4300.38461553, 4281.92307700, 4328.07692322, 4321.66666681, 4131.28205101, 4118.46153819, 4112.56410229, 4127.82051255, 4178.20512807,8.57
4127.30769203, 4126.02564075, 4130.64102537, 4387.30769259, 4131.02564075, 4306.92307707, 4298.07692315, 4332.56410278, 4331.28205142, 4129.48717921, 4123.46153819, 4123.58974332, 4133.20512793, 4185.89743576,8.57
4123.71794844, 4121.92307665, 4124.10256383, 4385.38461567, 4133.33333306, 4300.25641040, 4296.02564110, 4333.58974380, 4337.82051303, 4126.15384588, 4122.82051255, 4117.69230742, 4128.84615357, 4181.79487166,8.57
4119.10256383, 4123.33333306, 4121.79487152, 4369.10256438, 4133.33333306, 4282.56410264, 4272.17948725, 4307.05128219, 4303.97435912, 4126.53846126, 4121.15384588, 4113.84615357, 4125.76923050, 4177.43589730,8.57
4126.92307665, 4132.17948691, 4129.99999973, 4366.15384644, 4132.94871767, 4282.17948725, 4267.69230777, 4294.35897443, 4291.15384623, 4130.51282024, 4123.58974332, 4125.38461511, 4129.10256383, 4181.53846140,8.57
4118.33333306, 4123.71794844, 4122.30769203, 4374.48717977, 4130.89743562, 4290.89743597, 4276.53846161, 4299.74358989, 4306.66666681, 4130.12820485, 4121.79487152, 4116.66666639, 4123.07692280, 4178.33333320,8.57
4123.46153819, 4124.99999973, 4127.43589716, 4362.05128226, 4130.76923050, 4280.51282059, 4271.15384623, 4300.89743604, 4303.97435912, 4127.69230742, 4129.48717921, 4128.46153819, 4130.25640998, 4189.35897422,8.57
4124.99999973, 4127.82051255, 4125.12820485, 4357.05128226, 4130.76923050, 4282.05128212, 4277.69230777, 4316.79487194, 4309.87179501, 4129.99999973, 4126.41025614, 4129.48717921, 4133.58974332, 4188.20512807,8.57
4124.99999973, 4127.82051255, 4125.12820485, 4357.05128226, 4130.76923050, 4282.05128212, 4277.69230777, 4316.79487194, 4309.87179501, 4129.99999973, 4126.41025614, 4129.48717921, 4133.58974332, 4188.20512807,8.57
4123.46153819, 4122.56410229, 4122.17948691, 4370.76923105, 4129.35897408, 4290.12820520, 4280.89743597, 4311.15384630, 4303.84615399, 4131.28205101, 4121.66666639, 4125.25640998, 4128.07692280, 4182.56410243,8.57
4132.30769203, 4127.17948691, 4131.28205101, 4373.84615413, 4130.38461511, 4282.82051289, 4271.02564110, 4290.89743597, 4288.07692315, 4129.10256383, 4129.23076896, 4135.51282031, 4132.30769203, 4190.12820499,8.57
4123.20512793, 4126.53846126, 4122.17948691, 4361.02564124, 4130.25640998, 4280.00000007, 4277.82051289, 4306.92307707, 4304.74358989, 4128.84615357, 4125.25640998, 4123.97435870, 4133.84615357, 4187.94871781,8.57
4126.02564075, 4125.51282024, 4123.46153819, 4344.74358996, 4129.61538434, 4269.87179495, 4270.38461546, 4302.17948732, 4304.74358989, 4130.25640998, 4125.76923050, 4132.94871767, 4135.25640998, 4192.94871781,8.57
4125.51282024, 4123.07692280, 4126.28205101, 4349.35897457, 4131.79487152, 4257.56410257, 4249.35897436, 4265.89743590, 4280.89743597, 4127.56410229, 4126.92307665, 4134.10256383, 4131.28205101, 4189.35897422,8.57
4119.23076896, 4122.69230742, 4124.61538434, 4361.92307714, 4132.17948691, 4267.94871802, 4259.23076923, 4274.10256418, 4294.48717956, 4127.43589716, 4124.48717921, 4124.61538434, 4130.76923050, 4186.15384602,8.57
4128.33333306, 4127.94871767, 4128.07692280, 4356.15384637, 4131.79487152, 4279.61538469, 4279.10256418, 4301.92307707, 4315.64102578, 4129.87179460, 4129.61538434, 4134.87179460, 4137.05128185, 4195.25641012,8.57
4122.05128178, 4119.87179460, 4117.69230742, 4343.07692329, 4132.82051255, 4269.61538469, 4268.97435905, 4280.76923084, 4282.82051289, 4127.94871767, 4126.15384588, 4123.97435870, 4128.97435870, 4187.94871781,8.57
4122.94871767, 4122.17948691, 4121.15384588, 4342.05128226, 4133.84615357, 4261.41025641, 4253.97435898, 4250.38461539, 4245.38461539, 4128.71794844, 4126.66666639, 4127.30769203, 4128.46153819, 4187.69230756,8.57
4124.35897408, 4129.61538434, 4124.35897408, 4341.92307714, 4132.05128178, 4261.66666667, 4257.94871795, 4265.64102564, 4266.41025641, 4131.53846126, 4127.05128178, 4129.35897408, 4132.56410229, 4191.53846140,8.57
4118.58974332, 4121.79487152, 4118.97435870, 4336.66666688, 4132.17948691, 4247.17948718, 4253.33333334, 4283.84615392, 4298.46153853, 4131.28205101, 4124.48717921, 4122.30769203, 4129.23076896, 4191.92307679,8.57
4125.25640998, 4119.10256383, 4122.82051255, 4346.41025662, 4133.07692280, 4248.07692308, 4256.41025641, 4289.74358982, 4308.33333348, 4130.12820485, 4126.41025614, 4132.82051255, 4130.51282024, 4193.33333320,8.57
4117.94871767, 4119.10256383, 4117.94871767, 4352.69230790, 4129.99999973, 4267.56410264, 4271.41025648, 4293.20512828, 4310.64102578, 4129.35897408, 4118.71794844, 4122.30769203, 4129.87179460, 4184.48717935,8.57
4116.79487152, 4122.94871767, 4122.17948691, 4344.87179508, 4129.74358947, 4270.00000007, 4268.20512828, 4287.56410264, 4305.38461553, 4129.35897408, 4120.51282024, 4124.61538434, 4130.76923050, 4188.46153833,8.57
4119.87179460, 4123.33333306, 4123.07692280, 4343.07692329, 4132.94871767, 4266.79487187, 4263.07692308, 4285.89743597, 4295.76923084, 4128.20512793, 4124.35897408, 4126.79487152, 4128.46153819, 4191.53846140,8.57
4115.25640998, 4123.84615357, 4117.56410229, 4345.00000021, 4131.41025614, 4268.46153853, 4269.87179495, 4292.69230777, 4289.61538469, 4127.17948691, 4120.38461511, 4114.99999973, 4125.64102537, 4186.79487166,8.57
4119.48717921, 4131.15384588, 4123.71794844, 4333.97435919, 4130.12820485, 4259.74358975, 4259.10256411, 4278.58974366, 4272.05128212, 4128.07692280, 4124.35897408, 4122.94871767, 4130.64102537, 4189.10256397,8.57
4115.76923050, 4123.33333306, 4120.51282024, 4327.43589758, 4130.76923050, 4247.82051282, 4241.15384616, 4258.20512821, 4256.66666667, 4128.20512793, 4122.94871767, 4117.30769203, 4127.30769203, 4184.23076910,8.57
4118.20512793, 4122.56410229, 4122.82051255, 4335.12820534, 4133.46153819, 4244.23076923, 4251.02564103, 4273.84615392, 4275.38461546, 4127.94871767, 4121.53846126, 4118.71794844, 4128.33333306, 4187.69230756,8.57
4120.38461511, 4128.07692280, 4123.07692280, 4319.23076937, 4134.35897408, 4237.30769231, 4250.89743590, 4283.07692315, 4283.33333341, 4129.74358947, 4118.97435870, 4120.25640998, 4129.87179460, 4185.64102551,8.57
4116.15384588, 4121.53846126, 4118.33333306, 4298.71794879, 4128.97435870, 4233.58974352, 4230.89743583, 4262.94871795, 4267.69230777, 4129.48717921, 4117.30769203, 4109.35897408, 4123.58974332, 4177.17948704,8.57
4123.20512793, 4121.66666639, 4126.79487152, 4314.61538476, 4128.84615357, 4234.23076923, 4231.41025634, 4261.66666667, 4270.00000007, 4127.94871767, 4125.51282024, 4122.82051255, 4127.82051255, 4187.56410243,8.57
4118.97435870, 4122.56410229, 4122.82051255, 4322.56410271, 4132.17948691, 4224.74358968, 4236.15384616, 4267.94871802, 4263.46153847, 4127.17948691, 4122.56410229, 4120.12820485, 4126.92307665, 4184.99999986,8.57
4123.97435870, 4127.30769203, 4125.51282024, 4297.17948725, 4131.28205101, 4216.92307686, 4218.33333327, 4244.23076923, 4240.12820513, 4126.79487152, 4123.07692280, 4119.48717921, 4126.92307665, 4182.43589730,8.57
4128.46153819, 4129.10256383, 4131.28205101, 4296.66666674, 4131.79487152, 4227.17948711, 4215.12820506, 4231.92307686, 4250.51282052, 4127.94871767, 4126.15384588, 4126.02564075, 4130.51282024, 4185.38461525,8.57
4117.69230742, 4123.33333306, 4123.46153819, 4324.35897450, 4134.10256383, 4246.66666667, 4247.30769231, 4257.94871795, 4274.61538469, 4130.12820485, 4119.61538434, 4116.28205101, 4127.56410229, 4180.51282038,8.57
4126.79487152, 4129.23076896, 4127.82051255, 4317.69230784, 4132.94871767, 4244.87179488, 4254.74358975, 4264.35897436, 4260.12820513, 4129.74358947, 4125.25640998, 4128.84615357, 4133.71794844, 4188.71794858,8.57
4126.28205101, 4127.30769203, 4124.99999973, 4293.20512828, 4129.87179460, 4222.05128199, 4228.71794865, 4248.07692308, 4243.71794872, 4127.17948691, 4125.12820485, 4125.76923050, 4130.51282024, 4187.05128192,8.57
4122.05128178, 4123.84615357, 4126.15384588, 4305.38461553, 4132.43589716, 4215.25641019, 4223.71794865, 4248.33333334, 4252.69230770, 4127.69230742, 4122.94871767, 4121.41025614, 4127.30769203, 4184.61538448,8.57
4127.94871767, 4128.20512793, 4133.58974332, 4333.33333355, 4135.76923056, 4231.53846147, 4237.82051282, 4254.48717949, 4265.76923077, 4129.10256383, 4129.23076896, 4132.82051255, 4134.74358947, 4189.74358961,8.57
4123.46153819, 4124.23076896, 4124.74358947, 4340.89743611, 4132.94871767, 4243.20512821, 4242.30769231, 4261.28205129, 4286.66666674, 4126.53846126, 4125.76923050, 4121.02564075, 4130.38461511, 4184.99999986,8.57
4127.30769203, 4126.66666639, 4126.79487152, 4328.07692322, 4130.51282024, 4230.89743583, 4226.53846147, 4252.30769231, 4280.51282059, 4125.38461511, 4127.30769203, 4127.05128178, 4128.71794844, 4190.51282038,8.57
4124.48717921, 4125.76923050, 4125.89743562, 4305.64102578, 4129.87179460, 4209.48717942, 4194.99999986, 4208.58974352, 4220.64102558, 4126.02564075, 4127.82051255, 4128.46153819, 4128.84615357, 4186.66666653,8.57
4122.82051255, 4123.71794844, 4123.71794844, 4293.20512828, 4131.15384588, 4200.12820499, 4179.23076910, 4185.12820499, 4187.30769217, 4125.89743562, 4122.43589716, 4122.94871767, 4128.58974332, 4182.69230756,8.57
4128.07692280, 4128.20512793, 4127.17948691, 4310.64102578, 4134.48717921, 4213.07692301, 4216.15384609, 4237.43589744, 4240.12820513, 4126.53846126, 4123.46153819, 4135.38461518, 4135.38461518, 4192.94871781,8.57
4117.56410229, 4120.64102537, 4119.99999973, 4331.15384630, 4131.66666639, 4229.48717942, 4252.82051282, 4284.48717956, 4286.02564110, 4128.58974332, 4118.20512793, 4124.87179460, 4134.48717921, 4191.15384602,8.57
4121.02564075, 4120.25640998, 4125.38461511, 4310.38461553, 4127.94871767, 4213.46153840, 4219.35897429, 4235.76923077, 4238.07692308, 4131.02564075, 4122.43589716, 4126.02564075, 4136.53846133, 4192.17948704,8.57
4124.87179460, 4125.12820485, 4123.71794844, 4287.43589751, 4130.38461511, 4197.05128192, 4187.56410243, 4184.10256397, 4193.71794858, 4129.48717921, 4128.33333306, 4127.56410229, 4134.10256383, 4191.15384602,8.57
4119.10256383, 4122.82051255, 4116.41025614, 4293.97435905, 4133.58974332, 4208.20512814, 4206.41025634, 4198.97435884, 4211.79487173, 4126.79487152, 4122.56410229, 4120.12820485, 4127.56410229, 4189.87179474,8.57
4126.15384588, 4124.48717921, 4123.20512793, 4298.07692315, 4134.10256383, 4217.30769224, 4217.94871788, 4218.84615378, 4232.94871788, 4129.48717921, 4124.61538434, 4132.69230742, 4133.97435870, 4195.76923063,8.57
4122.17948691, 4122.69230742, 4118.46153819, 4308.07692322, 4131.28205101, 4225.76923070, 4219.35897429, 4231.41025634, 4254.23076923, 4129.10256383, 4122.94871767, 4124.35897408, 4132.82051255, 4186.79487166,8.57
4121.79487152, 4122.43589716, 4119.74358947, 4313.58974373, 4131.53846126, 4222.30769224, 4211.79487173, 4230.76923070, 4254.74358975, 4127.56410229, 4122.43589716, 4125.51282024, 4129.99999973, 4186.28205115,8.57
4121.41025614, 4120.64102537, 4119.74358947, 4295.51282059, 4133.58974332, 4203.58974352, 4196.92307679, 4218.84615378, 4229.48717942, 4130.64102537, 4123.33333306, 4127.94871767, 4127.05128178, 4188.58974345,8.57
4114.87179460, 4118.97435870, 4113.33333306, 4285.25641033, 4132.30769203, 4198.46153833, 4199.61538448, 4226.92307686, 4232.69230763, 4130.64102537, 4121.02564075, 4113.33333306, 4125.51282024, 4184.61538448,8.57
4121.53846126, 4128.33333306, 4123.97435870, 4286.66666674, 4132.30769203, 4199.74358961, 4195.25641012, 4218.46153840, 4231.41025634, 4127.56410229, 4126.79487152, 4122.94871767, 4134.99999973, 4189.10256397,8.57
4116.92307665, 4125.64102537, 4124.61538434, 4275.38461546, 4134.61538434, 4191.66666653, 4177.17948704, 4184.48717935, 4195.64102551, 4129.61538434, 4123.97435870, 4121.02564075, 4132.30769203, 4183.58974345,8.57
4117.94871767, 4123.46153819, 4123.58974332, 4276.79487187, 4134.35897408, 4195.64102551, 4191.53846140, 4189.87179474, 4201.15384609, 4133.84615357, 4125.51282024, 4120.76923050, 4131.28205101, 4187.30769217,8.57
4124.87179460, 4128.46153819, 4123.97435870, 4294.23076930, 4130.89743562, 4206.66666660, 4217.05128199, 4218.33333327, 4242.43589744, 4132.30769203, 4129.61538434, 4122.56410229, 4133.71794844, 4191.15384602,8.57
4118.46153819, 4124.87179460, 4118.07692280, 4288.71794879, 4131.41025614, 4203.07692301, 4209.99999993, 4220.64102558, 4249.74358975, 4129.61538434, 4121.15384588, 4109.35897408, 4126.41025614, 4180.64102551,8.57
4122.94871767, 4127.43589716, 4124.87179460, 4272.82051289, 4133.97435870, 4199.61538448, 4199.23076910, 4213.71794865, 4242.94871795, 4129.48717921, 4122.30769203, 4120.38461511, 4129.35897408, 4186.15384602,8.57
4122.82051255, 4124.99999973, 4121.92307665, 4268.46153853, 4131.79487152, 4204.35897429, 4203.84615378, 4217.56410250, 4242.82051282, 4127.69230742, 4124.10256383, 4120.38461511, 4130.38461511, 4184.74358961,8.57
4124.99999973, 4122.05128178, 4122.17948691, 4263.20512821, 4132.82051255, 4198.07692294, 4196.79487166, 4222.05128199, 4238.71794872, 4127.82051255, 4125.76923050, 4119.10256383, 4128.20512793, 4182.17948704,8.57
4130.51282024, 4128.97435870, 4127.82051255, 4255.76923077, 4138.20512800, 4183.84615371, 4179.23076910, 4214.87179481, 4241.15384616, 4130.76923050, 4125.38461511, 4128.20512793, 4129.99999973, 4186.66666653,8.57
4122.69230742, 4125.89743562, 4122.82051255, 4257.94871795, 4135.89743569, 4186.92307679, 4180.51282038, 4201.02564096, 4241.41025641, 4129.74358947, 4117.69230742, 4117.30769203, 4126.41025614, 4179.99999986,8.57
4126.28205101, 4125.12820485, 4129.87179460, 4271.53846161, 4132.30769203, 4207.17948711, 4201.66666660, 4202.17948711, 4229.74358968, 4127.69230742, 4125.51282024, 4128.20512793, 4130.12820485, 4183.71794858,8.57
4122.30769203, 4125.51282024, 4125.12820485, 4278.20512828, 4133.33333306, 4218.33333327, 4213.33333327, 4218.07692301, 4231.02564096, 4128.07692280, 4126.53846126, 4128.71794844, 4130.25640998, 4184.61538448,8.57
4120.76923050, 4124.99999973, 4121.53846126, 4262.82051282, 4132.82051255, 4197.43589730, 4193.33333320, 4201.92307686, 4221.79487173, 4127.94871767, 4120.51282024, 4118.46153819, 4129.48717921, 4185.51282038,8.57
4132.30769203, 4127.82051255, 4131.92307665, 4250.25641026, 4130.89743562, 4172.56410243, 4172.30769217, 4168.97435884, 4194.48717935, 4129.87179460, 4126.41025614, 4130.12820485, 4133.84615357, 4191.02564089,8.57
4124.23076896, 4122.69230742, 4125.12820485, 4258.20512821, 4130.12820485, 4181.53846140, 4178.97435884, 4171.02564089, 4203.46153840, 4129.48717921, 4126.53846126, 4124.10256383, 4131.41025614, 4185.38461525,8.57
4123.97435870, 4126.92307665, 4125.64102537, 4259.48717949, 4131.92307665, 4194.48717935, 4182.17948704, 4181.92307679, 4222.30769224, 4127.82051255, 4127.30769203, 4127.82051255, 4135.25640998, 4191.28205115,8.57
4125.89743562, 4127.94871767, 4124.74358947, 4251.79487180, 4130.25640998, 4182.43589730, 4170.51282038, 4178.71794858, 4209.35897429, 4129.74358947, 4124.10256383, 4126.79487152, 4132.05128178, 4190.25641012,8.57
4121.79487152, 4120.12820485, 4120.51282024, 4254.10256411, 4128.33333306, 4172.30769217, 4172.05128192, 4192.56410243, 4211.41025634, 4130.38461511, 4121.53846126, 4119.99999973, 4127.43589716, 4186.66666653,8.57
4128.46153819, 4124.35897408, 4127.30769203, 4253.58974359, 4132.69230742, 4177.43589730, 4180.51282038, 4207.69230763, 4227.17948711, 4128.33333306, 4128.07692280, 4134.10256383, 4134.99999973, 4196.28205115,8.57
4120.76923050, 4124.23076896, 4119.87179460, 4242.05128206, 4133.58974332, 4177.94871781, 4177.94871781, 4197.56410243, 4224.48717942, 4128.71794844, 4124.99999973, 4125.51282024, 4131.92307665, 4192.69230756,8.57
4122.30769203, 4123.58974332, 4122.56410229, 4239.87179488, 4132.30769203, 4178.97435884, 4178.33333320, 4194.87179474, 4229.87179481, 4129.87179460, 4124.99999973, 4125.76923050, 4129.99999973, 4194.23076910,8.57
4126.92307665, 4124.10256383, 4126.66666639, 4247.69230770, 4132.69230742, 4183.97435884, 4181.92307679, 4198.58974345, 4232.69230763, 4127.56410229, 4125.64102537, 4128.07692280, 4129.74358947, 4195.12820499,8.57
4117.05128178, 4120.89743562, 4116.79487152, 4255.25641026, 4131.15384588, 4186.15384602, 4178.58974345, 4179.23076910, 4208.07692301, 4129.48717921, 4120.12820485, 4118.84615357, 4128.84615357, 4192.30769217,8.57
4122.43589716, 4125.51282024, 4122.82051255, 4266.15384616, 4132.17948691, 4190.12820499, 4183.46153833, 4170.12820499, 4199.35897422, 4135.25640998, 4122.56410229, 4129.48717921, 4134.48717921, 4196.79487166,8.57
4125.12820485, 4124.35897408, 4123.33333306, 4264.35897436, 4133.07692280, 4184.48717935, 4183.97435884, 4178.33333320, 4215.12820506, 4133.33333306, 4123.46153819, 4122.05128178, 4131.92307665, 4189.87179474,8.57
4124.10256383, 4126.66666639, 4121.15384588, 4250.38461539, 4131.66666639, 4171.02564089, 4168.33333320, 4170.64102551, 4215.25641019, 4129.74358947, 4128.46153819, 4122.43589716, 4132.43589716, 4190.51282038,8.57
4121.41025614, 4128.97435870, 4120.76923050, 4248.46153847, 4131.02564075, 4170.64102551, 4161.41025621, 4157.82051262, 4200.38461525, 4131.28205101, 4127.94871767, 4125.76923050, 4132.94871767, 4189.10256397,8.57
4114.74358947, 4120.51282024, 4116.28205101, 4253.46153847, 4132.30769203, 4172.43589730, 4164.99999980, 4162.94871774, 4195.76923063, 4131.28205101, 4117.94871767, 4110.51282024, 4126.41025614, 4181.15384602,8.57
4122.43589716, 4123.97435870, 4124.10256383, 4252.05128206, 4133.46153819, 4167.43589723, 4166.53846133, 4181.28205115, 4204.99999993, 4131.02564075, 4123.71794844, 4121.92307665, 4128.46153819, 4187.94871781,8.57
4118.33333306, 4125.25640998, 4123.07692280, 4251.02564103, 4133.07692280, 4173.46153833, 4174.23076910, 4198.33333320, 4219.61538455, 4132.56410229, 4125.89743562, 4120.89743562, 4129.48717921, 4184.74358961,8.57
4119.23076896, 4122.30769203, 4124.23076896, 4242.43589744, 4135.38461518, 4173.20512807, 4170.89743576, 4186.15384602, 4213.33333327, 4131.41025614, 4124.10256383, 4116.28205101, 4129.99999973, 4183.84615371,8.57
4124.10256383, 4126.92307665, 4127.05128178, 4230.51282045, 4136.66666646, 4163.07692287, 4161.28205108, 4165.38461518, 4201.92307686, 4128.97435870, 4124.99999973, 4121.66666639, 4128.58974332, 4185.64102551,8.57
4113.20512793, 4122.30769203, 4118.71794844, 4240.89743590, 4132.69230742, 4176.53846140, 4177.17948704, 4175.12820499, 4208.71794865, 4130.38461511, 4119.61538434, 4109.23076896, 4123.20512793, 4179.99999986,8.57
4120.64102537, 4122.69230742, 4126.53846126, 4247.05128206, 4129.74358947, 4182.30769217, 4181.53846140, 4177.05128192, 4202.30769224, 4130.51282024, 4124.87179460, 4116.79487152, 4130.12820485, 4185.12820499,8.57
4123.58974332, 4125.89743562, 4126.92307665, 4228.46153840, 4131.92307665, 4158.07692287, 4157.56410236, 4155.64102544, 4193.46153833, 4126.02564075, 4124.87179460, 4118.58974332, 4129.10256383, 4180.25641012,8.57
4120.12820485, 4123.71794844, 4124.35897408, 4231.79487173, 4134.35897408, 4158.84615364, 4159.48717928, 4158.46153826, 4206.15384609, 4126.53846126, 4119.87179460, 4116.02564075, 4125.89743562, 4179.10256397,8.57
4123.07692280, 4123.46153819, 4130.25640998, 4258.46153847, 4134.35897408, 4187.69230756, 4183.71794858, 4182.17948704, 4216.02564096, 4131.41025614, 4123.33333306, 4125.89743562, 4131.79487152, 4184.48717935,8.57
4118.33333306, 4120.38461511, 4122.30769203, 4251.15384616, 4134.61538434, 4184.23076910, 4182.30769217, 4189.23076910, 4208.84615378, 4130.12820485, 4121.02564075, 4115.89743562, 4128.07692280, 4179.48717935,8.57
4128.71794844, 4127.43589716, 4126.92307665, 4217.82051275, 4135.51282031, 4149.61538441, 4154.35897415, 4166.15384595, 4187.43589730, 4128.20512793, 4126.28205101, 4122.05128178, 4130.51282024, 4189.61538448,8.57
4127.94871767, 4127.17948691, 4127.30769203, 4215.89743583, 4134.61538434, 4142.30769210, 4141.92307672, 4149.99999980, 4168.58974345, 4128.97435870, 4129.10256383, 4123.46153819, 4131.02564075, 4189.48717935,8.57
4120.51282024, 4119.87179460, 4120.12820485, 4233.07692301, 4132.69230742, 4161.79487159, 4158.20512800, 4171.15384602, 4178.07692294, 4129.23076896, 4124.35897408, 4118.33333306, 4125.89743562, 4183.46153833,8.57
4130.12820485, 4126.79487152, 4126.41025614, 4240.38461539, 4133.58974332, 4181.79487166, 4182.69230756, 4194.35897422, 4207.82051275, 4131.15384588, 4127.17948691, 4135.12820485, 4131.28205101, 4193.71794858,8.57
4124.61538434, 4123.71794844, 4122.82051255, 4247.17948718, 4133.07692280, 4190.12820499, 4193.84615371, 4186.79487166, 4209.61538455, 4130.38461511, 4123.58974332, 4127.30769203, 4129.48717921, 4187.43589730,8.57
4124.35897408, 4121.66666639, 4125.25640998, 4233.07692301, 4131.92307665, 4168.33333320, 4178.71794858, 4167.69230749, 4182.69230756, 4128.71794844, 4127.43589716, 4128.07692280, 4132.05128178, 4186.15384602,8.57
4125.51282024, 4124.99999973, 4125.12820485, 4208.58974352, 4132.43589716, 4149.35897415, 4163.07692287, 4165.38461518, 4180.38461525, 4130.51282024, 4130.89743562, 4131.15384588, 4136.15384595, 4190.38461525,8.57
4121.28205101, 4122.17948691, 4119.74358947, 4214.74358968, 4132.05128178, 4158.46153826, 4163.58974339, 4165.51282031, 4192.17948704, 4130.89743562, 4123.84615357, 4121.92307665, 4130.76923050, 4187.82051269,8.57
4132.56410229, 4123.20512793, 4128.71794844, 4233.71794865, 4133.33333306, 4161.28205108, 4164.48717928, 4168.71794858, 4194.87179474, 4129.10256383, 4128.20512793, 4135.76923056, 4133.46153819, 4193.58974345,8.57
4127.17948691, 4121.53846126, 4123.71794844, 4243.46153847, 4134.61538434, 4169.35897422, 4180.51282038, 4198.84615371, 4219.23076917, 4129.23076896, 4127.94871767, 4126.41025614, 4131.66666639, 4191.15384602,8.57
4122.94871767, 4124.99999973, 4122.82051255, 4246.66666667, 4133.71794844, 4189.61538448, 4195.64102551, 4218.46153840, 4237.56410257, 4129.61538434, 4126.53846126, 4124.74358947, 4132.17948691, 4194.10256397,8.57
4126.02564075, 4125.38461511, 4125.76923050, 4233.07692301, 4131.15384588, 4181.02564089, 4179.87179474, 4192.82051269, 4203.71794865, 4129.74358947, 4124.74358947, 4135.12820485, 4135.64102544, 4193.71794858,8.57
4119.87179460, 4118.71794844, 4120.12820485, 4219.35897429, 4131.02564075, 4165.12820492, 4165.51282031, 4172.30769217, 4180.12820499, 4130.12820485, 4119.23076896, 4123.58974332, 4130.76923050, 4186.15384602,8.57
4123.33333306, 4123.33333306, 4124.74358947, 4222.69230763, 4134.10256383, 4170.89743576, 4169.61538448, 4179.87179474, 4196.53846140, 4128.46153819, 4124.87179460, 4129.23076896, 4131.28205101, 4194.87179474,8.57
4118.33333306, 4122.82051255, 4119.99999973, 4221.28205122, 4134.48717921, 4174.23076910, 4169.23076910, 4177.05128192, 4196.66666653, 4127.69230742, 4123.58974332, 4123.46153819, 4128.97435870, 4191.41025628,8.57
4119.74358947, 4121.66666639, 4121.02564075, 4219.74358968, 4135.25640998, 4174.23076910, 4168.33333320, 4167.82051262, 4187.69230756, 4128.46153819, 4124.10256383, 4121.41025614, 4129.61538434, 4187.94871781,8.57
4123.58974332, 4123.97435870, 4123.97435870, 4228.33333327, 4135.76923056, 4183.71794858, 4176.53846140, 4172.05128192, 4193.46153833, 4128.71794844, 4128.33333306, 4127.94871767, 4131.66666639, 4190.51282038,8.57
4112.30769203, 4119.61538434, 4116.41025614, 4224.61538455, 4132.56410229, 4182.94871781, 4178.71794858, 4177.17948704, 4194.10256397, 4128.58974332, 4120.25640998, 4112.43589716, 4125.89743562, 4184.35897422,8.57
4120.38461511, 4123.97435870, 4123.46153819, 4214.99999993, 4131.79487152, 4164.61538441, 4169.61538448, 4173.20512807, 4189.87179474, 4129.61538434, 4123.84615357, 4122.56410229, 4130.64102537, 4188.58974345,8.57
4122.43589716, 4123.07692280, 4120.51282024, 4223.07692301, 4133.58974332, 4163.07692287, 4165.25641005, 4174.10256397, 4195.64102551, 4129.23076896, 4125.64102537, 4123.46153819, 4129.10256383, 4185.38461525,8.57
4117.56410229, 4120.89743562, 4119.48717921, 4237.17948718, 4135.51282031, 4177.69230756, 4172.30769217, 4186.79487166, 4208.71794865, 4127.69230742, 4119.35897408, 4115.25640998, 4125.38461511, 4184.10256397,8.57
4123.58974332, 4126.41025614, 4130.89743562, 4234.35897436, 4136.79487159, 4176.02564089, 4178.33333320, 4196.79487166, 4215.51282045, 4127.69230742, 4123.46153819, 4125.12820485, 4130.89743562, 4189.87179474,8.57
4117.43589716, 4121.53846126, 4125.76923050, 4224.10256404, 4132.56410229, 4167.05128185, 4174.23076910, 4195.89743576, 4206.41025634, 4126.53846126, 4123.33333306, 4114.61538434, 4127.30769203, 4180.89743576,8.57
4122.05128178, 4123.84615357, 4127.30769203, 4226.53846147, 4130.51282024, 4171.92307679, 4170.64102551, 4187.43589730, 4195.12820499, 4128.97435870, 4124.48717921, 4119.74358947, 4129.48717921, 4184.23076910,8.57
4122.30769203, 4125.64102537, 4124.87179460, 4228.33333327, 4133.84615357, 4171.41025628, 4167.43589723, 4164.87179467, 4181.92307679, 4131.53846126, 4123.07692280, 4122.17948691, 4130.89743562, 4185.64102551,8.57
4116.53846126, 4122.56410229, 4120.38461511, 4215.12820506, 4134.35897408, 4155.12820492, 4155.12820492, 4144.74358954, 4165.12820492, 4130.76923050, 4121.15384588, 4113.20512793, 4124.48717921, 4181.41025628,8.57
4127.30769203, 4131.79487152, 4130.51282024, 4205.25641019, 4131.53846126, 4154.10256390, 4150.64102544, 4153.46153826, 4172.05128192, 4129.23076896, 4128.33333306, 4128.97435870, 4128.58974332, 4186.28205115,8.57
4125.89743562, 4128.33333306, 4125.38461511, 4204.74358968, 4131.53846126, 4165.64102544, 4159.10256390, 4170.64102551, 4196.02564089, 4128.20512793, 4125.51282024, 4124.74358947, 4130.64102537, 4181.41025628,8.57
4126.41025614, 4123.46153819, 4126.92307665, 4196.92307679, 4135.64102544, 4156.53846133, 4155.38461518, 4168.20512807, 4193.33333320, 4128.97435870, 4125.64102537, 4123.84615357, 4132.17948691, 4184.10256397,8.57
4125.89743562, 4128.97435870, 4132.30769203, 4196.28205115, 4134.87179460, 4153.46153826, 4155.64102544, 4174.74358961, 4191.53846140, 4127.30769203, 4126.53846126, 4128.84615357, 4130.89743562, 4186.02564089,8.57
4119.10256383, 4124.99999973, 4124.48717921, 4218.58974352, 4130.51282024, 4183.33333320, 4178.58974345, 4196.15384602, 4216.53846147, 4126.15384588, 4121.92307665, 4122.30769203, 4128.46153819, 4182.94871781,8.57
4126.53846126, 4125.51282024, 4126.66666639, 4221.28205122, 4131.79487152, 4190.76923063, 4179.87179474, 4182.30769217, 4207.56410250, 4128.97435870, 4127.43589716, 4131.53846126, 4134.35897408, 4191.92307679,8.57
4123.33333306, 4127.05128178, 4123.20512793, 4196.28205115, 4132.56410229, 4161.15384595, 4153.58974339, 4152.69230749, 4171.41025628, 4128.07692280, 4127.17948691, 4124.35897408, 4128.20512793, 4187.69230756,8.57
4124.35897408, 4126.15384588, 4126.28205101, 4194.61538448, 4130.64102537, 4151.41025621, 4149.10256390, 4158.58974339, 4170.25641012, 4125.12820485, 4127.30769203, 4126.92307665, 4126.15384588, 4187.30769217,8.57
4130.51282024, 4125.64102537, 4129.61538434, 4204.35897429, 4131.53846126, 4158.20512800, 4155.38461518, 4163.33333313, 4180.25641012, 4126.79487152, 4130.64102537, 4136.41025621, 4133.58974332, 4191.53846140,8.57
4120.64102537, 4121.15384588, 4117.69230742, 4193.84615371, 4130.76923050, 4153.58974339, 4146.66666646, 4147.69230749, 4173.84615371, 4128.71794844, 4126.15384588, 4122.82051255, 4131.79487152, 4185.51282038,8.57
4123.46153819, 4124.35897408, 4122.82051255, 4193.71794858, 4131.15384588, 4156.15384595, 4152.17948697, 4158.20512800, 4180.38461525, 4129.48717921, 4128.58974332, 4132.30769203, 4134.23076896, 4191.28205115,8.57
4122.43589716, 4123.46153819, 4125.12820485, 4206.41025634, 4133.20512793, 4162.30769210, 4164.74358954, 4174.23076910, 4186.79487166, 4129.35897408, 4125.12820485, 4129.10256383, 4132.94871767, 4190.38461525,8.57
4121.28205101, 4122.69230742, 4121.28205101, 4196.92307679, 4133.33333306, 4146.15384595, 4148.71794851, 4155.12820492, 4176.53846140, 4127.17948691, 4122.30769203, 4121.66666639, 4131.92307665, 4191.53846140,8.57
4126.92307665, 4126.53846126, 4121.79487152, 4177.56410243, 4131.79487152, 4133.07692280, 4128.58974332, 4139.99999980, 4167.30769210, 4128.71794844, 4126.79487152, 4132.69230742, 4134.87179460, 4197.30769217,8.57
4116.41025614, 4118.46153819, 4115.51282024, 4180.76923063, 4130.76923050, 4143.07692287, 4133.20512793, 4145.25641005, 4160.76923056, 4131.28205101, 4121.02564075, 4118.07692280, 4128.97435870, 4188.33333320,8.57
4118.97435870, 4119.74358947, 4122.69230742, 4205.12820506, 4132.56410229, 4162.05128185, 4154.99999980, 4160.64102544, 4175.38461525, 4128.33333306, 4123.33333306, 4120.51282024, 4133.07692280, 4194.23076910,8.57
4122.82051255, 4124.23076896, 4121.53846126, 4218.20512814, 4133.20512793, 4171.92307679, 4174.10256397, 4184.23076910, 4205.89743583, 4125.89743562, 4125.38461511, 4126.15384588, 4134.10256383, 4196.92307679,8.57
4116.66666639, 4121.41025614, 4116.53846126, 4193.33333320, 4132.56410229, 4151.15384595, 4155.76923056, 4169.99999986, 4188.33333320, 4127.69230742, 4121.41025614, 4118.20512793, 4127.05128178, 4189.74358961,8.57
4119.87179460, 4122.94871767, 4125.25640998, 4163.71794851, 4131.92307665, 4124.74358947, 4121.15384588, 4122.17948691, 4138.84615364, 4128.84615357, 4126.41025614, 4124.99999973, 4129.99999973, 4192.05128192,8.57
4116.53846126, 4119.23076896, 4120.89743562, 4172.69230756, 4129.74358947, 4140.89743569, 4134.99999973, 4128.33333306, 4146.79487159, 4127.94871767, 4124.87179460, 4116.28205101, 4129.48717921, 4187.30769217,8.57
4120.64102537, 4121.53846126, 4120.89743562, 4188.20512807, 4132.43589716, 4158.71794851, 4154.35897415, 4155.38461518, 4172.30769217, 4127.82051255, 4124.35897408, 4118.20512793, 4129.87179460, 4184.61538448,8.57
4121.79487152, 4125.12820485, 4122.82051255, 4181.02564089, 4135.76923056, 4139.23076903, 4130.38461511, 4138.33333313, 4156.79487159, 4129.35897408, 4122.56410229, 4119.87179460, 4127.69230742, 4180.76923063,8.57
4117.43589716, 4121.92307665, 4119.99999973, 4174.61538448, 4132.94871767, 4133.71794844, 4125.38461511, 4137.82051262, 4151.53846133, 4130.76923050, 4118.71794844, 4111.15384588, 4123.58974332, 4181.28205115,8.57
4125.76923050, 4124.48717921, 4124.99999973, 4175.38461525, 4131.66666639, 4149.10256390, 4150.38461518, 4171.66666653, 4169.35897422, 4130.76923050, 4127.05128178, 4125.38461511, 4127.94871767, 4189.74358961,8.57
4119.74358947, 4123.07692280, 4120.51282024, 4174.23076910, 4133.58974332, 4147.56410236, 4153.33333313, 4178.71794858, 4171.41025628, 4129.23076896, 4125.12820485, 4120.12820485, 4125.12820485, 4180.25641012,8.57
4119.99999973, 4124.74358947, 4127.56410229, 4178.97435884, 4134.87179460, 4144.87179467, 4143.58974339, 4156.15384595, 4159.74358954, 4130.51282024, 4122.30769203, 4118.46153819, 4128.07692280, 4182.30769217,8.57
4126.66666639, 4125.76923050, 4130.12820485, 4187.17948704, 4134.35897408, 4155.38461518, 4148.58974339, 4153.33333313, 4166.79487159, 4130.64102537, 4125.38461511, 4127.17948691, 4131.15384588, 4188.84615371,8.57
4120.89743562, 4119.23076896, 4117.17948691, 4183.58974345, 4131.41025614, 4148.71794851, 4150.38461518, 4166.79487159, 4176.66666653, 4128.46153819, 4122.69230742, 4119.61538434, 4123.07692280, 4180.12820499,8.57
4125.64102537, 4125.12820485, 4127.17948691, 4170.12820499, 4130.12820485, 4126.53846126, 4137.94871774, 4160.64102544, 4163.84615364, 4130.76923050, 4125.89743562, 4126.66666639, 4128.07692280, 4187.30769217,8.57
4122.30769203, 4127.56410229, 4131.53846126, 4165.89743569, 4130.51282024, 4130.25640998, 4137.69230749, 4148.46153826, 4147.17948697, 4131.41025614, 4125.51282024, 4119.99999973, 4129.87179460, 4190.12820499,8.57
4123.46153819, 4126.02564075, 4127.82051255, 4167.17948697, 4130.38461511, 4141.53846133, 4139.10256390, 4147.43589723, 4146.66666646, 4128.33333306, 4125.76923050, 4120.89743562, 4125.89743562, 4187.43589730,8.57
4129.74358947, 4128.58974332, 4129.23076896, 4163.97435877, 4130.64102537, 4134.99999973, 4131.92307665, 4152.82051262, 4159.10256390, 4128.58974332, 4128.58974332, 4131.02564075, 4129.99999973, 4188.07692294,8.57
4121.15384588, 4125.64102537, 4126.28205101, 4169.74358961, 4132.30769203, 4146.66666646, 4147.17948697, 4167.30769210, 4171.79487166, 4129.87179460, 4123.58974332, 4120.89743562, 4128.20512793, 4184.48717935,8.57
4127.82051255, 4129.99999973, 4133.07692280, 4175.12820499, 4134.87179460, 4164.23076903, 4160.38461518, 4169.74358961, 4169.61538448, 4129.35897408, 4127.30769203, 4131.15384588, 4129.74358947, 4191.15384602,8.57
4128.97435870, 4127.82051255, 4128.07692280, 4157.43589723, 4135.64102544, 4143.20512800, 4133.46153819, 4139.99999980, 4146.02564082, 4128.33333306, 4125.89743562, 4127.30769203, 4131.02564075, 4185.64102551,8.57
4123.46153819, 4123.46153819, 4124.10256383, 4145.25641005, 4133.07692280, 4118.46153819, 4112.56410229, 4122.94871767, 4131.79487152, 4128.84615357, 4121.53846126, 4121.41025614, 4131.79487152, 4184.23076910,8.57
4126.66666639, 4129.10256383, 4128.71794844, 4170.25641012, 4130.38461511, 4142.30769210, 4142.56410236, 4149.35897415, 4155.64102544, 4131.02564075, 4126.28205101, 4134.87179460, 4135.12820485, 4194.99999986,8.57
4121.02564075, 4123.71794844, 4120.51282024, 4185.76923063, 4129.23076896, 4163.71794851, 4169.10256397, 4176.41025628, 4181.79487166, 4129.74358947, 4123.33333306, 4122.56410229, 4130.89743562, 4190.64102551,8.57
4123.07692280, 4125.25640998, 4123.84615357, 4157.94871774, 4130.51282024, 4140.25641005, 4149.87179467, 4162.69230749, 4166.28205108, 4126.79487152, 4126.15384588, 4126.53846126, 4132.17948691, 4190.89743576,8.57
4120.12820485, 4126.53846126, 4124.10256383, 4137.17948697, 4130.12820485, 4124.61538434, 4129.35897408, 4136.02564082, 4140.64102544, 4128.07692280, 4126.66666639, 4132.56410229, 4132.94871767, 4190.12820499,8.57
4117.69230742, 4118.58974332, 4119.10256383, 4138.33333313, 4129.10256383, 4123.58974332, 4119.10256383, 4120.51282024, 4127.17948691, 4129.61538434, 4121.66666639, 4126.66666639, 4133.20512793, 4190.51282038,8.57
4127.56410229, 4122.56410229, 4124.23076896, 4138.46153826, 4131.66666639, 4118.33333306, 4114.23076896, 4122.69230742, 4126.92307665, 4128.97435870, 4126.41025614, 4133.46153819, 4136.15384595, 4194.74358961,8.57
4119.61538434, 4125.25640998, 4117.94871767, 4146.15384595, 4131.41025614, 4130.76923050, 4133.46153819, 4152.82051262, 4160.12820492, 4128.58974332, 4124.74358947, 4121.79487152, 4128.71794844, 4186.53846140,8.57
4117.94871767, 4127.94871767, 4119.74358947, 4156.92307672, 4130.38461511, 4143.71794851, 4145.25641005, 4161.66666646, 4176.53846140, 4128.58974332, 4123.58974332, 4122.94871767, 4131.92307665, 4191.66666653,8.57
4118.58974332, 4126.15384588, 4120.25640998, 4157.05128185, 4132.30769203, 4136.02564082, 4131.02564075, 4139.10256390, 4149.87179467, 4127.82051255, 4124.23076896, 4127.05128178, 4133.33333306, 4193.71794858,8.57
4112.94871767, 4120.38461511, 4116.92307665, 4150.51282031, 4132.05128178, 4127.05128178, 4123.46153819, 4136.15384595, 4134.48717921, 4129.61538434, 4124.23076896, 4117.69230742, 4126.53846126, 4185.51282038,8.57
4121.92307665, 4125.89743562, 4126.28205101, 4139.10256390, 4133.07692280, 4115.51282024, 4121.53846126, 4141.41025621, 4138.46153826, 4132.30769203, 4128.07692280, 4125.89743562, 4132.30769203, 4190.38461525,8.57
4119.61538434, 4124.48717921, 4119.99999973, 4129.87179460, 4134.48717921, 4107.05128178, 4113.58974332, 4130.89743562, 4136.41025621, 4131.66666639, 4121.92307665, 4119.35897408, 4131.02564075, 4187.30769217,8.57
4117.94871767, 4122.30769203, 4119.61538434, 4129.10256383, 4132.82051255, 4117.17948691, 4112.82051255, 4120.25640998, 4126.28205101, 4130.64102537, 4122.94871767, 4121.53846126, 4128.71794844, 4188.20512807,8.57
4118.58974332, 4124.74358947, 4122.94871767, 4132.82051255, 4130.38461511, 4128.97435870, 4125.38461511, 4126.92307665, 4123.33333306, 4130.12820485, 4125.25640998, 4124.99999973, 4128.71794844, 4187.82051269,8.57
4113.71794844, 4123.84615357, 4116.28205101, 4136.66666646, 4129.74358947, 4125.12820485, 4127.82051255, 4134.35897408, 4129.87179460, 4128.07692280, 4118.46153819, 4111.02564075, 4125.12820485, 4177.94871781,8.57
4124.10256383, 4128.46153819, 4124.48717921, 4134.23076896, 4130.51282024, 4119.35897408, 4115.64102537, 4126.66666639, 4128.20512793, 4128.07692280, 4122.43589716, 4122.43589716, 4129.61538434, 4184.61538448,8.57
4121.41025614, 4126.79487152, 4126.02564075, 4129.99999973, 4130.76923050, 4122.43589716, 4115.76923050, 4120.51282024, 4126.28205101, 4128.97435870, 4122.43589716, 4120.64102537, 4126.92307665, 4185.64102551,8.57
4119.23076896, 4125.51282024, 4125.89743562, 4135.12820485, 4131.79487152, 4131.28205101, 4131.02564075, 4133.71794844, 4143.71794851, 4129.35897408, 4123.46153819, 4120.12820485, 4126.66666639, 4183.97435884,8.57
4126.02564075, 4126.92307665, 4127.43589716, 4133.20512793, 4133.46153819, 4134.61538434, 4133.71794844, 4142.94871774, 4144.74358954, 4130.12820485, 4126.53846126, 4129.61538434, 4131.02564075, 4183.71794858,8.57
4119.74358947, 4121.02564075, 4121.28205101, 4130.25640998, 4133.46153819, 4133.20512793, 4127.43589716, 4136.02564082, 4134.74358947, 4127.94871767, 4120.12820485, 4117.17948691, 4124.48717921, 4179.99999986,8.57
4122.69230742, 4126.53846126, 4128.20512793, 4143.71794851, 4133.46153819, 4134.99999973, 4132.94871767, 4139.48717928, 4151.41025621, 4126.92307665, 4125.38461511, 4126.41025614, 4127.17948691, 4189.99999986,8.57
4120.51282024, 4127.30769203, 4123.33333306, 4147.82051262, 4130.38461511, 4124.35897408, 4132.94871767, 4144.87179467, 4151.02564082, 4128.46153819, 4127.05128178, 4128.46153819, 4130.12820485, 4187.69230756,8.57
4120.12820485, 4123.84615357, 4120.25640998, 4129.48717921, 4129.48717921, 4102.05128171, 4114.74358947, 4128.46153819, 4119.10256383, 4127.82051255, 4123.71794844, 4121.28205101, 4127.94871767, 4184.35897422,8.57
4127.69230742, 4128.97435870, 4129.23076896, 4119.74358947, 4132.94871767, 4102.82051255, 4108.58974332, 4117.17948691, 4113.97435870, 4127.17948691, 4127.94871767, 4128.46153819, 4130.89743562, 4190.64102551,8.57
4120.12820485, 4125.64102537, 4122.69230742, 4136.66666646, 4131.66666639, 4125.51282024, 4128.20512793, 4129.99999973, 4132.69230742, 4129.23076896, 4124.48717921, 4123.71794844, 4130.12820485, 4186.41025628,8.57
4124.10256383, 4126.66666639, 4125.51282024, 4163.07692287, 4130.76923050, 4132.30769203, 4147.05128185, 4150.38461518, 4151.15384595, 4131.66666639, 4126.28205101, 4134.23076896, 4132.30769203, 4190.38461525,8.57
4125.76923050, 4127.05128178, 4124.87179460, 4166.41025621, 4132.30769203, 4118.33333306, 4139.35897415, 4151.15384595, 4163.58974339, 4129.61538434, 4126.28205101, 4129.74358947, 4128.33333306, 4188.46153833,8.57
4119.99999973, 4124.48717921, 4120.89743562, 4148.07692287, 4129.48717921, 4107.94871767, 4117.56410229, 4119.10256383, 4133.71794844, 4127.17948691, 4126.28205101, 4120.51282024, 4125.25640998, 4186.41025628,8.57
4126.53846126, 4127.94871767, 4129.48717921, 4147.05128185, 4127.17948691, 4112.94871767, 4117.69230742, 4104.74358947, 4103.84615357, 4128.20512793, 4134.48717921, 4136.79487159, 4133.33333306, 4193.58974345,8.57
4121.41025614, 4121.41025614, 4123.33333306, 4155.12820492, 4129.10256383, 4121.02564075, 4133.46153819, 4133.46153819, 4132.56410229, 4129.35897408, 4129.10256383, 4127.82051255, 4132.43589716, 4185.76923063,8.57
4122.05128178, 4121.28205101, 4121.79487152, 4149.61538441, 4132.05128178, 4123.07692280, 4133.33333306, 4146.79487159, 4156.79487159, 4129.23076896, 4126.15384588, 4128.07692280, 4134.10256383, 4188.97435884,8.57
4123.07692280, 4124.99999973, 4122.56410229, 4162.05128185, 4130.64102537, 4138.71794851, 4142.30769210, 4149.35897415, 4159.10256390, 4129.99999973, 4125.64102537, 4134.35897408, 4133.07692280, 4194.35897422,8.57
4119.48717921, 4120.51282024, 4122.43589716, 4170.89743576, 4128.33333306, 4143.71794851, 4155.64102544, 4157.56410236, 4160.89743569, 4131.41025614, 4120.64102537, 4126.41025614, 4127.43589716, 4191.02564089,8.57
4123.97435870, 4121.66666639, 4127.56410229, 4148.46153826, 4131.02564075, 4116.53846126, 4134.74358947, 4137.43589723, 4140.51282031, 4131.02564075, 4124.35897408, 4132.69230742, 4132.30769203, 4194.87179474,8.57
4113.58974332, 4119.87179460, 4116.79487152, 4138.07692287, 4132.17948691, 4100.25640991, 4111.41025614, 4111.92307665, 4119.87179460, 4128.84615357, 4121.41025614, 4121.15384588, 4128.46153819, 4190.76923063,8.57
4114.87179460, 4124.10256383, 4118.46153819, 4146.02564082, 4131.02564075, 4110.12820485, 4119.35897408, 4119.23076896, 4130.76923050, 4129.99999973, 4120.51282024, 4121.92307665, 4128.46153819, 4191.92307679,8.57
4120.89743562, 4124.87179460, 4122.05128178, 4140.12820492, 4131.41025614, 4115.38461511, 4130.25640998, 4132.94871767, 4139.48717928, 4132.94871767, 4124.10256383, 4129.35897408, 4134.74358947, 4188.97435884,8.57
4112.94871767, 4116.15384588, 4114.87179460, 4145.64102544, 4132.05128178, 4119.10256383, 4136.15384595, 4137.69230749, 4135.76923056, 4131.41025614, 4123.20512793, 4115.51282024, 4130.76923050, 4181.28205115,8.57
4118.71794844, 4123.97435870, 4123.71794844, 4168.20512807, 4131.15384588, 4130.12820485, 4138.71794851, 4136.02564082, 4137.69230749, 4128.07692280, 4127.82051255, 4122.43589716, 4129.35897408, 4188.46153833,8.57
4117.94871767, 4125.12820485, 4123.07692280, 4159.61538441, 4130.12820485, 4121.15384588, 4125.76923050, 4120.89743562, 4135.38461518, 4127.17948691, 4122.17948691, 4117.94871767, 4127.43589716, 4184.61538448,8.57
4119.10256383, 4120.89743562, 4121.66666639, 4146.15384595, 4132.56410229, 4113.97435870, 4129.74358947, 4133.07692280, 4147.56410236, 4129.87179460, 4119.74358947, 4117.94871767, 4128.58974332, 4184.23076910,8.57
4123.84615357, 4124.23076896, 4124.23076896, 4154.99999980, 4133.07692280, 4132.56410229, 4153.20512800, 4165.89743569, 4168.84615371, 4130.64102537, 4125.25640998, 4125.51282024, 4126.53846126, 4187.30769217,8.57
4118.84615357, 4123.71794844, 4120.51282024, 4149.99999980, 4129.10256383, 4134.99999973, 4149.10256390, 4157.17948697, 4155.64102544, 4128.58974332, 4119.87179460, 4109.87179460, 4121.41025614, 4179.48717935,8.57
4123.97435870, 4127.17948691, 4129.23076896, 4143.58974339, 4129.48717921, 4116.28205101, 4138.33333313, 4153.97435877, 4150.12820492, 4129.23076896, 4121.92307665, 4118.46153819, 4131.53846126, 4184.99999986,8.57
4117.56410229, 4122.82051255, 4125.12820485, 4153.71794851, 4131.28205101, 4120.38461511, 4151.15384595, 4179.35897422, 4172.05128192, 4129.74358947, 4122.30769203, 4118.20512793, 4128.58974332, 4182.56410243,8.57
4116.79487152, 4121.28205101, 4122.82051255, 4143.46153826, 4131.02564075, 4128.84615357, 4142.30769210, 4147.82051262, 4147.05128185, 4128.07692280, 4121.15384588, 4115.51282024, 4120.38461511, 4180.38461525,8.57
4129.10256383, 4129.35897408, 4132.05128178, 4119.87179460, 4130.64102537, 4110.76923050, 4113.84615357, 4096.02564068, 4100.51282017, 4127.56410229, 4124.35897408, 4127.43589716, 4128.97435870, 4187.43589730,8.57
4119.74358947, 4126.28205101, 4124.74358947, 4133.33333306, 4129.35897408, 4109.99999973, 4125.25640998, 4121.66666639, 4120.64102537, 4127.43589716, 4119.74358947, 4115.76923050, 4128.33333306, 4181.53846140,8.57
4119.87179460, 4126.66666639, 4124.10256383, 4145.76923056, 4129.87179460, 4124.10256383, 4143.71794851, 4151.53846133, 4145.64102544, 4127.17948691, 4125.89743562, 4122.30769203, 4128.33333306, 4186.41025628,8.57
4125.51282024, 4126.66666639, 4123.46153819, 4128.33333306, 4131.53846126, 4120.89743562, 4131.92307665, 4127.82051255, 4124.35897408, 4126.28205101, 4128.84615357, 4126.15384588, 4129.48717921, 4187.43589730,8.57
4124.23076896, 4123.97435870, 4124.48717921, 4132.17948691, 4130.76923050, 4125.76923050, 4135.12820485, 4141.41025621, 4137.94871774, 4125.89743562, 4121.66666639, 4120.12820485, 4129.48717921, 4184.23076910,8.57
4127.82051255, 4129.99999973, 4132.17948691, 4143.07692287, 4129.10256383, 4131.41025614, 4140.51282031, 4162.82051262, 4159.87179467, 4128.33333306, 4126.53846126, 4132.82051255, 4135.76923056, 4191.02564089,8.57
4121.41025614, 4126.79487152, 4121.92307665, 4131.02564075, 4127.94871767, 4121.28205101, 4122.43589716, 4125.51282024, 4130.51282024, 4128.46153819, 4128.33333306, 4126.53846126, 4133.07692280, 4186.15384602,8.57
4124.35897408, 4125.12820485, 4124.61538434, 4127.56410229, 4129.10256383, 4116.53846126, 4121.02564075, 4113.07692280, 4119.23076896, 4126.28205101, 4127.56410229, 4127.69230742, 4133.07692280, 4189.99999986,8.57
4124.35897408, 4126.53846126, 4129.35897408, 4143.97435877, 4130.51282024, 4127.30769203, 4150.76923056, 4157.94871774, 4157.69230749, 4128.20512793, 4126.02564075, 4130.76923050, 4134.35897408, 4192.43589730,8.57
4118.20512793, 4123.58974332, 4122.30769203, 4150.25641005, 4129.23076896, 4135.12820485, 4165.76923056, 4180.76923063, 4178.71794858, 4130.38461511, 4123.33333306, 4124.10256383, 4129.99999973, 4186.79487166,8.57
4128.71794844, 4124.74358947, 4124.87179460, 4133.20512793, 4130.12820485, 4121.41025614, 4140.64102544, 4147.43589723, 4142.05128185, 4128.97435870, 4127.17948691, 4136.66666646, 4133.20512793, 4191.79487166,8.57
4123.33333306, 4121.66666639, 4121.02564075, 4118.20512793, 4130.51282024, 4111.66666639, 4126.66666639, 4127.43589716, 4112.56410229, 4128.84615357, 4121.53846126, 4127.43589716, 4130.38461511, 4191.28205115,8.57
4118.84615357, 4126.28205101, 4124.99999973, 4105.12820485, 4128.46153819, 4106.66666639, 4124.23076896, 4121.79487152, 4110.12820485, 4130.25640998, 4121.66666639, 4124.23076896, 4131.15384588, 4196.02564089,8.57
4123.58974332, 4129.48717921, 4126.41025614, 4103.97435870, 4127.05128178, 4107.30769203, 4117.94871767, 4107.30769203, 4109.87179460, 4130.12820485, 4125.12820485, 4130.89743562, 4133.46153819, 4195.25641012,8.57
4117.69230742, 4117.82051255, 4114.48717921, 4128.20512793, 4127.30769203, 4128.46153819, 4133.84615357, 4123.46153819, 4127.05128178, 4128.84615357, 4118.58974332, 4117.69230742, 4126.15384588, 4187.43589730,8.57
4121.41025614, 4120.76923050, 4120.89743562, 4136.66666646, 4129.99999973, 4132.56410229, 4149.48717928, 4153.84615364, 4155.25641005, 4129.10256383, 4124.74358947, 4128.20512793, 4129.74358947, 4195.76923063,8.57
4119.74358947, 4125.76923050, 4121.53846126, 4118.20512793, 4130.25640998, 4113.71794844, 4141.41025621, 4157.94871774, 4160.76923056, 4127.56410229, 4126.28205101, 4128.20512793, 4132.69230742, 4191.79487166,8.57
4122.56410229, 4123.20512793, 4118.97435870, 4107.05128178, 4129.87179460, 4104.35897408, 4125.51282024, 4129.87179460, 4126.53846126, 4126.28205101, 4122.82051255, 4121.15384588, 4130.12820485, 4188.07692294,8.57
4126.66666639, 4123.20512793, 4123.20512793, 4115.51282024, 4131.28205101, 4110.25640998, 4120.12820485, 4112.43589716, 4105.64102537, 4128.20512793, 4123.97435870, 4126.28205101, 4130.25640998, 4190.89743576,8.57
4114.99999973, 4120.38461511, 4118.58974332, 4127.94871767, 4131.53846126, 4115.51282024, 4122.56410229, 4121.66666639, 4124.48717921, 4128.58974332, 4119.99999973, 4114.99999973, 4126.02564075, 4181.41025628,8.57
4119.74358947, 4124.99999973, 4122.94871767, 4130.12820485, 4130.76923050, 4115.64102537, 4122.56410229, 4127.30769203, 4136.41025621, 4129.74358947, 4122.43589716, 4122.43589716, 4126.41025614, 4184.10256397,8.57
4118.84615357, 4125.64102537, 4121.66666639, 4111.79487152, 4128.97435870, 4101.79487145, 4110.25640998, 4118.46153819, 4121.79487152, 4130.89743562, 4119.74358947, 4122.82051255, 4125.25640998, 4183.20512807,8.57
4114.48717921, 4121.15384588, 4121.02564075, 4098.58974325, 4129.61538434, 4088.46153812, 4105.25640998, 4110.25640998, 4112.94871767, 4130.12820485, 4118.33333306, 4113.84615357, 4127.82051255, 4181.41025628,8.57
4123.84615357, 4123.58974332, 4127.05128178, 4125.64102537, 4133.07692280, 4111.41025614, 4138.58974339, 4132.56410229, 4138.71794851, 4130.64102537, 4124.87179460, 4121.53846126, 4131.92307665, 4188.84615371,8.57
4118.33333306, 4122.30769203, 4119.35897408, 4139.35897415, 4131.28205101, 4121.92307665, 4157.43589723, 4154.10256390, 4155.12820492, 4129.61538434, 4119.10256383, 4114.61538434, 4124.10256383, 4182.94871781,8.57
4117.94871767, 4125.76923050, 4124.74358947, 4112.94871767, 4128.84615357, 4093.97435863, 4131.15384588, 4131.92307665, 4133.07692280, 4130.64102537, 4119.74358947, 4119.35897408, 4127.94871767, 4184.35897422,8.57
4119.35897408, 4124.10256383, 4128.07692280, 4108.71794844, 4130.12820485, 4084.35897402, 4114.74358947, 4107.30769203, 4115.51282024, 4133.46153819, 4124.99999973, 4118.46153819, 4131.02564075, 4183.46153833,8.57
4118.71794844, 4121.92307665, 4124.35897408, 4123.71794844, 4130.51282024, 4096.15384581, 4122.05128178, 4118.20512793, 4119.48717921, 4130.12820485, 4123.97435870, 4113.97435870, 4125.64102537, 4178.20512807,8.57
4126.53846126, 4130.51282024, 4128.58974332, 4114.99999973, 4130.38461511, 4097.43589709, 4129.23076896, 4139.99999980, 4132.69230742, 4125.89743562, 4127.05128178, 4128.71794844, 4129.74358947, 4184.61538448,8.57
4119.87179460, 4124.99999973, 4121.41025614, 4106.92307665, 4128.46153819, 4097.56410222, 4128.33333306, 4129.48717921, 4133.84615357, 4128.84615357, 4124.10256383, 4116.28205101, 4128.20512793, 4181.41025628,8.57
4123.07692280, 4123.58974332, 4125.76923050, 4116.79487152, 4128.97435870, 4101.92307658, 4125.12820485, 4113.71794844, 4128.07692280, 4131.41025614, 4124.35897408, 4118.84615357, 4130.51282024, 4182.82051269,8.57
4127.94871767, 4128.58974332, 4130.64102537, 4108.97435870, 4131.92307665, 4097.30769196, 4123.07692280, 4122.17948691, 4131.02564075, 4129.35897408, 4126.79487152, 4131.15384588, 4132.05128178, 4184.48717935,8.57
4122.30769203, 4122.94871767, 4124.35897408, 4097.82051248, 4130.64102537, 4099.99999966, 4125.89743562, 4122.30769203, 4126.15384588, 4127.69230742, 4124.35897408, 4123.71794844, 4127.82051255, 4182.82051269,8.57
4130.12820485, 4125.25640998, 4131.15384588, 4106.15384588, 4128.84615357, 4106.53846126, 4125.38461511, 4113.58974332, 4113.58974332, 4128.71794844, 4129.10256383, 4133.97435870, 4135.76923056, 4192.30769217,8.57
4126.28205101, 4124.61538434, 4126.15384588, 4104.74358947, 4131.28205101, 4100.25640991, 4118.58974332, 4118.58974332, 4117.30769203, 4129.87179460, 4127.17948691, 4128.46153819, 4136.41025621, 4188.46153833,8.57
4123.20512793, 4124.48717921, 4122.69230742, 4092.56410222, 4130.51282024, 4090.89743555, 4113.97435870, 4124.23076896, 4129.10256383, 4129.74358947, 4129.10256383, 4126.66666639, 4133.71794844, 4188.58974345,8.57
4125.76923050, 4127.69230742, 4125.76923050, 4096.79487145, 4125.89743562, 4092.94871761, 4119.61538434, 4123.58974332, 4126.92307665, 4127.94871767, 4132.94871767, 4131.53846126, 4133.97435870, 4193.33333320,8.57
4117.94871767, 4119.87179460, 4119.87179460, 4104.99999973, 4127.69230742, 4102.05128171, 4133.33333306, 4138.97435877, 4137.17948697, 4126.28205101, 4125.12820485, 4118.97435870, 4130.38461511, 4185.25641012,8.57
4121.79487152, 4119.99999973, 4125.25640998, 4092.43589709, 4132.43589716, 4099.61538427, 4128.07692280, 4136.66666646, 4139.61538441, 4127.82051255, 4127.69230742, 4128.71794844, 4134.99999973, 4187.82051269,8.57
4120.89743562, 4123.07692280, 4123.84615357, 4085.25640991, 4128.71794844, 4099.61538427, 4112.56410229, 4106.66666639, 4107.30769203, 4129.87179460, 4127.17948691, 4126.92307665, 4134.87179460, 4189.35897422,8.57
4121.15384588, 4123.20512793, 4122.94871767, 4097.56410222, 4126.92307665, 4109.99999973, 4118.46153819, 4108.84615357, 4098.71794837, 4129.35897408, 4123.84615357, 4124.87179460, 4134.48717921, 4192.56410243,8.57
4126.02564075, 4124.61538434, 4126.28205101, 4093.84615350, 4129.74358947, 4097.94871761, 4118.71794844, 4122.30769203, 4112.30769203, 4127.69230742, 4125.25640998, 4132.17948691, 4136.28205108, 4194.61538448,8.57
4119.23076896, 4121.15384588, 4117.94871767, 4060.25640984, 4127.05128178, 4048.20512779, 4080.76923043, 4090.25640991, 4091.79487145, 4129.23076896, 4121.41025614, 4117.82051255, 4129.74358947, 4187.94871781,8.57
4122.94871767, 4125.76923050, 4121.53846126, 4023.71794824, 4125.51282024, 4004.99999952, 4032.43589695, 4037.82051241, 4044.99999959, 4132.43589716, 4124.99999973, 4124.87179460, 4131.66666639, 4194.23076910,8.57
4119.48717921, 4124.61538434, 4119.61538434, 4012.69230721, 4127.30769203, 4011.66666618, 4027.30769183, 4026.02564054, 4033.20512772, 4129.35897408, 4122.94871767, 4123.33333306, 4132.56410229, 4191.28205115,8.57
4116.28205101, 4120.25640998, 4119.10256383, 4016.53846106, 4129.23076896, 4029.23076875, 4040.38461497, 4034.35897388, 4042.30769189, 4126.66666639, 4120.12820485, 4113.84615357, 4130.38461511, 4186.79487166,8.57
4124.61538434, 4124.74358947, 4126.02564075, 4005.12820465, 4131.15384588, 4016.66666618, 4027.56410208, 4018.46153798, 4023.71794824, 4129.61538434, 4123.97435870, 4124.48717921, 4132.94871767, 4190.12820499,8.57
4116.53846126, 4122.05128178, 4118.20512793, 3999.10256355, 4129.87179460, 4010.51282003, 4020.89743541, 4018.46153798, 4018.07692259, 4129.48717921, 4119.87179460, 4117.82051255, 4128.46153819, 4184.61538448,8.57
4118.07692280, 4124.23076896, 4122.30769203, 4016.15384567, 4129.74358947, 4026.79487131, 4030.51282003, 4035.38461490, 4030.51282003, 4127.69230742, 4123.71794844, 4123.97435870, 4129.61538434, 4186.41025628,8.57
4121.41025614, 4123.33333306, 4124.10256383, 4032.05128157, 4129.74358947, 4046.28205087, 4048.97435856, 4049.23076882, 4044.23076882, 4128.58974332, 4123.20512793, 4122.82051255, 4129.74358947, 4181.41025628,8.57
4118.97435870, 4119.99999973, 4118.46153819, 4044.48717907, 4128.46153819, 4068.97435856, 4091.02564068, 4102.56410229, 4089.23076889, 4128.58974332, 4116.92307665, 4112.82051255, 4127.69230742, 4179.35897422,8.57
4125.38461511, 4126.92307665, 4124.48717921, 4058.58974318, 4131.66666639, 4082.94871761, 4118.07692280, 4151.53846133, 4123.97435870, 4128.97435870, 4123.97435870, 4127.43589716, 4133.58974332, 4189.74358961,8.57
4119.87179460, 4123.58974332, 4121.41025614, 4066.02564061, 4130.64102537, 4088.84615350, 4110.64102537, 4133.20512793, 4108.20512793, 4130.38461511, 4122.30769203, 4118.33333306, 4128.58974332, 4181.41025628,8.57
4121.92307665, 4123.33333306, 4124.74358947, 4063.84615343, 4123.97435870, 4093.84615350, 4103.20512793, 4107.43589716, 4098.33333299, 4130.64102537, 4122.69230742, 4114.87179460, 4127.30769203, 4182.94871781,8.57
4123.07692280, 4127.17948691, 4125.12820485, 4056.53846113, 4125.89743562, 4088.71794837, 4103.20512793, 4113.07692280, 4108.97435870, 4128.84615357, 4126.41025614, 4120.38461511, 4128.84615357, 4187.05128192,8.57
4118.58974332, 4123.84615357, 4121.02564075, 4044.87179446, 4132.30769203, 4068.46153805, 4080.89743555, 4096.66666632, 4086.92307658, 4127.17948691, 4122.43589716, 4116.53846126, 4126.79487152, 4181.28205115,8.57
4126.92307665, 4127.94871767, 4128.07692280, 4041.41025600, 4131.66666639, 4055.25640984, 4064.10256369, 4068.84615343, 4063.33333292, 4127.30769203, 4126.41025614, 4129.23076896, 4133.33333306, 4189.61538448,8.57
4119.48717921, 4128.07692280, 4124.10256383, 4058.46153805, 4127.05128178, 4076.79487145, 4091.02564068, 4095.89743555, 4090.89743555, 4126.53846126, 4128.20512793, 4124.23076896, 4130.38461511, 4187.30769217,8.57
4121.15384588, 4129.48717921, 4129.48717921, 4067.43589702, 4126.41025614, 4094.48717914, 4102.82051255, 4116.79487152, 4101.92307658, 4126.79487152, 4127.94871767, 4126.41025614, 4131.28205101, 4187.05128192,8.57
4128.84615357, 4129.87179460, 4131.28205101, 4063.33333292, 4126.92307665, 4088.20512786, 4091.53846119, 4104.61538434, 4083.97435863, 4129.10256383, 4124.35897408, 4132.30769203, 4135.89743569, 4189.61538448,8.57
4121.66666639, 4122.56410229, 4118.71794844, 4064.35897395, 4125.76923050, 4081.92307658, 4097.94871761, 4111.28205101, 4088.71794837, 4130.38461511, 4123.20512793, 4121.41025614, 4130.38461511, 4186.02564089,8.57
4128.07692280, 4125.25640998, 4124.87179460, 4066.41025600, 4127.43589716, 4081.28205094, 4097.17948684, 4113.71794844, 4101.02564068, 4128.33333306, 4132.56410229, 4132.43589716, 4134.87179460, 4193.07692294,8.57
4125.51282024, 4124.10256383, 4123.71794844, 4079.87179453, 4128.58974332, 4095.51282017, 4097.82051248, 4112.05128178, 4113.71794844, 4124.87179460, 4130.25640998, 4129.10256383, 4135.38461518, 4187.30769217,8.57
4123.46153819, 4123.33333306, 4124.23076896, 4113.20512793, 4127.94871767, 4125.51282024, 4132.69230742, 4142.05128185, 4140.12820492, 4125.25640998, 4128.46153819, 4125.89743562, 4132.82051255, 4186.41025628,8.57
4129.23076896, 4127.05128178, 4129.48717921, 4142.43589723, 4127.43589716, 4145.51282031, 4168.71794858, 4178.71794858, 4167.30769210, 4127.82051255, 4131.66666639, 4134.10256383, 4135.51282031, 4193.20512807,8.57
4121.28205101, 4121.41025614, 4119.61538434, 4134.61538434, 4126.41025614, 4138.33333313, 4159.10256390, 4165.89743569, 4163.46153826, 4127.17948691, 4125.12820485, 4126.28205101, 4132.30769203, 4187.56410243,8.57
4124.61538434, 4123.58974332, 4122.30769203, 4110.76923050, 4127.43589716, 4127.17948691, 4136.66666646, 4139.10256390, 4145.25641005, 4128.46153819, 4127.17948691, 4135.64102544, 4134.10256383, 4190.38461525,8.57
4124.23076896, 4124.87179460, 4124.35897408, 4113.46153819, 4126.92307665, 4138.07692287, 4148.71794851, 4156.15384595, 4159.61538441, 4129.48717921, 4126.02564075, 4129.10256383, 4133.71794844, 4190.25641012,8.57
4119.87179460, 4121.53846126, 4123.71794844, 4132.43589716, 4125.12820485, 4161.15384595, 4171.53846140, 4179.23076910, 4179.87179474, 4128.20512793, 4121.53846126, 4120.38461511, 4133.58974332, 4194.48717935,8.57
4123.97435870, 4123.58974332, 4126.02564075, 4122.30769203, 4124.35897408, 4157.56410236, 4159.35897415, 4162.94871774, 4154.10256390, 4129.48717921, 4126.92307665, 4133.58974332, 4137.30769210, 4199.74358961,8.57
4118.20512793, 4120.76923050, 4117.43589716, 4092.69230735, 4124.23076896, 4128.71794844, 4133.20512793, 4140.51282031, 4125.64102537, 4129.23076896, 4122.43589716, 4120.76923050, 4131.15384588, 4189.74358961,8.57
4120.89743562, 4122.94871767, 4122.69230742, 4097.56410222, 4127.82051255, 4125.89743562, 4139.10256390, 4145.76923056, 4140.38461518, 4126.92307665, 4120.89743562, 4122.82051255, 4129.35897408, 4191.79487166,8.57
4119.35897408, 4121.79487152, 4124.10256383, 4115.25640998, 4128.84615357, 4140.12820492, 4150.76923056, 4145.51282031, 4148.46153826, 4126.15384588, 4124.35897408, 4128.71794844, 4128.71794844, 4189.74358961,8.57
4114.23076896, 4116.53846126, 4117.43589716, 4101.02564068, 4127.30769203, 4129.61538434, 4134.87179460, 4137.94871774, 4138.58974339, 4125.12820485, 4123.58974332, 4116.02564075, 4128.97435870, 4184.48717935,8.57
4122.69230742, 4122.82051255, 4123.97435870, 4092.69230735, 4128.71794844, 4124.48717921, 4130.76923050, 4146.15384595, 4144.74358954, 4126.02564075, 4124.35897408, 4120.76923050, 4135.38461518, 4192.17948704,8.57
4118.58974332, 4122.17948691, 4120.38461511, 4101.02564068, 4127.94871767, 4140.64102544, 4141.41025621, 4143.71794851, 4141.15384595, 4126.79487152, 4118.07692280, 4119.23076896, 4128.84615357, 4188.46153833,8.57
4118.58974332, 4121.41025614, 4120.38461511, 4089.99999966, 4125.89743562, 4129.74358947, 4123.97435870, 4114.61538434, 4108.97435870, 4126.92307665, 4122.82051255, 4125.76923050, 4128.33333306, 4187.43589730,8.57
4121.15384588, 4123.07692280, 4121.53846126, 4093.58974325, 4126.92307665, 4122.69230742, 4125.12820485, 4126.02564075, 4120.76923050, 4127.43589716, 4126.02564075, 4124.35897408, 4132.82051255, 4186.66666653,8.57
4118.58974332, 4121.66666639, 4120.38461511, 4117.69230742, 4128.07692280, 4145.64102544, 4157.17948697, 4165.76923056, 4167.17948697, 4127.82051255, 4119.35897408, 4111.15384588, 4127.94871767, 4181.66666653,8.57
4127.82051255, 4126.15384588, 4132.17948691, 4107.82051255, 4126.53846126, 4139.74358954, 4146.66666646, 4146.92307672, 4151.41025621, 4129.23076896, 4126.28205101, 4126.02564075, 4131.53846126, 4189.99999986,8.57
4121.53846126, 4123.33333306, 4127.30769203, 4099.23076889, 4125.38461511, 4126.66666639, 4134.87179460, 4137.30769210, 4132.69230742, 4129.74358947, 4123.84615357, 4121.28205101, 4131.02564075, 4186.53846140,8.57
4121.28205101, 4123.71794844, 4124.99999973, 4115.12820485, 4128.20512793, 4142.82051262, 4160.25641005, 4174.99999986, 4164.23076903, 4128.07692280, 4120.51282024, 4118.97435870, 4129.23076896, 4182.43589730,8.57
4128.58974332, 4126.66666639, 4128.07692280, 4103.58974332, 4129.74358947, 4140.38461518, 4155.51282031, 4167.56410236, 4164.23076903, 4126.79487152, 4127.82051255, 4123.97435870, 4130.12820485, 4184.87179474,8.57
4121.02564075, 4122.17948691, 4121.02564075, 4093.20512786, 4128.07692280, 4127.94871767, 4141.02564082, 4142.05128185, 4143.07692287, 4128.33333306, 4125.38461511, 4111.66666639, 4126.79487152, 4180.12820499,8.57
4126.92307665, 4128.84615357, 4126.79487152, 4106.41025614, 4128.71794844, 4134.74358947, 4153.97435877, 4154.48717928, 4151.28205108, 4131.28205101, 4126.28205101, 4128.84615357, 4132.56410229, 4185.76923063,8.57
4124.35897408, 4128.71794844, 4123.07692280, 4098.58974325, 4128.20512793, 4136.41025621, 4146.92307672, 4145.76923056, 4147.56410236, 4129.23076896, 4125.89743562, 4128.07692280, 4131.15384588, 4184.48717935,8.57
4120.25640998, 4124.10256383, 4121.79487152, 4093.58974325, 4126.15384588, 4135.12820485, 4137.05128185, 4125.76923050, 4143.07692287, 4127.43589716, 4124.74358947, 4119.10256383, 4129.35897408, 4186.92307679,8.57
4128.20512793, 4129.23076896, 4127.43589716, 4115.38461511, 4127.82051255, 4142.05128185, 4154.99999980, 4144.48717928, 4165.12820492, 4130.25640998, 4127.56410229, 4133.58974332, 4134.10256383, 4193.84615371,8.57
4122.82051255, 4126.41025614, 4119.87179460, 4114.61538434, 4127.69230742, 4133.33333306, 4148.84615364, 4148.46153826, 4153.71794851, 4131.41025614, 4122.05128178, 4126.28205101, 4129.87179460, 4186.53846140,8.57
4123.46153819, 4128.33333306, 4125.25640998, 4109.99999973, 4126.41025614, 4131.28205101, 4138.33333313, 4140.89743569, 4137.94871774, 4129.10256383, 4122.82051255, 4127.82051255, 4133.58974332, 4192.05128192,8.57
4121.28205101, 4126.28205101, 4123.97435870, 4130.38461511, 4126.28205101, 4147.69230749, 4158.97435877, 4158.33333313, 4157.30769210, 4129.48717921, 4123.58974332, 4129.10256383, 4135.64102544, 4192.69230756,8.57
4123.58974332, 4120.38461511, 4119.74358947, 4130.64102537, 4124.99999973, 4143.97435877, 4160.25641005, 4159.99999980, 4154.99999980, 4130.76923050, 4125.38461511, 4129.48717921, 4133.07692280, 4189.87179474,8.57
4132.82051255, 4126.53846126, 4126.15384588, 4105.89743562, 4123.58974332, 4131.28205101, 4145.64102544, 4148.84615364, 4139.10256390, 4128.07692280, 4131.41025614, 4138.97435877, 4136.15384595, 4196.66666653,8.57
4120.76923050, 4124.87179460, 4120.51282024, 4112.05128178, 4122.17948691, 4147.30769210, 4165.64102544, 4171.79487166, 4161.92307672, 4127.17948691, 4123.71794844, 4121.79487152, 4132.56410229, 4191.53846140,8.57
4121.02564075, 4125.38461511, 4124.23076896, 4141.79487159, 4123.97435870, 4167.69230749, 4184.23076910, 4192.30769217, 4190.12820499, 4132.43589716, 4124.74358947, 4124.61538434, 4134.10256383, 4193.07692294,8.57
4126.92307665, 4125.12820485, 4123.58974332, 4137.94871774, 4126.66666639, 4153.20512800, 4155.12820492, 4162.56410236, 4172.94871781, 4133.58974332, 4128.84615357, 4131.41025614, 4134.48717921, 4191.79487166,8.57
4121.79487152, 4119.48717921, 4116.41025614, 4111.53846126, 4127.43589716, 4128.33333306, 4131.79487152, 4141.66666646, 4147.69230749, 4129.74358947, 4124.87179460, 4122.82051255, 4129.10256383, 4187.69230756,8.57
4124.74358947, 4122.05128178, 4123.20512793, 4105.12820485, 4128.46153819, 4132.69230742, 4146.79487159, 4157.56410236, 4153.84615364, 4128.33333306, 4128.07692280, 4131.53846126, 4133.46153819, 4195.76923063,8.57
4118.07692280, 4120.89743562, 4119.10256383, 4111.15384588, 4127.94871767, 4142.94871774, 4153.46153826, 4157.17948697, 4163.46153826, 4128.58974332, 4124.35897408, 4121.66666639, 4132.94871767, 4191.66666653,8.57
4118.71794844, 4122.82051255, 4120.89743562, 4106.02564075, 4126.41025614, 4130.12820485, 4133.84615357, 4132.94871767, 4137.94871774, 4128.07692280, 4121.66666639, 4120.76923050, 4130.64102537, 4189.10256397,8.57
4122.17948691, 4123.07692280, 4126.92307665, 4087.56410222, 4126.02564075, 4118.20512793, 4119.48717921, 4125.38461511, 4110.89743562, 4128.33333306, 4123.71794844, 4126.28205101, 4130.12820485, 4189.48717935,8.57
4114.48717921, 4115.38461511, 4119.99999973, 4085.51282017, 4125.89743562, 4132.56410229, 4133.84615357, 4140.12820492, 4131.92307665, 4129.35897408, 4122.43589716, 4114.48717921, 4130.25640998, 4186.15384602,8.57
4121.02564075, 4119.99999973, 4122.30769203, 4106.15384588, 4126.28205101, 4149.35897415, 4152.05128185, 4156.92307672, 4165.51282031, 4132.17948691, 4125.76923050, 4125.64102537, 4134.61538434, 4189.48717935,8.57
4122.56410229, 4123.71794844, 4121.79487152, 4109.48717921, 4126.28205101, 4146.15384595, 4146.66666646, 4155.25641005, 4156.79487159, 4131.79487152, 4120.51282024, 4124.23076896, 4125.89743562, 4184.10256397,8.57
4121.41025614, 4123.07692280, 4122.17948691, 4093.46153812, 4125.89743562, 4141.15384595, 4137.17948697, 4143.20512800, 4134.23076896, 4127.56410229, 4120.12820485, 4117.69230742, 4126.66666639, 4184.74358961,8.57
4121.92307665, 4123.20512793, 4121.66666639, 4097.94871761, 4126.79487152, 4149.35897415, 4146.15384595, 4149.74358954, 4145.64102544, 4127.05128178, 4125.38461511, 4120.25640998, 4134.10256383, 4186.41025628,8.57
4115.51282024, 4118.97435870, 4117.82051255, 4098.97435863, 4127.82051255, 4144.99999980, 4143.20512800, 4144.87179467, 4145.12820492, 4129.99999973, 4122.30769203, 4112.17948691, 4126.92307665, 4180.51282038,8.57
4124.35897408, 4125.89743562, 4129.99999973, 4080.38461504, 4127.30769203, 4131.02564075, 4122.94871767, 4121.53846126, 4119.74358947, 4131.28205101, 4126.02564075, 4122.56410229, 4130.64102537, 4188.71794858,8.57
4123.20512793, 4127.82051255, 4125.12820485, 4082.56410222, 4124.99999973, 4131.66666639, 4126.02564075, 4128.58974332, 4124.35897408, 4129.61538434, 4123.46153819, 4119.74358947, 4132.05128178, 4183.97435884,8.57
4120.51282024, 4123.97435870, 4118.97435870, 4098.33333299, 4124.35897408, 4134.74358947, 4135.51282031, 4142.43589723, 4140.64102544, 4127.82051255, 4122.82051255, 4117.17948691, 4128.07692280, 4179.74358961,8.57
4127.56410229, 4127.30769203, 4127.56410229, 4102.43589709, 4127.05128178, 4137.17948697, 4133.07692280, 4142.05128185, 4148.33333313, 4127.69230742, 4128.71794844, 4129.10256383, 4130.51282024, 4188.84615371,8.57
4122.94871767, 4123.84615357, 4125.12820485, 4098.84615350, 4126.92307665, 4142.30769210, 4136.02564082, 4143.97435877, 4152.17948697, 4127.94871767, 4121.79487152, 4118.33333306, 4125.38461511, 4183.71794858,8.57
4128.46153819, 4125.89743562, 4128.07692280, 4087.94871761, 4127.69230742, 4142.05128185, 4136.53846133, 4139.87179467, 4136.66666646, 4129.10256383, 4124.10256383, 4124.48717921, 4124.99999973, 4184.35897422,8.57
4126.15384588, 4126.66666639, 4124.35897408, 4090.89743555, 4130.51282024, 4153.33333313, 4140.25641005, 4135.12820485, 4123.71794844, 4129.23076896, 4127.17948691, 4125.12820485, 4127.56410229, 4183.58974345,8.57
4119.74358947, 4124.23076896, 4122.82051255, 4110.89743562, 4129.48717921, 4163.33333313, 4150.64102544, 4139.99999980, 4136.53846133, 4127.56410229, 4123.46153819, 4119.35897408, 4129.87179460, 4183.07692294,8.57
4127.69230742, 4129.48717921, 4130.12820485, 4106.41025614, 4127.05128178, 4147.69230749, 4145.64102544, 4139.10256390, 4143.71794851, 4128.97435870, 4127.43589716, 4132.43589716, 4133.20512793, 4191.28205115,8.57
4123.20512793, 4126.02564075, 4121.53846126, 4085.38461504, 4125.51282024, 4135.64102544, 4129.23076896, 4131.79487152, 4135.51282031, 4128.84615357, 4126.79487152, 4122.69230742, 4127.56410229, 4184.61538448,8.57
4124.99999973, 4126.66666639, 4123.97435870, 4086.28205094, 4125.12820485, 4134.87179460, 4123.33333306, 4131.79487152, 4134.61538434, 4125.89743562, 4127.69230742, 4124.99999973, 4131.15384588, 4189.23076910,8.57
4125.25640998, 4127.43589716, 4124.87179460, 4091.53846119, 4125.38461511, 4131.28205101, 4127.17948691, 4131.53846126, 4135.25640998, 4126.41025614, 4126.79487152, 4130.38461511, 4134.74358947, 4192.56410243,8.57
4120.76923050, 4120.64102537, 4117.69230742, 4082.82051248, 4123.33333306, 4132.94871767, 4124.61538434, 4123.33333306, 4122.56410229, 4129.99999973, 4124.48717921, 4124.48717921, 4127.30769203, 4186.92307679,8.57
4126.92307665, 4124.23076896, 4125.51282024, 4080.64102530, 4121.92307665, 4138.46153826, 4119.99999973, 4117.69230742, 4109.48717921, 4129.61538434, 4130.51282024, 4133.58974332, 4130.38461511, 4193.97435884,8.57
4120.51282024, 4124.23076896, 4124.23076896, 4090.89743555, 4123.46153819, 4137.43589723, 4123.33333306, 4121.41025614, 4118.46153819, 4126.53846126, 4123.71794844, 4123.33333306, 4133.33333306, 4190.64102551,8.57
4123.58974332, 4124.61538434, 4123.97435870, 4105.12820485, 4125.89743562, 4139.23076903, 4138.46153826, 4140.12820492, 4147.56410236, 4129.61538434, 4122.17948691, 4124.74358947, 4136.02564082, 4191.15384602,8.57
