AF3,F7,F3,FC5,T7,P7,O1,O2,P8,T8,FC6,F4,F8,AF4,Label
4123.20512793, 4125.89743562, 4126.92307665, 4002.05128150, 4123.46153819, 4153.71794851, 4176.28205115, 4193.20512807, 4189.10256397, 4124.87179460, 4105.76923050, 4127.69230742, 4132.30769203, 4193.07692294,8.57
4126.92307665, 4129.10256383, 4127.69230742, 4008.58974311, 4123.46153819, 4161.53846133, 4171.53846140, 4179.99999986, 4173.33333320, 4125.51282024, 4108.84615357, 4131.15384588, 4132.82051255, 4190.38461525,8.57
4123.07692280, 4128.20512793, 4126.53846126, 4019.10256362, 4123.20512793, 4172.69230756, 4173.84615371, 4181.79487166, 4179.35897422, 4127.30769203, 4107.94871767, 4119.74358947, 4129.10256383, 4184.35897422,8.57
4126.92307665, 4125.12820485, 4129.10256383, 4040.12820472, 4124.61538434, 4181.66666653, 4187.05128192, 4193.58974345, 4199.99999986, 4127.05128178, 4110.64102537, 4128.20512793, 4134.10256383, 4189.10256397,8.57
4130.25640998, 4127.05128178, 4127.43589716, 4030.89743541, 4123.58974332, 4159.23076903, 4172.82051269, 4161.15384595, 4159.10256390, 4126.41025614, 4108.97435870, 4129.74358947, 4132.69230742, 4186.41025628,8.57
4123.20512793, 4124.99999973, 4124.23076896, 3987.56410201, 4121.79487152, 4117.82051255, 4127.43589716, 4103.71794844, 4093.07692273, 4128.46153819, 4107.43589716, 4128.97435870, 4132.94871767, 4190.51282038,8.57
4124.61538434, 4128.33333306, 4126.92307665, 4000.64102509, 4123.07692280, 4136.15384595, 4133.07692280, 4109.87179460, 4104.99999973, 4129.99999973, 4108.71794844, 4132.69230742, 4133.33333306, 4193.97435884,8.57
4126.79487152, 4126.79487152, 4123.97435870, 4050.89743548, 4122.05128178, 4176.02564089, 4181.41025628, 4164.74358954, 4161.02564082, 4126.92307665, 4110.25640998, 4126.41025614, 4129.99999973, 4188.58974345,8.57
4125.12820485, 4123.84615357, 4121.02564075, 4040.64102523, 4119.10256383, 4154.10256390, 4184.23076910, 4185.12820499, 4174.35897422, 4125.89743562, 4110.38461511, 4130.89743562, 4132.69230742, 4191.28205115,8.57
4125.51282024, 4127.05128178, 4121.02564075, 4008.33333285, 4121.79487152, 4124.23076896, 4154.10256390, 4165.12820492, 4148.58974339, 4127.94871767, 4105.64102537, 4129.87179460, 4132.94871767, 4192.94871781,8.57
4124.61538434, 4126.02564075, 4121.53846126, 4033.97435849, 4122.05128178, 4154.35897415, 4164.35897415, 4169.87179474, 4156.92307672, 4128.84615357, 4108.97435870, 4126.66666639, 4131.92307665, 4190.64102551,8.57
4124.61538434, 4127.17948691, 4125.12820485, 4064.10256369, 4119.35897408, 4180.12820499, 4185.64102551, 4191.41025628, 4185.25641012, 4128.07692280, 4115.38461511, 4132.82051255, 4135.38461518, 4194.10256397,8.57
4117.30769203, 4123.33333306, 4120.51282024, 4039.74358933, 4122.82051255, 4142.17948697, 4155.51282031, 4166.92307672, 4152.05128185, 4128.33333306, 4110.51282024, 4124.35897408, 4131.92307665, 4195.76923063,8.57
4117.69230742, 4120.25640998, 4119.61538434, 4020.76923029, 4122.43589716, 4114.23076896, 4129.48717921, 4136.92307672, 4107.82051255, 4128.84615357, 4109.74358947, 4125.89743562, 4130.89743562, 4194.48717935,8.57
4124.74358947, 4125.25640998, 4124.48717921, 4049.10256369, 4118.46153819, 4149.87179467, 4164.35897415, 4169.61538448, 4146.28205108, 4128.20512793, 4111.53846126, 4131.53846126, 4133.97435870, 4191.92307679,8.57
4120.12820485, 4123.97435870, 4119.99999973, 4079.74358940, 4120.25640998, 4179.10256397, 4200.12820499, 4210.12820506, 4192.69230756, 4127.94871767, 4107.17948691, 4122.69230742, 4130.25640998, 4192.43589730,8.57
4121.53846126, 4124.99999973, 4120.25640998, 4061.02564061, 4122.30769203, 4147.05128185, 4169.87179474, 4177.82051269, 4155.76923056, 4128.07692280, 4107.30769203, 4127.05128178, 4131.28205101, 4197.69230756,8.57
4122.43589716, 4125.89743562, 4121.79487152, 4021.66666618, 4120.38461511, 4107.43589716, 4118.07692280, 4120.51282024, 4115.51282024, 4128.07692280, 4106.41025614, 4124.35897408, 4133.20512793, 4190.51282038,8.57
4120.89743562, 4123.84615357, 4121.41025614, 4015.89743541, 4120.76923050, 4105.25640998, 4115.76923050, 4116.15384588, 4128.58974332, 4127.82051255, 4104.10256383, 4118.84615357, 4130.89743562, 4186.28205115,8.57
4121.28205101, 4124.99999973, 4121.79487152, 4040.76923036, 4124.23076896, 4128.84615357, 4152.94871774, 4160.64102544, 4150.64102544, 4127.82051255, 4105.51282024, 4126.53846126, 4129.35897408, 4193.07692294,8.57
4115.76923050, 4125.12820485, 4120.89743562, 4056.15384574, 4125.64102537, 4146.66666646, 4168.20512807, 4186.41025628, 4150.89743569, 4127.69230742, 4104.99999973, 4121.15384588, 4128.58974332, 4188.46153833,8.57
4119.61538434, 4126.41025614, 4125.38461511, 4037.69230728, 4124.61538434, 4119.87179460, 4135.38461518, 4154.61538441, 4134.61538434, 4126.28205101, 4105.51282024, 4120.76923050, 4135.25640998, 4187.69230756,8.57
4122.56410229, 4124.87179460, 4125.89743562, 4031.92307644, 4121.66666639, 4105.51282024, 4118.84615357, 4139.48717928, 4137.94871774, 4126.53846126, 4104.48717921, 4121.53846126, 4134.48717921, 4189.87179474,8.57
4119.74358947, 4124.35897408, 4124.48717921, 4055.25640984, 4120.12820485, 4147.69230749, 4151.79487159, 4175.64102551, 4160.76923056, 4127.69230742, 4104.87179460, 4118.71794844, 4126.15384588, 4188.33333320,8.57
4122.05128178, 4125.12820485, 4127.69230742, 4054.10256369, 4122.94871767, 4164.23076903, 4163.07692287, 4183.20512807, 4164.48717928, 4129.23076896, 4108.46153819, 4123.84615357, 4128.33333306, 4190.89743576,8.57
4118.84615357, 4122.17948691, 4124.35897408, 4025.89743541, 4122.69230742, 4124.23076896, 4129.35897408, 4140.76923056, 4144.99999980, 4130.38461511, 4104.48717921, 4116.28205101, 4129.23076896, 4184.87179474,8.57
4119.61538434, 4124.61538434, 4122.56410229, 4031.53846106, 4120.25640998, 4112.17948691, 4123.07692280, 4129.61538434, 4135.89743569, 4130.51282024, 4106.15384588, 4121.53846126, 4129.48717921, 4185.12820499,8.57
4124.74358947, 4125.64102537, 4125.51282024, 4059.35897395, 4121.15384588, 4129.87179460, 4147.05128185, 4152.05128185, 4136.15384595, 4129.23076896, 4108.84615357, 4127.17948691, 4129.23076896, 4186.53846140,8.57
4123.20512793, 4125.89743562, 4127.94871767, 4055.76923036, 4121.28205101, 4129.74358947, 4150.25641005, 4152.82051262, 4133.58974332, 4126.92307665, 4102.94871767, 4118.97435870, 4129.61538434, 4184.23076910,8.57
4122.56410229, 4128.58974332, 4126.66666639, 4023.58974311, 4122.17948691, 4111.02564075, 4122.94871767, 4129.10256383, 4117.17948691, 4127.05128178, 4105.25640998, 4124.35897408, 4135.12820485, 4190.89743576,8.57
4122.56410229, 4125.51282024, 4122.56410229, 4009.35897388, 4124.23076896, 4095.25640991, 4102.05128171, 4107.82051255, 4086.79487145, 4127.69230742, 4107.43589716, 4121.79487152, 4128.07692280, 4183.97435884,8.57
4127.30769203, 4126.79487152, 4127.94871767, 4048.20512779, 4122.43589716, 4121.15384588, 4134.23076896, 4137.82051262, 4109.99999973, 4128.71794844, 4108.07692280, 4125.38461511, 4125.38461511, 4181.41025628,8.57
4126.66666639, 4127.82051255, 4131.15384588, 4082.17948684, 4122.94871767, 4154.48717928, 4171.02564089, 4186.28205115, 4160.89743569, 4130.89743562, 4111.53846126, 4127.82051255, 4131.41025614, 4185.64102551,8.57
4123.20512793, 4125.38461511, 4125.76923050, 4051.02564061, 4124.10256383, 4121.28205101, 4132.43589716, 4155.12820492, 4128.71794844, 4129.87179460, 4111.15384588, 4119.23076896, 4129.10256383, 4184.99999986,8.57
4128.58974332, 4127.82051255, 4127.43589716, 4014.87179439, 4120.51282024, 4071.15384581, 4082.05128171, 4097.69230735, 4075.89743555, 4127.94871767, 4111.53846126, 4128.07692280, 4128.97435870, 4193.07692294,8.57
4126.41025614, 4126.15384588, 4127.17948691, 4056.02564061, 4118.97435870, 4118.20512793, 4137.05128185, 4149.74358954, 4136.66666646, 4127.17948691, 4112.69230742, 4127.43589716, 4128.46153819, 4192.56410243,8.57
4123.33333306, 4124.48717921, 4124.99999973, 4095.38461504, 4122.30769203, 4176.41025628, 4192.56410243, 4209.23076917, 4195.64102551, 4128.20512793, 4117.30769203, 4126.02564075, 4130.12820485, 4190.12820499,8.57
4124.87179460, 4124.10256383, 4123.58974332, 4046.53846113, 4122.43589716, 4121.15384588, 4126.66666639, 4136.41025621, 4119.48717921, 4128.20512793, 4117.82051255, 4130.89743562, 4134.74358947, 4191.28205115,8.57
4125.38461511, 4124.74358947, 4124.48717921, 4003.84615329, 4119.87179460, 4059.10256369, 4065.89743548, 4061.79487138, 4045.51282010, 4125.12820485, 4113.84615357, 4127.69230742, 4132.17948691, 4189.23076910,8.57
4125.38461511, 4126.92307665, 4127.69230742, 4027.94871747, 4121.66666639, 4079.74358940, 4088.84615350, 4089.23076889, 4077.05128171, 4124.48717921, 4117.05128178, 4130.12820485, 4129.87179460, 4192.30769217,8.57
4122.30769203, 4122.82051255, 4122.30769203, 4057.94871754, 4123.20512793, 4118.07692280, 4120.25640998, 4133.58974332, 4122.56410229, 4127.17948691, 4116.53846126, 4126.79487152, 4128.58974332, 4193.71794858,8.57
4124.10256383, 4124.87179460, 4122.30769203, 4051.41025600, 4120.38461511, 4106.15384588, 4107.43589716, 4115.51282024, 4102.30769196, 4128.33333306, 4114.10256383, 4129.87179460, 4131.02564075, 4193.20512807,8.57
4124.35897408, 4128.46153819, 4122.17948691, 4038.46153805, 4118.84615357, 4076.02564068, 4078.20512786, 4081.02564068, 4074.48717914, 4126.66666639, 4115.51282024, 4130.25640998, 4133.20512793, 4191.41025628,8.57
4122.05128178, 4124.74358947, 4120.51282024, 4031.53846106, 4120.38461511, 4069.74358940, 4061.66666625, 4076.41025607, 4075.51282017, 4125.64102537, 4117.30769203, 4123.20512793, 4131.02564075, 4192.43589730,8.57
4123.33333306, 4125.38461511, 4125.76923050, 4022.82051234, 4121.79487152, 4071.28205094, 4058.58974318, 4079.10256376, 4072.56410222, 4126.53846126, 4118.46153819, 4131.79487152, 4134.48717921, 4194.74358961,8.57
4114.99999973, 4123.97435870, 4121.02564075, 4044.10256369, 4120.12820485, 4101.15384581, 4087.30769196, 4102.82051255, 4104.74358947, 4127.69230742, 4114.48717921, 4124.10256383, 4132.05128178, 4187.05128192,8.57
4117.17948691, 4124.23076896, 4122.30769203, 4077.43589709, 4120.64102537, 4142.30769210, 4114.35897408, 4133.33333306, 4150.76923056, 4128.07692280, 4114.74358947, 4121.15384588, 4131.15384588, 4192.56410243,8.57
4120.64102537, 4124.61538434, 4125.12820485, 4070.38461504, 4121.79487152, 4126.28205101, 4093.20512786, 4111.92307665, 4114.23076896, 4125.89743562, 4113.07692280, 4128.84615357, 4133.84615357, 4196.02564089,8.57
4108.58974332, 4118.07692280, 4118.20512793, 4020.38461490, 4121.15384588, 4066.53846113, 4047.30769189, 4062.17948677, 4039.74358933, 4124.74358947, 4106.66666639, 4112.94871767, 4128.58974332, 4183.07692294,8.57
4128.33333306, 4128.07692280, 4129.48717921, 4006.79487131, 4124.10256383, 4059.48717907, 4044.74358933, 4064.48717907, 4050.12820472, 4127.82051255, 4112.43589716, 4124.61538434, 4132.94871767, 4193.20512807,8.57
4128.58974332, 4127.56410229, 4124.74358947, 4056.02564061, 4124.10256383, 4099.87179453, 4078.33333299, 4097.94871761, 4106.66666639, 4128.46153819, 4112.94871767, 4126.79487152, 4130.64102537, 4191.02564089,8.57
4106.15384588, 4111.92307665, 4108.84615357, 4071.92307658, 4118.33333306, 4092.43589709, 4070.12820478, 4088.20512786, 4101.15384581, 4126.02564075, 4107.69230742, 4108.46153819, 4124.10256383, 4176.53846140,8.57
4138.07692287, 4130.64102537, 4131.66666639, 4045.12820472, 4120.64102537, 4069.48717907, 4052.69230728, 4075.64102530, 4075.38461504, 4127.30769203, 4114.74358947, 4132.30769203, 4135.38461518, 4195.38461525,8.57
4128.07692280, 4129.61538434, 4128.07692280, 4051.66666625, 4123.58974332, 4090.12820478, 4077.05128171, 4107.30769203, 4099.87179453, 4128.58974332, 4111.41025614, 4123.84615357, 4127.43589716, 4187.69230756,8.57
4098.58974325, 4109.74358947, 4109.74358947, 4059.10256369, 4119.35897408, 4089.10256376, 4080.76923043, 4119.35897408, 4117.30769203, 4127.94871767, 4106.41025614, 4105.38461511, 4120.89743562, 4173.84615371,8.57
4132.94871767, 4126.92307665, 4129.99999973, 4045.51282010, 4120.38461511, 4064.61538420, 4055.89743548, 4091.41025607, 4094.10256376, 4127.82051255, 4111.15384588, 4129.10256383, 4134.61538434, 4192.82051269,8.57
4131.79487152, 4131.28205101, 4132.82051255, 4064.61538420, 4122.30769203, 4081.15384581, 4064.48717907, 4085.76923043, 4092.17948684, 4127.56410229, 4109.87179460, 4126.79487152, 4130.25640998, 4189.61538448,8.57
4113.20512793, 4122.56410229, 4124.99999973, 4069.87179453, 4122.43589716, 4083.07692273, 4062.94871754, 4077.43589709, 4084.87179453, 4127.82051255, 4109.35897408, 4119.23076896, 4123.46153819, 4182.43589730,8.57
4120.12820485, 4127.05128178, 4124.74358947, 4034.23076875, 4123.07692280, 4048.97435856, 4032.17948670, 4046.53846113, 4054.61538420, 4125.76923050, 4109.99999973, 4122.05128178, 4127.17948691, 4185.76923063,8.57
4120.89743562, 4126.28205101, 4123.20512793, 4052.05128164, 4118.71794844, 4063.84615343, 4051.02564061, 4068.20512779, 4080.76923043, 4125.64102537, 4112.05128178, 4122.17948691, 4130.89743562, 4184.87179474,8.57
4123.58974332, 4126.15384588, 4127.69230742, 4080.12820478, 4119.99999973, 4082.69230735, 4068.84615343, 4090.25640991, 4100.38461504, 4127.43589716, 4113.97435870, 4125.25640998, 4130.89743562, 4185.25641012,8.57
4120.76923050, 4127.69230742, 4125.89743562, 4042.17948677, 4124.23076896, 4044.48717907, 4028.07692259, 4043.46153805, 4049.87179446, 4124.23076896, 4110.76923050, 4122.94871767, 4128.84615357, 4187.56410243,8.57
4123.71794844, 4128.97435870, 4127.69230742, 4026.79487131, 4124.23076896, 4034.10256362, 4020.12820465, 4032.05128157, 4039.74358933, 4123.84615357, 4110.76923050, 4128.20512793, 4131.92307665, 4192.94871781,8.57
4124.99999973, 4124.61538434, 4130.51282024, 4060.89743548, 4123.58974332, 4061.66666625, 4052.94871754, 4070.64102530, 4077.94871761, 4126.53846126, 4110.64102537, 4122.94871767, 4129.87179460, 4185.76923063,8.57
4122.17948691, 4124.99999973, 4129.23076896, 4078.33333299, 4122.43589716, 4071.02564068, 4055.76923036, 4070.12820478, 4079.48717914, 4127.69230742, 4113.97435870, 4123.58974332, 4129.87179460, 4185.51282038,8.57
4127.30769203, 4131.53846126, 4127.69230742, 4083.84615350, 4124.10256383, 4094.23076889, 4060.38461497, 4070.89743555, 4088.33333299, 4129.23076896, 4116.02564075, 4132.05128178, 4133.84615357, 4191.41025628,8.57
4123.84615357, 4123.58974332, 4124.61538434, 4079.99999966, 4122.05128178, 4098.97435863, 4060.76923036, 4078.58974325, 4096.15384581, 4127.82051255, 4112.17948691, 4123.33333306, 4132.17948691, 4185.89743576,8.57
4126.53846126, 4122.82051255, 4130.12820485, 4050.25640984, 4117.56410229, 4041.92307651, 4017.30769183, 4029.23076875, 4037.69230728, 4123.58974332, 4113.97435870, 4127.82051255, 4132.56410229, 4189.74358961,8.57
4126.28205101, 4129.87179460, 4128.33333306, 4032.69230721, 4118.46153819, 4005.25640977, 3987.30769176, 3986.41025586, 3991.92307637, 4124.61538434, 4114.48717921, 4129.10256383, 4131.66666639, 4193.20512807,8.57
4121.28205101, 4126.53846126, 4123.71794844, 4063.33333292, 4119.35897408, 4041.53846113, 4016.15384567, 4022.05128157, 4027.82051234, 4129.48717921, 4113.33333306, 4127.56410229, 4133.07692280, 4193.58974345,8.57
4128.20512793, 4125.12820485, 4128.46153819, 4092.82051248, 4122.30769203, 4078.20512786, 4048.07692266, 4062.30769189, 4065.25640984, 4128.33333306, 4115.89743562, 4133.58974332, 4135.64102544, 4196.28205115,8.57
4128.20512793, 4125.12820485, 4128.46153819, 4092.82051248, 4122.30769203, 4078.20512786, 4048.07692266, 4062.30769189, 4065.25640984, 4128.33333306, 4115.89743562, 4133.58974332, 4135.64102544, 4196.28205115,8.57
4124.23076896, 4120.76923050, 4122.94871767, 4072.17948684, 4121.66666639, 4057.17948677, 4029.10256362, 4041.02564061, 4041.66666625, 4125.89743562, 4112.17948691, 4123.84615357, 4131.15384588, 4192.17948704,8.57
4121.66666639, 4122.30769203, 4124.23076896, 4046.15384574, 4118.33333306, 4028.84615336, 3997.30769176, 4007.69230721, 4006.53846106, 4127.82051255, 4109.35897408, 4127.43589716, 4133.46153819, 4193.07692294,8.57
4124.61538434, 4127.94871767, 4128.71794844, 4072.43589709, 4119.61538434, 4058.07692266, 4021.66666618, 4027.56410208, 4028.20512772, 4127.30769203, 4111.79487152, 4128.46153819, 4134.99999973, 4192.05128192,8.57
4119.35897408, 4122.82051255, 4120.76923050, 4095.76923043, 4118.84615357, 4083.84615350, 4048.71794830, 4047.43589702, 4055.25640984, 4126.28205101, 4111.28205101, 4120.89743562, 4132.30769203, 4191.41025628,8.57
4121.53846126, 4125.25640998, 4121.92307665, 4067.82051241, 4120.76923050, 4038.84615343, 4007.82051234, 4011.15384567, 4024.35897388, 4127.69230742, 4109.74358947, 4129.87179460, 4134.61538434, 4197.30769217,8.57
4119.74358947, 4124.48717921, 4123.07692280, 4058.84615343, 4121.41025614, 4004.10256362, 3985.25640970, 3998.46153791, 4009.23076875, 4128.46153819, 4108.07692280, 4124.99999973, 4129.48717921, 4189.99999986,8.57
4120.25640998, 4121.53846126, 4120.76923050, 4087.30769196, 4117.30769203, 4029.99999952, 4016.15384567, 4024.87179439, 4037.82051241, 4126.15384588, 4109.23076896, 4121.28205101, 4128.97435870, 4187.94871781,8.57
4123.58974332, 4125.89743562, 4120.12820485, 4100.76923043, 4120.51282024, 4053.58974318, 4026.28205080, 4022.82051234, 4042.30769189, 4124.74358947, 4108.07692280, 4125.76923050, 4132.30769203, 4191.28205115,8.57
4116.66666639, 4123.71794844, 4118.33333306, 4081.66666632, 4122.94871767, 4043.20512779, 4009.74358926, 4001.41025586, 4016.28205080, 4128.33333306, 4106.79487152, 4121.92307665, 4127.56410229, 4187.56410243,8.57
4120.38461511, 4124.10256383, 4122.17948691, 4051.79487138, 4123.07692280, 4019.61538413, 3992.43589688, 3982.43589688, 3996.02564047, 4129.87179460, 4109.99999973, 4124.35897408, 4128.84615357, 4191.79487166,8.57
4120.76923050, 4123.33333306, 4118.20512793, 4059.10256369, 4125.89743562, 4025.38461490, 3998.97435842, 3990.76923022, 4007.82051234, 4128.07692280, 4107.43589716, 4116.92307665, 4129.48717921, 4188.58974345,8.57
4118.33333306, 4122.82051255, 4119.61538434, 4100.51282017, 4124.23076896, 4061.02564061, 4035.51282003, 4032.56410208, 4043.71794830, 4128.20512793, 4108.07692280, 4119.87179460, 4131.02564075, 4185.76923063,8.57
4120.38461511, 4125.76923050, 4125.89743562, 4104.10256383, 4121.28205101, 4060.64102523, 4040.64102523, 4047.17948677, 4059.61538420, 4127.82051255, 4111.28205101, 4127.69230742, 4132.94871767, 4189.48717935,8.57
4116.66666639, 4122.82051255, 4121.92307665, 4081.02564068, 4120.89743562, 4030.76923029, 4009.99999952, 4023.33333285, 4051.66666625, 4127.05128178, 4109.99999973, 4117.69230742, 4128.84615357, 4186.41025628,8.57
4121.53846126, 4124.74358947, 4124.61538434, 4099.48717914, 4121.41025614, 4051.02564061, 4027.94871747, 4031.15384567, 4061.41025600, 4129.48717921, 4111.02564075, 4120.25640998, 4130.76923050, 4187.94871781,8.57
4118.84615357, 4125.51282024, 4124.99999973, 4119.99999973, 4121.53846126, 4086.41025607, 4067.69230728, 4058.33333292, 4077.82051248, 4129.61538434, 4108.58974332, 4119.87179460, 4130.12820485, 4188.07692294,8.57
4118.07692280, 4125.76923050, 4125.12820485, 4100.89743555, 4121.41025614, 4063.58974318, 4047.43589702, 4046.02564061, 4059.87179446, 4126.53846126, 4109.35897408, 4123.71794844, 4129.99999973, 4187.05128192,8.57
4125.76923050, 4128.46153819, 4129.74358947, 4080.51282017, 4119.48717921, 4018.07692259, 4001.66666611, 4006.92307644, 4016.28205080, 4126.53846126, 4113.84615357, 4128.07692280, 4130.64102537, 4185.51282038,8.57
4120.25640998, 4123.20512793, 4127.56410229, 4087.17948684, 4121.02564075, 4029.23076875, 4008.97435849, 4001.28205073, 4015.76923029, 4125.64102537, 4111.79487152, 4115.76923050, 4127.17948691, 4183.33333320,8.57
4122.05128178, 4126.41025614, 4128.46153819, 4097.05128171, 4128.07692280, 4064.61538420, 4033.07692259, 4023.33333285, 4048.84615343, 4125.12820485, 4112.43589716, 4126.15384588, 4131.28205101, 4189.61538448,8.57
4124.61538434, 4129.35897408, 4126.66666639, 4095.76923043, 4127.30769203, 4055.38461497, 4009.10256362, 4013.33333285, 4037.30769189, 4126.92307665, 4112.69230742, 4130.25640998, 4131.79487152, 4187.94871781,8.57
4122.43589716, 4124.23076896, 4128.46153819, 4098.71794837, 4121.53846126, 4039.10256369, 3991.79487124, 3995.38461483, 4009.23076875, 4125.89743562, 4111.92307665, 4123.71794844, 4128.58974332, 4189.61538448,8.57
4126.02564075, 4123.58974332, 4132.94871767, 4095.89743555, 4120.12820485, 4044.74358933, 4007.17948670, 4008.97435849, 4016.79487131, 4128.71794844, 4113.58974332, 4129.74358947, 4131.28205101, 4192.82051269,8.57
4123.97435870, 4121.53846126, 4128.84615357, 4099.48717914, 4122.56410229, 4050.64102523, 4014.35897388, 4025.25640977, 4043.33333292, 4131.79487152, 4113.07692280, 4125.51282024, 4131.66666639, 4183.58974345,8.57
4126.53846126, 4122.94871767, 4128.46153819, 4101.41025607, 4125.12820485, 4031.02564054, 3992.56410201, 4004.23076875, 4029.87179439, 4128.97435870, 4115.12820485, 4129.23076896, 4133.58974332, 4188.84615371,8.57
4125.89743562, 4123.58974332, 4123.07692280, 4083.97435863, 4122.30769203, 4006.66666618, 3969.99999938, 3969.23076861, 3985.12820458, 4127.17948691, 4113.20512793, 4128.07692280, 4132.43589716, 4190.89743576,8.57
4124.35897408, 4124.23076896, 4122.94871767, 4102.69230742, 4118.97435870, 4045.64102523, 4002.43589688, 3993.46153791, 4007.94871747, 4127.05128178, 4113.20512793, 4125.38461511, 4130.76923050, 4187.17948704,8.57
4129.61538434, 4127.82051255, 4131.28205101, 4127.56410229, 4120.89743562, 4071.92307658, 4021.15384567, 4016.92307644, 4047.05128164, 4124.99999973, 4118.71794844, 4136.28205108, 4134.87179460, 4193.33333320,8.57
4123.46153819, 4123.33333306, 4125.76923050, 4082.17948684, 4121.15384588, 4012.82051234, 3963.46153784, 3966.79487117, 3991.79487124, 4125.25640998, 4115.89743562, 4129.10256383, 4133.46153819, 4191.92307679,8.57
4123.46153819, 4124.48717921, 4123.46153819, 4045.76923036, 4117.56410229, 3985.76923022, 3934.61538392, 3933.71794803, 3950.64102502, 4128.20512793, 4112.56410229, 4127.56410229, 4133.46153819, 4190.51282038,8.57
4125.89743562, 4126.53846126, 4124.35897408, 4092.69230735, 4120.25640998, 4039.48717907, 3993.46153791, 3987.43589688, 4022.05128157, 4126.53846126, 4114.48717921, 4128.84615357, 4133.71794844, 4188.58974345,8.57
4120.89743562, 4122.69230742, 4122.56410229, 4132.94871767, 4123.07692280, 4061.15384574, 4027.69230721, 4034.10256362, 4074.87179453, 4126.15384588, 4117.94871767, 4124.23076896, 4132.17948691, 4190.89743576,8.57
4123.46153819, 4125.89743562, 4126.41025614, 4102.17948684, 4121.15384588, 4019.74358926, 3981.28205073, 3993.46153791, 4016.28205080, 4128.97435870, 4117.56410229, 4132.05128178, 4134.10256383, 4198.07692294,8.57
4122.43589716, 4126.15384588, 4124.87179460, 4085.12820478, 4120.76923050, 4016.53846106, 3962.82051220, 3963.58974297, 3981.53846099, 4127.69230742, 4109.61538434, 4124.23076896, 4130.25640998, 4193.20512807,8.57
4122.05128178, 4124.23076896, 4124.48717921, 4115.64102537, 4121.53846126, 4057.43589702, 3995.12820458, 3992.69230714, 4032.30769183, 4126.79487152, 4112.69230742, 4122.56410229, 4130.12820485, 4189.74358961,8.57
4119.99999973, 4123.71794844, 4123.58974332, 4132.82051255, 4119.87179460, 4065.51282010, 4005.12820465, 4005.12820465, 4050.89743548, 4129.48717921, 4117.30769203, 4127.30769203, 4132.30769203, 4190.12820499,8.57
4116.15384588, 4120.25640998, 4121.28205101, 4106.66666639, 4120.89743562, 4024.99999952, 3975.76923022, 3973.58974304, 3997.82051227, 4129.99999973, 4111.53846126, 4120.89743562, 4130.89743562, 4192.43589730,8.57
4120.76923050, 4123.46153819, 4123.46153819, 4083.71794837, 4127.56410229, 3991.41025586, 3956.66666605, 3950.12820451, 3968.58974297, 4130.89743562, 4111.92307665, 4123.71794844, 4132.43589716, 4194.10256397,8.57
4114.61538434, 4121.79487152, 4117.94871767, 4107.56410229, 4127.56410229, 4011.02564054, 3981.02564047, 3972.69230714, 4002.82051227, 4131.53846126, 4113.07692280, 4118.20512793, 4128.97435870, 4185.38461525,8.57
4116.02564075, 4119.87179460, 4120.89743562, 4133.71794844, 4121.41025614, 4034.48717900, 4005.76923029, 4003.84615329, 4027.43589695, 4128.46153819, 4113.71794844, 4123.20512793, 4129.87179460, 4189.48717935,8.57
4122.17948691, 4124.35897408, 4127.17948691, 4136.02564082, 4119.10256383, 4032.94871747, 4008.58974311, 4025.51282003, 4044.10256369, 4127.56410229, 4114.10256383, 4127.05128178, 4130.25640998, 4193.20512807,8.57
4115.64102537, 4122.94871767, 4122.30769203, 4128.46153819, 4123.33333306, 4016.28205080, 3991.53846099, 4012.94871747, 4051.41025600, 4128.97435870, 4109.61538434, 4111.92307665, 4122.82051255, 4181.53846140,8.57
4120.89743562, 4126.41025614, 4123.07692280, 4121.92307665, 4127.43589716, 3998.46153791, 3974.99999945, 3975.76923022, 4018.58974311, 4125.38461511, 4112.43589716, 4119.23076896, 4126.28205101, 4184.74358961,8.57
4120.64102537, 4125.76923050, 4122.43589716, 4136.15384595, 4124.61538434, 4012.17948670, 3989.48717894, 3987.30769176, 4018.46153798, 4121.53846126, 4115.12820485, 4123.33333306, 4130.64102537, 4188.20512807,8.57
4116.41025614, 4120.64102537, 4125.38461511, 4155.38461518, 4120.64102537, 4036.92307651, 4012.94871747, 4028.84615336, 4064.10256369, 4125.51282024, 4116.53846126, 4121.15384588, 4133.58974332, 4186.66666653,8.57
4122.56410229, 4124.99999973, 4131.41025614, 4131.28205101, 4122.05128178, 4022.69230721, 4000.89743535, 4016.02564054, 4051.15384574, 4130.25640998, 4117.43589716, 4125.12820485, 4134.35897408, 4183.71794858,8.57
4121.41025614, 4125.89743562, 4128.20512793, 4107.05128178, 4122.94871767, 4011.41025593, 3988.71794817, 3983.46153791, 4003.58974304, 4128.33333306, 4112.05128178, 4117.56410229, 4127.94871767, 4178.97435884,8.57
4121.92307665, 4125.76923050, 4128.33333306, 4132.05128178, 4120.64102537, 4040.25640984, 4004.74358926, 3994.35897381, 4021.92307644, 4125.12820485, 4114.48717921, 4121.28205101, 4129.48717921, 4187.05128192,8.57
4120.25640998, 4124.10256383, 4124.35897408, 4127.56410229, 4121.41025614, 4031.66666618, 3987.94871740, 3986.02564047, 4030.12820465, 4124.99999973, 4117.17948691, 4121.28205101, 4128.84615357, 4186.15384602,8.57
4122.82051255, 4125.64102537, 4125.51282024, 4097.30769196, 4123.33333306, 3997.69230714, 3968.97435835, 3970.12820451, 4005.12820465, 4125.89743562, 4114.87179460, 4122.05128178, 4129.10256383, 4183.71794858,8.57
4129.61538434, 4129.99999973, 4133.20512793, 4121.28205101, 4123.97435870, 4019.48717900, 3999.99999945, 4005.38461490, 4035.64102516, 4125.12820485, 4116.02564075, 4131.28205101, 4134.23076896, 4188.20512807,8.57
4123.07692280, 4123.07692280, 4125.64102537, 4129.48717921, 4123.97435870, 4026.92307644, 4002.94871740, 4011.53846106, 4048.97435856, 4124.35897408, 4115.38461511, 4121.79487152, 4131.41025614, 4183.84615371,8.57
4121.53846126, 4122.94871767, 4123.33333306, 4084.99999966, 4123.58974332, 3982.82051227, 3962.94871733, 3972.69230714, 4005.76923029, 4126.79487152, 4113.71794844, 4125.25640998, 4130.89743562, 4185.76923063,8.57
4121.53846126, 4126.53846126, 4127.43589716, 4106.28205101, 4123.71794844, 4004.23076875, 3989.23076868, 3992.82051227, 4024.61538413, 4129.10256383, 4112.43589716, 4129.61538434, 4131.53846126, 4186.79487166,8.57
4120.25640998, 4123.33333306, 4125.51282024, 4172.30769217, 4122.43589716, 4070.25640991, 4051.66666625, 4045.89743548, 4085.89743555, 4125.89743562, 4117.05128178, 4122.82051255, 4132.82051255, 4186.66666653,8.57
4122.94871767, 4124.87179460, 4122.82051255, 4165.76923056, 4121.41025614, 4065.12820472, 4044.48717907, 4039.10256369, 4080.89743555, 4123.07692280, 4121.02564075, 4132.17948691, 4135.64102544, 4192.05128192,8.57
4121.28205101, 4125.76923050, 4122.17948691, 4127.05128178, 4121.53846126, 4031.79487131, 4009.99999952, 4000.89743535, 4037.17948677, 4125.38461511, 4115.38461511, 4130.38461511, 4129.74358947, 4190.51282038,8.57
4124.74358947, 4125.51282024, 4128.58974332, 4119.10256383, 4119.61538434, 4023.33333285, 3995.51281996, 3978.20512765, 4007.94871747, 4127.56410229, 4113.07692280, 4124.99999973, 4127.82051255, 4189.87179474,8.57
4123.97435870, 4122.17948691, 4123.46153819, 4131.28205101, 4118.58974332, 4025.12820465, 3997.43589688, 3984.74358919, 4010.76923029, 4126.15384588, 4113.58974332, 4124.61538434, 4131.92307665, 4188.07692294,8.57
4122.05128178, 4121.28205101, 4118.46153819, 4136.92307672, 4119.87179460, 4026.79487131, 4002.05128150, 4004.99999952, 4036.02564054, 4126.92307665, 4114.48717921, 4126.66666639, 4132.56410229, 4189.99999986,8.57
4127.17948691, 4125.51282024, 4126.92307665, 4128.58974332, 4120.38461511, 4032.69230721, 4004.35897388, 4009.99999952, 4048.20512779, 4129.35897408, 4116.66666639, 4134.61538434, 4133.71794844, 4195.51282038,8.57
4120.76923050, 4121.66666639, 4125.51282024, 4121.66666639, 4119.23076896, 4042.56410215, 4012.94871747, 4011.66666618, 4054.48717907, 4128.46153819, 4115.12820485, 4127.94871767, 4132.69230742, 4189.48717935,8.57
4121.53846126, 4121.28205101, 4123.58974332, 4123.20512793, 4120.51282024, 4036.53846106, 4011.92307644, 4013.33333285, 4068.71794830, 4128.07692280, 4115.51282024, 4130.76923050, 4136.66666646, 4189.87179474,8.57
4126.28205101, 4124.74358947, 4122.94871767, 4131.79487152, 4122.82051255, 4037.30769189, 4014.10256362, 4016.02564054, 4085.12820478, 4127.69230742, 4115.25640998, 4132.69230742, 4138.07692287, 4193.97435884,8.57
4120.64102537, 4120.76923050, 4119.48717921, 4137.43589723, 4122.69230742, 4058.84615343, 4029.35897388, 4020.64102516, 4080.64102530, 4126.28205101, 4112.69230742, 4122.56410229, 4131.92307665, 4193.07692294,8.57
4123.58974332, 4121.53846126, 4122.56410229, 4128.20512793, 4122.05128178, 4052.82051241, 4020.51282003, 4006.02564054, 4034.87179439, 4127.43589716, 4116.02564075, 4130.64102537, 4136.92307672, 4194.61538448,8.57
4122.69230742, 4123.58974332, 4120.76923050, 4117.82051255, 4120.76923050, 4016.41025593, 3991.28205073, 3989.23076868, 4000.76923022, 4128.20512793, 4113.33333306, 4128.58974332, 4136.79487159, 4189.61538448,8.57
4120.89743562, 4125.76923050, 4121.53846126, 4126.66666639, 4125.38461511, 4011.79487131, 3990.76923022, 3992.82051227, 4013.97435849, 4128.46153819, 4108.07692280, 4124.23076896, 4129.99999973, 4190.51282038,8.57
4122.56410229, 4128.20512793, 4124.74358947, 4145.89743569, 4128.58974332, 4043.07692266, 4020.25640977, 4011.28205080, 4035.76923029, 4129.35897408, 4108.33333306, 4126.53846126, 4131.15384588, 4193.97435884,8.57
4117.17948691, 4121.92307665, 4120.89743562, 4150.89743569, 4123.58974332, 4051.66666625, 4032.56410208, 4024.23076875, 4040.51282010, 4127.17948691, 4108.46153819, 4118.46153819, 4131.28205101, 4189.48717935,8.57
4120.12820485, 4124.10256383, 4123.46153819, 4146.28205108, 4124.87179460, 4045.25640984, 4033.97435849, 4030.51282003, 4052.17948677, 4126.66666639, 4112.82051255, 4125.89743562, 4132.82051255, 4189.87179474,8.57
4118.71794844, 4126.02564075, 4121.28205101, 4138.20512800, 4125.89743562, 4041.66666625, 4033.58974311, 4030.12820465, 4063.97435856, 4130.38461511, 4112.43589716, 4124.99999973, 4131.92307665, 4187.17948704,8.57
4117.30769203, 4122.56410229, 4118.07692280, 4149.61538441, 4123.33333306, 4055.64102523, 4047.43589702, 4041.28205087, 4074.48717914, 4131.28205101, 4109.87179460, 4115.51282024, 4131.79487152, 4185.76923063,8.57
4123.71794844, 4126.79487152, 4124.61538434, 4176.41025628, 4125.25640998, 4088.58974325, 4078.71794837, 4076.15384581, 4111.66666639, 4127.56410229, 4112.56410229, 4119.61538434, 4130.89743562, 4184.35897422,8.57
4118.20512793, 4124.61538434, 4124.10256383, 4173.20512807, 4124.61538434, 4084.10256376, 4066.53846113, 4070.76923043, 4117.17948691, 4125.64102537, 4112.56410229, 4116.41025614, 4126.92307665, 4179.10256397,8.57
4120.64102537, 4121.79487152, 4125.12820485, 4153.58974339, 4120.12820485, 4043.20512779, 4019.35897388, 4015.76923029, 4062.05128164, 4128.46153819, 4113.84615357, 4122.82051255, 4131.28205101, 4185.38461525,8.57
4123.84615357, 4123.20512793, 4126.41025614, 4151.53846133, 4123.46153819, 4028.71794824, 4011.28205080, 3994.48717894, 4030.89743541, 4128.71794844, 4111.66666639, 4122.69230742, 4130.64102537, 4184.74358961,8.57
4115.76923050, 4121.79487152, 4125.25640998, 4166.66666646, 4125.38461511, 4053.58974318, 4042.43589702, 4033.33333285, 4068.46153805, 4126.28205101, 4109.99999973, 4115.89743562, 4127.17948691, 4182.30769217,8.57
4120.51282024, 4127.17948691, 4129.48717921, 4153.97435877, 4121.41025614, 4050.38461497, 4035.64102516, 4035.64102516, 4075.51282017, 4127.05128178, 4112.69230742, 4123.71794844, 4130.12820485, 4188.97435884,8.57
4123.20512793, 4128.84615357, 4124.74358947, 4129.87179460, 4123.58974332, 4032.69230721, 4012.69230721, 3997.43589688, 4041.41025600, 4128.20512793, 4110.64102537, 4117.56410229, 4127.05128178, 4184.48717935,8.57
4120.12820485, 4124.23076896, 4123.20512793, 4139.87179467, 4124.87179460, 4042.43589702, 4015.25640977, 3994.99999945, 4046.79487138, 4127.82051255, 4112.43589716, 4117.69230742, 4125.89743562, 4184.99999986,8.57
4120.51282024, 4121.79487152, 4125.64102537, 4164.74358954, 4123.20512793, 4059.74358933, 4027.17948670, 4016.53846106, 4062.94871754, 4128.71794844, 4114.74358947, 4125.76923050, 4127.94871767, 4186.79487166,8.57
4123.46153819, 4122.43589716, 4123.71794844, 4174.10256397, 4122.94871767, 4078.97435863, 4043.84615343, 4033.07692259, 4064.61538420, 4128.97435870, 4114.23076896, 4122.30769203, 4128.71794844, 4183.58974345,8.57
4127.56410229, 4128.33333306, 4128.07692280, 4155.38461518, 4122.30769203, 4063.58974318, 4029.87179439, 4019.74358926, 4052.69230728, 4126.41025614, 4116.02564075, 4125.89743562, 4131.66666639, 4189.61538448,8.57
4119.74358947, 4125.25640998, 4124.99999973, 4152.69230749, 4120.76923050, 4043.58974318, 4018.58974311, 4011.28205080, 4047.94871754, 4125.25640998, 4115.51282024, 4123.58974332, 4128.46153819, 4189.87179474,8.57
4122.43589716, 4123.20512793, 4122.56410229, 4175.64102551, 4121.15384588, 4067.82051241, 4049.23076882, 4040.89743548, 4074.61538427, 4126.53846126, 4117.17948691, 4128.97435870, 4131.28205101, 4189.35897422,8.57
4131.41025614, 4130.25640998, 4127.17948691, 4172.82051269, 4122.82051255, 4080.51282017, 4050.89743548, 4043.07692266, 4093.07692273, 4129.10256383, 4116.15384588, 4134.87179460, 4135.25640998, 4190.25641012,8.57
4122.69230742, 4127.17948691, 4126.15384588, 4139.35897415, 4121.41025614, 4045.25640984, 4002.30769176, 3990.64102509, 4049.74358933, 4129.74358947, 4112.05128178, 4127.05128178, 4127.94871767, 4188.58974345,8.57
4122.69230742, 4125.51282024, 4127.82051255, 4133.46153819, 4119.74358947, 4026.28205080, 3997.43589688, 3977.05128150, 4007.17948670, 4128.97435870, 4114.48717921, 4134.61538434, 4130.89743562, 4193.84615371,8.57
4125.76923050, 4126.41025614, 4125.51282024, 4174.61538448, 4121.41025614, 4066.66666625, 4049.87179446, 4029.87179439, 4047.43589702, 4127.82051255, 4116.28205101, 4133.33333306, 4136.28205108, 4192.30769217,8.57
4124.35897408, 4125.89743562, 4122.94871767, 4194.35897422, 4125.64102537, 4096.79487145, 4064.87179446, 4051.41025600, 4089.10256376, 4126.92307665, 4115.89743562, 4129.99999973, 4133.07692280, 4191.66666653,8.57
4126.53846126, 4127.17948691, 4127.05128178, 4164.74358954, 4128.33333306, 4067.43589702, 4028.46153798, 4018.07692259, 4059.48717907, 4126.66666639, 4112.56410229, 4135.89743569, 4129.61538434, 4194.48717935,8.57
4124.48717921, 4124.10256383, 4126.15384588, 4142.56410236, 4124.87179460, 4035.12820465, 4007.05128157, 3996.79487124, 4023.97435849, 4125.12820485, 4109.48717921, 4127.17948691, 4127.69230742, 4190.38461525,8.57
4124.99999973, 4124.87179460, 4125.38461511, 4152.05128185, 4119.87179460, 4050.25640984, 4020.64102516, 4007.05128157, 4034.74358926, 4126.15384588, 4116.02564075, 4130.12820485, 4132.56410229, 4192.94871781,8.57
4121.66666639, 4122.94871767, 4122.69230742, 4151.79487159, 4120.25640998, 4062.69230728, 4022.30769183, 4005.25640977, 4047.05128164, 4127.69230742, 4116.53846126, 4127.30769203, 4133.58974332, 4194.35897422,8.57
4117.05128178, 4120.51282024, 4121.28205101, 4148.07692287, 4124.35897408, 4051.92307651, 4013.46153798, 4000.38461483, 4046.41025600, 4127.56410229, 4109.61538434, 4120.51282024, 4130.38461511, 4191.53846140,8.57
4120.64102537, 4124.61538434, 4122.94871767, 4164.99999980, 4124.48717921, 4055.89743548, 4025.76923029, 4027.69230721, 4068.20512779, 4128.07692280, 4112.56410229, 4126.92307665, 4132.17948691, 4191.92307679,8.57
4119.23076896, 4119.74358947, 4119.99999973, 4175.76923063, 4120.38461511, 4069.10256369, 4040.64102523, 4051.92307651, 4098.97435863, 4130.76923050, 4115.12820485, 4119.35897408, 4131.92307665, 4190.89743576,8.57
4121.41025614, 4118.71794844, 4121.92307665, 4170.38461525, 4121.41025614, 4074.48717914, 4034.23076875, 4025.89743541, 4087.56410222, 4132.56410229, 4113.71794844, 4122.69230742, 4131.79487152, 4193.58974345,8.57
4121.53846126, 4122.05128178, 4120.51282024, 4163.84615364, 4126.15384588, 4067.69230728, 4019.48717900, 3989.74358919, 4039.23076882, 4129.48717921, 4110.51282024, 4128.33333306, 4128.71794844, 4188.71794858,8.57
4116.53846126, 4120.38461511, 4117.94871767, 4166.66666646, 4125.12820485, 4054.48717907, 4019.48717900, 3999.23076868, 4030.12820465, 4125.12820485, 4108.33333306, 4119.10256383, 4126.02564075, 4182.82051269,8.57
4119.10256383, 4122.30769203, 4123.71794844, 4184.99999986, 4122.05128178, 4065.64102523, 4034.99999952, 4027.82051234, 4068.84615343, 4128.71794844, 4111.92307665, 4120.25640998, 4129.10256383, 4188.84615371,8.57
4117.56410229, 4121.41025614, 4122.56410229, 4188.33333320, 4123.20512793, 4076.79487145, 4034.23076875, 4026.53846106, 4082.05128171, 4133.46153819, 4111.66666639, 4116.53846126, 4126.41025614, 4187.56410243,8.57
4122.17948691, 4121.53846126, 4123.20512793, 4161.66666646, 4126.92307665, 4041.28205087, 4002.43589688, 3994.35897381, 4044.23076882, 4131.28205101, 4111.02564075, 4119.61538434, 4127.69230742, 4186.66666653,8.57
4122.82051255, 4122.69230742, 4124.10256383, 4158.07692287, 4128.46153819, 4024.99999952, 3997.56410201, 3991.02564047, 4032.94871747, 4128.07692280, 4110.51282024, 4123.33333306, 4132.17948691, 4188.20512807,8.57
4116.66666639, 4121.66666639, 4120.64102537, 4184.87179474, 4126.02564075, 4065.38461497, 4029.99999952, 4023.20512772, 4069.48717907, 4126.02564075, 4109.10256383, 4116.41025614, 4129.74358947, 4184.87179474,8.57
4124.48717921, 4126.66666639, 4126.53846126, 4198.58974345, 4125.64102537, 4083.07692273, 4036.28205080, 4024.87179439, 4081.79487145, 4125.76923050, 4113.71794844, 4122.17948691, 4130.76923050, 4187.17948704,8.57
4122.82051255, 4125.12820485, 4126.15384588, 4193.20512807, 4127.17948691, 4065.25640984, 4023.84615336, 3998.97435842, 4061.41025600, 4127.17948691, 4114.10256383, 4119.99999973, 4129.10256383, 4183.58974345,8.57
4120.76923050, 4122.30769203, 4123.71794844, 4176.02564089, 4125.38461511, 4056.92307651, 4022.94871747, 3995.51281996, 4048.20512779, 4126.41025614, 4111.15384588, 4118.58974332, 4129.10256383, 4182.30769217,8.57
4126.92307665, 4127.43589716, 4125.76923050, 4162.94871774, 4124.48717921, 4051.15384574, 4018.58974311, 4001.15384560, 4047.82051241, 4123.46153819, 4110.51282024, 4122.82051255, 4129.35897408, 4184.74358961,8.57
4120.51282024, 4126.79487152, 4123.71794844, 4175.38461525, 4125.12820485, 4048.46153805, 4023.71794824, 4015.25640977, 4059.87179446, 4125.64102537, 4111.53846126, 4117.82051255, 4125.38461511, 4183.33333320,8.57
4122.05128178, 4128.46153819, 4127.94871767, 4207.05128199, 4125.76923050, 4079.48717914, 4064.10256369, 4068.07692266, 4101.53846119, 4130.89743562, 4117.69230742, 4126.53846126, 4130.51282024, 4188.33333320,8.57
4126.53846126, 4128.97435870, 4130.51282024, 4216.66666660, 4127.17948691, 4097.56410222, 4077.69230735, 4080.51282017, 4121.15384588, 4128.97435870, 4116.28205101, 4128.71794844, 4131.28205101, 4186.28205115,8.57
4123.84615357, 4127.43589716, 4131.92307665, 4197.30769217, 4124.61538434, 4068.58974318, 4039.87179446, 4022.05128157, 4079.23076889, 4126.15384588, 4113.46153819, 4125.38461511, 4128.71794844, 4185.38461525,8.57
4124.35897408, 4129.61538434, 4131.41025614, 4189.10256397, 4123.07692280, 4059.99999959, 4029.10256362, 4000.51281996, 4049.10256369, 4125.64102537, 4115.89743562, 4128.71794844, 4132.56410229, 4189.10256397,8.57
4123.33333306, 4124.87179460, 4123.71794844, 4195.64102551, 4123.97435870, 4072.30769196, 4040.38461497, 4017.94871747, 4062.05128164, 4127.05128178, 4114.87179460, 4122.43589716, 4132.30769203, 4185.12820499,8.57
4125.12820485, 4125.25640998, 4127.05128178, 4190.38461525, 4123.84615357, 4056.15384574, 4026.66666618, 4013.97435849, 4075.12820478, 4130.76923050, 4115.64102537, 4127.69230742, 4132.94871767, 4188.97435884,8.57
4124.61538434, 4128.58974332, 4128.20512793, 4169.61538448, 4123.97435870, 4040.12820472, 4014.87179439, 4004.99999952, 4058.84615343, 4129.99999973, 4114.74358947, 4128.33333306, 4130.76923050, 4189.10256397,8.57
4125.12820485, 4128.58974332, 4123.84615357, 4176.41025628, 4123.46153819, 4067.17948677, 4034.99999952, 4014.48717900, 4051.66666625, 4127.05128178, 4113.97435870, 4125.38461511, 4129.74358947, 4187.17948704,8.57
4129.74358947, 4130.76923050, 4126.41025614, 4208.58974352, 4123.71794844, 4096.79487145, 4057.94871754, 4029.99999952, 4080.64102530, 4129.35897408, 4116.66666639, 4132.94871767, 4134.87179460, 4194.23076910,8.57
4124.74358947, 4125.12820485, 4126.41025614, 4203.46153840, 4124.23076896, 4084.74358940, 4051.41025600, 4030.38461490, 4081.92307658, 4133.46153819, 4116.79487152, 4127.82051255, 4132.69230742, 4194.23076910,8.57
4124.35897408, 4124.10256383, 4128.58974332, 4185.25641012, 4122.82051255, 4070.76923043, 4042.82051241, 4023.07692259, 4058.20512779, 4132.30769203, 4116.28205101, 4132.43589716, 4131.15384588, 4192.56410243,8.57
4123.33333306, 4127.56410229, 4127.17948691, 4197.82051269, 4121.92307665, 4078.84615350, 4053.84615343, 4037.17948677, 4077.94871761, 4127.82051255, 4114.23076896, 4133.20512793, 4131.41025614, 4189.35897422,8.57
4118.71794844, 4123.46153819, 4121.53846126, 4202.43589737, 4124.10256383, 4076.02564068, 4057.05128164, 4045.51282010, 4096.15384581, 4124.35897408, 4113.97435870, 4124.23076896, 4132.05128178, 4190.51282038,8.57
4124.10256383, 4123.20512793, 4122.17948691, 4192.17948704, 4125.64102537, 4069.10256369, 4045.89743548, 4031.79487131, 4076.41025607, 4126.79487152, 4116.41025614, 4131.41025614, 4135.38461518, 4195.89743576,8.57
4122.05128178, 4124.74358947, 4119.74358947, 4204.87179481, 4123.71794844, 4091.79487145, 4056.41025600, 4044.87179446, 4087.17948684, 4130.12820485, 4111.28205101, 4127.43589716, 4131.79487152, 4191.28205115,8.57
4120.51282024, 4126.66666639, 4121.66666639, 4201.66666660, 4122.56410229, 4096.15384581, 4057.43589702, 4049.87179446, 4093.97435863, 4128.20512793, 4110.89743562, 4124.99999973, 4130.25640998, 4192.94871781,8.57
4123.84615357, 4123.84615357, 4122.30769203, 4168.20512807, 4124.87179460, 4065.51282010, 4027.56410208, 4009.99999952, 4045.51282010, 4127.17948691, 4115.64102537, 4127.05128178, 4131.79487152, 4193.97435884,8.57
4119.48717921, 4117.69230742, 4116.79487152, 4193.58974345, 4125.76923050, 4095.38461504, 4057.56410215, 4036.66666618, 4074.23076889, 4127.94871767, 4113.46153819, 4123.71794844, 4128.97435870, 4190.38461525,8.57
4118.71794844, 4124.35897408, 4121.79487152, 4239.35897436, 4124.74358947, 4135.51282031, 4107.56410229, 4096.79487145, 4148.20512800, 4127.43589716, 4114.61538434, 4128.46153819, 4131.15384588, 4193.84615371,8.57
4117.43589716, 4127.82051255, 4124.10256383, 4202.94871788, 4122.69230742, 4074.87179453, 4057.82051241, 4044.87179446, 4095.89743555, 4126.53846126, 4114.87179460, 4123.20512793, 4132.56410229, 4189.23076910,8.57
4119.74358947, 4124.61538434, 4121.15384588, 4162.30769210, 4122.82051255, 4020.12820465, 4003.58974304, 3982.82051227, 4021.15384567, 4127.94871767, 4113.07692280, 4124.61538434, 4131.92307665, 4186.66666653,8.57
4121.15384588, 4124.87179460, 4120.38461511, 4197.69230756, 4126.28205101, 4058.58974318, 4044.99999959, 4032.30769183, 4066.15384574, 4130.51282024, 4113.58974332, 4129.35897408, 4132.17948691, 4189.87179474,8.57
4114.61538434, 4122.82051255, 4120.89743562, 4224.99999993, 4124.74358947, 4082.56410222, 4080.76923043, 4080.12820478, 4123.46153819, 4130.38461511, 4115.12820485, 4118.58974332, 4130.38461511, 4185.76923063,8.57
4120.64102537, 4124.10256383, 4125.64102537, 4195.25641012, 4123.97435870, 4058.20512779, 4053.33333292, 4048.97435856, 4102.56410229, 4128.46153819, 4117.56410229, 4121.66666639, 4131.92307665, 4186.66666653,8.57
4123.58974332, 4126.92307665, 4123.71794844, 4199.99999986, 4127.43589716, 4078.33333299, 4059.35897395, 4046.66666625, 4096.41025607, 4127.82051255, 4113.71794844, 4122.56410229, 4128.97435870, 4186.79487166,8.57
4120.89743562, 4126.92307665, 4122.56410229, 4239.74358975, 4126.53846126, 4118.58974332, 4103.97435870, 4100.25640991, 4131.92307665, 4130.51282024, 4114.87179460, 4122.56410229, 4127.43589716, 4185.64102551,8.57
4123.46153819, 4126.79487152, 4126.15384588, 4216.66666660, 4125.12820485, 4096.66666632, 4086.53846119, 4083.07692273, 4110.64102537, 4130.12820485, 4118.33333306, 4124.61538434, 4128.97435870, 4187.05128192,8.57
4119.99999973, 4125.38461511, 4124.10256383, 4167.94871774, 4125.51282024, 4061.92307651, 4036.28205080, 4011.28205080, 4052.05128164, 4127.30769203, 4112.17948691, 4114.99999973, 4125.12820485, 4183.46153833,8.57
4122.05128178, 4126.41025614, 4126.53846126, 4181.92307679, 4125.25640998, 4073.84615350, 4041.02564061, 4011.79487131, 4052.43589702, 4128.07692280, 4112.43589716, 4122.17948691, 4127.30769203, 4185.12820499,8.57
4122.94871767, 4126.28205101, 4125.76923050, 4213.58974352, 4124.74358947, 4097.69230735, 4077.30769196, 4057.43589702, 4084.61538427, 4131.02564075, 4116.41025614, 4125.76923050, 4128.07692280, 4185.76923063,8.57
4119.74358947, 4124.74358947, 4122.82051255, 4200.89743576, 4124.99999973, 4098.20512786, 4084.87179453, 4055.38461497, 4079.23076889, 4130.76923050, 4115.38461511, 4120.89743562, 4127.30769203, 4185.89743576,8.57
4123.71794844, 4126.41025614, 4127.82051255, 4185.64102551, 4124.48717921, 4091.79487145, 4073.71794837, 4040.38461497, 4076.66666632, 4129.74358947, 4113.46153819, 4126.02564075, 4130.76923050, 4187.82051269,8.57
4124.74358947, 4124.74358947, 4127.56410229, 4201.53846147, 4124.61538434, 4091.41025607, 4066.66666625, 4049.10256369, 4095.51282017, 4131.41025614, 4113.58974332, 4121.15384588, 4128.33333306, 4183.33333320,8.57
4124.87179460, 4125.89743562, 4125.64102537, 4211.79487173, 4125.64102537, 4087.56410222, 4064.35897395, 4056.41025600, 4103.71794844, 4133.58974332, 4118.33333306, 4121.66666639, 4128.58974332, 4189.35897422,8.57
4121.92307665, 4124.10256383, 4123.33333306, 4197.94871781, 4124.61538434, 4090.38461504, 4079.74358940, 4075.51282017, 4119.48717921, 4131.02564075, 4116.66666639, 4122.17948691, 4129.10256383, 4190.38461525,8.57
4122.82051255, 4122.43589716, 4124.87179460, 4186.53846140, 4123.84615357, 4101.92307658, 4085.51282017, 4079.48717914, 4117.69230742, 4125.89743562, 4112.43589716, 4123.58974332, 4128.58974332, 4186.02564089,8.57
4128.46153819, 4131.41025614, 4129.87179460, 4176.66666653, 4124.74358947, 4087.05128171, 4054.48717907, 4032.30769183, 4067.43589702, 4128.84615357, 4114.23076896, 4133.71794844, 4133.84615357, 4191.66666653,8.57
4123.97435870, 4129.61538434, 4125.12820485, 4168.33333320, 4124.74358947, 4067.56410215, 4040.51282010, 4014.10256362, 4049.61538420, 4134.48717921, 4115.51282024, 4127.05128178, 4133.46153819, 4192.69230756,8.57
4128.20512793, 4129.10256383, 4127.17948691, 4177.82051269, 4125.12820485, 4079.74358940, 4062.56410215, 4050.64102523, 4086.92307658, 4132.17948691, 4117.30769203, 4129.35897408, 4132.69230742, 4194.61538448,8.57
4130.89743562, 4132.05128178, 4128.97435870, 4194.23076910, 4128.46153819, 4103.58974332, 4077.43589709, 4063.58974318, 4105.25640998, 4126.15384588, 4117.43589716, 4132.94871767, 4133.71794844, 4191.66666653,8.57
4124.23076896, 4124.99999973, 4125.51282024, 4188.84615371, 4128.46153819, 4098.20512786, 4062.69230728, 4031.41025593, 4075.25640991, 4125.76923050, 4116.02564075, 4123.84615357, 4133.20512793, 4184.99999986,8.57
4128.46153819, 4126.15384588, 4128.71794844, 4168.20512807, 4126.15384588, 4079.48717914, 4044.99999959, 4011.41025593, 4041.79487138, 4133.20512793, 4115.76923050, 4131.28205101, 4134.99999973, 4190.12820499,8.57
4126.41025614, 4126.92307665, 4123.84615357, 4172.30769217, 4126.02564075, 4086.92307658, 4054.48717907, 4029.74358926, 4051.66666625, 4133.97435870, 4113.84615357, 4128.20512793, 4132.82051255, 4193.97435884,8.57
4121.92307665, 4124.74358947, 4121.41025614, 4169.61538448, 4125.38461511, 4076.66666632, 4051.28205087, 4033.20512772, 4063.58974318, 4129.10256383, 4116.41025614, 4124.87179460, 4133.07692280, 4195.89743576,8.57
4121.41025614, 4124.99999973, 4124.10256383, 4150.38461518, 4123.07692280, 4044.87179446, 4029.74358926, 4014.10256362, 4042.30769189, 4128.46153819, 4116.53846126, 4131.79487152, 4133.46153819, 4189.61538448,8.57
4113.97435870, 4122.69230742, 4120.38461511, 4180.38461525, 4122.30769203, 4071.92307658, 4062.82051241, 4048.97435856, 4073.97435863, 4127.94871767, 4110.89743562, 4126.28205101, 4128.07692280, 4184.74358961,8.57
4120.51282024, 4124.48717921, 4123.97435870, 4217.94871788, 4124.35897408, 4111.92307665, 4107.30769203, 4103.33333306, 4141.02564082, 4124.74358947, 4115.12820485, 4128.71794844, 4130.64102537, 4194.23076910,8.57
4126.53846126, 4123.20512793, 4123.97435870, 4199.99999986, 4125.12820485, 4087.94871761, 4079.61538427, 4081.79487145, 4122.05128178, 4124.99999973, 4115.12820485, 4124.61538434, 4131.15384588, 4192.30769217,8.57
4121.79487152, 4122.30769203, 4120.12820485, 4182.30769217, 4125.12820485, 4078.20512786, 4053.20512779, 4030.76923029, 4060.38461497, 4127.30769203, 4110.12820485, 4122.43589716, 4129.35897408, 4188.58974345,8.57
4121.02564075, 4124.10256383, 4123.97435870, 4186.41025628, 4125.12820485, 4097.82051248, 4060.51282010, 4015.25640977, 4046.53846113, 4124.74358947, 4112.69230742, 4130.38461511, 4134.23076896, 4194.48717935,8.57
4117.17948691, 4119.87179460, 4123.97435870, 4172.94871781, 4123.46153819, 4071.79487145, 4044.23076882, 4013.46153798, 4051.28205087, 4125.25640998, 4112.69230742, 4119.99999973, 4131.79487152, 4189.99999986,8.57
4120.38461511, 4121.15384588, 4122.82051255, 4172.69230756, 4126.41025614, 4054.87179446, 4035.64102516, 4019.74358926, 4054.99999959, 4129.61538434, 4113.07692280, 4120.51282024, 4129.87179460, 4188.97435884,8.57
4122.43589716, 4121.15384588, 4119.61538434, 4191.02564089, 4128.84615357, 4081.02564068, 4049.61538420, 4032.69230721, 4063.33333292, 4129.35897408, 4111.92307665, 4125.64102537, 4129.99999973, 4189.87179474,8.57
4119.99999973, 4120.12820485, 4119.48717921, 4181.28205115, 4121.53846126, 4077.69230735, 4043.97435856, 4035.38461490, 4063.33333292, 4127.94871767, 4108.97435870, 4122.17948691, 4127.43589716, 4185.25641012,8.57
4123.33333306, 4128.46153819, 4124.74358947, 4172.69230756, 4121.92307665, 4054.87179446, 4036.41025593, 4040.51282010, 4070.12820478, 4129.10256383, 4112.17948691, 4124.61538434, 4128.84615357, 4186.28205115,8.57
4117.94871767, 4125.38461511, 4120.25640998, 4185.64102551, 4127.94871767, 4067.43589702, 4051.66666625, 4057.56410215, 4090.25640991, 4128.20512793, 4111.79487152, 4118.71794844, 4128.33333306, 4184.99999986,8.57
4118.58974332, 4121.53846126, 4119.87179460, 4184.35897422, 4123.84615357, 4081.02564068, 4057.43589702, 4058.33333292, 4084.87179453, 4127.94871767, 4112.17948691, 4122.17948691, 4130.25640998, 4187.30769217,8.57
4121.02564075, 4127.17948691, 4121.66666639, 4196.66666653, 4122.43589716, 4087.56410222, 4066.92307651, 4063.33333292, 4082.17948684, 4132.56410229, 4114.35897408, 4121.79487152, 4130.64102537, 4189.23076910,8.57
4117.82051255, 4126.41025614, 4121.02564075, 4223.97435891, 4125.38461511, 4104.35897408, 4084.74358940, 4082.05128171, 4106.66666639, 4132.69230742, 4113.58974332, 4116.02564075, 4127.94871767, 4187.30769217,8.57
4124.23076896, 4125.64102537, 4126.02564075, 4205.12820506, 4125.25640998, 4092.17948684, 4065.25640984, 4062.43589702, 4095.64102530, 4130.76923050, 4115.12820485, 4126.79487152, 4130.51282024, 4189.99999986,8.57
4123.58974332, 4124.10256383, 4121.92307665, 4167.56410236, 4125.25640998, 4062.56410215, 4037.05128164, 4028.07692259, 4055.12820472, 4131.79487152, 4113.84615357, 4121.02564075, 4129.87179460, 4182.56410243,8.57
4121.92307665, 4126.79487152, 4122.43589716, 4173.84615371, 4125.51282024, 4063.58974318, 4039.61538420, 4028.84615336, 4048.20512779, 4130.64102537, 4112.17948691, 4118.46153819, 4130.89743562, 4183.84615371,8.57
4123.58974332, 4128.07692280, 4127.82051255, 4193.07692294, 4122.94871767, 4083.20512786, 4048.84615343, 4037.05128164, 4064.87179446, 4127.82051255, 4112.94871767, 4124.87179460, 4131.02564075, 4189.23076910,8.57
4120.64102537, 4124.87179460, 4123.46153819, 4187.43589730, 4121.41025614, 4090.38461504, 4049.48717907, 4039.23076882, 4075.25640991, 4126.41025614, 4112.82051255, 4117.94871767, 4126.66666639, 4181.92307679,8.57
4127.05128178, 4130.64102537, 4126.15384588, 4180.12820499, 4126.41025614, 4091.15384581, 4053.20512779, 4049.87179446, 4079.23076889, 4128.97435870, 4114.87179460, 4123.84615357, 4130.12820485, 4185.64102551,8.57
4125.76923050, 4129.61538434, 4128.46153819, 4191.15384602, 4128.97435870, 4102.30769196, 4066.66666625, 4059.99999959, 4093.71794837, 4132.30769203, 4112.82051255, 4124.87179460, 4128.71794844, 4188.20512807,8.57
4121.92307665, 4126.28205101, 4124.35897408, 4197.17948704, 4126.28205101, 4105.76923050, 4075.76923043, 4063.58974318, 4104.10256383, 4132.94871767, 4113.97435870, 4125.25640998, 4127.05128178, 4188.20512807,8.57
4127.94871767, 4128.97435870, 4125.64102537, 4179.48717935, 4127.43589716, 4082.17948684, 4061.79487138, 4059.10256369, 4086.79487145, 4129.48717921, 4117.05128178, 4132.43589716, 4133.33333306, 4190.89743576,8.57
4124.99999973, 4124.74358947, 4128.07692280, 4161.79487159, 4127.94871767, 4050.12820472, 4033.07692259, 4034.99999952, 4061.66666625, 4128.20512793, 4115.76923050, 4125.89743562, 4131.53846126, 4187.82051269,8.57
4123.07692280, 4125.76923050, 4128.46153819, 4175.38461525, 4124.35897408, 4059.10256369, 4046.92307651, 4030.38461490, 4070.89743555, 4130.25640998, 4118.33333306, 4128.58974332, 4130.89743562, 4190.51282038,8.57
4121.53846126, 4127.56410229, 4121.66666639, 4201.41025634, 4123.33333306, 4088.71794837, 4085.12820478, 4062.94871754, 4096.02564068, 4128.71794844, 4118.07692280, 4127.43589716, 4131.28205101, 4189.87179474,8.57
4120.25640998, 4123.71794844, 4121.92307665, 4186.79487166, 4124.23076896, 4066.79487138, 4054.23076882, 4044.87179446, 4067.17948677, 4126.02564075, 4114.61538434, 4124.48717921, 4129.61538434, 4189.35897422,8.57
4123.58974332, 4126.02564075, 4127.05128178, 4166.15384595, 4125.51282024, 4047.05128164, 4020.64102516, 4006.79487131, 4036.15384567, 4126.66666639, 4114.48717921, 4131.53846126, 4133.33333306, 4195.12820499,8.57
4118.20512793, 4124.61538434, 4119.87179460, 4200.89743576, 4124.61538434, 4097.43589709, 4076.28205094, 4056.92307651, 4086.41025607, 4127.82051255, 4112.82051255, 4122.69230742, 4134.35897408, 4191.66666653,8.57
4117.56410229, 4123.58974332, 4120.38461511, 4223.97435891, 4121.41025614, 4129.23076896, 4109.23076896, 4103.20512793, 4128.33333306, 4128.07692280, 4112.30769203, 4126.41025614, 4135.76923056, 4191.41025628,8.57
4117.05128178, 4123.33333306, 4123.84615357, 4182.17948704, 4119.99999973, 4085.76923043, 4057.82051241, 4060.64102523, 4086.79487145, 4127.56410229, 4111.15384588, 4129.87179460, 4131.53846126, 4192.05128192,8.57
4115.89743562, 4119.23076896, 4122.69230742, 4149.87179467, 4124.35897408, 4045.89743548, 4025.38461490, 4024.35897388, 4049.48717907, 4128.46153819, 4112.56410229, 4121.53846126, 4129.35897408, 4192.82051269,8.57
4123.97435870, 4122.56410229, 4124.61538434, 4164.23076903, 4128.84615357, 4053.71794830, 4042.82051241, 4036.79487131, 4063.58974318, 4129.61538434, 4115.76923050, 4128.97435870, 4137.30769210, 4197.69230756,8.57
4118.33333306, 4121.53846126, 4119.87179460, 4177.05128192, 4125.89743562, 4071.15384581, 4056.53846113, 4044.99999959, 4074.61538427, 4127.30769203, 4111.15384588, 4127.30769203, 4134.23076896, 4190.12820499,8.57
4115.64102537, 4121.92307665, 4121.92307665, 4170.89743576, 4122.94871767, 4066.02564061, 4051.79487138, 4038.07692266, 4065.89743548, 4127.30769203, 4111.41025614, 4124.48717921, 4129.23076896, 4188.33333320,8.57
4119.74358947, 4125.64102537, 4123.84615357, 4186.66666653, 4126.28205101, 4083.71794837, 4076.28205094, 4067.05128164, 4086.15384581, 4131.53846126, 4115.25640998, 4124.10256383, 4130.89743562, 4193.20512807,8.57
4113.71794844, 4120.38461511, 4119.23076896, 4213.20512814, 4128.84615357, 4127.94871767, 4117.56410229, 4108.07692280, 4122.30769203, 4129.87179460, 4112.94871767, 4119.87179460, 4132.30769203, 4190.12820499,8.57
4118.33333306, 4121.79487152, 4122.56410229, 4187.69230756, 4128.97435870, 4109.23076896, 4092.43589709, 4082.17948684, 4100.25640991, 4127.17948691, 4111.66666639, 4125.12820485, 4133.58974332, 4188.20512807,8.57
4121.02564075, 4124.99999973, 4122.43589716, 4143.46153826, 4127.43589716, 4060.25640984, 4040.76923036, 4034.87179439, 4056.66666625, 4130.89743562, 4110.12820485, 4119.23076896, 4128.46153819, 4184.99999986,8.57
4119.35897408, 4123.20512793, 4123.20512793, 4163.33333313, 4125.12820485, 4082.30769196, 4058.58974318, 4054.23076882, 4079.99999966, 4131.79487152, 4111.92307665, 4120.76923050, 4129.48717921, 4186.41025628,8.57
4121.53846126, 4122.82051255, 4125.38461511, 4184.48717935, 4126.53846126, 4108.20512793, 4085.38461504, 4074.61538427, 4104.74358947, 4127.17948691, 4112.17948691, 4125.12820485, 4132.05128178, 4185.89743576,8.57
4116.66666639, 4122.30769203, 4119.48717921, 4147.05128185, 4126.53846126, 4064.74358933, 4045.38461497, 4037.56410215, 4067.82051241, 4127.05128178, 4107.94871767, 4115.38461511, 4127.05128178, 4183.97435884,8.57
4121.53846126, 4125.89743562, 4124.48717921, 4142.17948697, 4126.28205101, 4044.99999959, 4024.48717900, 4023.46153798, 4052.30769189, 4129.61538434, 4112.30769203, 4122.82051255, 4130.38461511, 4187.17948704,8.57
4123.07692280, 4124.23076896, 4128.84615357, 4192.69230756, 4128.46153819, 4095.51282017, 4077.43589709, 4063.84615343, 4090.76923043, 4127.56410229, 4115.38461511, 4124.99999973, 4130.12820485, 4180.64102551,8.57
4120.12820485, 4122.82051255, 4125.25640998, 4201.66666660, 4127.94871767, 4116.41025614, 4102.56410229, 4081.79487145, 4111.92307665, 4126.79487152, 4112.94871767, 4121.02564075, 4126.15384588, 4182.94871781,8.57
4124.35897408, 4128.46153819, 4126.41025614, 4166.02564082, 4127.43589716, 4084.35897402, 4065.25640984, 4056.41025600, 4096.53846119, 4127.05128178, 4111.92307665, 4121.92307665, 4128.97435870, 4188.97435884,8.57
4119.35897408, 4125.51282024, 4124.99999973, 4164.23076903, 4124.87179460, 4084.48717914, 4060.12820472, 4051.02564061, 4082.43589709, 4126.53846126, 4110.76923050, 4116.92307665, 4128.46153819, 4183.07692294,8.57
4121.28205101, 4124.74358947, 4126.28205101, 4184.35897422, 4124.35897408, 4109.35897408, 4094.74358940, 4077.30769196, 4084.10256376, 4129.23076896, 4113.46153819, 4124.10256383, 4130.51282024, 4186.66666653,8.57
4126.02564075, 4126.66666639, 4125.25640998, 4168.97435884, 4128.71794844, 4094.61538427, 4081.53846119, 4068.71794830, 4078.58974325, 4130.25640998, 4114.10256383, 4122.56410229, 4130.64102537, 4187.17948704,8.57
4125.25640998, 4125.76923050, 4125.76923050, 4148.58974339, 4128.97435870, 4075.51282017, 4052.69230728, 4047.17948677, 4074.61538427, 4126.66666639, 4113.07692280, 4118.07692280, 4128.07692280, 4185.38461525,8.57
4125.51282024, 4127.82051255, 4129.99999973, 4165.64102544, 4127.17948691, 4096.15384581, 4072.69230735, 4067.69230728, 4096.15384581, 4124.61538434, 4114.99999973, 4128.71794844, 4130.89743562, 4188.84615371,8.57
4125.51282024, 4127.82051255, 4129.99999973, 4165.64102544, 4127.17948691, 4096.15384581, 4072.69230735, 4067.69230728, 4096.15384581, 4124.61538434, 4114.99999973, 4128.71794844, 4130.89743562, 4188.84615371,8.57
4120.25640998, 4122.94871767, 4123.84615357, 4179.99999986, 4126.66666639, 4108.33333306, 4084.87179453, 4078.58974325, 4102.30769196, 4126.15384588, 4114.10256383, 4125.12820485, 4128.58974332, 4184.99999986,8.57
4124.61538434, 4122.69230742, 4125.38461511, 4172.56410243, 4124.74358947, 4103.71794844, 4075.64102530, 4067.43589702, 4087.43589709, 4127.30769203, 4114.99999973, 4125.51282024, 4129.61538434, 4188.20512807,8.57
4126.02564075, 4126.66666639, 4129.48717921, 4174.35897422, 4123.33333306, 4115.25640998, 4088.46153812, 4081.41025607, 4103.07692280, 4127.17948691, 4114.87179460, 4125.64102537, 4131.15384588, 4188.33333320,8.57
4122.17948691, 4125.51282024, 4126.53846126, 4161.41025621, 4124.61538434, 4105.12820485, 4083.33333299, 4078.97435863, 4108.58974332, 4125.51282024, 4115.38461511, 4123.71794844, 4129.23076896, 4183.46153833,8.57
4127.05128178, 4127.82051255, 4127.82051255, 4125.76923050, 4125.51282024, 4072.82051248, 4051.79487138, 4050.76923036, 4078.46153812, 4128.84615357, 4116.66666639, 4131.53846126, 4132.05128178, 4190.12820499,8.57
4123.07692280, 4125.64102537, 4125.76923050, 4127.43589716, 4123.33333306, 4076.15384581, 4053.58974318, 4050.25640984, 4077.30769196, 4134.23076896, 4113.46153819, 4123.58974332, 4133.07692280, 4190.89743576,8.57
4121.53846126, 4124.87179460, 4125.64102537, 4160.51282031, 4123.20512793, 4106.66666639, 4081.41025607, 4073.58974325, 4111.28205101, 4132.43589716, 4116.66666639, 4125.25640998, 4134.35897408, 4190.64102551,8.57
4123.58974332, 4126.53846126, 4124.87179460, 4164.23076903, 4126.92307665, 4115.76923050, 4086.66666632, 4087.17948684, 4120.12820485, 4129.61538434, 4118.33333306, 4130.51282024, 4133.07692280, 4192.05128192,8.57
4119.10256383, 4121.79487152, 4119.87179460, 4158.97435877, 4127.05128178, 4119.87179460, 4083.58974325, 4084.48717914, 4115.12820485, 4132.56410229, 4114.87179460, 4123.97435870, 4129.35897408, 4189.23076910,8.57
4124.61538434, 4122.56410229, 4124.10256383, 4164.10256390, 4126.79487152, 4126.53846126, 4078.07692273, 4058.33333292, 4103.84615357, 4131.79487152, 4118.33333306, 4131.41025614, 4131.15384588, 4192.05128192,8.57
4126.53846126, 4123.58974332, 4123.33333306, 4169.74358961, 4124.87179460, 4125.12820485, 4073.97435863, 4049.48717907, 4088.58974325, 4126.28205101, 4117.30769203, 4126.28205101, 4129.61538434, 4192.17948704,8.57
4125.25640998, 4124.99999973, 4122.17948691, 4170.51282038, 4122.17948691, 4123.07692280, 4081.41025607, 4080.51282017, 4098.97435863, 4127.05128178, 4113.07692280, 4124.99999973, 4132.69230742, 4194.74358961,8.57
4127.30769203, 4127.05128178, 4125.12820485, 4143.58974339, 4127.82051255, 4107.17948691, 4074.61538427, 4081.92307658, 4091.02564068, 4128.97435870, 4112.05128178, 4130.76923050, 4135.38461518, 4193.71794858,8.57
4118.07692280, 4121.66666639, 4120.12820485, 4121.02564075, 4132.69230742, 4095.25640991, 4063.07692266, 4049.87179446, 4059.87179446, 4126.53846126, 4109.74358947, 4118.07692280, 4129.74358947, 4189.23076910,8.57
4118.97435870, 4124.87179460, 4121.15384588, 4148.20512800, 4127.43589716, 4109.35897408, 4073.84615350, 4051.28205087, 4072.43589709, 4125.89743562, 4113.97435870, 4123.33333306, 4131.66666639, 4198.07692294,8.57
4123.20512793, 4126.79487152, 4121.79487152, 4173.97435884, 4121.92307665, 4117.17948691, 4086.53846119, 4071.02564068, 4102.94871767, 4127.17948691, 4115.89743562, 4129.35897408, 4134.35897408, 4194.23076910,8.57
4121.28205101, 4122.30769203, 4122.17948691, 4167.17948697, 4125.51282024, 4116.79487152, 4096.02564068, 4081.79487145, 4111.02564075, 4127.43589716, 4113.97435870, 4125.76923050, 4133.07692280, 4186.15384602,8.57
4122.94871767, 4123.33333306, 4124.48717921, 4172.82051269, 4130.12820485, 4124.61538434, 4103.71794844, 4098.07692273, 4129.87179460, 4126.53846126, 4114.99999973, 4125.76923050, 4132.17948691, 4191.41025628,8.57
4116.28205101, 4120.64102537, 4118.07692280, 4173.20512807, 4126.28205101, 4111.79487152, 4084.87179453, 4091.28205094, 4134.99999973, 4125.51282024, 4113.71794844, 4115.12820485, 4127.30769203, 4191.66666653,8.57
4115.89743562, 4122.69230742, 4120.89743562, 4146.28205108, 4124.48717921, 4084.23076889, 4057.56410215, 4053.71794830, 4093.84615350, 4126.66666639, 4114.99999973, 4117.94871767, 4129.99999973, 4191.92307679,8.57
4114.10256383, 4124.23076896, 4122.82051255, 4143.33333313, 4128.97435870, 4093.07692273, 4066.66666625, 4052.94871754, 4081.15384581, 4127.82051255, 4114.23076896, 4121.28205101, 4133.07692280, 4187.94871781,8.57
4113.46153819, 4122.05128178, 4118.84615357, 4166.28205108, 4129.10256383, 4122.05128178, 4096.79487145, 4092.69230735, 4115.64102537, 4127.43589716, 4112.82051255, 4119.99999973, 4130.89743562, 4187.43589730,8.57
4123.20512793, 4126.28205101, 4123.58974332, 4178.07692294, 4127.43589716, 4137.82051262, 4116.28205101, 4111.66666639, 4134.48717921, 4128.97435870, 4115.12820485, 4123.07692280, 4131.02564075, 4190.38461525,8.57
4117.82051255, 4123.84615357, 4123.71794844, 4177.56410243, 4128.07692280, 4138.84615364, 4117.43589716, 4103.84615357, 4125.64102537, 4126.66666639, 4113.07692280, 4116.15384588, 4128.33333306, 4182.82051269,8.57
4116.92307665, 4124.10256383, 4123.20512793, 4179.10256397, 4128.58974332, 4131.15384588, 4107.69230742, 4105.76923050, 4128.58974332, 4124.10256383, 4113.71794844, 4123.97435870, 4130.76923050, 4183.97435884,8.57
4120.64102537, 4125.38461511, 4122.56410229, 4173.97435884, 4127.30769203, 4124.10256383, 4100.12820478, 4106.02564075, 4137.56410236, 4129.35897408, 4116.28205101, 4126.53846126, 4131.41025614, 4183.97435884,8.57
4117.30769203, 4122.69230742, 4121.53846126, 4163.07692287, 4124.74358947, 4117.69230742, 4090.64102530, 4085.76923043, 4117.69230742, 4130.76923050, 4114.87179460, 4119.35897408, 4128.07692280, 4180.64102551,8.57
4122.69230742, 4128.07692280, 4124.87179460, 4158.97435877, 4126.92307665, 4104.87179460, 4076.28205094, 4063.58974318, 4085.89743555, 4127.05128178, 4114.74358947, 4127.43589716, 4132.05128178, 4186.53846140,8.57
4120.38461511, 4124.61538434, 4121.79487152, 4164.74358954, 4129.48717921, 4109.35897408, 4089.87179453, 4080.89743555, 4101.53846119, 4127.43589716, 4113.84615357, 4121.53846126, 4130.12820485, 4184.48717935,8.57
4119.48717921, 4120.51282024, 4122.43589716, 4175.25641012, 4127.94871767, 4139.23076903, 4128.33333306, 4121.28205101, 4148.20512800, 4129.74358947, 4115.51282024, 4119.61538434, 4130.25640998, 4185.12820499,8.57
4124.48717921, 4125.38461511, 4124.99999973, 4172.82051269, 4125.51282024, 4144.10256390, 4127.17948691, 4117.94871767, 4145.12820492, 4129.23076896, 4116.79487152, 4124.99999973, 4131.79487152, 4186.66666653,8.57
4122.94871767, 4125.76923050, 4123.97435870, 4166.15384595, 4122.17948691, 4126.28205101, 4102.82051255, 4097.30769196, 4115.89743562, 4128.33333306, 4116.28205101, 4121.66666639, 4128.97435870, 4186.28205115,8.57
4126.79487152, 4127.30769203, 4129.87179460, 4177.82051269, 4124.35897408, 4130.64102537, 4109.99999973, 4108.20512793, 4125.38461511, 4128.71794844, 4119.48717921, 4129.23076896, 4132.30769203, 4192.56410243,8.57
4124.48717921, 4126.79487152, 4126.53846126, 4189.74358961, 4129.23076896, 4139.35897415, 4119.99999973, 4117.17948691, 4144.61538441, 4129.61538434, 4116.79487152, 4127.05128178, 4130.89743562, 4189.23076910,8.57
4123.58974332, 4126.92307665, 4124.74358947, 4179.10256397, 4127.30769203, 4123.58974332, 4097.05128171, 4088.20512786, 4124.35897408, 4129.87179460, 4115.51282024, 4127.94871767, 4130.51282024, 4188.58974345,8.57
4128.33333306, 4128.97435870, 4128.58974332, 4161.41025621, 4124.87179460, 4104.48717921, 4075.76923043, 4058.33333292, 4093.97435863, 4127.82051255, 4117.94871767, 4133.58974332, 4133.84615357, 4192.69230756,8.57
4122.56410229, 4126.53846126, 4122.82051255, 4159.48717928, 4125.12820485, 4113.46153819, 4095.38461504, 4077.17948684, 4106.02564075, 4128.46153819, 4115.12820485, 4124.35897408, 4130.25640998, 4189.99999986,8.57
4123.46153819, 4128.33333306, 4123.46153819, 4164.35897415, 4125.89743562, 4127.94871767, 4112.30769203, 4094.74358940, 4117.94871767, 4131.53846126, 4115.51282024, 4129.74358947, 4132.30769203, 4194.35897422,8.57
4121.41025614, 4126.66666639, 4122.69230742, 4164.10256390, 4123.97435870, 4130.89743562, 4106.28205101, 4082.56410222, 4104.99999973, 4128.07692280, 4114.48717921, 4129.10256383, 4135.12820485, 4193.84615371,8.57
4120.12820485, 4124.61538434, 4121.28205101, 4158.58974339, 4123.97435870, 4126.92307665, 4102.69230742, 4085.64102530, 4108.71794844, 4124.23076896, 4113.84615357, 4126.66666639, 4132.30769203, 4191.41025628,8.57
4128.07692280, 4127.05128178, 4126.28205101, 4145.12820492, 4128.84615357, 4111.02564075, 4093.58974325, 4094.35897402, 4116.41025614, 4127.17948691, 4114.87179460, 4133.97435870, 4132.43589716, 4193.84615371,8.57
4120.89743562, 4120.38461511, 4122.82051255, 4158.97435877, 4128.07692280, 4123.07692280, 4106.79487152, 4104.61538434, 4124.61538434, 4127.94871767, 4111.92307665, 4123.71794844, 4132.43589716, 4190.64102551,8.57
4118.84615357, 4122.94871767, 4122.43589716, 4183.71794858, 4124.99999973, 4145.64102544, 4129.74358947, 4113.84615357, 4131.66666639, 4126.79487152, 4114.10256383, 4125.89743562, 4132.82051255, 4192.94871781,8.57
4123.33333306, 4127.94871767, 4122.17948691, 4181.28205115, 4123.58974332, 4138.46153826, 4123.07692280, 4108.71794844, 4130.12820485, 4129.35897408, 4113.71794844, 4127.82051255, 4127.17948691, 4192.94871781,8.57
4121.41025614, 4121.92307665, 4118.84615357, 4174.35897422, 4121.53846126, 4129.35897408, 4110.38461511, 4101.02564068, 4129.48717921, 4130.25640998, 4111.53846126, 4121.53846126, 4126.92307665, 4191.79487166,8.57
4122.43589716, 4123.71794844, 4122.69230742, 4171.28205115, 4122.43589716, 4126.15384588, 4111.79487152, 4096.53846119, 4128.46153819, 4127.05128178, 4114.10256383, 4128.84615357, 4136.92307672, 4196.02564089,8.57
4115.51282024, 4123.20512793, 4119.99999973, 4165.51282031, 4124.61538434, 4112.43589716, 4114.48717921, 4097.69230735, 4126.15384588, 4124.87179460, 4112.30769203, 4121.28205101, 4131.79487152, 4190.12820499,8.57
4116.02564075, 4122.94871767, 4119.74358947, 4158.46153826, 4125.51282024, 4097.43589709, 4105.76923050, 4098.20512786, 4117.17948691, 4126.28205101, 4112.82051255, 4120.76923050, 4127.56410229, 4188.71794858,8.57
4120.25640998, 4126.79487152, 4121.28205101, 4163.46153826, 4125.89743562, 4112.82051255, 4109.35897408, 4101.28205094, 4120.12820485, 4125.89743562, 4114.87179460, 4126.92307665, 4130.89743562, 4187.94871781,8.57
4117.82051255, 4122.94871767, 4118.58974332, 4167.30769210, 4126.28205101, 4131.53846126, 4121.15384588, 4104.35897408, 4126.41025614, 4124.99999973, 4112.43589716, 4118.46153819, 4128.58974332, 4183.20512807,8.57
4121.92307665, 4122.30769203, 4123.97435870, 4147.69230749, 4127.05128178, 4113.84615357, 4115.12820485, 4098.46153812, 4108.71794844, 4128.58974332, 4111.66666639, 4121.41025614, 4128.33333306, 4189.99999986,8.57
4118.20512793, 4123.97435870, 4124.99999973, 4139.74358954, 4126.28205101, 4093.71794837, 4100.89743555, 4090.51282017, 4102.05128171, 4129.87179460, 4111.41025614, 4121.66666639, 4126.41025614, 4188.71794858,8.57
4119.10256383, 4125.12820485, 4124.48717921, 4160.25641005, 4125.51282024, 4111.92307665, 4104.74358947, 4098.07692273, 4135.76923056, 4128.46153819, 4112.82051255, 4120.89743562, 4127.82051255, 4186.02564089,8.57
4122.94871767, 4123.71794844, 4123.46153819, 4165.64102544, 4126.15384588, 4133.33333306, 4117.05128178, 4112.05128178, 4148.58974339, 4128.46153819, 4112.82051255, 4119.35897408, 4129.10256383, 4187.43589730,8.57
4118.20512793, 4122.05128178, 4123.58974332, 4135.64102544, 4127.30769203, 4104.74358947, 4096.28205094, 4085.38461504, 4098.71794837, 4127.69230742, 4110.38461511, 4113.71794844, 4125.64102537, 4184.10256397,8.57
4120.76923050, 4127.43589716, 4131.15384588, 4135.12820485, 4128.97435870, 4090.51282017, 4087.56410222, 4073.07692273, 4086.66666632, 4126.66666639, 4114.35897408, 4122.43589716, 4129.10256383, 4186.53846140,8.57
4119.87179460, 4127.05128178, 4127.69230742, 4171.92307679, 4129.35897408, 4138.71794851, 4125.64102537, 4118.58974332, 4141.02564082, 4129.23076896, 4116.92307665, 4119.10256383, 4129.87179460, 4184.74358961,8.57
4123.97435870, 4128.20512793, 4124.87179460, 4162.43589723, 4129.10256383, 4143.33333313, 4122.17948691, 4117.82051255, 4144.74358954, 4130.64102537, 4115.89743562, 4118.97435870, 4128.84615357, 4185.12820499,8.57
4127.05128178, 4131.15384588, 4127.56410229, 4117.69230742, 4128.71794844, 4072.69230735, 4065.51282010, 4051.53846113, 4085.38461504, 4128.33333306, 4114.61538434, 4123.97435870, 4129.74358947, 4183.97435884,8.57
4119.99999973, 4126.53846126, 4127.94871767, 4136.92307672, 4127.94871767, 4068.71794830, 4078.71794837, 4061.66666625, 4095.89743555, 4129.35897408, 4112.30769203, 4115.51282024, 4129.61538434, 4179.48717935,8.57
4124.35897408, 4129.48717921, 4131.66666639, 4190.38461525, 4129.35897408, 4138.58974339, 4143.71794851, 4139.87179467, 4162.69230749, 4131.92307665, 4117.82051255, 4123.33333306, 4132.82051255, 4187.69230756,8.57
4124.10256383, 4129.35897408, 4127.30769203, 4172.43589730, 4129.99999973, 4135.64102544, 4122.94871767, 4125.89743562, 4137.94871774, 4127.05128178, 4119.74358947, 4126.66666639, 4129.48717921, 4187.30769217,8.57
4122.05128178, 4126.28205101, 4126.66666639, 4137.17948697, 4128.07692280, 4090.25640991, 4073.33333299, 4067.94871754, 4079.35897402, 4122.30769203, 4115.25640998, 4124.35897408, 4127.56410229, 4185.25641012,8.57
4121.15384588, 4124.87179460, 4127.43589716, 4150.25641005, 4125.25640998, 4094.23076889, 4085.38461504, 4081.28205094, 4101.41025607, 4127.69230742, 4114.35897408, 4127.05128178, 4129.74358947, 4187.56410243,8.57
4120.64102537, 4124.10256383, 4124.35897408, 4150.38461518, 4126.15384588, 4106.02564075, 4091.02564068, 4091.41025607, 4121.28205101, 4131.53846126, 4113.97435870, 4122.56410229, 4126.15384588, 4184.61538448,8.57
4130.51282024, 4131.53846126, 4131.02564075, 4124.23076896, 4128.20512793, 4092.69230735, 4061.41025600, 4049.87179446, 4078.33333299, 4128.46153819, 4116.15384588, 4130.64102537, 4130.76923050, 4188.33333320,8.57
4126.53846126, 4128.71794844, 4126.53846126, 4126.41025614, 4127.69230742, 4094.87179453, 4062.69230728, 4040.64102523, 4066.92307651, 4125.51282024, 4114.87179460, 4129.23076896, 4134.99999973, 4187.17948704,8.57
4123.58974332, 4123.20512793, 4123.71794844, 4148.84615364, 4127.30769203, 4114.10256383, 4088.46153812, 4071.79487145, 4097.82051248, 4125.89743562, 4113.33333306, 4126.28205101, 4133.84615357, 4188.20512807,8.57
4127.43589716, 4126.15384588, 4129.48717921, 4147.30769210, 4127.05128178, 4117.69230742, 4091.79487145, 4071.41025607, 4096.28205094, 4128.97435870, 4115.51282024, 4131.92307665, 4134.10256383, 4192.56410243,8.57
4123.20512793, 4122.30769203, 4123.07692280, 4138.20512800, 4125.89743562, 4106.02564075, 4086.92307658, 4069.10256369, 4096.02564068, 4130.64102537, 4114.10256383, 4123.58974332, 4130.51282024, 4188.07692294,8.57
4124.74358947, 4124.10256383, 4121.28205101, 4147.43589723, 4125.25640998, 4102.05128171, 4087.56410222, 4084.61538427, 4116.41025614, 4132.05128178, 4116.66666639, 4127.56410229, 4131.53846126, 4190.51282038,8.57
4121.02564075, 4124.74358947, 4123.20512793, 4167.43589723, 4125.25640998, 4124.48717921, 4110.12820485, 4102.05128171, 4131.92307665, 4130.12820485, 4119.61538434, 4128.84615357, 4131.28205101, 4191.53846140,8.57
4120.76923050, 4120.76923050, 4126.79487152, 4155.25641005, 4125.25640998, 4123.20512793, 4114.10256383, 4099.23076889, 4120.51282024, 4124.61538434, 4118.84615357, 4125.51282024, 4129.23076896, 4192.94871781,8.57
4124.48717921, 4123.71794844, 4127.69230742, 4127.82051255, 4124.74358947, 4091.41025607, 4075.76923043, 4068.20512779, 4093.33333299, 4126.53846126, 4116.92307665, 4130.51282024, 4132.43589716, 4195.12820499,8.57
4118.07692280, 4121.66666639, 4119.87179460, 4144.48717928, 4123.07692280, 4100.89743555, 4076.79487145, 4069.74358940, 4100.38461504, 4131.28205101, 4113.84615357, 4120.12820485, 4131.41025614, 4190.89743576,8.57
4123.58974332, 4121.66666639, 4123.33333306, 4158.07692287, 4124.10256383, 4119.35897408, 4107.82051255, 4100.38461504, 4119.74358947, 4128.97435870, 4117.43589716, 4122.43589716, 4133.46153819, 4194.74358961,8.57
4122.94871767, 4122.56410229, 4122.30769203, 4141.92307672, 4124.99999973, 4107.69230742, 4101.79487145, 4096.66666632, 4110.76923050, 4127.56410229, 4115.89743562, 4128.20512793, 4131.28205101, 4192.69230756,8.57
4116.92307665, 4122.05128178, 4119.74358947, 4136.53846133, 4124.61538434, 4095.89743555, 4078.71794837, 4070.89743555, 4094.87179453, 4128.71794844, 4110.12820485, 4123.07692280, 4128.58974332, 4192.69230756,8.57
4120.64102537, 4122.30769203, 4126.02564075, 4144.35897415, 4126.02564075, 4094.23076889, 4084.35897402, 4076.15384581, 4103.20512793, 4128.46153819, 4114.99999973, 4124.87179460, 4134.99999973, 4195.25641012,8.57
4116.66666639, 4117.05128178, 4121.28205101, 4140.51282031, 4126.02564075, 4086.92307658, 4087.30769196, 4082.17948684, 4106.66666639, 4129.74358947, 4117.05128178, 4116.66666639, 4133.71794844, 4185.51282038,8.57
4123.46153819, 4121.66666639, 4123.58974332, 4140.76923056, 4126.41025614, 4093.33333299, 4079.35897402, 4066.66666625, 4102.05128171, 4130.12820485, 4116.02564075, 4122.82051255, 4132.56410229, 4189.23076910,8.57
4122.94871767, 4126.02564075, 4124.10256383, 4156.28205108, 4127.05128178, 4114.87179460, 4086.53846119, 4068.84615343, 4105.89743562, 4126.28205101, 4116.28205101, 4127.94871767, 4132.82051255, 4190.89743576,8.57
4112.82051255, 4121.41025614, 4116.28205101, 4156.53846133, 4125.51282024, 4112.43589716, 4087.56410222, 4073.84615350, 4101.15384581, 4128.58974332, 4114.48717921, 4112.94871767, 4128.71794844, 4182.69230756,8.57
4120.89743562, 4121.02564075, 4119.35897408, 4151.79487159, 4124.87179460, 4103.58974332, 4089.35897402, 4075.51282017, 4106.53846126, 4132.69230742, 4114.74358947, 4118.58974332, 4130.25640998, 4187.43589730,8.57
4120.76923050, 4119.99999973, 4119.61538434, 4163.58974339, 4127.05128178, 4116.53846126, 4106.02564075, 4094.74358940, 4126.41025614, 4127.30769203, 4113.84615357, 4123.33333306, 4128.58974332, 4189.48717935,8.57
4119.87179460, 4123.97435870, 4122.17948691, 4172.69230756, 4129.74358947, 4128.71794844, 4115.89743562, 4113.20512793, 4131.66666639, 4122.69230742, 4115.76923050, 4119.74358947, 4129.23076896, 4189.48717935,8.57
4122.82051255, 4125.51282024, 4123.58974332, 4164.87179467, 4124.87179460, 4126.15384588, 4106.66666639, 4109.99999973, 4128.97435870, 4126.53846126, 4116.79487152, 4118.97435870, 4131.41025614, 4188.20512807,8.57
4119.48717921, 4121.79487152, 4122.05128178, 4155.89743569, 4121.02564075, 4122.05128178, 4097.56410222, 4096.53846119, 4130.89743562, 4130.64102537, 4112.56410229, 4114.61538434, 4127.05128178, 4183.46153833,8.57
4124.74358947, 4124.35897408, 4128.84615357, 4153.58974339, 4126.66666639, 4121.53846126, 4096.02564068, 4084.35897402, 4122.56410229, 4131.15384588, 4114.99999973, 4123.97435870, 4130.64102537, 4185.76923063,8.57
4122.30769203, 4122.05128178, 4124.23076896, 4150.12820492, 4127.30769203, 4123.58974332, 4103.20512793, 4095.89743555, 4117.82051255, 4128.71794844, 4118.20512793, 4122.43589716, 4131.66666639, 4181.79487166,8.57
4120.51282024, 4122.17948691, 4123.46153819, 4141.41025621, 4124.74358947, 4121.79487152, 4105.76923050, 4106.15384588, 4118.71794844, 4127.05128178, 4116.92307665, 4117.43589716, 4128.46153819, 4183.46153833,8.57
4123.97435870, 4128.33333306, 4130.89743562, 4127.69230742, 4127.94871767, 4109.48717921, 4086.28205094, 4072.05128171, 4099.10256376, 4129.61538434, 4115.64102537, 4125.25640998, 4131.53846126, 4187.94871781,8.57
4122.30769203, 4123.97435870, 4127.56410229, 4133.97435870, 4128.46153819, 4107.43589716, 4078.97435863, 4054.35897395, 4090.51282017, 4129.61538434, 4115.89743562, 4121.15384588, 4130.64102537, 4183.33333320,8.57
4127.05128178, 4124.48717921, 4127.43589716, 4150.25641005, 4125.38461511, 4110.12820485, 4090.25640991, 4087.82051248, 4115.51282024, 4126.15384588, 4121.41025614, 4123.97435870, 4129.74358947, 4189.48717935,8.57
4120.38461511, 4127.94871767, 4124.35897408, 4153.71794851, 4126.41025614, 4111.66666639, 4099.10256376, 4108.58974332, 4136.53846133, 4126.02564075, 4120.38461511, 4123.07692280, 4128.33333306, 4190.12820499,8.57
4120.89743562, 4126.53846126, 4123.20512793, 4149.48717928, 4128.33333306, 4115.38461511, 4098.07692273, 4090.64102530, 4117.94871767, 4129.35897408, 4117.43589716, 4118.20512793, 4126.92307665, 4186.41025628,8.57
4131.15384588, 4127.56410229, 4128.71794844, 4139.87179467, 4125.64102537, 4103.71794844, 4082.43589709, 4069.35897395, 4083.58974325, 4129.87179460, 4120.89743562, 4128.07692280, 4129.74358947, 4190.76923063,8.57
4122.30769203, 4125.76923050, 4125.64102537, 4127.69230742, 4125.38461511, 4090.38461504, 4070.76923043, 4059.99999959, 4073.46153812, 4126.41025614, 4118.71794844, 4122.94871767, 4130.25640998, 4186.41025628,8.57
4125.38461511, 4126.15384588, 4126.41025614, 4145.25641005, 4129.23076896, 4119.61538434, 4100.38461504, 4086.92307658, 4111.15384588, 4126.15384588, 4120.12820485, 4124.61538434, 4132.17948691, 4186.79487166,8.57
4129.23076896, 4123.97435870, 4123.33333306, 4180.89743576, 4127.30769203, 4159.35897415, 4139.74358954, 4129.23076896, 4157.05128185, 4128.07692280, 4124.48717921, 4130.89743562, 4131.66666639, 4189.35897422,8.57
4122.69230742, 4122.17948691, 4119.99999973, 4171.92307679, 4122.94871767, 4143.97435877, 4127.05128178, 4110.64102537, 4137.17948697, 4127.43589716, 4123.46153819, 4126.15384588, 4131.28205101, 4189.23076910,8.57
4125.25640998, 4129.10256383, 4127.17948691, 4144.74358954, 4124.10256383, 4107.82051255, 4097.56410222, 4071.66666632, 4094.61538427, 4127.56410229, 4123.84615357, 4132.56410229, 4135.25640998, 4193.33333320,8.57
4122.82051255, 4126.02564075, 4126.15384588, 4141.02564082, 4126.02564075, 4096.92307658, 4089.74358940, 4077.82051248, 4093.20512786, 4130.64102537, 4120.64102537, 4127.56410229, 4129.35897408, 4191.66666653,8.57
4123.97435870, 4122.56410229, 4125.25640998, 4138.71794851, 4125.25640998, 4100.38461504, 4090.51282017, 4092.56410222, 4105.76923050, 4132.43589716, 4120.89743562, 4126.92307665, 4128.07692280, 4193.84615371,8.57
4124.35897408, 4122.94871767, 4124.35897408, 4152.30769210, 4122.05128178, 4123.33333306, 4115.25640998, 4106.02564075, 4133.20512793, 4132.17948691, 4126.79487152, 4132.56410229, 4135.12820485, 4194.61538448,8.57
4118.97435870, 4121.92307665, 4121.66666639, 4184.87179474, 4122.05128178, 4153.46153826, 4150.64102544, 4138.33333313, 4175.38461525, 4131.41025614, 4127.17948691, 4123.46153819, 4134.10256383, 4191.02564089,8.57
4125.38461511, 4127.94871767, 4125.89743562, 4174.99999986, 4126.92307665, 4138.33333313, 4131.41025614, 4129.99999973, 4152.94871774, 4128.07692280, 4124.87179460, 4127.43589716, 4131.28205101, 4194.10256397,8.57
4122.69230742, 4125.51282024, 4120.12820485, 4128.97435870, 4125.38461511, 4098.97435863, 4084.99999966, 4079.10256376, 4086.92307658, 4124.35897408, 4120.51282024, 4124.99999973, 4127.05128178, 4188.20512807,8.57
4120.89743562, 4120.51282024, 4119.10256383, 4122.94871767, 4122.94871767, 4099.23076889, 4089.87179453, 4072.05128171, 4083.46153812, 4126.02564075, 4121.66666639, 4122.30769203, 4130.76923050, 4188.46153833,8.57
4125.25640998, 4122.05128178, 4123.84615357, 4140.76923056, 4125.51282024, 4118.46153819, 4111.15384588, 4093.71794837, 4109.35897408, 4127.82051255, 4123.84615357, 4128.84615357, 4135.51282031, 4191.66666653,8.57
4121.53846126, 4122.82051255, 4120.12820485, 4136.66666646, 4126.79487152, 4117.17948691, 4104.74358947, 4089.61538427, 4103.20512793, 4124.99999973, 4119.23076896, 4121.53846126, 4128.20512793, 4186.28205115,8.57
4123.84615357, 4128.97435870, 4122.94871767, 4143.58974339, 4126.53846126, 4125.12820485, 4116.41025614, 4102.82051255, 4121.53846126, 4125.76923050, 4122.30769203, 4123.58974332, 4131.41025614, 4189.61538448,8.57
4117.56410229, 4124.23076896, 4118.33333306, 4162.56410236, 4124.35897408, 4135.38461518, 4133.58974332, 4123.84615357, 4153.07692287, 4127.43589716, 4123.33333306, 4119.35897408, 4136.02564082, 4187.94871781,8.57
4114.10256383, 4118.58974332, 4115.76923050, 4145.12820492, 4124.10256383, 4112.69230742, 4107.05128178, 4094.10256376, 4119.35897408, 4125.89743562, 4118.71794844, 4113.71794844, 4130.51282024, 4186.53846140,8.57
4120.89743562, 4125.89743562, 4123.58974332, 4116.28205101, 4128.07692280, 4092.56410222, 4087.05128171, 4068.84615343, 4080.38461504, 4126.41025614, 4120.89743562, 4123.07692280, 4129.99999973, 4191.02564089,8.57
4118.20512793, 4123.97435870, 4121.28205101, 4127.17948691, 4126.66666639, 4102.69230742, 4106.02564075, 4100.12820478, 4114.10256383, 4126.92307665, 4121.53846126, 4118.07692280, 4129.99999973, 4185.25641012,8.57
4120.38461511, 4121.15384588, 4122.94871767, 4143.84615364, 4123.07692280, 4111.41025614, 4113.58974332, 4121.41025614, 4146.53846133, 4126.02564075, 4121.02564075, 4118.58974332, 4130.38461511, 4184.74358961,8.57
4118.84615357, 4122.94871767, 4123.97435870, 4126.92307665, 4124.99999973, 4106.02564075, 4100.25640991, 4098.46153812, 4125.89743562, 4126.92307665, 4120.25640998, 4120.51282024, 4128.07692280, 4184.99999986,8.57
4117.43589716, 4122.69230742, 4123.20512793, 4111.53846126, 4127.94871767, 4107.56410229, 4096.15384581, 4082.05128171, 4109.23076896, 4129.61538434, 4120.38461511, 4117.82051255, 4128.20512793, 4184.61538448,8.57
4120.64102537, 4123.84615357, 4126.15384588, 4127.82051255, 4125.51282024, 4120.89743562, 4110.25640998, 4095.12820478, 4117.94871767, 4129.61538434, 4124.99999973, 4124.35897408, 4132.17948691, 4186.92307679,8.57
4114.61538434, 4122.56410229, 4123.97435870, 4140.12820492, 4124.48717921, 4123.46153819, 4119.61538434, 4105.25640998, 4118.33333306, 4125.76923050, 4126.92307665, 4118.84615357, 4127.30769203, 4182.43589730,8.57
4119.61538434, 4123.84615357, 4127.82051255, 4125.76923050, 4127.94871767, 4104.99999973, 4103.71794844, 4090.89743555, 4107.43589716, 4123.71794844, 4127.17948691, 4119.35897408, 4127.43589716, 4184.74358961,8.57
4125.38461511, 4125.25640998, 4129.99999973, 4118.58974332, 4129.10256383, 4098.58974325, 4095.38461504, 4086.41025607, 4123.58974332, 4128.07692280, 4123.58974332, 4121.53846126, 4129.23076896, 4186.28205115,8.57
4119.99999973, 4124.87179460, 4126.15384588, 4133.84615357, 4130.12820485, 4117.17948691, 4112.17948691, 4105.12820485, 4147.69230749, 4130.64102537, 4119.35897408, 4115.64102537, 4125.38461511, 4185.76923063,8.57
4123.97435870, 4128.58974332, 4129.23076896, 4139.87179467, 4130.89743562, 4119.10256383, 4116.02564075, 4105.38461511, 4132.69230742, 4126.41025614, 4121.66666639, 4124.10256383, 4128.33333306, 4190.89743576,8.57
4122.43589716, 4124.74358947, 4127.94871767, 4128.71794844, 4128.07692280, 4109.48717921, 4110.38461511, 4091.15384581, 4111.15384588, 4122.43589716, 4120.51282024, 4123.20512793, 4128.07692280, 4186.53846140,8.57
4121.92307665, 4123.07692280, 4127.17948691, 4117.82051255, 4126.66666639, 4100.76923043, 4111.28205101, 4082.94871761, 4108.07692280, 4125.38461511, 4120.38461511, 4122.05128178, 4129.48717921, 4187.17948704,8.57
4125.64102537, 4127.82051255, 4127.30769203, 4122.30769203, 4127.17948691, 4092.17948684, 4109.10256383, 4079.48717914, 4107.05128178, 4129.10256383, 4123.84615357, 4127.56410229, 4134.23076896, 4190.51282038,8.57
4121.79487152, 4126.02564075, 4126.41025614, 4143.20512800, 4126.53846126, 4108.20512793, 4120.38461511, 4094.23076889, 4124.23076896, 4128.71794844, 4123.07692280, 4122.43589716, 4131.41025614, 4186.41025628,8.57
4126.92307665, 4128.71794844, 4131.92307665, 4149.61538441, 4126.92307665, 4131.02564075, 4148.20512800, 4122.43589716, 4148.20512800, 4130.38461511, 4123.33333306, 4127.69230742, 4130.89743562, 4189.23076910,8.57
4126.02564075, 4127.43589716, 4124.74358947, 4135.12820485, 4126.66666639, 4129.23076896, 4153.33333313, 4123.58974332, 4140.64102544, 4131.92307665, 4123.33333306, 4125.89743562, 4130.25640998, 4187.56410243,8.57
4121.92307665, 4124.48717921, 4120.51282024, 4137.94871774, 4123.97435870, 4126.41025614, 4139.74358954, 4105.38461511, 4124.10256383, 4129.87179460, 4123.71794844, 4124.35897408, 4130.12820485, 4186.79487166,8.57
4126.79487152, 4128.33333306, 4129.74358947, 4154.23076903, 4125.64102537, 4133.46153819, 4146.92307672, 4112.17948691, 4131.79487152, 4127.94871767, 4126.02564075, 4134.23076896, 4133.97435870, 4192.43589730,8.57
4125.38461511, 4125.76923050, 4124.99999973, 4154.74358954, 4127.56410229, 4125.12820485, 4160.25641005, 4123.33333306, 4140.38461518, 4126.28205101, 4123.07692280, 4126.15384588, 4132.56410229, 4189.35897422,8.57
4124.48717921, 4124.74358947, 4120.12820485, 4137.05128185, 4123.20512793, 4104.74358947, 4145.12820492, 4105.38461511, 4127.43589716, 4125.89743562, 4120.25640998, 4124.87179460, 4131.53846126, 4189.35897422,8.57
4122.30769203, 4125.76923050, 4121.66666639, 4129.10256383, 4122.82051255, 4102.05128171, 4134.10256383, 4095.51282017, 4116.66666639, 4128.33333306, 4119.35897408, 4124.48717921, 4130.38461511, 4189.61538448,8.57
4123.20512793, 4123.71794844, 4125.25640998, 4154.99999980, 4126.53846126, 4125.89743562, 4156.53846133, 4122.05128178, 4139.61538441, 4129.99999973, 4123.71794844, 4122.94871767, 4129.61538434, 4188.46153833,8.57
4128.20512793, 4123.07692280, 4124.99999973, 4168.07692287, 4124.35897408, 4133.20512793, 4155.12820492, 4123.20512793, 4149.23076903, 4130.38461511, 4127.94871767, 4134.61538434, 4132.82051255, 4191.28205115,8.57
4121.79487152, 4121.28205101, 4117.56410229, 4133.58974332, 4122.69230742, 4093.33333299, 4114.99999973, 4084.74358940, 4107.05128178, 4129.48717921, 4121.79487152, 4129.87179460, 4132.56410229, 4188.71794858,8.57
4120.89743562, 4124.87179460, 4122.17948691, 4133.58974332, 4128.20512793, 4082.94871761, 4119.35897408, 4091.02564068, 4105.64102537, 4127.17948691, 4121.79487152, 4127.17948691, 4134.99999973, 4189.87179474,8.57
4122.94871767, 4126.66666639, 4125.51282024, 4174.35897422, 4127.94871767, 4123.97435870, 4163.20512800, 4138.46153826, 4169.23076910, 4127.17948691, 4125.76923050, 4125.12820485, 4131.92307665, 4188.84615371,8.57
4118.97435870, 4121.92307665, 4121.79487152, 4156.92307672, 4122.43589716, 4128.84615357, 4164.87179467, 4140.38461518, 4175.25641012, 4131.79487152, 4121.41025614, 4118.33333306, 4126.41025614, 4187.43589730,8.57
4119.35897408, 4123.84615357, 4122.17948691, 4116.41025614, 4122.82051255, 4098.97435863, 4128.84615357, 4096.02564068, 4118.33333306, 4130.76923050, 4120.12820485, 4127.17948691, 4133.46153819, 4193.46153833,8.57
4117.17948691, 4123.20512793, 4118.97435870, 4130.51282024, 4122.82051255, 4104.74358947, 4125.51282024, 4081.28205094, 4100.64102530, 4125.51282024, 4120.25640998, 4123.20512793, 4133.33333306, 4187.05128192,8.57
4121.02564075, 4122.30769203, 4122.94871767, 4138.20512800, 4123.46153819, 4116.28205101, 4144.87179467, 4095.25640991, 4117.43589716, 4127.82051255, 4122.56410229, 4121.02564075, 4128.97435870, 4186.79487166,8.57
4122.69230742, 4122.94871767, 4124.99999973, 4118.33333306, 4127.43589716, 4104.74358947, 4143.58974339, 4105.12820485, 4128.84615357, 4129.23076896, 4124.74358947, 4124.99999973, 4131.02564075, 4193.58974345,8.57
4112.94871767, 4118.07692280, 4117.69230742, 4132.56410229, 4128.07692280, 4110.76923050, 4135.89743569, 4119.48717921, 4144.74358954, 4124.99999973, 4122.56410229, 4116.53846126, 4129.74358947, 4189.35897422,8.57
4116.41025614, 4122.43589716, 4121.15384588, 4158.07692287, 4127.30769203, 4127.17948691, 4135.89743569, 4127.56410229, 4148.58974339, 4126.41025614, 4124.87179460, 4121.15384588, 4130.51282024, 4189.48717935,8.57
4119.87179460, 4124.10256383, 4122.17948691, 4153.97435877, 4124.61538434, 4130.25640998, 4140.38461518, 4123.33333306, 4138.07692287, 4130.25640998, 4123.71794844, 4123.58974332, 4130.64102537, 4189.23076910,8.57
4120.89743562, 4121.79487152, 4120.38461511, 4134.35897408, 4123.58974332, 4110.89743562, 4128.33333306, 4112.56410229, 4128.97435870, 4127.56410229, 4119.87179460, 4120.89743562, 4133.46153819, 4189.48717935,8.57
4124.74358947, 4124.99999973, 4124.35897408, 4115.89743562, 4127.17948691, 4083.58974325, 4099.61538427, 4096.15384581, 4118.20512793, 4127.17948691, 4118.20512793, 4119.74358947, 4134.74358947, 4190.12820499,8.57
4116.79487152, 4123.58974332, 4123.20512793, 4117.05128178, 4127.69230742, 4089.74358940, 4094.48717914, 4083.97435863, 4111.66666639, 4132.17948691, 4116.66666639, 4113.46153819, 4126.53846126, 4183.58974345,8.57
4118.33333306, 4125.12820485, 4127.05128178, 4131.66666639, 4124.99999973, 4110.51282024, 4108.46153819, 4082.69230735, 4111.79487152, 4131.92307665, 4120.38461511, 4124.23076896, 4126.92307665, 4183.58974345,8.57
4121.66666639, 4124.87179460, 4128.20512793, 4133.46153819, 4125.89743562, 4105.38461511, 4108.97435870, 4090.89743555, 4119.74358947, 4127.94871767, 4120.51282024, 4122.69230742, 4128.33333306, 4182.30769217,8.57
4120.25640998, 4124.48717921, 4124.35897408, 4147.17948697, 4127.43589716, 4110.76923050, 4117.82051255, 4113.84615357, 4147.05128185, 4128.58974332, 4122.30769203, 4114.10256383, 4126.66666639, 4184.61538448,8.57
4124.99999973, 4129.61538434, 4126.53846126, 4167.05128185, 4127.05128178, 4130.64102537, 4132.43589716, 4126.66666639, 4155.76923056, 4130.12820485, 4128.20512793, 4125.25640998, 4128.84615357, 4189.99999986,8.57
4119.87179460, 4124.74358947, 4124.10256383, 4149.35897415, 4126.79487152, 4114.74358947, 4117.82051255, 4109.35897408, 4122.43589716, 4125.89743562, 4123.97435870, 4122.94871767, 4126.15384588, 4182.30769217,8.57
4119.48717921, 4123.33333306, 4124.48717921, 4119.87179460, 4127.69230742, 4084.48717914, 4095.64102530, 4096.53846119, 4098.58974325, 4125.25640998, 4121.66666639, 4122.69230742, 4129.48717921, 4183.97435884,8.57
4122.56410229, 4127.43589716, 4126.92307665, 4125.25640998, 4129.10256383, 4091.41025607, 4098.07692273, 4099.48717914, 4104.74358947, 4129.87179460, 4122.94871767, 4122.43589716, 4133.20512793, 4186.53846140,8.57
4123.71794844, 4126.15384588, 4126.28205101, 4146.66666646, 4129.23076896, 4114.35897408, 4114.99999973, 4103.58974332, 4115.51282024, 4129.87179460, 4122.94871767, 4119.48717921, 4132.43589716, 4184.35897422,8.57
4127.30769203, 4126.41025614, 4130.25640998, 4151.28205108, 4128.20512793, 4114.48717921, 4127.56410229, 4115.51282024, 4135.38461518, 4127.69230742, 4125.51282024, 4131.41025614, 4135.89743569, 4189.48717935,8.57
4121.92307665, 4124.23076896, 4130.76923050, 4153.84615364, 4125.89743562, 4109.99999973, 4129.35897408, 4130.12820485, 4160.12820492, 4129.48717921, 4124.61538434, 4127.43589716, 4133.20512793, 4187.69230756,8.57
4125.12820485, 4126.02564075, 4128.58974332, 4147.30769210, 4124.61538434, 4111.53846126, 4111.15384588, 4110.64102537, 4141.15384595, 4132.69230742, 4124.35897408, 4123.97435870, 4129.35897408, 4189.87179474,8.57
4125.51282024, 4127.05128178, 4122.43589716, 4124.61538434, 4126.28205101, 4099.74358940, 4094.87179453, 4083.97435863, 4098.20512786, 4131.66666639, 4123.97435870, 4125.51282024, 4130.38461511, 4190.38461525,8.57
4120.25640998, 4124.74358947, 4122.05128178, 4127.17948691, 4125.64102537, 4097.05128171, 4104.99999973, 4102.43589709, 4106.02564075, 4129.23076896, 4123.84615357, 4127.82051255, 4133.46153819, 4189.35897422,8.57
4126.66666639, 4125.76923050, 4127.94871767, 4152.94871774, 4125.64102537, 4121.92307665, 4120.64102537, 4125.38461511, 4139.35897415, 4129.99999973, 4127.17948691, 4136.28205108, 4135.25640998, 4195.89743576,8.57
4126.53846126, 4123.84615357, 4122.69230742, 4152.17948697, 4126.53846126, 4134.74358947, 4124.23076896, 4125.12820485, 4147.17948697, 4132.30769203, 4125.12820485, 4126.92307665, 4131.92307665, 4193.58974345,8.57
4124.61538434, 4125.64102537, 4123.84615357, 4118.20512793, 4125.38461511, 4103.71794844, 4099.35897402, 4098.71794837, 4114.74358947, 4131.28205101, 4123.71794844, 4126.66666639, 4132.82051255, 4190.25641012,8.57
4124.10256383, 4125.89743562, 4125.38461511, 4113.58974332, 4125.12820485, 4095.12820478, 4088.58974325, 4074.99999966, 4089.61538427, 4126.92307665, 4125.12820485, 4132.17948691, 4133.07692280, 4187.94871781,8.57
4119.74358947, 4121.66666639, 4119.74358947, 4128.84615357, 4124.99999973, 4114.35897408, 4106.15384588, 4076.28205094, 4090.89743555, 4123.71794844, 4126.02564075, 4124.35897408, 4130.51282024, 4189.87179474,8.57
4120.76923050, 4125.38461511, 4124.35897408, 4125.25640998, 4123.46153819, 4108.20512793, 4106.53846126, 4087.69230735, 4094.48717914, 4125.64102537, 4128.71794844, 4128.58974332, 4133.84615357, 4196.53846140,8.57
4117.05128178, 4125.64102537, 4121.02564075, 4128.33333306, 4121.92307665, 4110.12820485, 4103.71794844, 4099.23076889, 4108.84615357, 4128.58974332, 4124.87179460, 4124.48717921, 4132.56410229, 4190.38461525,8.57
4119.35897408, 4123.58974332, 4116.92307665, 4136.41025621, 4123.71794844, 4125.89743562, 4117.05128178, 4094.10256376, 4117.56410229, 4129.23076896, 4122.17948691, 4123.97435870, 4133.07692280, 4188.58974345,8.57
4125.12820485, 4124.87179460, 4120.89743562, 4131.02564075, 4126.02564075, 4120.25640998, 4127.94871767, 4092.17948684, 4117.56410229, 4129.48717921, 4124.87179460, 4132.05128178, 4136.53846133, 4193.71794858,8.57
4117.30769203, 4120.38461511, 4119.35897408, 4118.07692280, 4124.48717921, 4090.76923043, 4113.97435870, 4092.43589709, 4117.05128178, 4129.61538434, 4123.33333306, 4121.53846126, 4131.28205101, 4189.48717935,8.57
4119.10256383, 4121.66666639, 4121.66666639, 4113.20512793, 4126.02564075, 4071.53846119, 4097.69230735, 4082.17948684, 4105.38461511, 4127.30769203, 4122.82051255, 4124.10256383, 4131.53846126, 4190.38461525,8.57
4121.53846126, 4122.82051255, 4120.76923050, 4116.28205101, 4127.94871767, 4082.17948684, 4105.38461511, 4074.87179453, 4081.53846119, 4125.25640998, 4123.33333306, 4126.02564075, 4131.79487152, 4190.64102551,8.57
4116.79487152, 4120.38461511, 4119.74358947, 4121.28205101, 4125.12820485, 4097.56410222, 4121.79487152, 4079.23076889, 4077.82051248, 4128.71794844, 4123.46153819, 4116.92307665, 4127.94871767, 4188.33333320,8.57
4118.84615357, 4124.61538434, 4122.82051255, 4119.99999973, 4124.87179460, 4087.30769196, 4117.05128178, 4078.84615350, 4086.92307658, 4131.41025614, 4123.84615357, 4122.05128178, 4130.64102537, 4192.30769217,8.57
4113.71794844, 4121.41025614, 4118.71794844, 4120.25640998, 4126.41025614, 4078.20512786, 4107.94871767, 4078.07692273, 4095.51282017, 4129.23076896, 4120.51282024, 4119.10256383, 4128.33333306, 4186.79487166,8.57
4116.53846126, 4121.02564075, 4122.56410229, 4136.53846133, 4124.35897408, 4103.71794844, 4128.97435870, 4102.56410229, 4128.84615357, 4128.46153819, 4122.94871767, 4119.35897408, 4127.56410229, 4184.74358961,8.57
4121.79487152, 4123.84615357, 4125.25640998, 4141.02564082, 4123.20512793, 4112.17948691, 4137.17948697, 4108.97435870, 4139.23076903, 4127.30769203, 4124.61538434, 4119.87179460, 4129.87179460, 4186.28205115,8.57
4119.10256383, 4122.43589716, 4122.30769203, 4132.82051255, 4126.28205101, 4094.74358940, 4124.10256383, 4097.56410222, 4118.84615357, 4126.41025614, 4123.58974332, 4115.25640998, 4128.20512793, 4185.51282038,8.57
4120.76923050, 4125.64102537, 4125.12820485, 4131.41025614, 4128.07692280, 4093.46153812, 4127.69230742, 4104.23076896, 4114.23076896, 4129.23076896, 4127.82051255, 4120.25640998, 4128.46153819, 4186.66666653,8.57
4116.28205101, 4124.87179460, 4123.58974332, 4120.38461511, 4126.79487152, 4086.28205094, 4121.02564075, 4093.97435863, 4106.66666639, 4129.10256383, 4124.61538434, 4116.66666639, 4126.02564075, 4182.05128192,8.57
4120.89743562, 4123.97435870, 4127.30769203, 4110.12820485, 4127.17948691, 4071.15384581, 4104.10256383, 4069.23076882, 4087.82051248, 4125.51282024, 4123.07692280, 4122.56410229, 4127.94871767, 4184.74358961,8.57
4127.30769203, 4125.12820485, 4130.25640998, 4131.28205101, 4126.28205101, 4090.64102530, 4124.99999973, 4092.82051248, 4103.46153819, 4128.33333306, 4127.05128178, 4123.71794844, 4128.20512793, 4185.76923063,8.57
4122.17948691, 4123.84615357, 4124.99999973, 4142.30769210, 4124.35897408, 4104.74358947, 4137.05128185, 4118.33333306, 4123.46153819, 4134.10256383, 4126.92307665, 4113.07692280, 4125.25640998, 4180.76923063,8.57
4124.61538434, 4126.53846126, 4126.15384588, 4126.02564075, 4126.92307665, 4085.51282017, 4112.17948691, 4087.69230735, 4102.05128171, 4132.43589716, 4125.64102537, 4122.05128178, 4130.76923050, 4185.64102551,8.57
4122.17948691, 4124.74358947, 4126.15384588, 4141.41025621, 4127.94871767, 4102.69230742, 4129.35897408, 4092.17948684, 4107.56410229, 4125.89743562, 4121.66666639, 4122.17948691, 4130.38461511, 4184.10256397,8.57
4123.07692280, 4126.28205101, 4125.51282024, 4154.23076903, 4125.64102537, 4120.51282024, 4151.41025621, 4123.07692280, 4132.69230742, 4124.10256383, 4124.10256383, 4123.84615357, 4128.46153819, 4185.89743576,8.57
4127.30769203, 4130.12820485, 4126.15384588, 4112.82051255, 4125.12820485, 4077.17948684, 4109.87179460, 4091.15384581, 4103.20512793, 4129.74358947, 4126.79487152, 4127.69230742, 4130.12820485, 4188.71794858,8.57
4124.61538434, 4124.99999973, 4126.53846126, 4083.84615350, 4124.48717921, 4056.02564061, 4086.79487145, 4068.07692266, 4081.41025607, 4131.41025614, 4123.33333306, 4118.97435870, 4128.07692280, 4185.25641012,8.57
4126.41025614, 4126.66666639, 4131.28205101, 4115.76923050, 4122.94871767, 4103.46153819, 4132.17948691, 4116.53846126, 4136.28205108, 4128.71794844, 4125.38461511, 4129.35897408, 4130.25640998, 4191.66666653,8.57
4124.35897408, 4127.43589716, 4125.12820485, 4135.89743569, 4123.33333306, 4124.99999973, 4152.82051262, 4130.12820485, 4152.82051262, 4127.05128178, 4125.64102537, 4130.12820485, 4131.02564075, 4189.87179474,8.57
4126.41025614, 4125.76923050, 4121.92307665, 4110.51282024, 4124.23076896, 4088.84615350, 4121.15384588, 4086.41025607, 4091.66666632, 4127.82051255, 4124.74358947, 4124.23076896, 4131.15384588, 4188.07692294,8.57
4129.61538434, 4128.84615357, 4126.66666639, 4096.02564068, 4123.58974332, 4066.66666625, 4099.48717914, 4072.43589709, 4070.51282017, 4130.12820485, 4126.92307665, 4131.66666639, 4133.58974332, 4194.99999986,8.57
4122.56410229, 4125.51282024, 4122.82051255, 4111.41025614, 4123.20512793, 4086.28205094, 4100.89743555, 4082.69230735, 4092.56410222, 4128.46153819, 4124.74358947, 4127.56410229, 4130.76923050, 4193.71794858,8.57
4124.48717921, 4124.10256383, 4122.56410229, 4118.07692280, 4124.23076896, 4103.20512793, 4103.84615357, 4080.38461504, 4084.10256376, 4126.41025614, 4124.99999973, 4129.99999973, 4131.92307665, 4195.12820499,8.57
4124.74358947, 4123.20512793, 4120.51282024, 4113.58974332, 4124.99999973, 4098.33333299, 4106.28205101, 4089.35897402, 4086.28205094, 4128.07692280, 4125.25640998, 4129.74358947, 4131.79487152, 4193.84615371,8.57
4120.64102537, 4120.76923050, 4118.20512793, 4118.84615357, 4124.10256383, 4093.58974325, 4102.69230742, 4106.15384588, 4124.10256383, 4128.97435870, 4122.82051255, 4125.12820485, 4129.99999973, 4192.56410243,8.57
4123.84615357, 4122.69230742, 4122.69230742, 4114.48717921, 4123.20512793, 4085.89743555, 4077.05128171, 4088.58974325, 4118.07692280, 4126.15384588, 4124.10256383, 4128.97435870, 4133.46153819, 4193.46153833,8.57
4119.99999973, 4122.56410229, 4119.10256383, 4115.89743562, 4122.94871767, 4087.94871761, 4070.12820478, 4078.33333299, 4095.76923043, 4127.17948691, 4125.64102537, 4123.58974332, 4131.66666639, 4186.92307679,8.57
4119.61538434, 4124.48717921, 4119.87179460, 4130.51282024, 4124.23076896, 4098.07692273, 4086.02564068, 4097.43589709, 4107.69230742, 4130.89743562, 4127.43589716, 4126.66666639, 4133.07692280, 4189.35897422,8.57
4123.07692280, 4122.69230742, 4120.64102537, 4125.76923050, 4126.15384588, 4091.53846119, 4079.23076889, 4099.74358940, 4113.97435870, 4126.79487152, 4125.76923050, 4125.64102537, 4132.17948691, 4192.56410243,8.57
4119.87179460, 4119.35897408, 4117.94871767, 4118.84615357, 4125.25640998, 4088.71794837, 4075.25640991, 4101.66666632, 4113.33333306, 4123.58974332, 4122.05128178, 4117.82051255, 4127.94871767, 4190.38461525,8.57
4121.53846126, 4124.35897408, 4122.56410229, 4126.79487152, 4124.23076896, 4096.92307658, 4089.61538427, 4122.82051255, 4126.66666639, 4127.05128178, 4125.38461511, 4128.07692280, 4134.23076896, 4194.48717935,8.57
4120.76923050, 4122.94871767, 4122.30769203, 4126.15384588, 4124.10256383, 4102.30769196, 4096.79487145, 4129.61538434, 4134.23076896, 4130.12820485, 4125.64102537, 4123.97435870, 4133.33333306, 4192.69230756,8.57
4124.74358947, 4122.82051255, 4124.23076896, 4116.41025614, 4123.71794844, 4096.92307658, 4089.74358940, 4111.15384588, 4119.61538434, 4128.20512793, 4121.92307665, 4120.38461511, 4130.25640998, 4191.92307679,8.57
4124.10256383, 4124.10256383, 4124.10256383, 4122.30769203, 4124.35897408, 4096.41025607, 4091.28205094, 4108.97435870, 4114.48717921, 4124.99999973, 4120.89743562, 4124.10256383, 4129.74358947, 4190.25641012,8.57
4115.89743562, 4118.97435870, 4117.82051255, 4128.71794844, 4123.58974332, 4103.33333306, 4094.87179453, 4114.10256383, 4116.92307665, 4126.92307665, 4123.84615357, 4117.82051255, 4127.30769203, 4187.05128192,8.57
4123.07692280, 4121.79487152, 4121.92307665, 4120.89743562, 4123.46153819, 4095.64102530, 4080.76923043, 4091.92307658, 4100.64102530, 4131.66666639, 4126.92307665, 4122.94871767, 4131.41025614, 4191.02564089,8.57
4122.69230742, 4122.69230742, 4121.92307665, 4119.87179460, 4124.87179460, 4090.64102530, 4079.87179453, 4089.99999966, 4104.99999973, 4130.51282024, 4123.58974332, 4122.05128178, 4131.02564075, 4187.05128192,8.57
4117.94871767, 4122.30769203, 4121.66666639, 4128.71794844, 4125.38461511, 4098.84615350, 4092.05128171, 4108.71794844, 4122.56410229, 4126.41025614, 4123.97435870, 4120.12820485, 4129.87179460, 4185.38461525,8.57
4121.28205101, 4124.74358947, 4124.99999973, 4132.56410229, 4123.97435870, 4102.17948684, 4088.33333299, 4093.46153812, 4104.99999973, 4129.48717921, 4122.82051255, 4122.69230742, 4130.64102537, 4187.30769217,8.57
4119.61538434, 4121.92307665, 4123.46153819, 4127.43589716, 4123.84615357, 4096.15384581, 4080.25640991, 4076.79487145, 4087.94871761, 4131.53846126, 4117.69230742, 4116.28205101, 4128.97435870, 4184.99999986,8.57
4123.20512793, 4123.71794844, 4124.48717921, 4127.82051255, 4127.94871767, 4102.82051255, 4096.92307658, 4107.17948691, 4115.25640998, 4129.99999973, 4124.48717921, 4122.30769203, 4130.38461511, 4189.10256397,8.57
4122.43589716, 4125.38461511, 4122.30769203, 4133.07692280, 4127.56410229, 4108.20512793, 4111.53846126, 4135.25640998, 4139.35897415, 4129.48717921, 4127.43589716, 4121.53846126, 4127.43589716, 4186.41025628,8.57
4121.53846126, 4124.61538434, 4122.82051255, 4128.07692280, 4124.99999973, 4091.28205094, 4092.82051248, 4112.69230742, 4118.97435870, 4127.17948691, 4123.71794844, 4117.43589716, 4128.07692280, 4184.99999986,8.57
4125.12820485, 4125.51282024, 4126.53846126, 4121.15384588, 4126.66666639, 4086.41025607, 4081.41025607, 4087.82051248, 4102.82051255, 4127.43589716, 4125.38461511, 4123.84615357, 4132.30769203, 4189.48717935,8.57
4122.43589716, 4121.92307665, 4124.23076896, 4131.53846126, 4126.79487152, 4097.17948684, 4094.10256376, 4093.97435863, 4108.58974332, 4130.64102537, 4126.02564075, 4121.15384588, 4126.41025614, 4184.87179474,8.57
4125.25640998, 4124.48717921, 4126.53846126, 4133.84615357, 4125.25640998, 4093.84615350, 4095.38461504, 4095.12820478, 4097.82051248, 4132.17948691, 4127.17948691, 4128.20512793, 4127.17948691, 4186.15384602,8.57
4121.53846126, 4126.28205101, 4125.12820485, 4115.76923050, 4125.64102537, 4083.20512786, 4080.76923043, 4078.97435863, 4081.92307658, 4131.02564075, 4124.87179460, 4127.56410229, 4131.66666639, 4186.28205115,8.57
4119.23076896, 4123.84615357, 4123.58974332, 4113.33333306, 4125.89743562, 4081.92307658, 4076.15384581, 4076.79487145, 4090.76923043, 4129.61538434, 4122.69230742, 4122.05128178, 4131.28205101, 4188.33333320,8.57
4129.61538434, 4126.02564075, 4127.17948691, 4140.12820492, 4127.17948691, 4094.74358940, 4089.23076889, 4103.58974332, 4116.79487152, 4130.76923050, 4126.41025614, 4129.61538434, 4133.58974332, 4194.61538448,8.57
4128.33333306, 4124.35897408, 4122.43589716, 4160.89743569, 4126.53846126, 4113.07692280, 4106.79487152, 4123.58974332, 4127.17948691, 4131.15384588, 4128.33333306, 4125.38461511, 4132.30769203, 4188.07692294,8.57
4127.43589716, 4125.38461511, 4125.89743562, 4153.58974339, 4124.61538434, 4126.79487152, 4114.48717921, 4114.10256383, 4121.15384588, 4129.10256383, 4129.99999973, 4127.05128178, 4131.79487152, 4189.48717935,8.57
4125.76923050, 4124.87179460, 4127.82051255, 4135.51282031, 4124.74358947, 4115.64102537, 4102.30769196, 4094.61538427, 4106.79487152, 4128.97435870, 4127.43589716, 4125.76923050, 4132.43589716, 4190.89743576,8.57
4124.35897408, 4121.53846126, 4123.71794844, 4126.41025614, 4125.38461511, 4092.43589709, 4090.76923043, 4092.82051248, 4096.02564068, 4129.10256383, 4125.38461511, 4124.35897408, 4133.07692280, 4186.66666653,8.57
4129.87179460, 4126.15384588, 4127.94871767, 4122.30769203, 4126.02564075, 4083.20512786, 4089.99999966, 4100.38461504, 4104.74358947, 4127.82051255, 4129.35897408, 4136.02564082, 4135.12820485, 4192.17948704,8.57
4123.07692280, 4124.87179460, 4124.35897408, 4112.69230742, 4125.76923050, 4084.74358940, 4082.30769196, 4091.92307658, 4101.79487145, 4128.84615357, 4128.71794844, 4129.99999973, 4131.66666639, 4192.43589730,8.57
4123.71794844, 4124.61538434, 4123.07692280, 4116.66666639, 4125.89743562, 4097.17948684, 4085.38461504, 4089.99999966, 4084.99999966, 4131.53846126, 4128.33333306, 4131.28205101, 4132.30769203, 4190.25641012,8.57
4126.28205101, 4124.35897408, 4124.10256383, 4146.41025621, 4125.51282024, 4128.58974332, 4119.99999973, 4127.69230742, 4112.43589716, 4127.43589716, 4127.43589716, 4133.07692280, 4133.20512793, 4189.87179474,8.57
4118.71794844, 4119.99999973, 4119.74358947, 4158.71794851, 4125.12820485, 4145.64102544, 4137.94871774, 4158.07692287, 4149.99999980, 4123.97435870, 4125.64102537, 4123.97435870, 4132.05128178, 4194.61538448,8.57
4121.53846126, 4124.87179460, 4120.76923050, 4135.51282031, 4126.79487152, 4114.61538434, 4102.05128171, 4123.20512793, 4117.56410229, 4127.94871767, 4129.23076896, 4132.56410229, 4134.48717921, 4198.33333320,8.57
4121.79487152, 4124.23076896, 4120.64102537, 4121.41025614, 4124.74358947, 4081.79487145, 4067.17948677, 4074.87179453, 4078.58974325, 4128.07692280, 4128.71794844, 4128.07692280, 4128.20512793, 4188.58974345,8.57
4122.43589716, 4121.41025614, 4125.38461511, 4143.07692287, 4121.66666639, 4103.58974332, 4089.23076889, 4097.69230735, 4120.12820485, 4126.53846126, 4127.05128178, 4122.69230742, 4129.23076896, 4191.53846140,8.57
4125.51282024, 4124.99999973, 4126.41025614, 4148.33333313, 4125.51282024, 4120.38461511, 4110.25640998, 4131.53846126, 4144.23076903, 4128.46153819, 4126.41025614, 4129.61538434, 4135.76923056, 4196.02564089,8.57
4122.30769203, 4123.33333306, 4118.71794844, 4123.58974332, 4128.46153819, 4100.64102530, 4091.79487145, 4109.99999973, 4102.43589709, 4129.48717921, 4124.74358947, 4122.56410229, 4130.12820485, 4188.46153833,8.57
4125.76923050, 4124.74358947, 4122.17948691, 4126.92307665, 4125.51282024, 4106.79487152, 4092.94871761, 4105.51282024, 4105.12820485, 4127.56410229, 4126.92307665, 4125.64102537, 4130.51282024, 4191.92307679,8.57
4122.94871767, 4124.23076896, 4123.71794844, 4147.82051262, 4125.76923050, 4127.17948691, 4113.84615357, 4134.61538434, 4141.92307672, 4127.30769203, 4123.71794844, 4126.02564075, 4132.43589716, 4193.97435884,8.57
4117.43589716, 4122.69230742, 4121.15384588, 4131.28205101, 4128.07692280, 4099.35897402, 4087.82051248, 4109.99999973, 4111.92307665, 4130.38461511, 4122.05128178, 4120.25640998, 4130.89743562, 4191.92307679,8.57
4117.30769203, 4124.61538434, 4121.15384588, 4112.69230742, 4127.82051255, 4074.87179453, 4058.71794830, 4068.58974318, 4071.92307658, 4132.30769203, 4126.02564075, 4123.07692280, 4131.28205101, 4190.38461525,8.57
4114.48717921, 4118.84615357, 4118.07692280, 4137.17948697, 4127.56410229, 4108.20512793, 4092.69230735, 4095.38461504, 4103.84615357, 4130.38461511, 4125.38461511, 4116.92307665, 4127.17948691, 4184.61538448,8.57
4123.20512793, 4118.07692280, 4120.64102537, 4143.46153826, 4127.17948691, 4118.71794844, 4108.58974332, 4117.69230742, 4121.28205101, 4128.84615357, 4127.56410229, 4119.23076896, 4126.92307665, 4187.56410243,8.57
4125.64102537, 4122.43589716, 4119.87179460, 4121.79487152, 4125.51282024, 4094.99999966, 4081.53846119, 4097.30769196, 4096.02564068, 4128.71794844, 4126.66666639, 4121.02564075, 4127.43589716, 4186.41025628,8.57
4118.58974332, 4122.05128178, 4119.35897408, 4124.87179460, 4125.51282024, 4101.28205094, 4084.35897402, 4103.58974332, 4105.25640998, 4128.07692280, 4122.69230742, 4114.99999973, 4127.69230742, 4183.58974345,8.57
4123.97435870, 4123.46153819, 4125.76923050, 4143.58974339, 4127.56410229, 4118.71794844, 4108.84615357, 4127.30769203, 4133.33333306, 4128.97435870, 4125.51282024, 4116.79487152, 4130.51282024, 4189.99999986,8.57
4124.23076896, 4124.48717921, 4124.61538434, 4147.94871774, 4125.25640998, 4110.76923050, 4109.48717921, 4132.69230742, 4142.82051262, 4130.12820485, 4127.69230742, 4113.71794844, 4127.43589716, 4187.69230756,8.57
4123.07692280, 4127.69230742, 4124.87179460, 4128.46153819, 4123.97435870, 4085.89743555, 4086.28205094, 4117.05128178, 4130.89743562, 4130.12820485, 4128.20512793, 4122.82051255, 4127.05128178, 4185.51282038,8.57
4123.07692280, 4126.53846126, 4124.48717921, 4114.99999973, 4126.66666639, 4081.41025607, 4079.74358940, 4097.56410222, 4108.71794844, 4126.53846126, 4128.20512793, 4126.79487152, 4127.82051255, 4185.12820499,8.57
4121.92307665, 4121.53846126, 4123.46153819, 4133.97435870, 4128.07692280, 4105.76923050, 4099.48717914, 4100.12820478, 4102.69230742, 4123.20512793, 4128.46153819, 4118.07692280, 4128.58974332, 4184.87179474,8.57
4126.92307665, 4126.92307665, 4128.58974332, 4150.76923056, 4127.30769203, 4111.41025614, 4100.51282017, 4104.10256383, 4109.87179460, 4126.28205101, 4130.12820485, 4123.58974332, 4132.30769203, 4189.48717935,8.57
4122.17948691, 4127.43589716, 4124.61538434, 4144.10256390, 4124.61538434, 4091.79487145, 4084.48717914, 4099.23076889, 4113.07692280, 4129.10256383, 4128.46153819, 4121.28205101, 4128.71794844, 4185.12820499,8.57
4123.46153819, 4125.89743562, 4125.12820485, 4128.84615357, 4123.84615357, 4079.35897402, 4078.07692273, 4091.41025607, 4099.61538427, 4127.43589716, 4128.46153819, 4124.87179460, 4128.07692280, 4186.28205115,8.57
4128.07692280, 4125.25640998, 4127.82051255, 4127.69230742, 4126.79487152, 4087.94871761, 4087.69230735, 4091.79487145, 4092.43589709, 4125.12820485, 4129.23076896, 4129.35897408, 4128.84615357, 4188.46153833,8.57
4121.92307665, 4120.38461511, 4126.02564075, 4153.46153826, 4128.07692280, 4112.05128178, 4115.25640998, 4118.97435870, 4123.07692280, 4125.76923050, 4131.02564075, 4120.76923050, 4127.30769203, 4184.99999986,8.57
4126.28205101, 4126.92307665, 4131.92307665, 4166.66666646, 4125.76923050, 4113.71794844, 4121.02564075, 4134.74358947, 4145.89743569, 4127.17948691, 4134.23076896, 4129.10256383, 4133.07692280, 4191.02564089,8.57
4128.46153819, 4129.48717921, 4129.10256383, 4137.43589723, 4124.61538434, 4086.92307658, 4092.30769196, 4108.46153819, 4117.30769203, 4128.58974332, 4128.71794844, 4128.84615357, 4131.79487152, 4191.15384602,8.57
4129.10256383, 4124.87179460, 4127.82051255, 4121.66666639, 4125.76923050, 4084.23076889, 4088.07692273, 4096.15384581, 4100.25640991, 4131.15384588, 4127.30769203, 4125.51282024, 4128.97435870, 4190.25641012,8.57
4129.99999973, 4127.05128178, 4130.38461511, 4141.79487159, 4125.38461511, 4104.61538434, 4110.64102537, 4121.53846126, 4129.23076896, 4132.05128178, 4132.69230742, 4130.38461511, 4132.69230742, 4191.53846140,8.57
4122.69230742, 4126.53846126, 4121.92307665, 4151.41025621, 4123.84615357, 4098.07692273, 4101.28205094, 4118.20512793, 4131.28205101, 4131.53846126, 4130.51282024, 4124.99999973, 4129.87179460, 4189.87179474,8.57
4125.12820485, 4125.12820485, 4122.43589716, 4144.74358954, 4126.28205101, 4082.56410222, 4080.51282017, 4092.30769196, 4103.07692280, 4130.12820485, 4131.41025614, 4126.66666639, 4129.61538434, 4193.20512807,8.57
4124.87179460, 4122.82051255, 4124.99999973, 4140.89743569, 4129.74358947, 4093.46153812, 4088.46153812, 4094.35897402, 4093.97435863, 4128.46153819, 4132.17948691, 4124.10256383, 4132.17948691, 4189.87179474,8.57
4122.30769203, 4124.10256383, 4123.46153819, 4145.89743569, 4128.46153819, 4108.33333306, 4103.58974332, 4106.41025614, 4098.20512786, 4127.69230742, 4131.41025614, 4125.64102537, 4132.94871767, 4189.48717935,8.57
4124.35897408, 4127.30769203, 4123.71794844, 4162.43589723, 4124.99999973, 4116.28205101, 4111.79487152, 4113.71794844, 4110.38461511, 4129.74358947, 4133.97435870, 4132.05128178, 4132.43589716, 4193.84615371,8.57
4119.48717921, 4122.17948691, 4121.15384588, 4166.53846133, 4123.71794844, 4116.28205101, 4110.12820485, 4117.17948691, 4120.25640998, 4129.10256383, 4131.02564075, 4118.84615357, 4125.76923050, 4191.15384602,8.57
4122.69230742, 4124.35897408, 4122.43589716, 4142.56410236, 4123.46153819, 4097.82051248, 4093.07692273, 4109.99999973, 4114.10256383, 4127.69230742, 4130.38461511, 4121.41025614, 4128.07692280, 4193.20512807,8.57
4125.76923050, 4126.66666639, 4119.87179460, 4114.74358947, 4122.94871767, 4070.64102530, 4067.30769189, 4084.99999966, 4091.53846119, 4130.76923050, 4133.84615357, 4127.30769203, 4132.94871767, 4191.79487166,8.57
4122.69230742, 4121.41025614, 4119.10256383, 4122.30769203, 4124.74358947, 4077.05128171, 4067.69230728, 4079.10256376, 4082.94871761, 4131.02564075, 4134.61538434, 4122.82051255, 4131.92307665, 4191.28205115,8.57
4122.43589716, 4121.92307665, 4124.74358947, 4148.71794851, 4127.43589716, 4106.53846126, 4096.28205094, 4104.87179460, 4097.69230735, 4128.71794844, 4133.20512793, 4126.92307665, 4132.43589716, 4195.12820499,8.57
4119.48717921, 4123.33333306, 4122.43589716, 4155.89743569, 4126.66666639, 4110.38461511, 4107.82051255, 4124.87179460, 4116.79487152, 4127.30769203, 4130.76923050, 4121.15384588, 4129.35897408, 4190.51282038,8.57
4123.58974332, 4125.64102537, 4123.46153819, 4151.92307672, 4125.89743562, 4102.05128171, 4099.61538427, 4123.46153819, 4128.84615357, 4128.46153819, 4132.05128178, 4122.43589716, 4129.99999973, 4190.64102551,8.57
4120.89743562, 4123.46153819, 4122.94871767, 4147.69230749, 4124.99999973, 4107.30769203, 4096.66666632, 4108.46153819, 4126.92307665, 4129.61538434, 4130.25640998, 4124.23076896, 4129.61538434, 4189.99999986,8.57
4113.71794844, 4119.99999973, 4118.71794844, 4136.02564082, 4125.76923050, 4104.10256383, 4088.84615350, 4085.25640991, 4104.10256383, 4129.99999973, 4127.82051255, 4118.97435870, 4128.84615357, 4190.51282038,8.57
4119.10256383, 4123.07692280, 4119.10256383, 4137.69230749, 4129.87179460, 4099.23076889, 4084.23076889, 4082.56410222, 4089.23076889, 4129.87179460, 4128.97435870, 4123.97435870, 4132.94871767, 4195.12820499,8.57
4116.66666639, 4120.64102537, 4115.38461511, 4149.99999980, 4127.05128178, 4109.99999973, 4099.23076889, 4110.25640998, 4109.99999973, 4125.64102537, 4127.94871767, 4118.97435870, 4129.35897408, 4188.20512807,8.57
4119.35897408, 4123.58974332, 4120.64102537, 4149.48717928, 4123.46153819, 4114.87179460, 4108.97435870, 4128.58974332, 4136.41025621, 4125.12820485, 4130.89743562, 4120.64102537, 4131.02564075, 4188.84615371,8.57
4122.94871767, 4127.94871767, 4124.23076896, 4154.87179467, 4126.66666639, 4107.17948691, 4104.48717921, 4126.79487152, 4139.74358954, 4129.87179460, 4130.89743562, 4123.46153819, 4134.61538434, 4192.05128192,8.57
4117.43589716, 4124.10256383, 4119.35897408, 4167.30769210, 4126.28205101, 4108.71794844, 4107.30769203, 4133.46153819, 4144.23076903, 4130.64102537, 4126.41025614, 4116.41025614, 4130.76923050, 4185.76923063,8.57
