AF3,F7,F3,FC5,T7,P7,O1,O2,P8,T8,FC6,F4,F8,AF4,Label
4125.64102537, 4120.25640998, 4122.30769203, 4266.41025641, 4124.74358947, 4128.71794844, 4115.64102537, 4100.89743555, 4149.74358954, 4131.92307665, 4141.02564082, 4128.33333306, 4130.64102537, 4187.43589730,8.57
4123.84615357, 4120.76923050, 4121.02564075, 4238.20512821, 4125.38461511, 4119.48717921, 4104.35897408, 4089.35897402, 4125.51282024, 4130.51282024, 4140.12820492, 4128.33333306, 4133.33333306, 4191.66666653,8.57
4127.43589716, 4126.79487152, 4121.15384588, 4251.02564103, 4127.43589716, 4126.66666639, 4122.69230742, 4107.30769203, 4144.99999980, 4125.64102537, 4143.33333313, 4135.89743569, 4134.23076896, 4195.25641012,8.57
4118.07692280, 4119.87179460, 4116.92307665, 4268.33333341, 4126.66666639, 4152.69230749, 4148.20512800, 4138.84615364, 4174.10256397, 4126.53846126, 4140.76923056, 4120.76923050, 4127.43589716, 4189.74358961,8.57
4122.56410229, 4121.79487152, 4127.17948691, 4255.64102564, 4125.64102537, 4150.89743569, 4137.43589723, 4131.53846126, 4167.05128185, 4129.61538434, 4141.15384595, 4131.66666639, 4135.76923056, 4195.38461525,8.57
4120.25640998, 4123.97435870, 4120.25640998, 4247.30769231, 4128.07692280, 4132.43589716, 4117.94871767, 4109.35897408, 4161.66666646, 4128.07692280, 4141.53846133, 4128.33333306, 4134.48717921, 4188.58974345,8.57
4117.56410229, 4120.89743562, 4114.35897408, 4253.20512821, 4127.82051255, 4135.25640998, 4116.92307665, 4104.87179460, 4168.84615371, 4126.92307665, 4141.28205108, 4119.35897408, 4129.48717921, 4187.94871781,8.57
4122.30769203, 4122.05128178, 4121.66666639, 4271.02564110, 4126.79487152, 4158.46153826, 4134.23076896, 4116.02564075, 4178.71794858, 4127.82051255, 4142.69230749, 4123.58974332, 4134.61538434, 4192.43589730,8.57
4113.46153819, 4117.82051255, 4118.33333306, 4280.64102571, 4126.15384588, 4162.17948697, 4143.71794851, 4124.35897408, 4182.05128192, 4127.17948691, 4142.94871774, 4112.30769203, 4129.99999973, 4182.94871781,8.57
4121.41025614, 4122.82051255, 4123.84615357, 4256.15384616, 4126.79487152, 4137.05128185, 4122.05128178, 4107.30769203, 4153.33333313, 4127.82051255, 4143.07692287, 4122.56410229, 4128.71794844, 4185.76923063,8.57
4122.82051255, 4125.38461511, 4122.56410229, 4254.10256411, 4128.07692280, 4143.58974339, 4117.43589716, 4096.53846119, 4142.43589723, 4128.84615357, 4139.74358954, 4116.66666639, 4126.02564075, 4181.92307679,8.57
4117.05128178, 4120.64102537, 4121.02564075, 4291.53846161, 4125.76923050, 4175.64102551, 4142.30769210, 4111.92307665, 4169.74358961, 4126.41025614, 4140.64102544, 4109.99999973, 4125.38461511, 4180.64102551,8.57
4124.48717921, 4124.23076896, 4129.99999973, 4298.46153853, 4122.69230742, 4172.43589730, 4153.46153826, 4134.87179460, 4185.64102551, 4126.92307665, 4144.87179467, 4129.10256383, 4132.94871767, 4188.20512807,8.57
4119.23076896, 4121.79487152, 4124.61538434, 4272.05128212, 4123.46153819, 4146.66666646, 4142.05128185, 4137.69230749, 4181.53846140, 4129.99999973, 4144.87179467, 4118.97435870, 4129.74358947, 4179.48717935,8.57
4121.02564075, 4122.43589716, 4127.30769203, 4264.74358975, 4127.56410229, 4158.71794851, 4137.69230749, 4122.69230742, 4183.33333320, 4130.12820485, 4148.07692287, 4121.66666639, 4132.05128178, 4182.17948704,8.57
4122.94871767, 4125.76923050, 4129.87179460, 4264.87179488, 4129.61538434, 4184.61538448, 4137.94871774, 4113.20512793, 4181.41025628, 4127.30769203, 4147.94871774, 4124.35897408, 4130.76923050, 4182.56410243,8.57
4125.51282024, 4129.99999973, 4130.51282024, 4256.79487180, 4128.97435870, 4177.43589730, 4129.35897408, 4115.64102537, 4162.30769210, 4124.99999973, 4145.12820492, 4118.84615357, 4125.38461511, 4182.56410243,8.57
4132.43589716, 4132.69230742, 4133.20512793, 4262.94871795, 4127.43589716, 4177.82051269, 4138.58974339, 4125.51282024, 4156.41025621, 4125.51282024, 4147.94871774, 4132.05128178, 4133.71794844, 4193.97435884,8.57
4124.99999973, 4119.99999973, 4121.02564075, 4263.97435898, 4126.53846126, 4189.61538448, 4145.25641005, 4119.99999973, 4159.23076903, 4124.99999973, 4150.64102544, 4127.94871767, 4134.48717921, 4189.10256397,8.57
4128.07692280, 4121.02564075, 4122.94871767, 4253.20512821, 4126.66666639, 4185.51282038, 4130.89743562, 4099.35897402, 4149.61538441, 4127.56410229, 4153.07692287, 4133.97435870, 4134.10256383, 4189.35897422,8.57
4128.07692280, 4126.66666639, 4125.89743562, 4249.35897436, 4126.53846126, 4170.25641012, 4116.15384588, 4083.20512786, 4138.97435877, 4130.25640998, 4148.71794851, 4132.56410229, 4131.53846126, 4188.46153833,8.57
4122.43589716, 4122.94871767, 4121.41025614, 4249.87179488, 4126.66666639, 4160.89743569, 4118.58974332, 4092.43589709, 4152.94871774, 4127.17948691, 4145.89743569, 4121.41025614, 4129.99999973, 4186.28205115,8.57
4127.69230742, 4125.64102537, 4124.61538434, 4255.25641026, 4126.92307665, 4169.99999986, 4135.12820485, 4123.46153819, 4183.97435884, 4127.82051255, 4152.56410236, 4136.66666646, 4138.46153826, 4196.02564089,8.57
4118.84615357, 4120.38461511, 4117.17948691, 4271.79487187, 4124.74358947, 4187.82051269, 4147.17948697, 4137.94871774, 4188.07692294, 4129.99999973, 4149.10256390, 4127.43589716, 4134.23076896, 4191.28205115,8.57
4120.89743562, 4121.41025614, 4122.05128178, 4275.25641033, 4122.82051255, 4181.53846140, 4132.05128178, 4110.25640998, 4154.99999980, 4129.23076896, 4143.84615364, 4128.46153819, 4130.89743562, 4192.69230756,8.57
4124.48717921, 4127.56410229, 4123.07692280, 4256.66666667, 4125.76923050, 4155.25641005, 4104.35897408, 4073.58974325, 4131.79487152, 4126.79487152, 4144.87179467, 4134.10256383, 4130.12820485, 4192.56410243,8.57
4113.46153819, 4120.12820485, 4113.71794844, 4253.84615385, 4131.15384588, 4156.92307672, 4113.71794844, 4087.82051248, 4145.64102544, 4124.74358947, 4145.38461518, 4116.28205101, 4128.07692280, 4185.38461525,8.57
4118.84615357, 4121.66666639, 4125.64102537, 4256.02564103, 4131.02564075, 4159.48717928, 4124.35897408, 4101.15384581, 4137.30769210, 4129.10256383, 4146.41025621, 4127.69230742, 4136.28205108, 4192.43589730,8.57
4117.30769203, 4122.69230742, 4123.84615357, 4252.56410257, 4125.89743562, 4152.05128185, 4118.07692280, 4088.46153812, 4121.53846126, 4134.99999973, 4144.10256390, 4121.79487152, 4130.64102537, 4187.56410243,8.57
4118.07692280, 4121.41025614, 4118.97435870, 4268.58974366, 4126.79487152, 4176.02564089, 4142.05128185, 4112.05128178, 4162.30769210, 4131.79487152, 4144.74358954, 4113.71794844, 4127.05128178, 4187.69230756,8.57
4122.82051255, 4125.25640998, 4123.71794844, 4269.48717956, 4130.25640998, 4185.64102551, 4152.94871774, 4127.82051255, 4184.10256397, 4124.48717921, 4145.25641005, 4122.30769203, 4131.41025614, 4190.25641012,8.57
4115.51282024, 4121.53846126, 4122.17948691, 4260.12820513, 4124.48717921, 4166.28205108, 4134.48717921, 4112.43589716, 4167.05128185, 4126.28205101, 4143.58974339, 4111.79487152, 4124.87179460, 4179.48717935,8.57
4122.56410229, 4125.25640998, 4127.43589716, 4266.92307700, 4120.51282024, 4160.38461518, 4128.20512793, 4109.35897408, 4172.94871781, 4132.56410229, 4147.17948697, 4121.79487152, 4127.43589716, 4186.41025628,8.57
4121.15384588, 4124.10256383, 4122.30769203, 4258.84615385, 4125.51282024, 4168.07692287, 4125.76923050, 4107.17948691, 4180.64102551, 4128.84615357, 4144.74358954, 4118.20512793, 4125.25640998, 4186.41025628,8.57
4122.82051255, 4121.28205101, 4123.33333306, 4228.20512814, 4128.46153819, 4154.48717928, 4102.05128171, 4079.10256376, 4145.51282031, 4124.61538434, 4139.99999980, 4115.12820485, 4122.43589716, 4182.43589730,8.57
4131.02564075, 4126.79487152, 4129.74358947, 4239.87179488, 4126.92307665, 4151.15384595, 4108.20512793, 4081.53846119, 4134.35897408, 4127.17948691, 4142.56410236, 4132.05128178, 4131.41025614, 4188.71794858,8.57
4120.12820485, 4124.87179460, 4122.94871767, 4274.10256418, 4126.66666639, 4173.20512807, 4144.87179467, 4117.17948691, 4167.05128185, 4127.43589716, 4144.74358954, 4121.66666639, 4128.71794844, 4184.87179474,8.57
4125.12820485, 4130.12820485, 4129.10256383, 4262.94871795, 4127.82051255, 4171.66666653, 4141.92307672, 4114.61538434, 4164.48717928, 4126.28205101, 4146.66666646, 4127.05128178, 4129.48717921, 4190.12820499,8.57
4128.97435870, 4129.35897408, 4126.28205101, 4247.69230770, 4128.84615357, 4159.99999980, 4125.12820485, 4104.61538434, 4146.28205108, 4125.25640998, 4145.51282031, 4125.12820485, 4129.35897408, 4189.48717935,8.57
4124.35897408, 4121.02564075, 4120.12820485, 4262.17948718, 4126.66666639, 4160.51282031, 4129.10256383, 4110.76923050, 4152.05128185, 4124.99999973, 4144.99999980, 4121.79487152, 4126.28205101, 4188.07692294,8.57
4129.87179460, 4125.38461511, 4127.05128178, 4273.20512828, 4123.46153819, 4164.10256390, 4138.84615364, 4112.82051255, 4167.05128185, 4128.07692280, 4147.30769210, 4140.38461518, 4133.07692280, 4196.02564089,8.57
4123.07692280, 4124.10256383, 4122.05128178, 4273.46153853, 4125.76923050, 4173.20512807, 4149.99999980, 4127.30769203, 4180.76923063, 4131.15384588, 4143.20512800, 4126.41025614, 4132.56410229, 4190.76923063,8.57
4124.87179460, 4123.71794844, 4124.87179460, 4277.30769238, 4128.71794844, 4188.07692294, 4159.48717928, 4143.33333313, 4179.48717935, 4131.53846126, 4144.23076903, 4128.84615357, 4133.71794844, 4193.97435884,8.57
4127.05128178, 4122.43589716, 4124.23076896, 4281.92307700, 4127.17948691, 4193.71794858, 4166.66666646, 4146.53846133, 4181.79487166, 4129.23076896, 4147.17948697, 4135.38461518, 4132.30769203, 4190.51282038,8.57
4119.35897408, 4117.17948691, 4116.92307665, 4275.12820520, 4127.56410229, 4177.05128192, 4157.30769210, 4134.61538434, 4194.99999986, 4127.05128178, 4142.17948697, 4118.58974332, 4126.66666639, 4185.12820499,8.57
4126.66666639, 4123.71794844, 4122.17948691, 4262.56410257, 4129.99999973, 4152.69230749, 4139.23076903, 4129.48717921, 4192.69230756, 4128.33333306, 4140.12820492, 4126.28205101, 4132.17948691, 4196.53846140,8.57
4122.17948691, 4121.79487152, 4116.79487152, 4259.10256411, 4127.56410229, 4144.61538441, 4137.30769210, 4136.02564082, 4177.82051269, 4131.28205101, 4139.99999980, 4121.41025614, 4131.92307665, 4190.51282038,8.57
4118.58974332, 4119.35897408, 4119.23076896, 4277.17948725, 4125.76923050, 4166.41025621, 4156.41025621, 4137.69230749, 4179.99999986, 4133.46153819, 4143.71794851, 4121.28205101, 4132.94871767, 4186.92307679,8.57
4118.84615357, 4121.28205101, 4121.79487152, 4287.05128212, 4127.56410229, 4183.84615371, 4167.69230749, 4130.38461511, 4180.51282038, 4131.15384588, 4145.12820492, 4126.15384588, 4131.92307665, 4187.94871781,8.57
4112.94871767, 4116.92307665, 4112.82051255, 4271.92307700, 4128.58974332, 4168.46153833, 4152.82051262, 4121.53846126, 4164.48717928, 4126.41025614, 4142.05128185, 4111.79487152, 4123.33333306, 4181.79487166,8.57
4123.97435870, 4125.89743562, 4121.92307665, 4274.23076930, 4127.69230742, 4155.89743569, 4142.17948697, 4124.10256383, 4170.89743576, 4126.28205101, 4145.12820492, 4123.33333306, 4131.92307665, 4187.30769217,8.57
4120.12820485, 4126.41025614, 4120.64102537, 4315.38461553, 4126.02564075, 4191.92307679, 4179.74358961, 4159.10256390, 4220.89743583, 4127.94871767, 4144.99999980, 4120.12820485, 4131.28205101, 4183.71794858,8.57
4111.92307665, 4119.61538434, 4118.33333306, 4332.82051303, 4126.15384588, 4225.89743583, 4217.56410250, 4194.87179474, 4251.53846154, 4129.35897408, 4145.38461518, 4116.41025614, 4126.02564075, 4184.74358961,8.57
4117.69230742, 4123.97435870, 4124.99999973, 4296.66666674, 4127.82051255, 4197.43589730, 4190.89743576, 4172.94871781, 4209.99999993, 4132.56410229, 4146.79487159, 4124.87179460, 4129.48717921, 4189.10256397,8.57
4115.76923050, 4122.82051255, 4121.79487152, 4262.05128206, 4127.30769203, 4160.76923056, 4152.43589723, 4137.56410236, 4160.38461518, 4130.64102537, 4142.43589723, 4111.66666639, 4124.48717921, 4179.23076910,8.57
4122.82051255, 4126.79487152, 4128.71794844, 4265.89743590, 4127.17948691, 4168.97435884, 4157.30769210, 4158.33333313, 4178.20512807, 4126.92307665, 4144.23076903, 4125.51282024, 4129.74358947, 4186.79487166,8.57
4123.97435870, 4126.92307665, 4126.15384588, 4281.92307700, 4128.97435870, 4185.76923063, 4169.35897422, 4179.99999986, 4210.64102558, 4128.33333306, 4147.43589723, 4126.92307665, 4130.51282024, 4187.30769217,8.57
4124.35897408, 4123.84615357, 4123.71794844, 4290.51282059, 4128.71794844, 4191.02564089, 4173.71794858, 4168.20512807, 4205.38461532, 4130.51282024, 4145.12820492, 4118.07692280, 4126.15384588, 4182.94871781,8.57
4130.64102537, 4130.38461511, 4131.28205101, 4303.07692322, 4128.97435870, 4210.12820506, 4189.48717935, 4178.71794858, 4214.61538455, 4127.94871767, 4143.33333313, 4133.07692280, 4134.61538434, 4190.38461525,8.57
4119.99999973, 4126.15384588, 4122.43589716, 4301.15384630, 4129.23076896, 4215.89743583, 4192.56410243, 4200.25641012, 4239.10256411, 4123.97435870, 4143.84615364, 4124.23076896, 4133.58974332, 4183.46153833,8.57
4124.99999973, 4125.38461511, 4124.23076896, 4289.10256418, 4127.82051255, 4190.12820499, 4174.35897422, 4185.38461525, 4226.66666660, 4125.76923050, 4148.58974339, 4129.23076896, 4131.02564075, 4184.99999986,8.57
4130.89743562, 4128.33333306, 4127.17948691, 4310.38461553, 4129.48717921, 4202.69230763, 4195.89743576, 4190.38461525, 4227.05128199, 4129.87179460, 4149.99999980, 4132.17948691, 4131.28205101, 4188.46153833,8.57
4122.17948691, 4124.10256383, 4122.05128178, 4326.53846168, 4129.10256383, 4243.20512821, 4231.92307686, 4216.15384609, 4252.30769231, 4129.48717921, 4147.69230749, 4123.58974332, 4132.43589716, 4187.56410243,8.57
4126.53846126, 4123.58974332, 4125.89743562, 4289.35897443, 4125.89743562, 4219.99999993, 4191.66666653, 4174.74358961, 4215.12820506, 4128.33333306, 4145.64102544, 4136.53846133, 4134.61538434, 4195.38461525,8.57
4120.38461511, 4118.71794844, 4121.79487152, 4253.46153847, 4125.51282024, 4167.05128185, 4130.51282024, 4121.53846126, 4155.25641005, 4127.69230742, 4141.41025621, 4126.15384588, 4127.30769203, 4190.12820499,8.57
4116.28205101, 4121.15384588, 4121.79487152, 4266.66666674, 4126.66666639, 4166.53846133, 4138.33333313, 4138.84615364, 4166.15384595, 4126.66666639, 4142.82051262, 4123.58974332, 4133.20512793, 4190.12820499,8.57
4119.87179460, 4124.23076896, 4120.76923050, 4290.00000007, 4125.89743562, 4190.51282038, 4173.71794858, 4180.64102551, 4203.71794865, 4127.82051255, 4142.56410236, 4125.76923050, 4137.05128185, 4191.28205115,8.57
4119.99999973, 4119.35897408, 4116.53846126, 4289.87179495, 4126.66666639, 4191.66666653, 4180.25641012, 4198.84615371, 4211.02564096, 4129.74358947, 4140.12820492, 4117.30769203, 4128.84615357, 4185.51282038,8.57
4128.84615357, 4125.76923050, 4126.02564075, 4269.10256418, 4128.97435870, 4177.05128192, 4154.74358954, 4162.30769210, 4185.25641012, 4129.10256383, 4142.82051262, 4132.17948691, 4134.35897408, 4191.41025628,8.57
4117.82051255, 4122.82051255, 4118.84615357, 4262.56410257, 4125.76923050, 4179.10256397, 4147.05128185, 4126.28205101, 4166.15384595, 4128.71794844, 4140.64102544, 4119.99999973, 4129.74358947, 4185.38461525,8.57
4114.48717921, 4119.74358947, 4119.61538434, 4283.97435905, 4122.82051255, 4188.20512807, 4176.66666653, 4167.94871774, 4192.05128192, 4130.64102537, 4139.99999980, 4116.92307665, 4127.05128178, 4183.46153833,8.57
4125.25640998, 4126.53846126, 4129.23076896, 4294.74358982, 4127.43589716, 4183.33333320, 4190.89743576, 4207.43589737, 4216.66666660, 4128.97435870, 4141.92307672, 4126.53846126, 4132.94871767, 4186.79487166,8.57
4115.12820485, 4121.15384588, 4117.94871767, 4286.79487187, 4130.38461511, 4183.20512807, 4167.43589723, 4166.79487159, 4189.87179474, 4124.10256383, 4140.38461518, 4108.33333306, 4127.05128178, 4181.15384602,8.57
4117.69230742, 4124.23076896, 4121.41025614, 4278.58974366, 4127.94871767, 4177.69230756, 4145.64102544, 4130.64102537, 4159.35897415, 4126.53846126, 4142.94871774, 4120.25640998, 4130.12820485, 4188.58974345,8.57
4119.99999973, 4127.94871767, 4125.38461511, 4270.25641033, 4126.66666639, 4155.76923056, 4147.69230749, 4155.12820492, 4172.69230756, 4130.12820485, 4144.23076903, 4122.94871767, 4130.89743562, 4182.56410243,8.57
4118.33333306, 4123.71794844, 4125.76923050, 4267.56410264, 4128.33333306, 4156.02564082, 4161.02564082, 4177.30769217, 4191.53846140, 4125.89743562, 4145.25641005, 4117.43589716, 4127.17948691, 4180.25641012,8.57
4126.66666639, 4123.84615357, 4130.64102537, 4277.30769238, 4131.41025614, 4188.33333320, 4180.51282038, 4184.99999986, 4203.84615378, 4124.74358947, 4144.87179467, 4128.97435870, 4129.23076896, 4190.76923063,8.57
4122.30769203, 4119.99999973, 4125.51282024, 4278.33333341, 4129.87179460, 4203.58974352, 4184.48717935, 4182.56410243, 4212.43589737, 4128.07692280, 4141.79487159, 4118.84615357, 4125.89743562, 4181.92307679,8.57
4124.99999973, 4125.12820485, 4129.74358947, 4260.64102564, 4127.17948691, 4189.87179474, 4168.07692287, 4162.05128185, 4186.66666653, 4128.33333306, 4146.41025621, 4129.35897408, 4131.41025614, 4186.92307679,8.57
4125.64102537, 4127.17948691, 4125.89743562, 4250.64102564, 4130.25640998, 4177.69230756, 4161.66666646, 4158.58974339, 4154.35897415, 4126.53846126, 4148.07692287, 4132.43589716, 4133.58974332, 4190.64102551,8.57
4119.74358947, 4123.71794844, 4122.56410229, 4264.61538462, 4130.12820485, 4175.89743576, 4165.38461518, 4170.12820499, 4169.61538448, 4128.07692280, 4146.02564082, 4122.30769203, 4128.33333306, 4187.43589730,8.57
4127.05128178, 4129.74358947, 4132.69230742, 4285.51282059, 4128.20512793, 4183.46153833, 4166.02564082, 4167.05128185, 4200.76923063, 4127.94871767, 4148.07692287, 4132.43589716, 4132.56410229, 4196.02564089,8.57
4121.02564075, 4123.20512793, 4124.23076896, 4279.87179495, 4128.71794844, 4183.84615371, 4163.33333313, 4161.92307672, 4190.64102551, 4124.10256383, 4145.51282031, 4122.30769203, 4129.48717921, 4189.10256397,8.57
4120.76923050, 4122.30769203, 4121.02564075, 4255.64102564, 4128.20512793, 4166.66666646, 4153.33333313, 4162.56410236, 4165.25641005, 4125.64102537, 4143.33333313, 4129.23076896, 4131.28205101, 4187.82051269,8.57
4123.84615357, 4127.56410229, 4121.41025614, 4254.61538462, 4126.66666639, 4162.56410236, 4141.41025621, 4145.12820492, 4164.48717928, 4127.56410229, 4142.82051262, 4131.28205101, 4134.23076896, 4189.35897422,8.57
4116.15384588, 4121.28205101, 4116.41025614, 4271.92307700, 4126.15384588, 4179.61538448, 4149.23076903, 4134.61538434, 4165.12820492, 4124.87179460, 4143.71794851, 4116.79487152, 4130.89743562, 4186.15384602,8.57
4124.74358947, 4122.94871767, 4121.92307665, 4270.38461546, 4128.71794844, 4188.71794858, 4171.92307679, 4163.71794851, 4166.41025621, 4125.89743562, 4143.46153826, 4131.41025614, 4134.87179460, 4194.99999986,8.57
4120.89743562, 4121.28205101, 4115.64102537, 4274.23076930, 4128.46153819, 4196.66666653, 4191.66666653, 4197.43589730, 4198.07692294, 4128.97435870, 4138.58974339, 4122.69230742, 4128.58974332, 4190.76923063,8.57
4117.17948691, 4123.07692280, 4118.07692280, 4296.66666674, 4126.02564075, 4203.58974352, 4195.89743576, 4194.10256397, 4219.87179481, 4128.71794844, 4142.69230749, 4121.41025614, 4129.87179460, 4191.92307679,8.57
4121.15384588, 4126.41025614, 4122.30769203, 4284.10256418, 4125.76923050, 4179.10256397, 4172.17948704, 4163.07692287, 4185.12820499, 4125.76923050, 4145.64102544, 4128.84615357, 4135.89743569, 4194.35897422,8.57
4115.51282024, 4119.23076896, 4116.15384588, 4250.25641026, 4128.46153819, 4149.10256390, 4148.07692287, 4157.69230749, 4164.10256390, 4124.48717921, 4140.89743569, 4114.87179460, 4127.69230742, 4187.17948704,8.57
4125.25640998, 4126.02564075, 4127.43589716, 4253.20512821, 4132.43589716, 4151.28205108, 4145.12820492, 4166.15384595, 4179.23076910, 4128.07692280, 4142.82051262, 4124.74358947, 4130.89743562, 4193.46153833,8.57
4123.07692280, 4127.69230742, 4123.71794844, 4263.58974359, 4130.51282024, 4162.30769210, 4148.84615364, 4148.71794851, 4167.94871774, 4128.84615357, 4143.46153826, 4118.46153819, 4129.10256383, 4184.74358961,8.57
4120.38461511, 4122.05128178, 4118.71794844, 4252.82051282, 4127.94871767, 4170.76923063, 4158.58974339, 4144.99999980, 4154.74358954, 4126.15384588, 4144.35897415, 4116.41025614, 4126.92307665, 4183.20512807,8.57
4128.07692280, 4125.51282024, 4125.89743562, 4246.79487180, 4134.61538434, 4179.35897422, 4169.74358961, 4167.69230749, 4172.56410243, 4128.20512793, 4145.89743569, 4126.15384588, 4131.02564075, 4190.64102551,8.57
4122.69230742, 4127.94871767, 4124.10256383, 4251.41025641, 4138.07692287, 4177.56410243, 4165.64102544, 4167.56410236, 4180.64102551, 4129.74358947, 4144.23076903, 4114.10256383, 4124.99999973, 4181.92307679,8.57
4129.99999973, 4131.15384588, 4131.79487152, 4261.92307693, 4134.87179460, 4177.43589730, 4170.51282038, 4171.02564089, 4196.53846140, 4128.33333306, 4148.07692287, 4125.38461511, 4128.33333306, 4188.84615371,8.57
4130.89743562, 4124.35897408, 4130.64102537, 4268.58974366, 4133.58974332, 4182.30769217, 4183.33333320, 4188.97435884, 4211.02564096, 4129.35897408, 4148.07692287, 4124.87179460, 4129.10256383, 4188.58974345,8.57
4128.20512793, 4123.97435870, 4129.35897408, 4261.92307693, 4132.56410229, 4174.10256397, 4169.10256397, 4174.87179474, 4179.10256397, 4131.41025614, 4145.25641005, 4123.33333306, 4129.10256383, 4185.25641012,8.57
4132.05128178, 4134.23076896, 4134.99999973, 4247.82051282, 4129.99999973, 4160.64102544, 4143.33333313, 4142.43589723, 4147.05128185, 4130.12820485, 4147.05128185, 4133.33333306, 4135.64102544, 4191.02564089,8.57
4121.79487152, 4126.02564075, 4127.43589716, 4243.84615385, 4127.94871767, 4165.12820492, 4140.76923056, 4133.07692280, 4157.43589723, 4127.82051255, 4148.33333313, 4118.97435870, 4127.82051255, 4186.41025628,8.57
4128.20512793, 4125.38461511, 4131.53846126, 4250.00000000, 4129.99999973, 4176.28205115, 4151.02564082, 4143.58974339, 4171.28205115, 4129.35897408, 4148.46153826, 4129.99999973, 4129.61538434, 4192.17948704,8.57
4130.76923050, 4128.97435870, 4127.94871767, 4266.92307700, 4131.92307665, 4191.53846140, 4175.12820499, 4180.89743576, 4193.20512807, 4129.10256383, 4148.33333313, 4129.61538434, 4132.69230742, 4189.23076910,8.57
4125.12820485, 4124.87179460, 4122.43589716, 4274.10256418, 4129.74358947, 4188.97435884, 4188.71794858, 4198.33333320, 4205.38461532, 4126.15384588, 4151.53846133, 4123.46153819, 4130.12820485, 4186.66666653,8.57
4132.82051255, 4128.71794844, 4130.76923050, 4254.74358975, 4130.38461511, 4155.76923056, 4161.15384595, 4153.71794851, 4174.23076910, 4128.07692280, 4150.51282031, 4142.94871774, 4135.38461518, 4194.99999986,8.57
4123.71794844, 4125.12820485, 4124.74358947, 4247.17948718, 4131.53846126, 4142.82051262, 4143.07692287, 4130.76923050, 4160.38461518, 4130.25640998, 4144.87179467, 4126.92307665, 4131.53846126, 4188.20512807,8.57
4123.33333306, 4123.71794844, 4125.38461511, 4248.07692308, 4130.64102537, 4143.58974339, 4142.43589723, 4136.15384595, 4165.51282031, 4128.33333306, 4149.10256390, 4126.66666639, 4133.07692280, 4192.30769217,8.57
4127.17948691, 4124.48717921, 4124.61538434, 4241.02564103, 4132.05128178, 4135.64102544, 4134.87179460, 4123.97435870, 4150.89743569, 4126.02564075, 4148.97435877, 4134.35897408, 4135.25640998, 4193.71794858,8.57
4120.76923050, 4121.41025614, 4117.94871767, 4240.25641026, 4134.35897408, 4133.58974332, 4131.79487152, 4123.20512793, 4144.87179467, 4127.05128178, 4143.33333313, 4122.17948691, 4129.74358947, 4188.58974345,8.57
4127.82051255, 4125.38461511, 4123.84615357, 4252.43589744, 4132.82051255, 4146.92307672, 4144.87179467, 4141.66666646, 4160.76923056, 4131.28205101, 4148.97435877, 4129.74358947, 4132.43589716, 4195.76923063,8.57
4121.28205101, 4119.23076896, 4119.48717921, 4265.38461539, 4129.35897408, 4165.25641005, 4166.28205108, 4161.02564082, 4183.46153833, 4131.66666639, 4148.84615364, 4118.20512793, 4128.58974332, 4186.92307679,8.57
4118.46153819, 4120.12820485, 4120.25640998, 4260.12820513, 4129.23076896, 4165.12820492, 4165.25641005, 4159.23076903, 4187.05128192, 4128.58974332, 4144.48717928, 4117.82051255, 4128.84615357, 4185.76923063,8.57
4123.20512793, 4126.15384588, 4122.56410229, 4253.84615385, 4131.53846126, 4162.69230749, 4160.38461518, 4164.23076903, 4188.58974345, 4128.84615357, 4147.56410236, 4124.74358947, 4130.64102537, 4189.48717935,8.57
4116.66666639, 4119.23076896, 4117.69230742, 4256.28205129, 4129.74358947, 4176.53846140, 4177.94871781, 4186.79487166, 4208.46153840, 4129.61538434, 4148.20512800, 4111.92307665, 4124.74358947, 4182.43589730,8.57
4125.38461511, 4126.79487152, 4128.46153819, 4256.15384616, 4129.61538434, 4184.10256397, 4179.87179474, 4181.02564089, 4220.64102558, 4128.97435870, 4148.46153826, 4124.48717921, 4131.41025614, 4190.25641012,8.57
4122.82051255, 4128.20512793, 4126.02564075, 4264.10256411, 4132.17948691, 4178.46153833, 4161.66666646, 4156.66666646, 4202.94871788, 4125.89743562, 4148.46153826, 4115.25640998, 4128.84615357, 4182.94871781,8.57
4120.89743562, 4122.30769203, 4122.17948691, 4273.20512828, 4131.41025614, 4165.25641005, 4150.89743569, 4147.30769210, 4172.43589730, 4125.25640998, 4149.74358954, 4114.10256383, 4127.56410229, 4181.41025628,8.57
4131.79487152, 4128.71794844, 4128.46153819, 4254.10256411, 4133.07692280, 4146.53846133, 4139.99999980, 4138.20512800, 4155.38461518, 4127.82051255, 4148.58974339, 4132.82051255, 4134.10256383, 4190.51282038,8.57
4119.99999973, 4125.25640998, 4121.15384588, 4252.17948718, 4131.02564075, 4158.33333313, 4144.99999980, 4146.92307672, 4169.23076910, 4127.17948691, 4146.53846133, 4114.23076896, 4122.05128178, 4176.92307679,8.57
4127.05128178, 4129.35897408, 4130.25640998, 4277.05128212, 4129.87179460, 4186.28205115, 4168.84615371, 4173.58974345, 4184.74358961, 4128.07692280, 4152.43589723, 4129.23076896, 4126.66666639, 4188.46153833,8.57
4131.79487152, 4130.12820485, 4129.61538434, 4266.79487187, 4134.48717921, 4178.20512807, 4170.38461525, 4165.89743569, 4172.30769217, 4128.07692280, 4150.51282031, 4136.15384595, 4134.87179460, 4192.56410243,8.57
4120.64102537, 4123.58974332, 4122.56410229, 4257.69230770, 4132.17948691, 4170.89743576, 4166.15384595, 4156.66666646, 4173.46153833, 4124.48717921, 4146.66666646, 4120.25640998, 4130.12820485, 4181.41025628,8.57
4132.56410229, 4131.53846126, 4134.99999973, 4271.15384623, 4129.61538434, 4176.66666653, 4161.66666646, 4157.94871774, 4176.15384602, 4126.92307665, 4150.25641005, 4133.46153819, 4134.10256383, 4194.48717935,8.57
4124.87179460, 4126.79487152, 4125.51282024, 4250.00000000, 4130.12820485, 4153.58974339, 4133.71794844, 4128.84615357, 4148.20512800, 4129.23076896, 4149.23076903, 4122.05128178, 4128.46153819, 4189.48717935,8.57
4123.58974332, 4123.84615357, 4124.48717921, 4214.23076917, 4131.41025614, 4128.20512793, 4121.02564075, 4114.61538434, 4136.79487159, 4124.48717921, 4151.41025621, 4127.30769203, 4130.25640998, 4189.35897422,8.57
4133.20512793, 4126.15384588, 4129.10256383, 4229.74358968, 4132.69230742, 4147.43589723, 4155.89743569, 4155.51282031, 4169.99999986, 4124.48717921, 4152.30769210, 4135.76923056, 4134.10256383, 4193.33333320,8.57
4124.87179460, 4123.20512793, 4121.79487152, 4258.97435898, 4131.66666639, 4177.17948704, 4187.69230756, 4192.94871781, 4205.12820506, 4129.87179460, 4150.51282031, 4126.53846126, 4131.66666639, 4189.23076910,8.57
4126.92307665, 4128.58974332, 4126.15384588, 4238.97435898, 4131.66666639, 4164.74358954, 4167.05128185, 4170.38461525, 4183.97435884, 4127.30769203, 4151.15384595, 4134.74358947, 4137.69230749, 4196.02564089,8.57
4118.97435870, 4122.43589716, 4120.64102537, 4225.64102558, 4132.69230742, 4145.38461518, 4140.89743569, 4138.33333313, 4149.74358954, 4123.20512793, 4150.51282031, 4117.05128178, 4131.02564075, 4188.46153833,8.57
4117.05128178, 4120.76923050, 4120.89743562, 4251.53846154, 4133.46153819, 4149.99999980, 4149.10256390, 4145.12820492, 4155.51282031, 4126.92307665, 4155.64102544, 4117.94871767, 4130.64102537, 4187.43589730,8.57
4121.92307665, 4124.87179460, 4121.28205101, 4252.69230770, 4132.17948691, 4146.28205108, 4150.89743569, 4145.38461518, 4154.10256390, 4130.12820485, 4154.61538441, 4126.92307665, 4133.58974332, 4187.56410243,8.57
4118.58974332, 4121.41025614, 4116.41025614, 4228.84615378, 4130.51282024, 4132.69230742, 4140.76923056, 4135.64102544, 4144.35897415, 4129.87179460, 4149.23076903, 4117.82051255, 4128.33333306, 4183.20512807,8.57
4125.64102537, 4124.87179460, 4123.46153819, 4236.15384616, 4131.53846126, 4138.97435877, 4150.38461518, 4164.87179467, 4173.20512807, 4128.84615357, 4154.48717928, 4127.56410229, 4134.61538434, 4193.07692294,8.57
4119.23076896, 4119.23076896, 4115.12820485, 4256.41025641, 4131.28205101, 4157.30769210, 4162.30769210, 4181.92307679, 4193.71794858, 4127.30769203, 4156.53846133, 4116.41025614, 4132.43589716, 4184.10256397,8.57
4121.79487152, 4119.35897408, 4117.56410229, 4240.89743590, 4130.51282024, 4156.53846133, 4147.94871774, 4135.64102544, 4154.48717928, 4128.46153819, 4155.64102544, 4118.20512793, 4132.05128178, 4180.25641012,8.57
4124.23076896, 4124.87179460, 4123.07692280, 4213.97435891, 4131.66666639, 4142.43589723, 4136.15384595, 4112.82051255, 4135.38461518, 4127.94871767, 4153.84615364, 4122.30769203, 4129.87179460, 4182.43589730,8.57
4115.89743562, 4122.94871767, 4120.38461511, 4234.61538462, 4132.43589716, 4162.69230749, 4166.92307672, 4161.28205108, 4178.84615371, 4124.87179460, 4155.12820492, 4110.25640998, 4123.33333306, 4179.10256397,8.57
4126.66666639, 4129.61538434, 4128.84615357, 4276.92307700, 4132.69230742, 4195.25641012, 4199.87179474, 4196.02564089, 4207.94871788, 4129.23076896, 4162.17948697, 4123.97435870, 4130.76923050, 4185.38461525,8.57
4122.43589716, 4125.38461511, 4122.30769203, 4259.87179488, 4132.82051255, 4172.30769217, 4181.79487166, 4180.12820499, 4188.58974345, 4132.43589716, 4159.99999980, 4112.17948691, 4127.82051255, 4177.94871781,8.57
4122.05128178, 4124.35897408, 4125.51282024, 4218.20512814, 4132.69230742, 4135.25640998, 4148.71794851, 4150.89743569, 4159.99999980, 4128.58974332, 4158.20512800, 4115.38461511, 4129.10256383, 4181.79487166,8.57
4122.05128178, 4124.35897408, 4125.51282024, 4218.20512814, 4132.69230742, 4135.25640998, 4148.71794851, 4150.89743569, 4159.99999980, 4128.58974332, 4158.20512800, 4115.38461511, 4129.10256383, 4181.79487166,8.57
4129.87179460, 4129.35897408, 4132.30769203, 4224.10256404, 4132.82051255, 4140.64102544, 4147.30769210, 4136.53846133, 4152.05128185, 4127.56410229, 4159.74358954, 4131.28205101, 4133.20512793, 4184.99999986,8.57
4122.56410229, 4123.84615357, 4125.38461511, 4242.94871795, 4130.64102537, 4153.33333313, 4157.43589723, 4145.38461518, 4161.41025621, 4128.07692280, 4158.46153826, 4119.23076896, 4127.17948691, 4178.20512807,8.57
4128.33333306, 4127.94871767, 4131.66666639, 4246.79487180, 4130.51282024, 4154.99999980, 4160.12820492, 4161.15384595, 4177.30769217, 4128.71794844, 4160.12820492, 4128.58974332, 4132.56410229, 4186.92307679,8.57
4125.12820485, 4125.51282024, 4125.12820485, 4254.48717949, 4132.43589716, 4157.30769210, 4165.25641005, 4162.17948697, 4183.07692294, 4129.48717921, 4160.51282031, 4125.51282024, 4131.79487152, 4179.35897422,8.57
4124.23076896, 4121.41025614, 4122.05128178, 4244.10256411, 4128.84615357, 4134.35897408, 4151.66666646, 4142.43589723, 4160.76923056, 4129.48717921, 4161.79487159, 4128.07692280, 4131.28205101, 4185.25641012,8.57
4129.87179460, 4125.64102537, 4127.05128178, 4235.64102564, 4125.76923050, 4124.10256383, 4152.56410236, 4148.71794851, 4158.46153826, 4129.35897408, 4160.12820492, 4135.51282031, 4134.61538434, 4199.99999986,8.57
4121.79487152, 4122.82051255, 4121.66666639, 4265.00000000, 4127.05128178, 4159.74358954, 4186.53846140, 4179.99999986, 4189.48717935, 4128.84615357, 4157.30769210, 4118.84615357, 4129.74358947, 4190.12820499,8.57
4127.94871767, 4127.82051255, 4128.20512793, 4268.71794879, 4129.61538434, 4158.71794851, 4180.64102551, 4182.94871781, 4196.28205115, 4129.10256383, 4162.05128185, 4131.53846126, 4136.66666646, 4192.17948704,8.57
4124.48717921, 4125.51282024, 4122.69230742, 4232.30769224, 4130.25640998, 4123.07692280, 4144.23076903, 4157.30769210, 4169.10256397, 4127.05128178, 4161.66666646, 4128.71794844, 4134.87179460, 4193.20512807,8.57
4122.30769203, 4120.89743562, 4118.33333306, 4218.33333327, 4130.64102537, 4115.89743562, 4133.33333306, 4128.84615357, 4143.97435877, 4126.92307665, 4159.10256390, 4126.28205101, 4129.87179460, 4198.07692294,8.57
4122.30769203, 4120.89743562, 4118.33333306, 4218.33333327, 4130.64102537, 4115.89743562, 4133.33333306, 4128.84615357, 4143.97435877, 4126.92307665, 4159.10256390, 4126.28205101, 4129.87179460, 4198.07692294,8.57
4128.97435870, 4127.30769203, 4126.02564075, 4242.05128206, 4134.10256383, 4133.46153819, 4151.92307672, 4131.92307665, 4152.94871774, 4129.99999973, 4160.76923056, 4139.74358954, 4136.66666646, 4202.43589737,8.57
4116.66666639, 4121.28205101, 4118.20512793, 4262.30769231, 4134.61538434, 4138.97435877, 4169.99999986, 4160.76923056, 4177.69230756, 4129.61538434, 4158.46153826, 4116.02564075, 4130.12820485, 4187.17948704,8.57
4122.43589716, 4121.28205101, 4119.74358947, 4243.71794872, 4131.53846126, 4115.76923050, 4153.97435877, 4152.30769210, 4163.07692287, 4128.46153819, 4158.97435877, 4119.61538434, 4129.87179460, 4190.76923063,8.57
4121.28205101, 4123.46153819, 4116.92307665, 4224.61538455, 4129.35897408, 4115.51282024, 4149.10256390, 4139.61538441, 4154.48717928, 4127.56410229, 4160.76923056, 4123.71794844, 4132.05128178, 4189.61538448,8.57
4114.74358947, 4121.92307665, 4117.17948691, 4233.20512814, 4130.64102537, 4135.64102544, 4167.17948697, 4166.53846133, 4184.10256397, 4127.43589716, 4161.66666646, 4114.61538434, 4130.89743562, 4183.58974345,8.57
4126.92307665, 4126.92307665, 4128.97435870, 4247.69230770, 4131.41025614, 4135.12820485, 4169.23076910, 4180.38461525, 4191.28205115, 4130.51282024, 4162.43589723, 4127.17948691, 4134.74358947, 4189.99999986,8.57
4117.56410229, 4118.84615357, 4119.48717921, 4252.43589744, 4127.94871767, 4136.28205108, 4169.48717935, 4165.38461518, 4171.92307679, 4130.76923050, 4160.76923056, 4112.94871767, 4127.17948691, 4183.07692294,8.57
4119.99999973, 4122.94871767, 4123.71794844, 4242.56410257, 4130.51282024, 4139.99999980, 4171.66666653, 4152.82051262, 4158.97435877, 4128.84615357, 4162.82051262, 4119.87179460, 4128.33333306, 4188.58974345,8.57
4127.56410229, 4132.05128178, 4128.58974332, 4231.66666660, 4135.12820485, 4123.84615357, 4162.69230749, 4151.28205108, 4159.61538441, 4130.25640998, 4159.74358954, 4126.79487152, 4129.74358947, 4185.12820499,8.57
4120.51282024, 4124.99999973, 4121.41025614, 4244.10256411, 4131.28205101, 4120.51282024, 4163.20512800, 4158.84615364, 4175.76923063, 4131.41025614, 4156.79487159, 4114.61538434, 4125.38461511, 4176.79487166,8.57
4130.38461511, 4126.53846126, 4131.15384588, 4243.46153847, 4129.23076896, 4128.84615357, 4161.53846133, 4151.02564082, 4171.66666653, 4128.97435870, 4160.64102544, 4133.07692280, 4130.89743562, 4191.53846140,8.57
4127.17948691, 4125.89743562, 4129.74358947, 4217.56410250, 4131.66666639, 4121.66666639, 4146.79487159, 4134.74358947, 4149.99999980, 4126.79487152, 4157.30769210, 4124.23076896, 4127.17948691, 4187.82051269,8.57
4123.46153819, 4126.15384588, 4128.20512793, 4225.25641019, 4134.35897408, 4128.97435870, 4152.43589723, 4137.69230749, 4155.12820492, 4128.58974332, 4157.17948697, 4121.66666639, 4128.84615357, 4187.05128192,8.57
4124.35897408, 4126.66666639, 4125.51282024, 4245.00000000, 4137.17948697, 4141.53846133, 4167.43589723, 4153.20512800, 4177.82051269, 4129.35897408, 4158.84615364, 4132.56410229, 4133.20512793, 4191.92307679,8.57
4119.61538434, 4121.15384588, 4117.56410229, 4237.43589744, 4133.58974332, 4125.89743562, 4163.20512800, 4163.07692287, 4184.99999986, 4126.28205101, 4157.30769210, 4121.28205101, 4129.35897408, 4186.79487166,8.57
4129.87179460, 4129.10256383, 4129.35897408, 4237.05128206, 4129.10256383, 4122.82051255, 4157.56410236, 4154.87179467, 4177.94871781, 4126.02564075, 4162.05128185, 4131.53846126, 4135.89743569, 4191.41025628,8.57
4124.74358947, 4127.69230742, 4125.76923050, 4240.38461539, 4131.41025614, 4142.30769210, 4154.99999980, 4134.74358947, 4159.87179467, 4127.43589716, 4160.38461518, 4125.51282024, 4131.53846126, 4186.66666653,8.57
4124.74358947, 4127.69230742, 4125.76923050, 4240.38461539, 4131.41025614, 4142.30769210, 4154.99999980, 4134.74358947, 4159.87179467, 4127.43589716, 4160.38461518, 4125.51282024, 4131.53846126, 4186.66666653,8.57
4124.87179460, 4122.69230742, 4122.05128178, 4231.66666660, 4132.17948691, 4146.92307672, 4159.23076903, 4143.84615364, 4158.46153826, 4126.92307665, 4157.30769210, 4126.15384588, 4127.69230742, 4193.20512807,8.57
4133.33333306, 4127.56410229, 4125.76923050, 4232.94871788, 4130.38461511, 4137.43589723, 4164.23076903, 4161.15384595, 4175.76923063, 4127.43589716, 4159.10256390, 4137.43589723, 4134.35897408, 4200.38461525,8.57
4117.17948691, 4121.02564075, 4115.51282024, 4233.58974352, 4128.84615357, 4127.69230742, 4150.38461518, 4141.28205108, 4163.58974339, 4128.84615357, 4155.76923056, 4119.99999973, 4130.51282024, 4188.84615371,8.57
4120.89743562, 4122.94871767, 4120.12820485, 4234.48717949, 4128.07692280, 4131.79487152, 4150.89743569, 4132.43589716, 4153.20512800, 4128.07692280, 4155.89743569, 4130.76923050, 4134.10256383, 4195.12820499,8.57
4125.25640998, 4123.58974332, 4118.07692280, 4249.10256411, 4128.33333306, 4153.71794851, 4181.79487166, 4169.87179474, 4190.64102551, 4126.66666639, 4157.05128185, 4131.02564075, 4132.56410229, 4191.92307679,8.57
4118.33333306, 4119.10256383, 4115.25640998, 4245.00000000, 4129.10256383, 4153.84615364, 4182.30769217, 4177.17948704, 4198.71794858, 4128.07692280, 4157.05128185, 4122.17948691, 4130.12820485, 4187.69230756,8.57
4123.07692280, 4124.74358947, 4121.66666639, 4227.69230763, 4131.53846126, 4131.66666639, 4154.74358954, 4139.10256390, 4155.25641005, 4130.25640998, 4157.82051262, 4129.74358947, 4137.05128185, 4194.23076910,8.57
4117.69230742, 4121.92307665, 4115.89743562, 4221.15384609, 4133.07692280, 4126.02564075, 4152.82051262, 4131.92307665, 4143.71794851, 4129.23076896, 4153.07692287, 4113.07692280, 4131.02564075, 4182.30769217,8.57
4122.94871767, 4124.23076896, 4123.97435870, 4214.10256404, 4132.69230742, 4135.38461518, 4163.97435877, 4152.69230749, 4165.76923056, 4128.33333306, 4151.41025621, 4121.15384588, 4133.46153819, 4183.58974345,8.57
4122.69230742, 4123.97435870, 4122.56410229, 4214.61538455, 4131.28205101, 4142.82051262, 4168.46153833, 4160.38461518, 4176.15384602, 4127.30769203, 4152.56410236, 4122.56410229, 4133.07692280, 4184.99999986,8.57
4118.33333306, 4119.48717921, 4118.46153819, 4218.71794865, 4128.58974332, 4143.71794851, 4167.94871774, 4151.41025621, 4168.84615371, 4127.17948691, 4152.94871774, 4112.94871767, 4126.53846126, 4182.17948704,8.57
4130.51282024, 4125.64102537, 4129.74358947, 4207.69230763, 4128.33333306, 4140.89743569, 4157.94871774, 4133.20512793, 4147.94871774, 4129.35897408, 4152.56410236, 4127.69230742, 4133.33333306, 4188.33333320,8.57
4122.30769203, 4121.53846126, 4122.56410229, 4217.43589737, 4129.74358947, 4159.48717928, 4176.66666653, 4152.69230749, 4163.84615364, 4129.48717921, 4149.74358954, 4115.51282024, 4128.46153819, 4178.97435884,8.57
4121.66666639, 4124.23076896, 4125.89743562, 4239.87179488, 4132.17948691, 4175.38461525, 4205.64102558, 4190.12820499, 4199.99999986, 4129.99999973, 4153.33333313, 4120.51282024, 4127.17948691, 4183.71794858,8.57
4124.61538434, 4129.48717921, 4129.61538434, 4222.17948711, 4133.33333306, 4143.84615364, 4182.30769217, 4165.64102544, 4173.97435884, 4129.99999973, 4151.02564082, 4126.92307665, 4128.58974332, 4186.66666653,8.57
4120.89743562, 4124.99999973, 4121.53846126, 4205.38461532, 4128.97435870, 4115.51282024, 4152.82051262, 4133.46153819, 4144.99999980, 4127.94871767, 4145.38461518, 4115.89743562, 4126.66666639, 4181.66666653,8.57
4132.56410229, 4129.87179460, 4127.82051255, 4218.71794865, 4127.94871767, 4129.99999973, 4163.97435877, 4154.61538441, 4171.53846140, 4130.25640998, 4152.69230749, 4132.56410229, 4133.20512793, 4193.20512807,8.57
4123.84615357, 4124.87179460, 4122.05128178, 4224.99999993, 4130.25640998, 4150.76923056, 4183.71794858, 4172.56410243, 4187.43589730, 4129.74358947, 4153.71794851, 4126.66666639, 4128.33333306, 4187.43589730,8.57
4123.84615357, 4123.84615357, 4124.10256383, 4230.25641019, 4129.10256383, 4161.02564082, 4198.58974345, 4177.56410243, 4188.84615371, 4123.84615357, 4150.51282031, 4130.25640998, 4130.51282024, 4188.84615371,8.57
4131.41025614, 4130.89743562, 4129.23076896, 4246.15384616, 4126.41025614, 4164.87179467, 4204.61538455, 4195.12820499, 4204.87179481, 4124.48717921, 4150.64102544, 4139.61538441, 4135.64102544, 4193.71794858,8.57
4123.20512793, 4123.46153819, 4121.53846126, 4245.25641026, 4126.53846126, 4154.48717928, 4190.38461525, 4188.20512807, 4197.82051269, 4128.33333306, 4147.82051262, 4125.64102537, 4129.10256383, 4188.46153833,8.57
4129.99999973, 4125.89743562, 4129.35897408, 4240.00000000, 4129.87179460, 4149.87179467, 4187.30769217, 4172.69230756, 4182.05128192, 4128.46153819, 4148.20512800, 4136.41025621, 4135.76923056, 4196.15384602,8.57
4126.92307665, 4127.17948691, 4124.87179460, 4249.48717949, 4128.07692280, 4163.33333313, 4202.94871788, 4184.35897422, 4187.43589730, 4127.30769203, 4147.56410236, 4127.94871767, 4135.12820485, 4190.25641012,8.57
4124.99999973, 4125.76923050, 4121.66666639, 4243.58974359, 4125.76923050, 4158.97435877, 4195.12820499, 4186.79487166, 4188.97435884, 4128.84615357, 4147.56410236, 4126.79487152, 4131.15384588, 4191.92307679,8.57
4127.17948691, 4126.53846126, 4126.02564075, 4219.10256404, 4128.58974332, 4142.56410236, 4169.87179474, 4161.53846133, 4174.74358961, 4129.74358947, 4147.94871774, 4135.38461518, 4134.61538434, 4196.66666653,8.57
4116.53846126, 4119.87179460, 4118.58974332, 4218.97435891, 4129.61538434, 4158.46153826, 4168.46153833, 4151.92307672, 4170.64102551, 4127.30769203, 4144.61538441, 4115.89743562, 4130.25640998, 4185.25641012,8.57
4123.58974332, 4125.12820485, 4123.46153819, 4240.64102564, 4131.66666639, 4185.64102551, 4191.02564089, 4180.51282038, 4196.15384602, 4129.35897408, 4144.87179467, 4127.05128178, 4133.71794844, 4191.92307679,8.57
4120.89743562, 4125.51282024, 4120.25640998, 4239.74358975, 4132.82051255, 4179.10256397, 4196.66666653, 4195.51282038, 4210.38461532, 4132.05128178, 4144.61538441, 4124.35897408, 4130.12820485, 4188.46153833,8.57
4118.97435870, 4122.30769203, 4119.87179460, 4219.48717942, 4129.61538434, 4156.15384595, 4173.97435884, 4168.97435884, 4182.30769217, 4129.23076896, 4146.41025621, 4115.64102537, 4126.79487152, 4182.56410243,8.57
4127.56410229, 4125.25640998, 4124.23076896, 4213.07692301, 4127.69230742, 4153.97435877, 4166.53846133, 4157.82051262, 4166.92307672, 4126.92307665, 4143.07692287, 4127.05128178, 4133.71794844, 4187.17948704,8.57
4118.46153819, 4122.17948691, 4116.79487152, 4218.71794865, 4130.25640998, 4170.89743576, 4191.41025628, 4189.74358961, 4195.38461525, 4128.33333306, 4137.30769210, 4113.84615357, 4128.84615357, 4180.76923063,8.57
4123.84615357, 4128.07692280, 4127.56410229, 4216.79487173, 4133.84615357, 4175.51282038, 4199.99999986, 4196.02564089, 4201.53846147, 4129.10256383, 4144.48717928, 4123.33333306, 4131.28205101, 4185.64102551,8.57
4123.07692280, 4124.10256383, 4125.12820485, 4216.92307686, 4132.05128178, 4167.05128185, 4185.25641012, 4166.53846133, 4181.15384602, 4127.30769203, 4144.23076903, 4123.58974332, 4129.10256383, 4178.71794858,8.57
4120.12820485, 4121.02564075, 4120.51282024, 4238.33333334, 4130.76923050, 4180.64102551, 4202.30769224, 4185.12820499, 4206.66666660, 4128.58974332, 4141.28205108, 4114.87179460, 4126.28205101, 4176.53846140,8.57
4132.17948691, 4130.89743562, 4131.79487152, 4249.35897436, 4131.66666639, 4197.17948704, 4220.38461532, 4213.58974352, 4226.92307686, 4131.92307665, 4146.66666646, 4130.89743562, 4133.07692280, 4190.25641012,8.57
4123.07692280, 4122.30769203, 4125.12820485, 4229.74358968, 4130.51282024, 4176.66666653, 4194.74358961, 4183.97435884, 4185.76923063, 4131.15384588, 4143.97435877, 4118.71794844, 4126.41025614, 4179.23076910,8.57
4125.12820485, 4122.43589716, 4127.94871767, 4210.12820506, 4131.53846126, 4150.12820492, 4168.71794858, 4149.23076903, 4151.92307672, 4128.97435870, 4139.99999980, 4123.58974332, 4129.23076896, 4181.79487166,8.57
4126.92307665, 4128.20512793, 4128.84615357, 4210.25641019, 4131.92307665, 4159.10256390, 4180.64102551, 4170.64102551, 4174.48717935, 4129.10256383, 4141.02564082, 4129.48717921, 4131.53846126, 4186.28205115,8.57
4122.05128178, 4122.94871767, 4123.84615357, 4218.33333327, 4129.48717921, 4179.61538448, 4200.25641012, 4204.10256404, 4203.97435891, 4128.71794844, 4143.71794851, 4121.28205101, 4125.64102537, 4183.20512807,8.57
4132.56410229, 4128.20512793, 4130.76923050, 4219.87179481, 4130.89743562, 4171.79487166, 4187.43589730, 4181.15384602, 4186.53846140, 4127.82051255, 4145.38461518, 4136.02564082, 4133.97435870, 4192.69230756,8.57
4123.84615357, 4127.69230742, 4122.30769203, 4223.07692301, 4131.41025614, 4159.61538441, 4172.43589730, 4156.28205108, 4164.61538441, 4126.41025614, 4140.89743569, 4124.99999973, 4132.05128178, 4190.25641012,8.57
4124.99999973, 4128.33333306, 4124.35897408, 4241.92307693, 4128.84615357, 4180.64102551, 4195.64102551, 4188.84615371, 4189.61538448, 4127.94871767, 4143.58974339, 4128.33333306, 4131.53846126, 4193.33333320,8.57
4130.12820485, 4126.15384588, 4127.69230742, 4246.66666667, 4128.58974332, 4196.79487166, 4210.64102558, 4208.97435891, 4207.82051275, 4130.38461511, 4147.69230749, 4134.23076896, 4136.15384595, 4190.64102551,8.57
4121.53846126, 4120.76923050, 4121.53846126, 4225.25641019, 4128.84615357, 4173.20512807, 4185.64102551, 4176.28205115, 4179.87179474, 4129.23076896, 4141.02564082, 4122.56410229, 4132.82051255, 4185.89743576,8.57
4128.84615357, 4131.79487152, 4128.07692280, 4219.61538455, 4128.97435870, 4156.66666646, 4180.76923063, 4178.97435884, 4185.89743576, 4128.84615357, 4139.74358954, 4137.94871774, 4135.64102544, 4197.05128192,8.57
4123.46153819, 4127.94871767, 4120.38461511, 4234.74358975, 4128.58974332, 4174.87179474, 4205.12820506, 4221.15384609, 4225.38461532, 4128.71794844, 4139.87179467, 4125.89743562, 4131.66666639, 4188.58974345,8.57
4120.38461511, 4121.92307665, 4119.35897408, 4220.12820506, 4128.97435870, 4164.74358954, 4176.53846140, 4181.66666653, 4178.33333320, 4128.33333306, 4138.58974339, 4123.20512793, 4134.23076896, 4190.64102551,8.57
4121.28205101, 4126.28205101, 4122.82051255, 4205.12820506, 4131.79487152, 4137.69230749, 4155.38461518, 4132.69230742, 4129.10256383, 4128.46153819, 4136.79487159, 4133.58974332, 4138.84615364, 4197.56410243,8.57
4113.20512793, 4122.30769203, 4115.12820485, 4238.07692308, 4131.53846126, 4156.79487159, 4208.84615378, 4187.69230756, 4191.66666653, 4127.56410229, 4134.87179460, 4114.10256383, 4129.87179460, 4184.23076910,8.57
4124.23076896, 4125.51282024, 4125.12820485, 4266.92307700, 4130.64102537, 4173.07692294, 4233.20512814, 4233.33333327, 4239.10256411, 4128.71794844, 4141.41025621, 4123.33333306, 4132.94871767, 4187.82051269,8.57
4120.25640998, 4122.69230742, 4123.84615357, 4254.87179488, 4131.53846126, 4151.66666646, 4201.28205122, 4208.71794865, 4214.35897429, 4130.76923050, 4139.87179467, 4121.15384588, 4129.23076896, 4185.76923063,8.57
4116.41025614, 4121.92307665, 4123.07692280, 4236.66666667, 4132.05128178, 4132.17948691, 4182.94871781, 4186.41025628, 4195.51282038, 4132.05128178, 4133.46153819, 4117.05128178, 4125.38461511, 4181.79487166,8.57
4124.48717921, 4130.51282024, 4127.56410229, 4247.43589744, 4128.58974332, 4153.20512800, 4207.05128199, 4200.12820499, 4216.02564096, 4129.87179460, 4136.28205108, 4128.71794844, 4130.89743562, 4183.20512807,8.57
4116.28205101, 4123.97435870, 4117.05128178, 4259.48717949, 4127.56410229, 4177.94871781, 4231.41025634, 4218.58974352, 4240.89743590, 4126.53846126, 4138.07692287, 4111.92307665, 4125.76923050, 4177.56410243,8.57
4124.10256383, 4126.53846126, 4124.74358947, 4233.97435898, 4134.99999973, 4157.05128185, 4207.05128199, 4200.76923063, 4224.61538455, 4130.12820485, 4134.99999973, 4119.23076896, 4128.97435870, 4188.46153833,8.57
4123.33333306, 4128.58974332, 4124.99999973, 4217.94871788, 4137.30769210, 4139.99999980, 4175.89743576, 4165.38461518, 4186.53846140, 4131.92307665, 4132.43589716, 4121.15384588, 4127.56410229, 4181.53846140,8.57
4119.61538434, 4122.17948691, 4121.92307665, 4237.05128206, 4131.53846126, 4152.94871774, 4188.33333320, 4166.02564082, 4179.35897422, 4129.74358947, 4137.94871774, 4117.82051255, 4126.41025614, 4177.56410243,8.57
4131.15384588, 4127.56410229, 4130.12820485, 4240.64102564, 4129.10256383, 4157.69230749, 4207.56410250, 4201.41025634, 4204.87179481, 4130.76923050, 4141.15384595, 4133.97435870, 4135.25640998, 4191.66666653,8.57
4122.56410229, 4126.02564075, 4123.46153819, 4223.97435891, 4129.48717921, 4152.94871774, 4194.74358961, 4192.05128192, 4198.71794858, 4128.07692280, 4135.12820485, 4120.38461511, 4127.82051255, 4184.61538448,8.57
4125.12820485, 4125.51282024, 4127.94871767, 4227.56410250, 4129.61538434, 4148.84615364, 4177.05128192, 4143.20512800, 4157.94871774, 4126.92307665, 4136.41025621, 4126.53846126, 4128.33333306, 4187.69230756,8.57
4126.41025614, 4125.64102537, 4125.64102537, 4251.53846154, 4128.71794844, 4156.53846133, 4193.58974345, 4164.87179467, 4170.89743576, 4130.64102537, 4135.51282031, 4129.99999973, 4131.92307665, 4186.28205115,8.57
4118.20512793, 4122.05128178, 4118.46153819, 4271.02564110, 4127.30769203, 4181.41025628, 4224.48717942, 4220.38461532, 4218.97435891, 4130.38461511, 4132.43589716, 4121.53846126, 4128.33333306, 4183.84615371,8.57
4128.58974332, 4125.89743562, 4129.10256383, 4262.43589744, 4130.89743562, 4177.30769217, 4212.94871788, 4201.66666660, 4209.10256404, 4127.82051255, 4135.76923056, 4137.05128185, 4134.23076896, 4197.94871781,8.57
4127.17948691, 4122.05128178, 4125.25640998, 4242.30769231, 4133.71794844, 4149.87179467, 4186.53846140, 4177.82051269, 4187.43589730, 4127.69230742, 4132.30769203, 4122.17948691, 4132.43589716, 4193.33333320,8.57
4127.82051255, 4126.02564075, 4125.76923050, 4239.74358975, 4129.99999973, 4152.69230749, 4191.41025628, 4199.61538448, 4199.10256397, 4128.58974332, 4130.89743562, 4127.17948691, 4135.89743569, 4194.61538448,8.57
4123.07692280, 4129.74358947, 4123.97435870, 4239.87179488, 4129.87179460, 4171.53846140, 4205.89743583, 4201.41025634, 4194.23076910, 4126.28205101, 4130.51282024, 4137.05128185, 4135.76923056, 4194.10256397,8.57
4112.94871767, 4119.74358947, 4114.74358947, 4226.79487173, 4132.43589716, 4175.12820499, 4207.69230763, 4194.23076910, 4188.07692294, 4126.53846126, 4128.33333306, 4114.61538434, 4124.10256383, 4185.64102551,8.57
4127.30769203, 4124.23076896, 4124.99999973, 4218.07692301, 4129.99999973, 4168.33333320, 4200.89743576, 4194.87179474, 4193.46153833, 4131.92307665, 4130.76923050, 4128.84615357, 4132.05128178, 4194.99999986,8.57
4121.66666639, 4124.74358947, 4121.02564075, 4226.79487173, 4127.69230742, 4166.02564082, 4199.10256397, 4189.23076910, 4190.89743576, 4130.38461511, 4129.35897408, 4128.46153819, 4134.35897408, 4190.51282038,8.57
4117.82051255, 4124.74358947, 4119.99999973, 4237.30769231, 4131.28205101, 4171.15384602, 4203.46153840, 4196.66666653, 4197.43589730, 4124.61538434, 4128.71794844, 4120.89743562, 4131.41025614, 4187.82051269,8.57
4126.28205101, 4127.82051255, 4125.38461511, 4248.58974359, 4134.35897408, 4186.92307679, 4213.71794865, 4206.92307686, 4210.89743583, 4125.89743562, 4126.41025614, 4126.02564075, 4132.94871767, 4190.38461525,8.57
4116.53846126, 4120.25640998, 4118.07692280, 4254.61538462, 4130.25640998, 4187.56410243, 4210.38461532, 4191.02564089, 4200.76923063, 4128.20512793, 4124.87179460, 4114.74358947, 4128.71794844, 4183.33333320,8.57
4121.41025614, 4127.17948691, 4125.25640998, 4239.48717949, 4128.07692280, 4165.12820492, 4190.76923063, 4178.20512807, 4191.92307679, 4128.97435870, 4129.99999973, 4124.10256383, 4132.82051255, 4188.46153833,8.57
4121.92307665, 4129.48717921, 4120.64102537, 4234.87179488, 4129.74358947, 4169.74358961, 4192.56410243, 4187.56410243, 4204.48717942, 4130.25640998, 4126.41025614, 4116.92307665, 4130.51282024, 4182.43589730,8.57
4122.30769203, 4123.33333306, 4119.10256383, 4252.17948718, 4131.41025614, 4197.30769217, 4217.43589737, 4197.56410243, 4210.51282045, 4128.84615357, 4123.46153819, 4116.41025614, 4130.25640998, 4183.20512807,8.57
4128.33333306, 4126.28205101, 4127.43589716, 4241.41025641, 4133.20512793, 4186.53846140, 4216.02564096, 4206.02564096, 4207.05128199, 4128.20512793, 4126.02564075, 4129.99999973, 4133.46153819, 4188.07692294,8.57
4119.99999973, 4123.58974332, 4120.12820485, 4205.51282045, 4134.35897408, 4152.17948697, 4183.84615371, 4194.35897422, 4187.56410243, 4129.48717921, 4124.23076896, 4114.87179460, 4124.35897408, 4174.23076910,8.57
4126.15384588, 4127.17948691, 4127.82051255, 4219.48717942, 4135.51282031, 4170.89743576, 4194.87179474, 4187.43589730, 4182.69230756, 4129.99999973, 4128.58974332, 4127.69230742, 4129.10256383, 4185.12820499,8.57
4124.10256383, 4125.12820485, 4128.33333306, 4256.15384616, 4133.07692280, 4210.64102558, 4236.02564103, 4217.82051275, 4217.56410250, 4129.35897408, 4130.76923050, 4127.94871767, 4129.74358947, 4188.33333320,8.57
4121.79487152, 4122.17948691, 4122.56410229, 4246.02564103, 4129.10256383, 4194.99999986, 4224.10256404, 4226.66666660, 4230.25641019, 4129.23076896, 4128.07692280, 4117.43589716, 4126.02564075, 4183.20512807,8.57
4133.20512793, 4131.66666639, 4127.94871767, 4222.30769224, 4131.02564075, 4159.87179467, 4184.61538448, 4182.43589730, 4185.76923063, 4129.35897408, 4130.38461511, 4133.33333306, 4136.28205108, 4191.79487166,8.57
4121.02564075, 4126.28205101, 4120.25640998, 4235.38461539, 4130.51282024, 4169.48717935, 4194.61538448, 4169.35897422, 4173.07692294, 4127.43589716, 4129.99999973, 4123.20512793, 4133.46153819, 4186.02564089,8.57
4122.05128178, 4125.64102537, 4124.23076896, 4259.10256411, 4126.53846126, 4198.97435884, 4226.28205122, 4209.87179481, 4225.25641019, 4128.07692280, 4131.28205101, 4128.84615357, 4136.02564082, 4192.82051269,8.57
4125.76923050, 4128.97435870, 4126.28205101, 4240.12820513, 4126.15384588, 4194.87179474, 4214.23076917, 4212.17948711, 4232.05128199, 4130.64102537, 4132.05128178, 4131.53846126, 4135.89743569, 4194.23076910,8.57
4121.53846126, 4124.10256383, 4120.51282024, 4207.82051275, 4128.46153819, 4178.71794858, 4195.64102551, 4186.41025628, 4186.79487166, 4129.74358947, 4129.10256383, 4121.28205101, 4127.05128178, 4188.20512807,8.57
4131.41025614, 4127.30769203, 4127.17948691, 4220.76923070, 4130.25640998, 4190.76923063, 4210.89743583, 4197.69230756, 4180.51282038, 4128.07692280, 4130.76923050, 4136.41025621, 4134.48717921, 4197.17948704,8.57
4119.99999973, 4122.82051255, 4121.53846126, 4242.05128206, 4128.97435870, 4201.66666660, 4221.53846147, 4219.99999993, 4204.35897429, 4128.07692280, 4133.20512793, 4124.99999973, 4133.07692280, 4191.53846140,8.57
4118.58974332, 4125.51282024, 4123.33333306, 4225.12820506, 4128.84615357, 4180.76923063, 4204.74358968, 4204.87179481, 4192.82051269, 4129.35897408, 4132.05128178, 4127.17948691, 4131.02564075, 4191.53846140,8.57
4127.56410229, 4128.07692280, 4123.97435870, 4221.28205122, 4130.76923050, 4179.35897422, 4205.12820506, 4187.56410243, 4178.46153833, 4128.97435870, 4124.48717921, 4133.84615357, 4131.28205101, 4191.79487166,8.57
4120.51282024, 4119.61538434, 4117.17948691, 4227.30769224, 4130.38461511, 4193.71794858, 4213.71794865, 4198.84615371, 4193.33333320, 4127.56410229, 4121.41025614, 4117.56410229, 4127.05128178, 4186.53846140,8.57
4122.43589716, 4124.10256383, 4125.25640998, 4202.05128199, 4131.15384588, 4179.74358961, 4196.15384602, 4203.33333327, 4197.56410243, 4128.46153819, 4124.10256383, 4126.92307665, 4133.33333306, 4192.94871781,8.57
4116.28205101, 4124.10256383, 4118.71794844, 4200.76923063, 4130.38461511, 4176.66666653, 4196.66666653, 4198.84615371, 4201.53846147, 4128.46153819, 4121.79487152, 4117.82051255, 4130.38461511, 4185.51282038,8.57
4119.10256383, 4123.46153819, 4117.69230742, 4228.07692301, 4128.46153819, 4189.48717935, 4219.99999993, 4206.02564096, 4221.28205122, 4127.94871767, 4125.51282024, 4115.38461511, 4129.61538434, 4186.02564089,8.57
4124.23076896, 4125.25640998, 4122.94871767, 4224.74358968, 4128.07692280, 4180.51282038, 4219.23076917, 4215.64102558, 4227.05128199, 4127.30769203, 4126.92307665, 4121.53846126, 4131.53846126, 4185.51282038,8.57
4118.20512793, 4120.64102537, 4119.99999973, 4194.74358961, 4128.07692280, 4155.64102544, 4184.61538448, 4185.64102551, 4185.51282038, 4126.66666639, 4120.76923050, 4108.58974332, 4125.25640998, 4175.38461525,8.57
4130.38461511, 4127.56410229, 4128.71794844, 4189.74358961, 4129.48717921, 4153.84615364, 4171.41025628, 4159.23076903, 4155.25641005, 4128.97435870, 4124.48717921, 4125.51282024, 4129.74358947, 4185.51282038,8.57
4120.89743562, 4123.71794844, 4123.07692280, 4179.10256397, 4126.92307665, 4162.56410236, 4185.12820499, 4167.69230749, 4168.33333320, 4126.92307665, 4117.30769203, 4119.74358947, 4127.69230742, 4179.99999986,8.57
4130.89743562, 4129.35897408, 4132.05128178, 4207.30769224, 4131.15384588, 4183.33333320, 4202.05128199, 4179.35897422, 4181.79487166, 4127.82051255, 4124.10256383, 4133.97435870, 4136.41025621, 4193.20512807,8.57
4126.28205101, 4124.48717921, 4125.76923050, 4221.53846147, 4133.20512793, 4193.58974345, 4209.10256404, 4193.97435884, 4198.58974345, 4127.05128178, 4124.99999973, 4120.12820485, 4131.53846126, 4188.58974345,8.57
4130.64102537, 4124.74358947, 4122.56410229, 4200.12820499, 4128.84615357, 4179.48717935, 4195.64102551, 4189.87179474, 4183.58974345, 4128.33333306, 4123.84615357, 4127.05128178, 4133.20512793, 4189.61538448,8.57
4129.61538434, 4125.64102537, 4120.51282024, 4189.99999986, 4126.53846126, 4171.28205115, 4192.30769217, 4187.17948704, 4174.99999986, 4128.71794844, 4123.20512793, 4128.07692280, 4136.15384595, 4190.38461525,8.57
4120.38461511, 4123.58974332, 4121.92307665, 4207.56410250, 4128.71794844, 4186.28205115, 4214.87179481, 4209.10256404, 4201.92307686, 4125.76923050, 4126.41025614, 4116.53846126, 4131.15384588, 4189.35897422,8.57
4124.48717921, 4130.64102537, 4128.33333306, 4216.53846147, 4129.99999973, 4193.58974345, 4221.15384609, 4216.79487173, 4209.74358968, 4126.66666639, 4128.71794844, 4131.53846126, 4135.12820485, 4194.35897422,8.57
4115.89743562, 4124.48717921, 4116.02564075, 4214.35897429, 4128.07692280, 4192.30769217, 4215.64102558, 4209.74358968, 4202.30769224, 4129.23076896, 4123.07692280, 4119.99999973, 4130.12820485, 4187.30769217,8.57
4121.02564075, 4126.02564075, 4121.66666639, 4206.79487173, 4129.74358947, 4189.99999986, 4215.12820506, 4208.07692301, 4206.79487173, 4130.38461511, 4125.38461511, 4123.07692280, 4131.41025614, 4192.69230756,8.57
4124.35897408, 4130.12820485, 4124.48717921, 4185.25641012, 4132.94871767, 4172.56410243, 4196.28205115, 4190.38461525, 4188.33333320, 4129.48717921, 4127.56410229, 4127.17948691, 4134.35897408, 4191.66666653,8.57
4124.35897408, 4130.12820485, 4124.48717921, 4185.25641012, 4132.94871767, 4172.56410243, 4196.28205115, 4190.38461525, 4188.33333320, 4129.48717921, 4127.56410229, 4127.17948691, 4134.35897408, 4191.66666653,8.57
4116.41025614, 4121.28205101, 4115.76923050, 4171.53846140, 4131.15384588, 4160.12820492, 4183.97435884, 4190.64102551, 4175.76923063, 4126.53846126, 4123.20512793, 4111.79487152, 4127.69230742, 4183.71794858,8.57
4127.17948691, 4124.48717921, 4125.38461511, 4180.25641012, 4129.61538434, 4169.10256397, 4194.61538448, 4209.10256404, 4182.69230756, 4127.30769203, 4121.79487152, 4124.99999973, 4133.46153819, 4191.79487166,8.57
4118.84615357, 4123.71794844, 4119.23076896, 4197.30769217, 4129.61538434, 4193.84615371, 4211.15384609, 4203.07692301, 4181.66666653, 4127.05128178, 4119.61538434, 4114.48717921, 4131.28205101, 4183.07692294,8.57
4119.48717921, 4123.97435870, 4123.46153819, 4210.51282045, 4130.64102537, 4210.64102558, 4220.12820506, 4196.66666653, 4188.84615371, 4125.76923050, 4123.20512793, 4114.61538434, 4131.02564075, 4184.10256397,8.57
4129.23076896, 4127.94871767, 4131.66666639, 4204.23076917, 4132.94871767, 4194.99999986, 4211.53846147, 4202.56410250, 4196.66666653, 4128.07692280, 4125.25640998, 4126.28205101, 4132.69230742, 4188.33333320,8.57
4119.61538434, 4123.84615357, 4120.89743562, 4190.38461525, 4131.92307665, 4175.64102551, 4199.61538448, 4198.07692294, 4188.20512807, 4129.61538434, 4121.28205101, 4109.74358947, 4127.05128178, 4178.33333320,8.57
4124.35897408, 4128.84615357, 4126.92307665, 4194.74358961, 4129.99999973, 4184.10256397, 4202.94871788, 4197.69230756, 4187.30769217, 4128.20512793, 4123.46153819, 4121.53846126, 4133.33333306, 4187.94871781,8.57
4121.92307665, 4127.17948691, 4126.79487152, 4201.41025634, 4130.64102537, 4197.05128192, 4211.92307686, 4213.46153840, 4201.92307686, 4127.17948691, 4123.71794844, 4121.28205101, 4127.17948691, 4182.82051269,8.57
4124.61538434, 4125.25640998, 4127.56410229, 4196.53846140, 4133.33333306, 4192.82051269, 4210.64102558, 4208.46153840, 4197.82051269, 4128.71794844, 4123.07692280, 4119.48717921, 4125.25640998, 4181.15384602,8.57
4133.58974332, 4129.35897408, 4131.92307665, 4187.69230756, 4133.46153819, 4184.10256397, 4205.25641019, 4196.28205115, 4182.30769217, 4129.87179460, 4125.51282024, 4129.61538434, 4135.64102544, 4191.79487166,8.57
4124.61538434, 4124.10256383, 4124.74358947, 4178.71794858, 4130.25640998, 4182.69230756, 4204.74358968, 4212.43589737, 4190.25641012, 4129.23076896, 4126.79487152, 4117.56410229, 4130.25640998, 4186.15384602,8.57
4129.74358947, 4128.97435870, 4130.25640998, 4186.02564089, 4129.74358947, 4198.58974345, 4216.41025634, 4216.66666660, 4200.64102551, 4129.10256383, 4129.87179460, 4129.87179460, 4132.17948691, 4190.64102551,8.57
4126.92307665, 4130.25640998, 4124.23076896, 4193.71794858, 4129.35897408, 4206.53846147, 4217.30769224, 4190.25641012, 4183.20512807, 4128.07692280, 4129.23076896, 4124.99999973, 4134.74358947, 4187.56410243,8.57
4123.46153819, 4126.53846126, 4121.15384588, 4180.64102551, 4129.10256383, 4182.82051269, 4199.23076910, 4191.41025628, 4170.89743576, 4127.17948691, 4126.15384588, 4118.46153819, 4133.97435870, 4188.33333320,8.57
4130.51282024, 4128.46153819, 4128.07692280, 4178.71794858, 4129.74358947, 4169.87179474, 4205.89743583, 4217.30769224, 4186.66666653, 4127.30769203, 4124.10256383, 4134.87179460, 4134.48717921, 4196.53846140,8.57
4119.10256383, 4120.89743562, 4119.74358947, 4197.17948704, 4127.82051255, 4189.61538448, 4224.87179481, 4210.64102558, 4194.35897422, 4126.92307665, 4121.92307665, 4118.20512793, 4126.92307665, 4187.82051269,8.57
4121.92307665, 4126.02564075, 4124.61538434, 4198.20512807, 4128.20512793, 4193.07692294, 4211.28205122, 4190.25641012, 4184.87179474, 4127.05128178, 4125.64102537, 4121.79487152, 4134.35897408, 4192.43589730,8.57
4120.64102537, 4127.05128178, 4120.76923050, 4174.48717935, 4131.53846126, 4168.46153833, 4184.74358961, 4185.25641012, 4174.23076910, 4127.69230742, 4126.02564075, 4127.30769203, 4135.51282031, 4191.53846140,8.57
4114.61538434, 4117.82051255, 4113.33333306, 4164.23076903, 4132.05128178, 4158.07692287, 4172.94871781, 4175.89743576, 4165.38461518, 4128.20512793, 4125.12820485, 4120.25640998, 4127.56410229, 4188.97435884,8.57
4127.05128178, 4127.05128178, 4124.35897408, 4181.15384602, 4130.12820485, 4174.74358961, 4181.28205115, 4178.33333320, 4172.17948704, 4128.58974332, 4129.23076896, 4131.41025614, 4131.66666639, 4197.17948704,8.57
4121.66666639, 4124.74358947, 4118.97435870, 4192.82051269, 4126.28205101, 4196.02564089, 4198.07692294, 4194.74358961, 4179.74358961, 4126.02564075, 4128.33333306, 4118.84615357, 4127.94871767, 4188.20512807,8.57
4121.79487152, 4118.97435870, 4120.12820485, 4172.94871781, 4125.51282024, 4187.43589730, 4189.99999986, 4185.25641012, 4164.48717928, 4126.53846126, 4128.33333306, 4123.33333306, 4132.05128178, 4188.71794858,8.57
4122.30769203, 4122.56410229, 4121.92307665, 4158.97435877, 4128.71794844, 4172.56410243, 4180.89743576, 4180.38461525, 4165.76923056, 4128.84615357, 4124.99999973, 4125.89743562, 4135.38461518, 4188.84615371,8.57
4118.46153819, 4121.66666639, 4120.25640998, 4180.51282038, 4130.12820485, 4188.33333320, 4199.48717935, 4199.74358961, 4183.33333320, 4127.30769203, 4123.33333306, 4110.64102537, 4127.56410229, 4184.61538448,8.57
4126.92307665, 4126.66666639, 4129.87179460, 4185.76923063, 4131.92307665, 4198.58974345, 4202.94871788, 4195.64102551, 4171.02564089, 4127.56410229, 4129.61538434, 4122.69230742, 4131.15384588, 4190.76923063,8.57
4114.61538434, 4122.30769203, 4121.02564075, 4171.53846140, 4133.33333306, 4191.28205115, 4186.92307679, 4173.46153833, 4150.12820492, 4128.71794844, 4127.05128178, 4114.10256383, 4128.97435870, 4180.64102551,8.57
4118.71794844, 4121.92307665, 4123.33333306, 4175.64102551, 4132.17948691, 4196.15384602, 4191.15384602, 4183.84615371, 4161.41025621, 4128.07692280, 4126.53846126, 4117.43589716, 4130.12820485, 4184.23076910,8.57
4131.53846126, 4126.02564075, 4129.61538434, 4180.12820499, 4130.25640998, 4203.84615378, 4198.20512807, 4203.33333327, 4178.58974345, 4128.46153819, 4129.74358947, 4127.17948691, 4131.41025614, 4188.97435884,8.57
4123.84615357, 4120.76923050, 4122.56410229, 4170.38461525, 4130.38461511, 4189.99999986, 4182.56410243, 4177.94871781, 4157.05128185, 4127.82051255, 4125.89743562, 4114.35897408, 4123.33333306, 4180.12820499,8.57
4126.92307665, 4126.15384588, 4131.02564075, 4159.35897415, 4131.79487152, 4175.12820499, 4168.07692287, 4148.33333313, 4132.56410229, 4125.89743562, 4124.87179460, 4130.51282024, 4129.10256383, 4190.64102551,8.57
4121.41025614, 4124.74358947, 4126.53846126, 4168.46153833, 4131.15384588, 4196.66666653, 4192.56410243, 4186.02564089, 4173.58974345, 4125.89743562, 4127.69230742, 4126.02564075, 4130.12820485, 4188.97435884,8.57
4123.71794844, 4121.28205101, 4125.51282024, 4179.35897422, 4131.28205101, 4216.15384609, 4217.17948711, 4224.23076917, 4206.02564096, 4129.99999973, 4131.92307665, 4121.15384588, 4132.94871767, 4189.48717935,8.57
4130.51282024, 4124.87179460, 4130.25640998, 4170.38461525, 4131.41025614, 4202.56410250, 4200.89743576, 4190.64102551, 4168.46153833, 4131.66666639, 4132.30769203, 4133.20512793, 4140.64102544, 4194.35897422,8.57
4117.56410229, 4122.43589716, 4119.99999973, 4168.33333320, 4128.71794844, 4201.15384609, 4195.76923063, 4172.30769217, 4155.51282031, 4128.33333306, 4127.56410229, 4121.66666639, 4133.46153819, 4186.15384602,8.57
4125.89743562, 4127.56410229, 4127.17948691, 4174.61538448, 4127.17948691, 4209.61538455, 4204.61538455, 4192.43589730, 4176.66666653, 4128.20512793, 4129.23076896, 4136.02564082, 4135.12820485, 4194.10256397,8.57
4126.28205101, 4123.71794844, 4125.25640998, 4158.20512800, 4126.66666639, 4189.61538448, 4180.38461525, 4180.51282038, 4163.84615364, 4129.61538434, 4127.69230742, 4132.94871767, 4134.35897408, 4190.89743576,8.57
4120.12820485, 4119.74358947, 4118.58974332, 4146.92307672, 4126.66666639, 4180.25641012, 4166.41025621, 4163.71794851, 4155.76923056, 4128.33333306, 4125.38461511, 4122.82051255, 4133.20512793, 4189.23076910,8.57
4129.23076896, 4128.46153819, 4124.74358947, 4174.23076910, 4128.07692280, 4199.23076910, 4189.23076910, 4178.71794858, 4174.23076910, 4128.46153819, 4129.48717921, 4137.94871774, 4138.20512800, 4195.51282038,8.57
4121.53846126, 4122.82051255, 4117.94871767, 4188.84615371, 4128.71794844, 4193.97435884, 4197.30769217, 4187.94871781, 4174.61538448, 4128.71794844, 4130.12820485, 4121.53846126, 4131.79487152, 4186.02564089,8.57
4123.20512793, 4122.17948691, 4121.28205101, 4163.07692287, 4128.97435870, 4163.07692287, 4183.33333320, 4183.07692294, 4169.48717935, 4128.07692280, 4129.23076896, 4123.97435870, 4136.02564082, 4193.97435884,8.57
4121.92307665, 4123.07692280, 4124.10256383, 4142.05128185, 4128.71794844, 4151.92307672, 4172.05128192, 4173.46153833, 4162.69230749, 4129.23076896, 4127.30769203, 4128.97435870, 4135.64102544, 4194.87179474,8.57
4116.28205101, 4118.71794844, 4123.20512793, 4165.64102544, 4129.35897408, 4178.20512807, 4187.30769217, 4177.17948704, 4162.82051262, 4129.87179460, 4128.07692280, 4118.58974332, 4128.20512793, 4186.28205115,8.57
4124.99999973, 4124.99999973, 4126.41025614, 4202.69230763, 4129.35897408, 4204.99999993, 4220.51282045, 4205.38461532, 4189.74358961, 4129.48717921, 4130.25640998, 4126.02564075, 4133.46153819, 4191.41025628,8.57
4117.69230742, 4122.56410229, 4118.33333306, 4185.89743576, 4127.56410229, 4179.35897422, 4208.07692301, 4203.46153840, 4185.38461525, 4128.58974332, 4125.25640998, 4114.61538434, 4130.51282024, 4183.71794858,8.57
4117.94871767, 4123.46153819, 4126.28205101, 4147.43589723, 4130.89743562, 4141.41025621, 4166.79487159, 4166.28205108, 4145.25641005, 4127.94871767, 4126.02564075, 4119.61538434, 4130.76923050, 4185.12820499,8.57
4118.58974332, 4123.97435870, 4127.43589716, 4155.51282031, 4133.71794844, 4150.12820492, 4170.51282038, 4163.07692287, 4148.20512800, 4127.05128178, 4129.10256383, 4119.87179460, 4131.41025614, 4183.46153833,8.57
4116.02564075, 4118.97435870, 4120.25640998, 4178.71794858, 4129.99999973, 4158.97435877, 4184.61538448, 4173.97435884, 4170.76923063, 4127.30769203, 4129.10256383, 4105.64102537, 4127.69230742, 4178.07692294,8.57
4129.99999973, 4124.74358947, 4130.76923050, 4180.76923063, 4129.23076896, 4151.15384595, 4178.97435884, 4166.41025621, 4161.02564082, 4128.71794844, 4130.38461511, 4123.20512793, 4135.25640998, 4189.48717935,8.57
4123.46153819, 4121.41025614, 4124.74358947, 4187.82051269, 4129.74358947, 4174.99999986, 4205.89743583, 4191.02564089, 4179.10256397, 4125.12820485, 4128.58974332, 4116.15384588, 4131.79487152, 4183.71794858,8.57
4121.53846126, 4122.69230742, 4125.64102537, 4190.38461525, 4128.58974332, 4184.10256397, 4217.30769224, 4211.02564096, 4201.92307686, 4123.71794844, 4131.66666639, 4115.76923050, 4130.89743562, 4184.99999986,8.57
4128.46153819, 4129.87179460, 4130.76923050, 4165.38461518, 4128.58974332, 4146.15384595, 4171.53846140, 4167.82051262, 4159.10256390, 4129.48717921, 4130.38461511, 4126.28205101, 4134.35897408, 4189.61538448,8.57
4123.84615357, 4124.23076896, 4120.89743562, 4148.97435877, 4127.43589716, 4133.33333306, 4154.87179467, 4146.79487159, 4134.87179460, 4129.35897408, 4123.71794844, 4117.82051255, 4127.82051255, 4181.92307679,8.57
4130.51282024, 4127.56410229, 4127.43589716, 4158.97435877, 4128.97435870, 4162.05128185, 4188.58974345, 4180.64102551, 4163.46153826, 4124.99999973, 4127.82051255, 4132.43589716, 4131.92307665, 4189.61538448,8.57
4123.46153819, 4127.05128178, 4125.25640998, 4174.10256397, 4130.51282024, 4177.56410243, 4198.07692294, 4187.30769217, 4165.76923056, 4127.94871767, 4130.38461511, 4123.97435870, 4129.48717921, 4184.74358961,8.57
4123.46153819, 4123.71794844, 4124.61538434, 4184.35897422, 4128.07692280, 4174.35897422, 4184.87179474, 4172.94871781, 4157.05128185, 4131.66666639, 4129.74358947, 4121.92307665, 4129.35897408, 4186.53846140,8.57
4134.10256383, 4128.58974332, 4130.64102537, 4176.79487166, 4128.46153819, 4176.28205115, 4195.64102551, 4193.71794858, 4178.71794858, 4128.71794844, 4131.53846126, 4135.51282031, 4135.64102544, 4194.74358961,8.57
4122.82051255, 4122.56410229, 4119.35897408, 4151.28205108, 4128.71794844, 4164.99999980, 4190.25641012, 4189.35897422, 4167.56410236, 4126.28205101, 4128.97435870, 4120.12820485, 4130.89743562, 4186.79487166,8.57
4126.53846126, 4123.97435870, 4123.20512793, 4152.56410236, 4128.20512793, 4149.99999980, 4164.35897415, 4154.23076903, 4140.12820492, 4128.97435870, 4128.33333306, 4130.25640998, 4135.51282031, 4190.38461525,8.57
4126.41025614, 4124.23076896, 4122.56410229, 4180.89743576, 4128.20512793, 4164.61538441, 4177.94871781, 4169.99999986, 4166.28205108, 4128.84615357, 4129.10256383, 4129.74358947, 4134.10256383, 4188.20512807,8.57
4120.76923050, 4122.17948691, 4117.56410229, 4173.46153833, 4127.17948691, 4172.30769217, 4189.87179474, 4185.76923063, 4178.20512807, 4127.69230742, 4129.23076896, 4121.79487152, 4132.82051255, 4192.17948704,8.57
4124.61538434, 4126.28205101, 4121.92307665, 4153.84615364, 4128.84615357, 4157.05128185, 4171.41025628, 4163.97435877, 4153.07692287, 4129.87179460, 4127.56410229, 4134.87179460, 4140.38461518, 4198.46153833,8.57
4117.43589716, 4118.84615357, 4116.53846126, 4182.05128192, 4131.53846126, 4170.89743576, 4189.87179474, 4185.38461525, 4173.07692294, 4129.74358947, 4125.38461511, 4120.64102537, 4132.69230742, 4185.38461525,8.57
4123.97435870, 4122.17948691, 4122.43589716, 4192.30769217, 4130.64102537, 4184.35897422, 4204.99999993, 4199.74358961, 4183.46153833, 4128.58974332, 4128.84615357, 4121.66666639, 4132.69230742, 4189.99999986,8.57
4120.12820485, 4125.89743562, 4120.76923050, 4157.56410236, 4127.30769203, 4165.51282031, 4174.23076910, 4161.02564082, 4143.58974339, 4126.66666639, 4129.10256383, 4122.94871767, 4134.23076896, 4189.74358961,8.57
4114.35897408, 4120.25640998, 4118.33333306, 4157.69230749, 4129.74358947, 4159.35897415, 4164.99999980, 4154.74358954, 4136.28205108, 4126.41025614, 4127.94871767, 4115.51282024, 4127.30769203, 4183.97435884,8.57
4128.46153819, 4125.51282024, 4127.56410229, 4176.53846140, 4132.30769203, 4167.69230749, 4179.35897422, 4171.79487166, 4155.51282031, 4129.10256383, 4126.92307665, 4127.43589716, 4130.76923050, 4189.74358961,8.57
4118.71794844, 4123.33333306, 4120.89743562, 4158.58974339, 4129.10256383, 4166.02564082, 4179.99999986, 4170.76923063, 4159.74358954, 4129.35897408, 4122.05128178, 4114.74358947, 4129.99999973, 4181.41025628,8.57
4119.10256383, 4124.48717921, 4128.20512793, 4140.25641005, 4131.28205101, 4156.66666646, 4178.33333320, 4172.69230756, 4164.23076903, 4129.61538434, 4127.94871767, 4119.10256383, 4132.56410229, 4183.33333320,8.57
4125.25640998, 4125.89743562, 4130.25640998, 4162.30769210, 4133.46153819, 4158.46153826, 4192.82051269, 4184.99999986, 4176.92307679, 4129.99999973, 4131.15384588, 4121.53846126, 4130.89743562, 4182.05128192,8.57
4116.41025614, 4123.58974332, 4121.15384588, 4172.05128192, 4127.94871767, 4160.64102544, 4196.02564089, 4190.38461525, 4173.46153833, 4128.97435870, 4126.41025614, 4107.56410229, 4123.84615357, 4177.05128192,8.57
4123.84615357, 4130.64102537, 4130.38461511, 4144.74358954, 4126.92307665, 4144.48717928, 4169.87179474, 4171.92307679, 4144.74358954, 4128.97435870, 4128.07692280, 4126.66666639, 4133.97435870, 4190.25641012,8.57
4122.30769203, 4125.89743562, 4125.51282024, 4136.15384595, 4129.61538434, 4132.05128178, 4155.12820492, 4151.41025621, 4131.28205101, 4126.53846126, 4127.94871767, 4119.61538434, 4132.17948691, 4183.07692294,8.57
4124.35897408, 4124.99999973, 4126.41025614, 4146.41025621, 4128.84615357, 4139.23076903, 4169.35897422, 4162.30769210, 4147.56410236, 4125.76923050, 4128.84615357, 4118.58974332, 4129.10256383, 4183.46153833,8.57
4127.94871767, 4130.25640998, 4129.48717921, 4145.64102544, 4128.58974332, 4147.94871774, 4179.23076910, 4181.53846140, 4161.66666646, 4128.46153819, 4130.51282024, 4131.15384588, 4131.66666639, 4193.58974345,8.57
4120.76923050, 4123.33333306, 4119.74358947, 4147.43589723, 4128.97435870, 4150.25641005, 4176.41025628, 4186.53846140, 4168.20512807, 4128.58974332, 4128.58974332, 4119.87179460, 4128.58974332, 4187.56410243,8.57
4129.48717921, 4125.76923050, 4127.05128178, 4154.48717928, 4128.20512793, 4152.82051262, 4176.15384602, 4180.76923063, 4173.33333320, 4127.94871767, 4129.10256383, 4130.12820485, 4134.99999973, 4190.76923063,8.57
4124.74358947, 4123.58974332, 4123.97435870, 4143.58974339, 4127.69230742, 4147.56410236, 4167.82051262, 4161.02564082, 4156.53846133, 4127.94871767, 4128.20512793, 4127.56410229, 4133.71794844, 4188.84615371,8.57
4122.43589716, 4121.28205101, 4121.02564075, 4145.64102544, 4128.46153819, 4152.82051262, 4170.64102551, 4159.99999980, 4146.66666646, 4129.48717921, 4131.92307665, 4129.74358947, 4133.33333306, 4191.15384602,8.57
4128.46153819, 4126.41025614, 4124.87179460, 4171.79487166, 4130.12820485, 4164.35897415, 4183.46153833, 4174.99999986, 4160.89743569, 4129.35897408, 4133.71794844, 4137.69230749, 4135.64102544, 4190.51282038,8.57
4119.61538434, 4119.48717921, 4118.07692280, 4168.97435884, 4127.94871767, 4158.97435877, 4168.71794858, 4155.12820492, 4150.76923056, 4125.64102537, 4126.53846126, 4120.12820485, 4127.56410229, 4184.23076910,8.57
4125.12820485, 4122.56410229, 4124.23076896, 4146.66666646, 4125.89743562, 4161.02564082, 4154.35897415, 4143.20512800, 4142.30769210, 4126.53846126, 4128.33333306, 4132.82051255, 4133.33333306, 4196.28205115,8.57
4123.71794844, 4125.51282024, 4120.25640998, 4144.74358954, 4127.43589716, 4178.71794858, 4171.53846140, 4174.87179474, 4171.15384602, 4130.25640998, 4131.92307665, 4131.53846126, 4133.46153819, 4189.35897422,8.57
4119.23076896, 4120.64102537, 4114.10256383, 4139.23076903, 4127.43589716, 4171.28205115, 4175.25641012, 4176.79487166, 4172.43589730, 4129.23076896, 4127.82051255, 4122.17948691, 4128.71794844, 4185.64102551,8.57
4125.12820485, 4124.61538434, 4121.53846126, 4116.15384588, 4126.79487152, 4139.35897415, 4153.58974339, 4142.56410236, 4134.87179460, 4128.58974332, 4124.99999973, 4133.58974332, 4134.99999973, 4197.05128192,8.57
4114.99999973, 4121.53846126, 4117.17948691, 4134.48717921, 4127.56410229, 4155.12820492, 4173.20512807, 4158.07692287, 4144.23076903, 4131.02564075, 4125.12820485, 4116.66666639, 4127.82051255, 4187.30769217,8.57
4119.61538434, 4122.43589716, 4119.48717921, 4164.35897415, 4130.12820485, 4189.61538448, 4206.02564096, 4187.56410243, 4170.89743576, 4130.76923050, 4129.48717921, 4121.53846126, 4128.97435870, 4188.07692294,8.57
4123.33333306, 4123.58974332, 4118.58974332, 4140.38461518, 4131.02564075, 4162.69230749, 4175.38461525, 4165.38461518, 4149.61538441, 4126.92307665, 4128.20512793, 4124.74358947, 4133.33333306, 4187.43589730,8.57
4119.61538434, 4122.05128178, 4119.48717921, 4130.89743562, 4129.99999973, 4132.56410229, 4140.64102544, 4145.89743569, 4141.15384595, 4124.48717921, 4125.89743562, 4111.92307665, 4128.07692280, 4183.07692294,8.57
4127.69230742, 4128.33333306, 4129.35897408, 4163.33333313, 4129.74358947, 4153.58974339, 4156.92307672, 4155.51282031, 4166.41025621, 4127.05128178, 4130.38461511, 4123.07692280, 4132.30769203, 4190.76923063,8.57
4119.23076896, 4121.66666639, 4119.23076896, 4160.12820492, 4130.12820485, 4159.99999980, 4165.12820492, 4155.38461518, 4162.82051262, 4128.84615357, 4127.30769203, 4113.33333306, 4128.97435870, 4182.69230756,8.57
4122.82051255, 4122.94871767, 4121.66666639, 4127.94871767, 4131.02564075, 4131.92307665, 4143.07692287, 4148.97435877, 4142.30769210, 4127.69230742, 4124.10256383, 4115.76923050, 4130.76923050, 4184.48717935,8.57
4127.30769203, 4127.69230742, 4128.58974332, 4133.97435870, 4130.38461511, 4139.23076903, 4146.79487159, 4150.38461518, 4150.12820492, 4127.56410229, 4125.76923050, 4121.41025614, 4129.99999973, 4185.89743576,8.57
4118.46153819, 4122.30769203, 4126.28205101, 4147.94871774, 4130.38461511, 4155.89743569, 4150.12820492, 4123.97435870, 4132.82051255, 4127.30769203, 4129.87179460, 4114.23076896, 4126.02564075, 4181.15384602,8.57
4128.71794844, 4128.07692280, 4132.30769203, 4132.17948691, 4132.30769203, 4143.33333313, 4129.99999973, 4096.15384581, 4094.23076889, 4127.69230742, 4134.61538434, 4129.74358947, 4137.17948697, 4190.89743576,8.57
4128.33333306, 4126.28205101, 4124.35897408, 4124.10256383, 4130.12820485, 4149.10256390, 4150.38461518, 4137.69230749, 4124.87179460, 4127.82051255, 4129.10256383, 4122.05128178, 4134.48717921, 4183.58974345,8.57
4127.17948691, 4124.10256383, 4128.20512793, 4130.89743562, 4126.41025614, 4157.82051262, 4176.92307679, 4171.28205115, 4161.15384595, 4127.94871767, 4126.79487152, 4125.12820485, 4132.05128178, 4186.41025628,8.57
4128.07692280, 4128.33333306, 4131.92307665, 4140.38461518, 4126.15384588, 4149.35897415, 4167.30769210, 4154.23076903, 4150.64102544, 4128.07692280, 4129.99999973, 4135.12820485, 4134.48717921, 4192.82051269,8.57
4121.92307665, 4124.23076896, 4120.12820485, 4159.74358954, 4126.66666639, 4165.64102544, 4178.84615371, 4173.97435884, 4169.87179474, 4128.84615357, 4128.58974332, 4119.48717921, 4129.35897408, 4182.56410243,8.57
4133.84615357, 4127.69230742, 4128.97435870, 4163.58974339, 4128.20512793, 4183.20512807, 4193.46153833, 4193.20512807, 4189.23076910, 4130.12820485, 4130.25640998, 4131.92307665, 4135.89743569, 4189.87179474,8.57
4127.56410229, 4124.35897408, 4125.76923050, 4134.35897408, 4128.33333306, 4156.66666646, 4158.46153826, 4149.74358954, 4148.07692287, 4128.58974332, 4130.64102537, 4128.46153819, 4134.74358947, 4193.07692294,8.57
4120.76923050, 4122.69230742, 4121.15384588, 4127.94871767, 4127.94871767, 4135.25640998, 4137.43589723, 4135.89743569, 4137.43589723, 4130.38461511, 4131.15384588, 4126.41025614, 4133.71794844, 4195.64102551,8.57
4131.53846126, 4130.38461511, 4125.89743562, 4163.84615364, 4128.84615357, 4157.05128185, 4169.74358961, 4173.84615371, 4183.71794858, 4132.69230742, 4131.79487152, 4140.38461518, 4140.51282031, 4196.41025628,8.57
4124.23076896, 4124.74358947, 4114.74358947, 4170.12820499, 4126.28205101, 4173.20512807, 4182.94871781, 4175.89743576, 4185.25641012, 4128.71794844, 4128.97435870, 4123.33333306, 4134.87179460, 4186.66666653,8.57
4123.84615357, 4124.74358947, 4118.58974332, 4140.76923056, 4126.41025614, 4165.89743569, 4164.99999980, 4161.79487159, 4153.84615364, 4126.28205101, 4129.87179460, 4131.53846126, 4135.25640998, 4194.74358961,8.57
4119.99999973, 4125.12820485, 4121.53846126, 4135.12820485, 4127.43589716, 4159.23076903, 4161.66666646, 4165.12820492, 4149.35897415, 4126.66666639, 4128.84615357, 4129.35897408, 4133.46153819, 4192.17948704,8.57
4118.07692280, 4121.28205101, 4119.35897408, 4154.99999980, 4125.51282024, 4166.02564082, 4174.61538448, 4160.64102544, 4155.89743569, 4126.02564075, 4126.92307665, 4116.66666639, 4130.89743562, 4185.38461525,8.57
4124.35897408, 4125.38461511, 4122.43589716, 4154.87179467, 4127.56410229, 4168.71794858, 4169.74358961, 4151.66666646, 4149.35897415, 4127.05128178, 4126.15384588, 4128.20512793, 4136.66666646, 4190.51282038,8.57
4116.15384588, 4121.53846126, 4118.07692280, 4129.10256383, 4128.58974332, 4151.53846133, 4142.56410236, 4138.58974339, 4129.35897408, 4128.20512793, 4124.61538434, 4115.64102537, 4129.61538434, 4184.10256397,8.57
4124.23076896, 4122.82051255, 4126.79487152, 4125.12820485, 4127.94871767, 4143.84615364, 4139.10256390, 4136.28205108, 4135.89743569, 4127.94871767, 4129.10256383, 4116.41025614, 4129.87179460, 4185.38461525,8.57
4121.41025614, 4125.12820485, 4123.97435870, 4140.64102544, 4131.02564075, 4146.66666646, 4149.74358954, 4149.61538441, 4165.12820492, 4129.10256383, 4128.07692280, 4117.30769203, 4130.25640998, 4183.46153833,8.57
4112.30769203, 4126.02564075, 4121.15384588, 4135.38461518, 4133.20512793, 4139.74358954, 4143.97435877, 4151.92307672, 4162.17948697, 4128.97435870, 4126.53846126, 4114.35897408, 4126.79487152, 4181.15384602,8.57
4124.99999973, 4129.48717921, 4133.46153819, 4114.35897408, 4129.48717921, 4141.41025621, 4143.33333313, 4144.23076903, 4134.87179460, 4128.07692280, 4131.79487152, 4127.82051255, 4130.89743562, 4186.41025628,8.57
4119.23076896, 4121.02564075, 4125.51282024, 4111.15384588, 4126.41025614, 4156.15384595, 4150.51282031, 4137.94871774, 4121.02564075, 4128.46153819, 4130.89743562, 4116.41025614, 4124.74358947, 4179.48717935,8.57
4120.76923050, 4124.87179460, 4126.28205101, 4126.92307665, 4128.46153819, 4155.64102544, 4149.99999980, 4136.92307672, 4132.17948691, 4128.84615357, 4132.43589716, 4125.38461511, 4130.12820485, 4187.94871781,8.57
4126.28205101, 4131.15384588, 4127.17948691, 4141.66666646, 4129.74358947, 4154.48717928, 4164.61538441, 4161.02564082, 4163.58974339, 4127.30769203, 4134.23076896, 4127.17948691, 4133.33333306, 4187.43589730,8.57
4122.56410229, 4124.48717921, 4121.79487152, 4148.97435877, 4128.71794844, 4165.12820492, 4179.87179474, 4178.58974345, 4176.66666653, 4126.92307665, 4131.53846126, 4112.05128178, 4126.41025614, 4180.89743576,8.57
4130.12820485, 4129.61538434, 4133.58974332, 4138.71794851, 4127.56410229, 4155.25641005, 4155.89743569, 4147.69230749, 4143.71794851, 4129.74358947, 4132.43589716, 4132.17948691, 4133.46153819, 4193.71794858,8.57
4123.58974332, 4128.58974332, 4128.58974332, 4133.46153819, 4128.20512793, 4154.99999980, 4149.48717928, 4137.30769210, 4131.02564075, 4127.43589716, 4132.05128178, 4127.69230742, 4131.02564075, 4184.74358961,8.57
4127.05128178, 4125.51282024, 4124.48717921, 4131.15384588, 4129.48717921, 4163.20512800, 4159.10256390, 4151.41025621, 4145.51282031, 4126.02564075, 4134.48717921, 4125.76923050, 4129.74358947, 4187.43589730,8.57
4131.02564075, 4127.05128178, 4126.53846126, 4125.12820485, 4128.46153819, 4159.10256390, 4152.30769210, 4144.48717928, 4143.20512800, 4130.51282024, 4136.79487159, 4130.76923050, 4133.71794844, 4195.38461525,8.57
4118.07692280, 4123.58974332, 4120.89743562, 4131.66666639, 4126.28205101, 4157.94871774, 4151.79487159, 4140.76923056, 4141.79487159, 4131.79487152, 4135.25640998, 4117.94871767, 4130.38461511, 4184.23076910,8.57
4126.53846126, 4128.97435870, 4126.92307665, 4139.61538441, 4127.82051255, 4154.10256390, 4149.99999980, 4146.15384595, 4153.33333313, 4128.46153819, 4136.53846133, 4134.99999973, 4135.25640998, 4191.41025628,8.57
4126.41025614, 4126.15384588, 4123.71794844, 4148.20512800, 4129.48717921, 4165.89743569, 4165.76923056, 4163.71794851, 4171.79487166, 4125.51282024, 4137.05128185, 4132.43589716, 4133.33333306, 4194.99999986,8.57
4123.84615357, 4124.23076896, 4123.97435870, 4148.46153826, 4126.53846126, 4181.66666653, 4183.46153833, 4174.23076910, 4170.38461525, 4129.35897408, 4136.41025621, 4123.84615357, 4131.92307665, 4196.02564089,8.57
4127.05128178, 4127.82051255, 4124.48717921, 4144.48717928, 4123.84615357, 4175.64102551, 4174.61538448, 4164.48717928, 4159.74358954, 4133.33333306, 4133.71794844, 4127.17948691, 4135.38461518, 4195.51282038,8.57
4118.71794844, 4118.58974332, 4113.97435870, 4149.99999980, 4124.87179460, 4171.41025628, 4168.20512807, 4161.79487159, 4175.51282038, 4129.10256383, 4131.41025614, 4115.76923050, 4129.99999973, 4186.41025628,8.57
4123.97435870, 4122.56410229, 4120.51282024, 4139.74358954, 4129.99999973, 4164.87179467, 4154.35897415, 4144.87179467, 4161.79487159, 4126.02564075, 4134.74358947, 4130.12820485, 4133.71794844, 4190.12820499,8.57
4121.92307665, 4125.64102537, 4119.35897408, 4121.92307665, 4130.38461511, 4149.99999980, 4131.28205101, 4119.10256383, 4121.92307665, 4127.30769203, 4134.74358947, 4124.61538434, 4132.56410229, 4185.64102551,8.57
4119.87179460, 4122.56410229, 4121.79487152, 4127.17948691, 4127.94871767, 4151.92307672, 4137.56410236, 4132.82051255, 4136.02564082, 4127.30769203, 4134.23076896, 4112.82051255, 4126.79487152, 4185.12820499,8.57
4122.69230742, 4124.35897408, 4128.33333306, 4139.87179467, 4130.51282024, 4171.79487166, 4168.58974345, 4173.71794858, 4183.33333320, 4127.56410229, 4136.15384595, 4125.76923050, 4131.02564075, 4190.51282038,8.57
4114.87179460, 4117.17948691, 4115.89743562, 4131.15384588, 4129.87179460, 4166.53846133, 4161.41025621, 4168.46153833, 4170.38461525, 4128.84615357, 4132.56410229, 4116.41025614, 4128.20512793, 4182.30769217,8.57
4126.53846126, 4122.05128178, 4123.33333306, 4125.64102537, 4128.33333306, 4149.74358954, 4138.58974339, 4137.69230749, 4134.35897408, 4129.99999973, 4134.61538434, 4123.97435870, 4130.51282024, 4186.53846140,8.57
4121.66666639, 4124.23076896, 4124.48717921, 4145.64102544, 4130.12820485, 4170.89743576, 4163.58974339, 4162.30769210, 4166.41025621, 4129.99999973, 4137.69230749, 4121.02564075, 4127.82051255, 4180.64102551,8.57
4112.43589716, 4119.87179460, 4116.92307665, 4154.87179467, 4129.23076896, 4184.87179474, 4174.61538448, 4175.89743576, 4181.66666653, 4129.74358947, 4135.38461518, 4107.94871767, 4125.76923050, 4178.46153833,8.57
4130.25640998, 4127.69230742, 4129.48717921, 4136.15384595, 4127.94871767, 4162.17948697, 4135.89743569, 4127.56410229, 4136.79487159, 4131.28205101, 4135.12820485, 4125.89743562, 4134.35897408, 4192.82051269,8.57
4123.58974332, 4122.43589716, 4127.82051255, 4120.51282024, 4127.94871767, 4162.30769210, 4128.97435870, 4112.94871767, 4128.20512793, 4129.74358947, 4134.99999973, 4117.56410229, 4126.92307665, 4179.99999986,8.57
4120.12820485, 4121.92307665, 4127.30769203, 4120.25640998, 4128.07692280, 4178.84615371, 4161.15384595, 4147.56410236, 4149.10256390, 4127.30769203, 4138.84615364, 4120.76923050, 4130.12820485, 4181.79487166,8.57
4128.20512793, 4127.94871767, 4127.30769203, 4120.76923050, 4128.84615357, 4162.30769210, 4156.15384595, 4149.10256390, 4142.94871774, 4130.12820485, 4138.33333313, 4129.61538434, 4135.38461518, 4188.84615371,8.57
4124.10256383, 4125.38461511, 4122.69230742, 4124.99999973, 4130.51282024, 4146.28205108, 4134.35897408, 4131.15384588, 4136.41025621, 4131.66666639, 4136.41025621, 4119.99999973, 4128.20512793, 4182.69230756,8.57
4124.10256383, 4125.38461511, 4122.69230742, 4124.99999973, 4130.51282024, 4146.28205108, 4134.35897408, 4131.15384588, 4136.41025621, 4131.66666639, 4136.41025621, 4119.99999973, 4128.20512793, 4182.69230756,8.57
4129.35897408, 4129.35897408, 4128.84615357, 4135.89743569, 4130.12820485, 4157.43589723, 4148.07692287, 4145.76923056, 4155.25641005, 4127.82051255, 4142.94871774, 4133.20512793, 4134.48717921, 4192.05128192,8.57
4126.28205101, 4127.05128178, 4121.92307665, 4127.82051255, 4127.94871767, 4155.64102544, 4157.05128185, 4157.56410236, 4164.23076903, 4126.53846126, 4141.53846133, 4128.46153819, 4132.30769203, 4187.82051269,8.57
4126.79487152, 4127.69230742, 4124.74358947, 4115.51282024, 4128.97435870, 4148.84615364, 4146.79487159, 4150.64102544, 4157.05128185, 4130.76923050, 4138.33333313, 4130.12820485, 4129.87179460, 4184.87179474,8.57
4128.58974332, 4129.61538434, 4128.46153819, 4132.05128178, 4128.46153819, 4164.23076903, 4148.58974339, 4146.15384595, 4150.25641005, 4131.41025614, 4140.38461518, 4134.35897408, 4134.61538434, 4188.20512807,8.57
4122.05128178, 4121.02564075, 4119.87179460, 4140.25641005, 4126.79487152, 4172.30769217, 4150.64102544, 4141.92307672, 4147.05128185, 4127.94871767, 4139.99999980, 4118.84615357, 4134.10256383, 4189.74358961,8.57
4126.66666639, 4126.53846126, 4125.64102537, 4120.76923050, 4128.97435870, 4157.94871774, 4147.82051262, 4142.94871774, 4143.97435877, 4128.07692280, 4140.51282031, 4132.69230742, 4137.05128185, 4197.56410243,8.57
4118.07692280, 4126.92307665, 4121.92307665, 4116.79487152, 4129.61538434, 4142.30769210, 4151.41025621, 4143.71794851, 4136.02564082, 4128.33333306, 4138.33333313, 4125.64102537, 4133.58974332, 4186.53846140,8.57
4120.25640998, 4123.58974332, 4121.92307665, 4137.05128185, 4128.97435870, 4133.84615357, 4142.43589723, 4125.76923050, 4131.53846126, 4128.58974332, 4138.20512800, 4120.38461511, 4135.76923056, 4187.17948704,8.57
4129.35897408, 4128.46153819, 4124.35897408, 4148.07692287, 4128.58974332, 4133.97435870, 4130.25640998, 4112.69230742, 4127.30769203, 4130.25640998, 4139.74358954, 4131.79487152, 4138.33333313, 4196.28205115,8.57
4116.41025614, 4122.69230742, 4114.35897408, 4152.56410236, 4125.25640998, 4149.87179467, 4153.20512800, 4153.20512800, 4152.94871774, 4128.84615357, 4139.10256390, 4116.02564075, 4126.41025614, 4187.17948704,8.57
4123.46153819, 4124.74358947, 4124.48717921, 4148.58974339, 4125.25640998, 4149.74358954, 4157.30769210, 4169.48717935, 4166.02564082, 4127.43589716, 4141.15384595, 4124.61538434, 4131.79487152, 4190.64102551,8.57
4122.94871767, 4126.02564075, 4123.84615357, 4132.30769203, 4128.71794844, 4121.02564075, 4116.15384588, 4111.92307665, 4122.56410229, 4128.97435870, 4139.23076903, 4122.30769203, 4135.51282031, 4186.15384602,8.57
4114.35897408, 4122.56410229, 4118.71794844, 4132.05128178, 4128.84615357, 4115.89743562, 4111.92307665, 4100.51282017, 4120.38461511, 4129.99999973, 4141.15384595, 4112.82051255, 4129.10256383, 4181.15384602,8.57
4123.07692280, 4123.97435870, 4126.92307665, 4136.66666646, 4128.71794844, 4131.92307665, 4133.71794844, 4130.25640998, 4143.97435877, 4129.35897408, 4143.84615364, 4123.46153819, 4129.48717921, 4187.30769217,8.57
4117.69230742, 4120.38461511, 4121.41025614, 4133.84615357, 4128.58974332, 4130.76923050, 4127.82051255, 4110.51282024, 4113.84615357, 4127.94871767, 4140.12820492, 4109.61538434, 4123.84615357, 4179.87179474,8.57
4121.92307665, 4126.15384588, 4125.64102537, 4144.23076903, 4127.82051255, 4127.05128178, 4128.58974332, 4107.94871767, 4110.64102537, 4129.10256383, 4143.33333313, 4118.33333306, 4128.20512793, 4185.76923063,8.57
4123.58974332, 4125.51282024, 4123.71794844, 4152.17948697, 4128.58974332, 4134.23076896, 4148.20512800, 4149.99999980, 4157.56410236, 4127.94871767, 4146.15384595, 4121.02564075, 4128.46153819, 4185.25641012,8.57
4118.20512793, 4120.25640998, 4118.58974332, 4144.23076903, 4130.12820485, 4138.58974339, 4155.25641005, 4155.64102544, 4154.99999980, 4125.12820485, 4145.25641005, 4111.02564075, 4123.84615357, 4177.94871781,8.57
4127.94871767, 4128.58974332, 4129.87179460, 4135.38461518, 4129.87179460, 4134.87179460, 4146.92307672, 4138.20512800, 4127.05128178, 4128.07692280, 4145.38461518, 4129.61538434, 4132.94871767, 4187.17948704,8.57
4123.71794844, 4123.46153819, 4124.74358947, 4130.51282024, 4126.92307665, 4127.69230742, 4133.58974332, 4138.84615364, 4136.15384595, 4129.23076896, 4141.41025621, 4121.92307665, 4129.87179460, 4182.82051269,8.57
4126.92307665, 4121.66666639, 4125.89743562, 4146.41025621, 4128.07692280, 4137.43589723, 4135.89743569, 4140.89743569, 4149.87179467, 4128.33333306, 4143.07692287, 4121.79487152, 4129.74358947, 4184.23076910,8.57
4130.12820485, 4126.79487152, 4127.05128178, 4172.05128192, 4128.84615357, 4161.92307672, 4158.97435877, 4153.97435877, 4160.76923056, 4128.84615357, 4145.12820492, 4128.71794844, 4133.07692280, 4187.05128192,8.57
4122.43589716, 4123.58974332, 4124.23076896, 4152.69230749, 4126.02564075, 4145.76923056, 4141.92307672, 4143.46153826, 4150.51282031, 4129.35897408, 4143.97435877, 4122.94871767, 4130.64102537, 4183.71794858,8.57
4129.48717921, 4127.82051255, 4132.56410229, 4118.58974332, 4127.30769203, 4111.02564075, 4099.10256376, 4103.97435870, 4116.92307665, 4131.53846126, 4147.43589723, 4134.23076896, 4136.28205108, 4192.69230756,8.57
4124.48717921, 4123.58974332, 4120.51282024, 4128.20512793, 4127.17948691, 4119.23076896, 4104.87179460, 4102.56410229, 4111.41025614, 4130.25640998, 4145.89743569, 4121.79487152, 4131.41025614, 4190.12820499,8.57
4126.02564075, 4123.07692280, 4119.35897408, 4140.51282031, 4124.99999973, 4129.99999973, 4122.69230742, 4118.84615357, 4126.28205101, 4128.07692280, 4143.58974339, 4124.99999973, 4130.76923050, 4193.84615371,8.57
4129.35897408, 4129.61538434, 4128.20512793, 4128.71794844, 4127.56410229, 4121.28205101, 4117.56410229, 4125.38461511, 4136.66666646, 4128.46153819, 4146.02564082, 4135.76923056, 4134.23076896, 4195.12820499,8.57
4117.56410229, 4122.30769203, 4120.12820485, 4140.12820492, 4128.46153819, 4134.10256383, 4128.33333306, 4139.48717928, 4142.94871774, 4128.07692280, 4147.82051262, 4120.89743562, 4129.74358947, 4187.05128192,8.57
4123.71794844, 4124.87179460, 4121.79487152, 4159.61538441, 4125.64102537, 4146.28205108, 4136.66666646, 4127.94871767, 4127.43589716, 4127.69230742, 4147.17948697, 4133.71794844, 4136.79487159, 4195.12820499,8.57
4121.15384588, 4125.51282024, 4117.30769203, 4148.33333313, 4124.99999973, 4131.66666639, 4122.30769203, 4102.30769196, 4113.07692280, 4129.74358947, 4142.69230749, 4127.69230742, 4132.69230742, 4187.56410243,8.57
4120.25640998, 4122.56410229, 4118.84615357, 4136.02564082, 4128.33333306, 4128.07692280, 4124.35897408, 4125.38461511, 4136.66666646, 4130.12820485, 4147.05128185, 4120.76923050, 4128.84615357, 4187.56410243,8.57
4124.74358947, 4125.64102537, 4125.25640998, 4139.61538441, 4129.61538434, 4134.23076896, 4131.66666639, 4149.10256390, 4153.33333313, 4127.43589716, 4150.12820492, 4130.51282024, 4136.66666646, 4197.05128192,8.57
4114.35897408, 4121.79487152, 4117.43589716, 4140.64102544, 4125.89743562, 4128.71794844, 4118.71794844, 4122.56410229, 4131.41025614, 4127.56410229, 4143.20512800, 4113.71794844, 4131.02564075, 4185.76923063,8.57
4120.89743562, 4124.87179460, 4123.46153819, 4144.23076903, 4125.51282024, 4133.84615357, 4117.56410229, 4112.69230742, 4121.92307665, 4129.87179460, 4145.25641005, 4117.94871767, 4130.25640998, 4185.51282038,8.57
4120.12820485, 4123.46153819, 4122.82051255, 4159.23076903, 4127.94871767, 4157.69230749, 4141.66666646, 4154.74358954, 4157.94871774, 4129.23076896, 4147.69230749, 4116.79487152, 4129.10256383, 4182.56410243,8.57
4115.51282024, 4121.92307665, 4119.87179460, 4153.58974339, 4127.82051255, 4152.43589723, 4140.25641005, 4161.02564082, 4162.94871774, 4129.10256383, 4144.87179467, 4112.69230742, 4128.84615357, 4182.05128192,8.57
4124.10256383, 4127.82051255, 4125.38461511, 4135.64102544, 4126.66666639, 4127.30769203, 4119.23076896, 4125.64102537, 4123.84615357, 4130.76923050, 4145.89743569, 4123.20512793, 4134.61538434, 4187.56410243,8.57
4119.23076896, 4123.07692280, 4119.35897408, 4142.17948697, 4126.28205101, 4133.07692280, 4121.41025614, 4125.51282024, 4119.35897408, 4129.87179460, 4144.99999980, 4108.46153819, 4127.30769203, 4179.35897422,8.57
4123.97435870, 4127.05128178, 4125.89743562, 4151.15384595, 4126.28205101, 4139.23076903, 4124.23076896, 4139.23076903, 4142.94871774, 4130.38461511, 4144.99999980, 4118.58974332, 4128.97435870, 4185.64102551,8.57
4125.25640998, 4128.07692280, 4125.64102537, 4154.87179467, 4127.17948691, 4138.71794851, 4129.10256383, 4149.35897415, 4161.66666646, 4131.92307665, 4146.02564082, 4124.35897408, 4130.25640998, 4184.35897422,8.57
4122.30769203, 4122.05128178, 4122.43589716, 4159.87179467, 4128.46153819, 4148.97435877, 4138.97435877, 4158.58974339, 4160.38461518, 4129.48717921, 4147.17948697, 4115.38461511, 4126.92307665, 4181.02564089,8.57
4128.58974332, 4126.66666639, 4130.89743562, 4141.15384595, 4127.43589716, 4139.23076903, 4116.28205101, 4119.23076896, 4115.51282024, 4128.58974332, 4147.43589723, 4129.35897408, 4133.33333306, 4189.23076910,8.57
4118.97435870, 4123.71794844, 4122.94871767, 4122.94871767, 4127.17948691, 4125.64102537, 4094.87179453, 4083.84615350, 4081.92307658, 4129.74358947, 4144.48717928, 4120.12820485, 4131.28205101, 4180.89743576,8.57
4125.51282024, 4127.17948691, 4125.12820485, 4138.97435877, 4128.97435870, 4138.46153826, 4114.99999973, 4119.61538434, 4119.23076896, 4129.48717921, 4149.23076903, 4126.53846126, 4134.48717921, 4188.58974345,8.57
4130.76923050, 4131.02564075, 4129.61538434, 4150.38461518, 4127.69230742, 4148.84615364, 4131.02564075, 4141.66666646, 4152.82051262, 4127.43589716, 4151.66666646, 4131.79487152, 4135.64102544, 4192.30769217,8.57
4120.89743562, 4123.46153819, 4123.58974332, 4135.38461518, 4125.25640998, 4139.99999980, 4119.87179460, 4113.58974332, 4125.51282024, 4126.53846126, 4147.30769210, 4119.74358947, 4129.74358947, 4184.23076910,8.57
4129.23076896, 4127.17948691, 4127.94871767, 4128.20512793, 4127.69230742, 4131.28205101, 4110.12820485, 4101.92307658, 4098.97435863, 4127.94871767, 4145.89743569, 4133.58974332, 4134.74358947, 4193.46153833,8.57
4125.76923050, 4128.33333306, 4123.58974332, 4143.97435877, 4127.82051255, 4138.20512800, 4120.51282024, 4123.20512793, 4120.76923050, 4128.97435870, 4142.82051262, 4123.84615357, 4133.71794844, 4191.28205115,8.57
4125.89743562, 4129.35897408, 4126.41025614, 4146.15384595, 4123.84615357, 4142.69230749, 4129.99999973, 4139.87179467, 4147.69230749, 4128.58974332, 4143.97435877, 4125.25640998, 4135.64102544, 4193.84615371,8.57
4126.66666639, 4128.84615357, 4126.79487152, 4136.66666646, 4123.71794844, 4140.51282031, 4127.43589716, 4127.94871767, 4133.97435870, 4128.71794844, 4144.99999980, 4133.84615357, 4133.84615357, 4193.71794858,8.57
4116.66666639, 4121.66666639, 4118.07692280, 4146.53846133, 4126.02564075, 4149.10256390, 4132.17948691, 4125.12820485, 4122.69230742, 4130.64102537, 4142.30769210, 4119.74358947, 4125.76923050, 4187.17948704,8.57
4125.12820485, 4126.79487152, 4126.41025614, 4159.35897415, 4126.41025614, 4157.17948697, 4139.48717928, 4146.53846133, 4144.87179467, 4132.56410229, 4143.33333313, 4131.41025614, 4133.84615357, 4193.58974345,8.57
4120.25640998, 4123.58974332, 4122.43589716, 4153.71794851, 4125.25640998, 4153.20512800, 4138.84615364, 4154.74358954, 4158.20512800, 4129.87179460, 4141.79487159, 4123.20512793, 4132.17948691, 4187.69230756,8.57
4118.71794844, 4120.76923050, 4121.53846126, 4141.79487159, 4126.53846126, 4141.53846133, 4133.07692280, 4145.51282031, 4147.69230749, 4128.84615357, 4144.48717928, 4116.53846126, 4128.46153819, 4188.84615371,8.57
4125.12820485, 4127.69230742, 4125.64102537, 4144.35897415, 4127.30769203, 4139.10256390, 4129.99999973, 4144.23076903, 4142.82051262, 4132.05128178, 4145.76923056, 4123.07692280, 4132.56410229, 4189.87179474,8.57
4116.92307665, 4124.35897408, 4117.30769203, 4155.76923056, 4125.25640998, 4153.97435877, 4130.76923050, 4137.94871774, 4135.89743569, 4132.05128178, 4140.51282031, 4110.64102537, 4127.17948691, 4180.76923063,8.57
4124.35897408, 4127.69230742, 4126.28205101, 4152.30769210, 4127.69230742, 4148.97435877, 4120.25640998, 4114.35897408, 4116.79487152, 4129.10256383, 4142.30769210, 4121.66666639, 4129.10256383, 4189.10256397,8.57
4121.53846126, 4126.66666639, 4125.12820485, 4137.82051262, 4129.87179460, 4119.48717921, 4102.94871767, 4106.53846126, 4112.30769203, 4123.97435870, 4140.12820492, 4116.41025614, 4127.94871767, 4185.25641012,8.57
4120.64102537, 4123.46153819, 4122.30769203, 4141.28205108, 4128.97435870, 4118.20512793, 4104.61538434, 4112.30769203, 4118.07692280, 4124.23076896, 4136.92307672, 4113.20512793, 4128.97435870, 4182.05128192,8.57
4132.30769203, 4129.10256383, 4129.87179460, 4153.84615364, 4128.46153819, 4141.02564082, 4118.46153819, 4115.25640998, 4121.02564075, 4130.12820485, 4143.07692287, 4128.20512793, 4134.23076896, 4185.89743576,8.57
4120.64102537, 4125.12820485, 4122.17948691, 4148.46153826, 4126.92307665, 4140.89743569, 4122.17948691, 4122.82051255, 4126.79487152, 4129.10256383, 4142.05128185, 4112.82051255, 4123.84615357, 4175.64102551,8.57
4121.92307665, 4127.43589716, 4126.15384588, 4145.64102544, 4127.17948691, 4134.35897408, 4119.35897408, 4126.66666639, 4124.48717921, 4126.53846126, 4138.20512800, 4120.89743562, 4126.66666639, 4184.10256397,8.57
4125.64102537, 4125.64102537, 4126.15384588, 4155.38461518, 4127.56410229, 4144.10256390, 4123.46153819, 4130.76923050, 4123.46153819, 4129.74358947, 4138.20512800, 4123.97435870, 4130.38461511, 4184.48717935,8.57
4123.20512793, 4119.87179460, 4121.79487152, 4159.35897415, 4124.23076896, 4148.20512800, 4131.15384588, 4141.15384595, 4139.48717928, 4131.15384588, 4139.23076903, 4115.25640998, 4126.41025614, 4179.23076910,8.57
4131.53846126, 4127.43589716, 4129.61538434, 4155.12820492, 4125.76923050, 4142.43589723, 4129.99999973, 4145.51282031, 4148.84615364, 4129.74358947, 4140.12820492, 4132.43589716, 4133.46153819, 4192.56410243,8.57
4126.41025614, 4126.02564075, 4123.84615357, 4159.74358954, 4130.51282024, 4142.43589723, 4137.69230749, 4155.76923056, 4155.64102544, 4128.46153819, 4138.07692287, 4125.12820485, 4130.12820485, 4188.33333320,8.57
4127.56410229, 4128.33333306, 4125.12820485, 4169.23076910, 4128.71794844, 4143.97435877, 4152.56410236, 4160.51282031, 4156.66666646, 4129.35897408, 4139.61538441, 4125.38461511, 4128.71794844, 4186.79487166,8.57
4125.51282024, 4130.25640998, 4124.48717921, 4154.99999980, 4124.74358947, 4132.05128178, 4146.28205108, 4141.92307672, 4132.69230742, 4129.35897408, 4137.43589723, 4127.69230742, 4130.76923050, 4186.28205115,8.57
4122.82051255, 4124.23076896, 4119.23076896, 4129.10256383, 4124.87179460, 4112.69230742, 4125.25640998, 4128.84615357, 4115.12820485, 4127.30769203, 4132.94871767, 4121.28205101, 4131.02564075, 4185.76923063,8.57
4134.48717921, 4126.79487152, 4126.15384588, 4138.84615364, 4125.25640998, 4116.92307665, 4126.02564075, 4137.69230749, 4124.48717921, 4126.66666639, 4135.12820485, 4136.28205108, 4136.41025621, 4195.64102551,8.57
4123.20512793, 4123.84615357, 4119.87179460, 4162.17948697, 4123.71794844, 4136.15384595, 4139.87179467, 4140.76923056, 4128.33333306, 4126.53846126, 4133.07692280, 4124.35897408, 4131.02564075, 4189.61538448,8.57
4120.64102537, 4127.17948691, 4122.05128178, 4155.89743569, 4125.64102537, 4128.46153819, 4128.84615357, 4127.17948691, 4121.92307665, 4127.69230742, 4132.43589716, 4124.99999973, 4133.84615357, 4190.38461525,8.57
4126.79487152, 4129.61538434, 4123.33333306, 4151.66666646, 4127.17948691, 4110.64102537, 4109.74358947, 4113.07692280, 4123.58974332, 4128.97435870, 4130.64102537, 4130.89743562, 4137.30769210, 4189.99999986,8.57
4116.15384588, 4116.92307665, 4114.74358947, 4171.41025628, 4125.51282024, 4118.97435870, 4111.15384588, 4108.58974332, 4123.07692280, 4128.46153819, 4127.30769203, 4112.17948691, 4129.10256383, 4184.87179474,8.57
4120.64102537, 4122.69230742, 4122.30769203, 4178.33333320, 4127.82051255, 4137.82051262, 4128.07692280, 4117.43589716, 4120.38461511, 4128.46153819, 4132.30769203, 4125.76923050, 4132.56410229, 4195.64102551,8.57
4120.12820485, 4128.20512793, 4119.99999973, 4161.79487159, 4127.05128178, 4144.99999980, 4140.38461518, 4136.92307672, 4131.41025614, 4127.69230742, 4133.58974332, 4123.71794844, 4129.61538434, 4186.53846140,8.57
4120.64102537, 4123.07692280, 4121.66666639, 4143.46153826, 4125.12820485, 4129.10256383, 4130.38461511, 4151.66666646, 4140.64102544, 4126.53846126, 4132.69230742, 4118.33333306, 4127.94871767, 4183.46153833,8.57
4125.12820485, 4122.94871767, 4124.23076896, 4139.74358954, 4127.05128178, 4116.79487152, 4128.33333306, 4149.48717928, 4129.87179460, 4127.94871767, 4133.07692280, 4123.20512793, 4133.84615357, 4191.02564089,8.57
4116.41025614, 4122.05128178, 4115.64102537, 4153.58974339, 4124.74358947, 4135.76923056, 4151.92307672, 4156.15384595, 4127.82051255, 4128.46153819, 4130.51282024, 4106.92307665, 4127.82051255, 4182.17948704,8.57
4124.74358947, 4127.94871767, 4127.82051255, 4156.92307672, 4123.07692280, 4143.46153826, 4154.99999980, 4168.71794858, 4140.89743569, 4127.43589716, 4133.46153819, 4118.20512793, 4128.97435870, 4184.87179474,8.57
4125.51282024, 4126.02564075, 4128.97435870, 4143.07692287, 4125.89743562, 4127.30769203, 4137.56410236, 4160.51282031, 4146.15384595, 4127.17948691, 4133.46153819, 4117.30769203, 4125.89743562, 4180.12820499,8.57
4123.46153819, 4125.25640998, 4123.84615357, 4133.97435870, 4126.92307665, 4119.10256383, 4127.69230742, 4131.41025614, 4125.25640998, 4127.56410229, 4130.64102537, 4112.56410229, 4123.97435870, 4178.20512807,8.57
4129.74358947, 4131.92307665, 4128.58974332, 4137.43589723, 4126.28205101, 4122.82051255, 4119.87179460, 4112.82051255, 4107.30769203, 4127.56410229, 4132.05128178, 4128.46153819, 4134.48717921, 4187.17948704,8.57
4117.82051255, 4125.25640998, 4121.15384588, 4155.12820492, 4127.43589716, 4145.76923056, 4130.89743562, 4138.20512800, 4137.17948697, 4127.17948691, 4131.28205101, 4115.25640998, 4128.97435870, 4180.64102551,8.57
4122.43589716, 4128.84615357, 4128.20512793, 4158.58974339, 4127.82051255, 4164.61538441, 4146.02564082, 4165.12820492, 4162.05128185, 4128.97435870, 4131.79487152, 4118.33333306, 4125.64102537, 4184.74358961,8.57
4122.43589716, 4128.84615357, 4128.20512793, 4158.58974339, 4127.82051255, 4164.61538441, 4146.02564082, 4165.12820492, 4162.05128185, 4128.97435870, 4131.79487152, 4118.33333306, 4125.64102537, 4184.74358961,8.57
4125.76923050, 4131.02564075, 4128.71794844, 4128.46153819, 4127.56410229, 4141.66666646, 4126.41025614, 4138.58974339, 4121.02564075, 4126.92307665, 4130.38461511, 4125.38461511, 4126.66666639, 4184.61538448,8.57
4120.38461511, 4123.46153819, 4122.94871767, 4113.46153819, 4127.05128178, 4117.82051255, 4112.69230742, 4106.92307665, 4080.51282017, 4124.35897408, 4129.99999973, 4123.46153819, 4127.43589716, 4185.25641012,8.57
4130.76923050, 4127.94871767, 4131.15384588, 4139.87179467, 4127.69230742, 4136.66666646, 4143.71794851, 4143.97435877, 4121.92307665, 4128.07692280, 4133.58974332, 4133.97435870, 4133.20512793, 4196.53846140,8.57
4126.66666639, 4128.07692280, 4123.20512793, 4150.76923056, 4127.82051255, 4143.07692287, 4155.51282031, 4179.10256397, 4160.89743569, 4129.10256383, 4129.99999973, 4118.58974332, 4128.07692280, 4187.43589730,8.57
4125.12820485, 4128.33333306, 4122.17948691, 4139.74358954, 4125.64102537, 4128.97435870, 4134.99999973, 4147.05128185, 4134.23076896, 4127.94871767, 4127.82051255, 4124.23076896, 4131.28205101, 4186.92307679,8.57
4126.92307665, 4127.94871767, 4126.28205101, 4158.46153826, 4124.35897408, 4151.53846133, 4147.94871774, 4140.12820492, 4133.71794844, 4127.69230742, 4130.38461511, 4132.69230742, 4132.82051255, 4188.84615371,8.57
4126.15384588, 4124.35897408, 4124.23076896, 4178.46153833, 4126.41025614, 4169.48717935, 4169.35897422, 4176.92307679, 4160.51282031, 4126.66666639, 4135.12820485, 4123.58974332, 4129.35897408, 4187.82051269,8.57
4132.94871767, 4131.28205101, 4127.56410229, 4169.74358961, 4128.84615357, 4144.10256390, 4150.89743569, 4174.23076910, 4153.33333313, 4127.69230742, 4136.66666646, 4135.89743569, 4135.89743569, 4195.64102551,8.57
4121.41025614, 4124.35897408, 4116.28205101, 4172.05128192, 4127.30769203, 4142.69230749, 4145.12820492, 4156.92307672, 4146.41025621, 4129.61538434, 4128.71794844, 4123.46153819, 4128.33333306, 4187.30769217,8.57
4121.79487152, 4119.87179460, 4118.84615357, 4176.41025628, 4128.20512793, 4165.25641005, 4162.17948697, 4165.76923056, 4150.89743569, 4128.46153819, 4128.58974332, 4123.97435870, 4128.97435870, 4189.61538448,8.57
4126.66666639, 4128.20512793, 4123.58974332, 4159.74358954, 4128.71794844, 4159.61538441, 4157.94871774, 4161.92307672, 4136.66666646, 4128.20512793, 4132.30769203, 4132.05128178, 4134.10256383, 4194.23076910,8.57
4117.82051255, 4124.74358947, 4114.35897408, 4154.35897415, 4124.87179460, 4149.23076903, 4149.87179467, 4152.94871774, 4134.23076896, 4130.51282024, 4128.46153819, 4115.25640998, 4123.84615357, 4185.76923063,8.57
4125.12820485, 4124.74358947, 4123.33333306, 4160.51282031, 4124.87179460, 4150.25641005, 4153.58974339, 4165.12820492, 4149.23076903, 4130.12820485, 4126.53846126, 4124.87179460, 4126.53846126, 4192.17948704,8.57
4118.97435870, 4124.74358947, 4123.46153819, 4154.99999980, 4126.41025614, 4142.56410236, 4153.33333313, 4176.15384602, 4151.28205108, 4127.82051255, 4123.20512793, 4118.71794844, 4128.46153819, 4188.58974345,8.57
4117.17948691, 4124.87179460, 4121.02564075, 4151.53846133, 4126.02564075, 4132.56410229, 4147.43589723, 4172.17948704, 4149.10256390, 4128.84615357, 4121.28205101, 4114.61538434, 4127.43589716, 4185.76923063,8.57
4126.41025614, 4125.12820485, 4124.35897408, 4163.97435877, 4126.28205101, 4139.35897415, 4151.79487159, 4167.82051262, 4148.71794851, 4130.12820485, 4121.79487152, 4124.23076896, 4127.43589716, 4188.46153833,8.57
4117.69230742, 4120.64102537, 4121.02564075, 4188.71794858, 4128.07692280, 4164.35897415, 4173.33333320, 4181.79487166, 4154.23076903, 4127.17948691, 4122.82051255, 4111.02564075, 4120.25640998, 4181.53846140,8.57
4121.53846126, 4129.23076896, 4128.20512793, 4197.05128192, 4127.94871767, 4172.56410243, 4184.61538448, 4195.38461525, 4159.10256390, 4126.53846126, 4127.43589716, 4119.61538434, 4127.43589716, 4187.94871781,8.57
4122.56410229, 4127.69230742, 4124.23076896, 4172.05128192, 4127.17948691, 4146.92307672, 4158.46153826, 4173.97435884, 4140.12820492, 4129.74358947, 4124.23076896, 4117.17948691, 4128.97435870, 4182.94871781,8.57
4122.82051255, 4122.05128178, 4124.99999973, 4162.56410236, 4127.30769203, 4139.61538441, 4135.12820485, 4141.02564082, 4124.10256383, 4129.61538434, 4121.53846126, 4113.07692280, 4126.15384588, 4181.28205115,8.57
4129.61538434, 4129.35897408, 4131.79487152, 4180.89743576, 4127.30769203, 4162.56410236, 4148.46153826, 4142.82051262, 4136.28205108, 4128.46153819, 4123.97435870, 4130.25640998, 4132.05128178, 4190.51282038,8.57
4122.82051255, 4125.89743562, 4119.61538434, 4183.33333320, 4126.92307665, 4169.99999986, 4167.82051262, 4173.07692294, 4152.17948697, 4127.69230742, 4123.84615357, 4118.84615357, 4127.94871767, 4183.33333320,8.57
4128.84615357, 4126.92307665, 4123.97435870, 4181.15384602, 4128.07692280, 4171.53846140, 4185.89743576, 4210.25641019, 4170.38461525, 4127.05128178, 4125.76923050, 4123.97435870, 4131.28205101, 4187.17948704,8.57
4128.07692280, 4127.94871767, 4125.64102537, 4184.87179474, 4128.97435870, 4175.76923063, 4196.02564089, 4220.38461532, 4172.82051269, 4127.05128178, 4123.97435870, 4127.69230742, 4132.82051255, 4182.82051269,8.57
4123.33333306, 4123.97435870, 4121.53846126, 4175.51282038, 4126.41025614, 4158.33333313, 4179.74358961, 4193.46153833, 4152.69230749, 4127.94871767, 4126.15384588, 4123.46153819, 4129.48717921, 4181.28205115,8.57
4131.66666639, 4128.33333306, 4131.66666639, 4167.94871774, 4124.61538434, 4136.79487159, 4163.07692287, 4178.71794858, 4152.94871774, 4129.35897408, 4130.51282024, 4136.15384595, 4134.99999973, 4195.51282038,8.57
4122.94871767, 4124.35897408, 4125.89743562, 4174.61538448, 4123.84615357, 4131.15384588, 4166.79487159, 4191.28205115, 4166.28205108, 4128.58974332, 4124.61538434, 4121.92307665, 4130.51282024, 4188.71794858,8.57
4125.38461511, 4126.66666639, 4126.53846126, 4188.84615371, 4124.87179460, 4144.61538441, 4181.15384602, 4198.71794858, 4164.48717928, 4128.33333306, 4125.38461511, 4126.79487152, 4131.28205101, 4190.51282038,8.57
4128.07692280, 4129.61538434, 4127.43589716, 4197.05128192, 4125.25640998, 4163.97435877, 4194.23076910, 4198.46153833, 4164.74358954, 4128.07692280, 4130.25640998, 4132.05128178, 4133.20512793, 4190.76923063,8.57
4116.15384588, 4122.05128178, 4120.64102537, 4179.48717935, 4123.07692280, 4148.07692287, 4179.10256397, 4185.12820499, 4159.87179467, 4125.12820485, 4126.02564075, 4117.69230742, 4128.58974332, 4184.87179474,8.57
4122.56410229, 4126.28205101, 4124.99999973, 4165.12820492, 4125.64102537, 4129.35897408, 4158.58974339, 4172.43589730, 4151.15384595, 4124.74358947, 4122.94871767, 4129.99999973, 4135.89743569, 4193.33333320,8.57
4122.43589716, 4125.51282024, 4115.51282024, 4184.48717935, 4127.94871767, 4160.38461518, 4185.12820499, 4195.51282038, 4171.53846140, 4127.17948691, 4124.61538434, 4120.76923050, 4134.23076896, 4190.38461525,8.57
4122.05128178, 4124.61538434, 4117.17948691, 4192.17948704, 4125.76923050, 4168.46153833, 4196.53846140, 4202.69230763, 4168.97435884, 4129.23076896, 4128.07692280, 4120.51282024, 4132.43589716, 4191.41025628,8.57
4119.87179460, 4127.30769203, 4124.99999973, 4174.48717935, 4124.61538434, 4130.12820485, 4166.15384595, 4179.48717935, 4138.97435877, 4129.23076896, 4126.66666639, 4130.38461511, 4133.97435870, 4191.15384602,8.57
4110.89743562, 4122.94871767, 4118.20512793, 4181.41025628, 4125.51282024, 4136.53846133, 4179.23076910, 4201.92307686, 4161.66666646, 4127.94871767, 4124.23076896, 4113.33333306, 4127.69230742, 4183.33333320,8.57
4123.58974332, 4127.30769203, 4124.10256383, 4187.43589730, 4127.69230742, 4161.41025621, 4199.35897422, 4217.30769224, 4177.82051269, 4129.35897408, 4126.53846126, 4121.02564075, 4132.69230742, 4191.15384602,8.57
4121.02564075, 4122.69230742, 4122.17948691, 4170.89743576, 4126.66666639, 4148.58974339, 4174.99999986, 4177.94871781, 4151.53846133, 4129.99999973, 4123.84615357, 4118.46153819, 4129.87179460, 4187.43589730,8.57
4116.41025614, 4120.38461511, 4121.28205101, 4175.89743576, 4123.84615357, 4151.92307672, 4179.10256397, 4180.64102551, 4163.20512800, 4128.33333306, 4123.71794844, 4115.76923050, 4128.20512793, 4185.12820499,8.57
4121.92307665, 4126.28205101, 4124.48717921, 4192.17948704, 4127.05128178, 4181.28205115, 4219.99999993, 4226.41025634, 4193.46153833, 4127.56410229, 4126.28205101, 4121.28205101, 4133.33333306, 4185.25641012,8.57
4113.71794844, 4121.02564075, 4118.58974332, 4185.38461525, 4129.48717921, 4177.56410243, 4220.51282045, 4219.61538455, 4172.82051269, 4128.33333306, 4123.46153819, 4103.71794844, 4124.23076896, 4175.12820499,8.57
4126.79487152, 4126.92307665, 4128.33333306, 4168.84615371, 4128.07692280, 4141.02564082, 4185.64102551, 4186.41025628, 4142.05128185, 4129.35897408, 4124.87179460, 4116.41025614, 4124.74358947, 4186.02564089,8.57
4128.46153819, 4127.94871767, 4125.64102537, 4177.43589730, 4129.87179460, 4139.23076903, 4187.56410243, 4199.48717935, 4162.69230749, 4127.56410229, 4125.25640998, 4118.84615357, 4126.66666639, 4184.99999986,8.57
4116.53846126, 4121.66666639, 4119.74358947, 4193.33333320, 4131.66666639, 4161.92307672, 4214.61538455, 4226.28205122, 4192.17948704, 4125.89743562, 4126.02564075, 4112.17948691, 4130.25640998, 4181.53846140,8.57
4125.38461511, 4127.82051255, 4130.89743562, 4181.66666653, 4129.87179460, 4153.33333313, 4210.76923070, 4217.05128199, 4182.05128192, 4128.46153819, 4129.74358947, 4125.89743562, 4135.51282031, 4188.97435884,8.57
4123.97435870, 4125.64102537, 4127.05128178, 4170.25641012, 4125.76923050, 4148.58974339, 4200.76923063, 4204.48717942, 4169.23076910, 4130.51282024, 4128.46153819, 4116.53846126, 4125.64102537, 4177.56410243,8.57
4125.38461511, 4124.23076896, 4126.66666639, 4182.56410243, 4125.89743562, 4178.71794858, 4221.28205122, 4224.87179481, 4184.48717935, 4130.89743562, 4128.84615357, 4126.66666639, 4128.97435870, 4185.38461525,8.57
4126.02564075, 4124.23076896, 4124.61538434, 4191.02564089, 4127.94871767, 4187.94871781, 4230.25641019, 4236.66666667, 4191.41025628, 4128.46153819, 4128.58974332, 4129.10256383, 4132.94871767, 4191.92307679,8.57
4123.84615357, 4122.30769203, 4121.66666639, 4185.64102551, 4124.99999973, 4161.79487159, 4204.48717942, 4206.15384609, 4171.53846140, 4126.66666639, 4128.71794844, 4119.74358947, 4127.30769203, 4186.41025628,8.57
4131.15384588, 4129.10256383, 4127.82051255, 4191.41025628, 4122.94871767, 4162.05128185, 4201.28205122, 4185.51282038, 4163.46153826, 4129.35897408, 4134.87179460, 4135.12820485, 4131.92307665, 4192.30769217,8.57
4121.92307665, 4125.64102537, 4119.48717921, 4191.28205115, 4125.76923050, 4169.48717935, 4213.20512814, 4197.56410243, 4167.69230749, 4130.89743562, 4133.46153819, 4124.99999973, 4131.41025614, 4190.76923063,8.57
4121.02564075, 4124.10256383, 4122.56410229, 4170.76923063, 4127.05128178, 4147.56410236, 4194.10256397, 4199.61538448, 4159.10256390, 4130.51282024, 4128.46153819, 4125.25640998, 4132.17948691, 4194.61538448,8.57
4122.05128178, 4125.25640998, 4124.48717921, 4171.41025628, 4125.89743562, 4150.25641005, 4190.25641012, 4202.82051275, 4162.05128185, 4129.74358947, 4126.53846126, 4129.35897408, 4131.92307665, 4190.64102551,8.57
4117.17948691, 4121.28205101, 4117.05128178, 4179.35897422, 4128.20512793, 4169.87179474, 4209.87179481, 4215.76923070, 4179.87179474, 4128.33333306, 4125.89743562, 4118.84615357, 4127.94871767, 4185.76923063,8.57
4125.64102537, 4126.15384588, 4121.79487152, 4162.43589723, 4130.76923050, 4161.02564082, 4201.53846147, 4208.46153840, 4177.56410243, 4128.97435870, 4126.53846126, 4129.10256383, 4134.23076896, 4196.66666653,8.57
4118.84615357, 4123.58974332, 4117.69230742, 4157.43589723, 4126.28205101, 4159.48717928, 4194.74358961, 4208.20512814, 4166.92307672, 4127.69230742, 4122.56410229, 4117.94871767, 4130.12820485, 4191.41025628,8.57
4120.51282024, 4124.10256383, 4122.56410229, 4159.35897415, 4124.23076896, 4159.61538441, 4196.28205115, 4209.61538455, 4156.53846133, 4125.76923050, 4122.69230742, 4120.89743562, 4130.76923050, 4191.53846140,8.57
4123.58974332, 4123.33333306, 4124.48717921, 4150.89743569, 4124.87179460, 4144.99999980, 4189.61538448, 4196.92307679, 4157.82051262, 4128.07692280, 4122.56410229, 4128.20512793, 4135.25640998, 4190.64102551,8.57
