AF3,F7,F3,FC5,T7,P7,O1,O2,P8,T8,FC6,F4,F8,AF4,Label
4068.84615343, 4073.46153812, 4064.10256369, 4064.23076882, 4065.51282010, 5997.30769599, 5807.69231096, 5970.25641387, 5695.00000306, 4069.87179453, 4060.12820472, 4072.69230735, 4072.05128171, 4104.35897408,8.57
4057.17948677, 4066.15384574, 4047.30769189, 4057.05128164, 4064.10256369, 5996.15384984, 5801.15384942, 5954.35897798, 5691.02564409, 4068.20512779, 4053.46153805, 4051.41025600, 4065.51282010, 4093.84615350,8.57
4067.94871754, 4071.92307658, 4065.76923036, 4063.46153805, 4060.89743548, 6036.53846529, 5822.30769565, 5977.56410625, 5738.33333646, 4069.74358940, 4059.35897395, 4072.94871761, 4071.79487145, 4101.02564068,8.57
4064.74358933, 4071.28205094, 4059.23076882, 4059.87179446, 4060.76923036, 6036.02564478, 5825.51282385, 5990.51282420, 5740.64102877, 4070.76923043, 4055.64102523, 4059.35897395, 4067.17948677, 4092.17948684,8.57
4064.35897395, 4068.71794830, 4055.38461497, 4058.07692266, 4062.43589702, 6015.25641401, 5808.33333660, 5962.05128567, 5701.79487486, 4072.17948684, 4056.41025600, 4062.82051241, 4066.53846113, 4095.89743555,8.57
4077.82051248, 4074.74358940, 4072.17948684, 4066.79487138, 4063.97435856, 6012.56410632, 5803.46154173, 5952.30769592, 5702.82051588, 4071.53846119, 4062.43589702, 4086.02564068, 4074.10256376, 4104.48717921,8.57
4061.66666625, 4066.15384574, 4055.64102523, 4055.25640984, 4060.64102523, 6012.30769606, 5807.17949045, 5967.43590105, 5717.56410569, 4067.05128164, 4054.23076882, 4057.69230728, 4069.61538420, 4093.84615350,8.57
4073.07692273, 4071.02564068, 4070.12820478, 4060.64102523, 4061.02564061, 5999.48718317, 5795.38461865, 5958.46154208, 5695.38461845, 4067.05128164, 4061.15384574, 4076.79487145, 4077.17948684, 4105.38461511,8.57
4074.35897402, 4071.02564068, 4063.58974318, 4064.48717907, 4064.61538420, 5981.41026010, 5782.05128532, 5939.23077278, 5677.69231068, 4070.76923043, 4058.71794830, 4073.97435863, 4076.92307658, 4098.58974325,8.57
4063.84615343, 4064.48717907, 4051.28205087, 4059.48717907, 4064.35897395, 5976.53846523, 5779.10256737, 5933.84615739, 5687.94872101, 4071.66666632, 4057.56410215, 4070.12820478, 4074.87179453, 4098.07692273,8.57
4074.99999966, 4072.05128171, 4068.33333292, 4064.87179446, 4064.87179446, 5978.58974728, 5768.46154166, 5920.00000355, 5667.82051581, 4071.66666632, 4066.15384574, 4092.30769196, 4079.87179453, 4113.46153819,8.57
4063.97435856, 4067.43589702, 4051.66666625, 4059.87179446, 4063.97435856, 5970.64102926, 5757.56410576, 5909.87179842, 5637.82051574, 4073.07692273, 4056.92307651, 4062.05128164, 4071.66666632, 4102.94871767,8.57
4069.87179453, 4069.87179453, 4061.15384574, 4063.58974318, 4061.66666625, 5954.61538823, 5755.00000320, 5914.74359329, 5639.74359267, 4074.87179453, 4061.79487138, 4075.64102530, 4075.25640991, 4108.33333306,8.57
4069.23076882, 4072.69230735, 4061.28205087, 4062.17948677, 4063.07692266, 5952.94872157, 5753.71795192, 5907.05128553, 5639.87179779, 4076.53846119, 4062.43589702, 4076.66666632, 4074.23076889, 4105.64102537,8.57
4060.12820472, 4068.58974318, 4051.02564061, 4059.35897395, 4067.17948677, 5969.35897798, 5757.43590064, 5903.20513168, 5646.66666966, 4076.92307658, 4056.02564061, 4061.15384574, 4070.12820478, 4100.25640991,8.57
4075.64102530, 4075.12820478, 4069.74358940, 4068.46153805, 4068.97435856, 5972.30769592, 5765.25641346, 5917.56410611, 5669.35897735, 4074.10256376, 4061.66666625, 4079.23076889, 4077.43589709, 4105.64102537,8.57
4068.20512779, 4072.30769196, 4055.64102523, 4057.30769189, 4067.69230728, 5953.20513182, 5766.15384935, 5919.74359329, 5671.53846453, 4072.43589709, 4057.17948677, 4055.38461497, 4070.25640991, 4094.48717914,8.57
4071.66666632, 4072.94871761, 4062.30769189, 4060.38461497, 4067.17948677, 5949.87179849, 5765.51282371, 5911.92308047, 5657.56410556, 4074.99999966, 4063.07692266, 4070.12820478, 4072.82051248, 4104.48717921,8.57
4070.64102530, 4070.51282017, 4066.02564061, 4068.07692266, 4065.89743548, 5946.79487541, 5749.35897756, 5895.25641373, 5642.69231061, 4076.79487145, 4062.17948677, 4072.82051248, 4074.99999966, 4098.58974325,8.57
4063.84615343, 4069.23076882, 4058.46153805, 4061.28205087, 4068.97435856, 5902.82051630, 5701.79487486, 5841.92308026, 5585.89743875, 4076.28205094, 4057.17948677, 4056.66666625, 4070.38461504, 4090.89743555,8.57
4081.66666632, 4079.35897402, 4076.92307658, 4066.66666625, 4073.07692273, 5863.33333674, 5668.46154145, 5799.74359301, 5540.64102835, 4076.02564068, 4069.61538420, 4087.94871761, 4077.82051248, 4111.02564075,8.57
4069.10256369, 4069.10256369, 4057.82051241, 4062.82051241, 4067.43589702, 5857.05128546, 5662.82051581, 5802.05128532, 5557.30769509, 4074.99999966, 4064.10256369, 4066.79487138, 4073.20512786, 4099.61538427,8.57
4070.89743555, 4071.92307658, 4063.20512779, 4067.05128164, 4065.64102523, 5846.53846495, 5663.33333633, 5810.76923411, 5561.79487458, 4076.02564068, 4064.23076882, 4073.20512786, 4075.76923043, 4101.41025607,8.57
4078.33333299, 4080.51282017, 4072.05128171, 4070.51282017, 4070.64102530, 5834.74359308, 5660.25641325, 5812.05128539, 5557.30769509, 4079.10256376, 4068.58974318, 4086.53846119, 4079.35897402, 4108.58974332,8.57
4062.94871754, 4070.38461504, 4053.33333292, 4060.25640984, 4071.41025607, 5836.66667001, 5639.35897728, 5789.48718276, 5555.89743868, 4078.84615350, 4061.15384574, 4065.38461497, 4075.76923043, 4102.69230742,8.57
4075.12820478, 4076.79487145, 4072.05128171, 4068.33333292, 4068.71794830, 5839.48718283, 5623.71795164, 5757.43590064, 5513.84615656, 4077.69230735, 4068.84615343, 4090.76923043, 4083.58974325, 4113.71794844,8.57
4070.89743555, 4075.64102530, 4064.23076882, 4065.51282010, 4066.53846113, 5844.48718290, 5648.33333633, 5784.61538789, 5505.89743854, 4077.17948684, 4066.79487138, 4072.05128171, 4077.56410222, 4105.89743562,8.57
4068.97435856, 4070.38461504, 4062.05128164, 4063.84615343, 4070.51282017, 5841.66667001, 5667.05128504, 5817.56410590, 5551.92307971, 4077.94871761, 4064.23076882, 4067.94871754, 4076.66666632, 4108.71794844,8.57
4074.48717914, 4074.23076889, 4071.92307658, 4070.38461504, 4073.46153812, 5815.00000334, 5638.46154138, 5774.48718269, 5536.15384887, 4078.71794837, 4065.64102523, 4085.51282017, 4081.92307658, 4111.28205101,8.57
4061.66666625, 4070.38461504, 4057.30769189, 4063.07692266, 4068.20512779, 5797.17949045, 5616.41025933, 5741.02564416, 5485.64102829, 4076.79487145, 4058.97435856, 4063.20512779, 4075.64102530, 4099.35897402,8.57
4076.28205094, 4075.64102530, 4073.20512786, 4067.30769189, 4068.07692266, 5806.53846481, 5622.30769523, 5761.66666987, 5507.05128470, 4076.28205094, 4066.02564061, 4079.74358940, 4079.23076889, 4111.02564075,8.57
4072.17948684, 4075.12820478, 4065.89743548, 4066.66666625, 4072.43589709, 5808.84615712, 5619.48718241, 5760.89743910, 5537.94872066, 4077.05128171, 4062.17948677, 4066.28205087, 4074.74358940, 4102.82051255,8.57
4064.61538420, 4076.53846119, 4062.30769189, 4068.84615343, 4071.66666632, 5796.79487506, 5610.64102849, 5741.79487493, 5512.94872059, 4079.23076889, 4062.43589702, 4065.64102523, 4074.61538427, 4100.12820478,8.57
4078.58974325, 4083.46153812, 4077.17948684, 4076.41025607, 4072.05128171, 5789.74359301, 5606.02564388, 5736.79487493, 5481.79487444, 4082.30769196, 4070.89743555, 4086.66666632, 4080.38461504, 4107.56410229,8.57
4068.33333292, 4076.28205094, 4059.23076882, 4065.64102523, 4073.84615350, 5794.87179814, 5609.10256696, 5736.15384928, 5480.00000257, 4079.87179453, 4062.17948677, 4059.99999959, 4071.79487145, 4096.92307658,8.57
4076.28205094, 4079.74358940, 4073.20512786, 4070.89743555, 4073.97435863, 5793.97436224, 5615.76923369, 5742.82051595, 5499.48718213, 4077.82051248, 4068.71794830, 4081.41025607, 4078.46153812, 4108.97435870,8.57
4078.46153812, 4078.20512786, 4073.07692273, 4068.58974318, 4072.05128171, 5776.92308019, 5607.05128490, 5747.30769551, 5497.82051546, 4079.61538427, 4067.94871754, 4077.94871761, 4082.05128171, 4105.38461511,8.57
4075.76923043, 4075.38461504, 4063.71794830, 4062.17948677, 4071.41025607, 5783.58974686, 5601.66666952, 5746.15384935, 5497.05128470, 4080.25640991, 4064.35897395, 4067.82051241, 4079.74358940, 4105.51282024,8.57
4087.69230735, 4084.35897402, 4078.84615350, 4075.51282017, 4074.10256376, 5804.61538789, 5617.05128497, 5753.84615705, 5510.89743854, 4078.33333299, 4072.94871761, 4093.84615350, 4083.58974325, 4116.92307665,8.57
4070.38461504, 4076.66666632, 4061.15384574, 4066.66666625, 4073.20512786, 5791.66666994, 5624.23077215, 5760.25641346, 5499.23077188, 4077.05128171, 4065.64102523, 4069.87179453, 4075.64102530, 4101.02564068,8.57
4076.53846119, 4078.71794837, 4070.38461504, 4065.25640984, 4071.41025607, 5767.43590064, 5607.69231055, 5749.23077243, 5487.69231034, 4077.56410222, 4070.76923043, 4087.17948684, 4081.02564068, 4110.12820485,8.57
4080.25640991, 4080.64102530, 4070.25640991, 4071.53846119, 4072.82051248, 5763.07692628, 5585.89743875, 5720.64102877, 5487.30769495, 4078.33333299, 4071.66666632, 4088.33333299, 4082.05128171, 4110.64102537,8.57
4080.25640991, 4080.64102530, 4070.25640991, 4071.53846119, 4072.82051248, 5763.07692628, 5585.89743875, 5720.64102877, 5487.30769495, 4078.33333299, 4071.66666632, 4088.33333299, 4082.05128171, 4110.64102537,8.57
4065.38461497, 4069.87179453, 4056.79487138, 4067.17948677, 4073.07692273, 5765.76923397, 5581.66666952, 5707.69231075, 5464.74359232, 4080.12820478, 4062.69230728, 4064.87179446, 4075.89743555, 4103.33333306,8.57
4078.84615350, 4075.64102530, 4076.41025607, 4073.97435863, 4073.71794837, 5758.58974679, 5590.00000285, 5722.17949031, 5446.28205379, 4081.79487145, 4067.94871754, 4088.71794837, 4082.43589709, 4115.64102537,8.57
4071.66666632, 4075.76923043, 4059.99999959, 4069.10256369, 4073.58974325, 5740.00000313, 5585.25641311, 5717.17949031, 5458.33333591, 4079.23076889, 4065.89743548, 4068.20512779, 4077.94871761, 4105.12820485,8.57
4071.02564068, 4077.05128171, 4066.79487138, 4069.23076882, 4072.69230735, 5725.25641339, 5574.61538740, 5696.28205434, 5452.82051540, 4078.07692273, 4072.69230735, 4073.20512786, 4079.35897402, 4107.17948691,8.57
4075.76923043, 4079.10256376, 4078.46153812, 4072.43589709, 4074.23076889, 5731.28205441, 5586.66666952, 5716.41025954, 5453.71795129, 4079.23076889, 4072.56410222, 4079.87179453, 4078.97435863, 4107.82051255,8.57
4069.23076882, 4073.84615350, 4063.58974318, 4068.71794830, 4073.20512786, 5731.28205441, 5585.76923362, 5724.35897749, 5480.00000257, 4080.12820478, 4062.82051241, 4060.25640984, 4074.87179453, 4101.28205094,8.57
4086.02564068, 4080.38461504, 4079.99999966, 4077.05128171, 4074.23076889, 5712.69231082, 5554.48718227, 5676.28205427, 5451.02564360, 4082.05128171, 4072.56410222, 4085.64102530, 4086.41025607, 4111.53846126,8.57
4078.46153812, 4076.79487145, 4068.58974318, 4070.89743555, 4079.61538427, 5716.15384928, 5557.17948996, 5669.35897735, 5413.58974603, 4084.10256376, 4069.48717907, 4070.25640991, 4083.33333299, 4102.43589709,8.57
4076.41025607, 4078.58974325, 4069.87179453, 4072.94871761, 4080.38461504, 5730.38461852, 5585.25641311, 5710.64102870, 5453.58974616, 4084.74358940, 4069.99999966, 4073.58974325, 4081.53846119, 4109.10256383,8.57
4085.38461504, 4084.99999966, 4081.53846119, 4077.82051248, 4075.51282017, 5721.28205441, 5580.89743875, 5711.66666980, 5483.46154111, 4082.69230735, 4075.89743555, 4088.46153812, 4083.71794837, 4113.07692280,8.57
4075.76923043, 4079.99999966, 4066.53846113, 4066.41025600, 4071.28205094, 5707.94872101, 5563.07692586, 5680.89743896, 5426.28205379, 4079.48717914, 4067.82051241, 4069.74358940, 4078.58974325, 4101.53846119,8.57
4087.43589709, 4086.15384581, 4079.99999966, 4074.10256376, 4075.64102530, 5710.38461845, 5563.71795150, 5677.94872101, 5392.17948962, 4081.28205094, 4074.35897402, 4096.15384581, 4087.56410222, 4118.46153819,8.57
4080.38461504, 4081.79487145, 4071.28205094, 4075.64102530, 4079.35897402, 5719.23077236, 5569.87179766, 5691.92307998, 5439.74359225, 4082.05128171, 4074.35897402, 4087.05128171, 4085.89743555, 4114.74358947,8.57
4078.20512786, 4080.38461504, 4070.76923043, 4074.87179453, 4077.94871761, 5718.84615698, 5569.61538740, 5686.92307998, 5456.41025899, 4080.76923043, 4073.46153812, 4086.66666632, 4083.84615350, 4112.94871767,8.57
4091.02564068, 4088.46153812, 4083.07692273, 4077.69230735, 4076.15384581, 5711.53846467, 5560.64102842, 5663.58974658, 5407.56410500, 4082.17948684, 4077.05128171, 4100.12820478, 4086.79487145, 4118.84615357,8.57
4075.25640991, 4079.61538427, 4062.94871754, 4068.58974318, 4074.23076889, 5700.38461845, 5542.94872066, 5648.71795171, 5385.25641269, 4084.61538427, 4070.51282017, 4068.20512779, 4079.23076889, 4107.30769203,8.57
4079.87179453, 4082.17948684, 4075.38461504, 4075.76923043, 4076.28205094, 5687.43590050, 5533.07692579, 5649.87179786, 5398.20513064, 4083.58974325, 4076.79487145, 4088.46153812, 4086.28205094, 4118.97435870,8.57
4077.43589709, 4082.05128171, 4069.99999966, 4074.61538427, 4076.79487145, 5686.15384922, 5532.56410528, 5640.38461831, 5392.94872038, 4082.82051248, 4072.82051248, 4080.89743555, 4084.35897402, 4113.97435870,8.57
4071.79487145, 4077.94871761, 4064.10256369, 4070.76923043, 4074.87179453, 5702.30769537, 5533.33333605, 5635.89743882, 5403.97436141, 4085.76923043, 4070.89743555, 4068.33333292, 4081.15384581, 4108.97435870,8.57
4082.17948684, 4084.87179453, 4082.17948684, 4078.20512786, 4076.79487145, 5704.35897742, 5531.66666938, 5647.17949017, 5430.76923327, 4086.41025607, 4078.58974325, 4089.74358940, 4087.56410222, 4116.02564075,8.57
4073.46153812, 4079.99999966, 4066.02564061, 4071.53846119, 4076.53846119, 5669.87179786, 5509.23077188, 5628.58974651, 5397.17948962, 4086.02564068, 4068.46153805, 4064.61538420, 4077.94871761, 4102.69230742,8.57
4085.12820478, 4082.56410222, 4079.10256376, 4077.94871761, 4075.89743555, 5649.74359274, 5481.41025905, 5589.10256696, 5339.61538691, 4087.82051248, 4073.58974325, 4082.17948684, 4082.30769196, 4109.48717921,8.57
4085.12820478, 4085.25640991, 4081.28205094, 4079.48717914, 4078.20512786, 5661.66666966, 5483.84615649, 5588.33333619, 5350.89743826, 4085.51282017, 4078.46153812, 4085.25640991, 4086.15384581, 4106.92307665,8.57
4077.05128171, 4085.25640991, 4069.48717907, 4072.30769196, 4078.20512786, 5658.97436197, 5495.12820777, 5609.48718234, 5384.10256654, 4084.35897402, 4076.15384581, 4073.46153812, 4082.05128171, 4104.99999973,8.57
4092.17948684, 4093.33333299, 4085.38461504, 4080.89743555, 4079.10256376, 5643.07692600, 5488.20513085, 5597.05128490, 5365.12820749, 4088.07692273, 4080.25640991, 4097.56410222, 4087.30769196, 4117.30769203,8.57
4082.82051248, 4084.48717914, 4073.46153812, 4073.58974325, 4081.79487145, 5646.15384915, 5484.61538726, 5577.30769509, 5341.79487409, 4086.92307658, 4071.02564068, 4074.87179453, 4083.71794837, 4106.53846126,8.57
4087.05128171, 4086.41025607, 4082.30769196, 4074.87179453, 4081.02564068, 5652.69231068, 5490.89743854, 5588.97436183, 5359.35897673, 4084.74358940, 4077.05128171, 4090.12820478, 4086.66666632, 4114.35897408,8.57
4089.35897402, 4089.61538427, 4082.05128171, 4080.51282017, 4079.23076889, 5651.15384915, 5489.61538726, 5603.58974644, 5374.48718185, 4087.43589709, 4078.71794837, 4095.12820478, 4084.35897402, 4114.87179460,8.57
4077.69230735, 4082.17948684, 4066.79487138, 4073.84615350, 4078.33333299, 5652.30769530, 5482.43590008, 5586.15384901, 5351.41025878, 4086.92307658, 4071.15384581, 4074.61538427, 4080.89743555, 4110.76923050,8.57
4091.79487145, 4088.71794837, 4087.43589709, 4078.58974325, 4081.66666632, 5652.05128504, 5470.51282309, 5559.10256689, 5328.71795101, 4085.12820478, 4081.92307658, 4102.43589709, 4092.05128171, 4125.76923050,8.57
4080.25640991, 4083.97435863, 4071.92307658, 4073.71794837, 4081.28205094, 5658.97436197, 5461.66666924, 5559.10256689, 5336.02564332, 4086.02564068, 4075.89743555, 4079.99999966, 4088.58974325, 4112.94871767,8.57
4076.66666632, 4082.30769196, 4071.41025607, 4075.89743555, 4077.43589709, 5662.82051581, 5463.33333591, 5565.89743868, 5330.51282281, 4086.02564068, 4073.71794837, 4080.38461504, 4089.10256376, 4115.76923050,8.57
4083.71794837, 4086.53846119, 4081.92307658, 4077.94871761, 4078.71794837, 5661.79487479, 5468.20513078, 5556.92307971, 5312.30769454, 4084.74358940, 4079.10256376, 4090.64102530, 4088.84615350, 4120.76923050,8.57
4071.66666632, 4080.25640991, 4066.92307651, 4071.15384581, 4081.66666632, 5667.56410556, 5468.46154104, 5557.05128483, 5331.15384845, 4084.87179453, 4074.35897402, 4065.12820472, 4080.76923043, 4109.61538434,8.57
4086.41025607, 4086.92307658, 4084.10256376, 4083.84615350, 4083.46153812, 5660.25641325, 5453.58974616, 5560.76923355, 5346.53846384, 4087.56410222, 4077.94871761, 4089.10256376, 4089.74358940, 4118.84615357,8.57
4082.69230735, 4086.79487145, 4074.74358940, 4078.97435863, 4081.92307658, 5643.58974651, 5439.87179738, 5549.74359253, 5318.20513050, 4088.58974325, 4071.79487145, 4076.02564068, 4086.41025607, 4108.58974332,8.57
4079.23076889, 4086.28205094, 4075.51282017, 4074.74358940, 4080.89743555, 5645.89743889, 5448.07692558, 5544.35897707, 5308.07692530, 4089.87179453, 4074.48717914, 4073.97435863, 4083.46153812, 4108.07692280,8.57
4091.79487145, 4091.15384581, 4093.33333299, 4084.35897402, 4084.74358940, 5656.53846453, 5450.76923334, 5543.33333605, 5319.87179717, 4091.79487145, 4081.79487145, 4093.84615350, 4088.20512786, 4114.23076896,8.57
4079.23076889, 4083.71794837, 4074.48717914, 4075.51282017, 4085.25640991, 5653.71795171, 5430.89743840, 5526.41025912, 5302.82051505, 4090.38461504, 4072.05128171, 4073.07692273, 4080.76923043, 4103.58974332,8.57
4089.48717914, 4091.53846119, 4087.05128171, 4079.35897402, 4082.30769196, 5651.02564402, 5419.61538712, 5511.66666931, 5279.87179703, 4087.30769196, 4077.94871761, 4097.05128171, 4086.92307658, 4119.10256383,8.57
4089.74358940, 4091.66666632, 4083.58974325, 4079.48717914, 4079.61538427, 5652.82051581, 5427.05128456, 5516.92307964, 5289.61538684, 4085.89743555, 4079.23076889, 4090.12820478, 4089.87179453, 4115.38461511,8.57
4083.97435863, 4083.58974325, 4076.02564068, 4074.23076889, 4079.87179453, 5648.07692607, 5430.89743840, 5521.53846425, 5300.64102787, 4089.23076889, 4079.35897402, 4082.43589709, 4089.10256376, 4111.53846126,8.57
4095.89743555, 4090.51282017, 4091.53846119, 4082.05128171, 4082.69230735, 5643.46154138, 5427.17948968, 5516.79487451, 5294.48718171, 4092.43589709, 4085.64102530, 4104.23076896, 4093.33333299, 4123.58974332,8.57
4081.02564068, 4087.17948684, 4071.92307658, 4077.43589709, 4081.28205094, 5643.84615677, 5416.02564353, 5512.17948982, 5297.94872018, 4090.25640991, 4075.89743555, 4078.71794837, 4087.30769196, 4111.02564075,8.57
4087.94871761, 4090.25640991, 4079.87179453, 4079.99999966, 4080.89743555, 5647.43590043, 5408.97436141, 5506.15384880, 5289.74359197, 4088.97435863, 4080.76923043, 4098.33333299, 4093.71794837, 4120.25640998,8.57
4090.64102530, 4090.12820478, 4079.61538427, 4078.71794837, 4083.33333299, 5659.23077222, 5427.94872045, 5511.92307957, 5273.71795088, 4091.41025607, 4081.15384581, 4095.51282017, 4092.17948684, 4121.02564075,8.57
4075.76923043, 4083.97435863, 4067.30769189, 4072.56410222, 4083.33333299, 5674.10256709, 5450.25641283, 5534.35897707, 5292.17948941, 4092.94871761, 4074.74358940, 4074.23076889, 4087.30769196, 4113.46153819,8.57
4087.30769196, 4088.84615350, 4087.17948684, 4082.43589709, 4084.61538427, 5662.69231068, 5434.74359225, 5526.66666938, 5308.07692530, 4091.53846119, 4081.66666632, 4099.35897402, 4094.99999966, 4121.53846126,8.57
4080.25640991, 4085.38461504, 4073.71794837, 4078.58974325, 4084.87179453, 5631.41025933, 5396.53846397, 5484.10256675, 5270.89743806, 4090.38461504, 4076.15384581, 4078.07692273, 4087.94871761, 4112.56410229,8.57
4084.35897402, 4092.17948684, 4080.64102530, 4080.51282017, 4085.64102530, 5617.43590036, 5384.35897679, 5467.94872052, 5241.92307901, 4092.56410222, 4078.97435863, 4083.84615350, 4090.25640991, 4118.20512793,8.57
4088.20512786, 4092.05128171, 4088.84615350, 4083.58974325, 4085.76923043, 5615.25641318, 5390.89743833, 5478.71795129, 5256.41025857, 4093.71794837, 4078.46153812, 4086.15384581, 4090.89743555, 4112.82051255,8.57
4077.30769196, 4082.30769196, 4075.51282017, 4078.97435863, 4082.82051248, 5608.84615670, 5387.05128449, 5477.43590001, 5261.53846370, 4092.05128171, 4074.35897402, 4071.28205094, 4083.20512786, 4104.99999973,8.57
4091.15384581, 4092.94871761, 4089.35897402, 4086.53846119, 4085.76923043, 5602.05128490, 5378.20513057, 5463.84615642, 5250.64102773, 4091.66666632, 4084.35897402, 4099.87179453, 4091.66666632, 4119.10256383,8.57
4084.74358940, 4089.61538427, 4076.92307658, 4078.07692273, 4088.46153812, 5597.82051567, 5382.05128442, 5458.07692565, 5246.15384824, 4091.15384581, 4077.30769196, 4078.71794837, 4089.87179453, 4105.76923050,8.57
4087.05128171, 4086.92307658, 4085.64102530, 4079.99999966, 4085.12820478, 5606.92307978, 5394.23077167, 5463.84615642, 5244.74359183, 4092.30769196, 4079.61538427, 4082.56410222, 4091.79487145, 4112.56410229,8.57
4092.43589709, 4092.43589709, 4093.71794837, 4086.92307658, 4084.48717914, 5620.51282344, 5399.23077167, 5467.17948975, 5232.43589952, 4093.07692273, 4086.79487145, 4098.84615350, 4095.25640991, 4123.46153819,8.57
4079.87179453, 4087.05128171, 4072.30769196, 4076.53846119, 4086.53846119, 5613.58974651, 5398.97436141, 5467.82051540, 5238.71795081, 4090.64102530, 4081.41025607, 4080.89743555, 4089.74358940, 4112.69230742,8.57
4095.51282017, 4092.82051248, 4089.10256376, 4083.33333299, 4086.79487145, 5607.56410542, 5402.94872038, 5475.12820770, 5270.64102780, 4091.79487145, 4087.94871761, 4104.10256383, 4094.61538427, 4122.43589716,8.57
4087.69230735, 4090.89743555, 4079.23076889, 4082.43589709, 4083.33333299, 5611.53846439, 5400.51282295, 5472.43590001, 5250.00000209, 4094.87179453, 4081.92307658, 4088.33333299, 4091.28205094, 4119.99999973,8.57
4083.20512786, 4089.48717914, 4079.23076889, 4082.05128171, 4085.64102530, 5595.51282337, 5376.41025878, 5441.28205379, 5188.46154048, 4096.02564068, 4082.56410222, 4090.89743555, 4094.23076889, 4122.94871767,8.57
4094.48717914, 4093.97435863, 4092.30769196, 4086.15384581, 4089.74358940, 5577.69231048, 5352.69231006, 5420.12820763, 5190.00000202, 4095.12820478, 4088.46153812, 4108.07692280, 4097.30769196, 4124.35897408,8.57
4082.56410222, 4087.69230735, 4069.99999966, 4077.05128171, 4086.41025607, 5580.76923362, 5351.41025878, 5427.82051533, 5231.79487388, 4095.12820478, 4076.41025607, 4077.56410222, 4088.33333299, 4113.46153819,8.57
4091.66666632, 4092.69230735, 4081.79487145, 4083.46153812, 4086.53846119, 5577.30769509, 5349.10256640, 5420.12820763, 5213.84615587, 4095.64102530, 4079.61538427, 4095.25640991, 4096.02564068, 4127.69230742,8.57
4091.66666632, 4092.69230735, 4081.79487145, 4083.46153812, 4086.53846119, 5577.30769509, 5349.10256640, 5420.12820763, 5213.84615587, 4095.64102530, 4079.61538427, 4095.25640991, 4096.02564068, 4127.69230742,8.57
4084.74358940, 4089.23076889, 4078.84615350, 4082.05128171, 4087.82051248, 5559.23077201, 5332.69230999, 5396.53846397, 5168.20513015, 4096.02564068, 4079.74358940, 4085.38461504, 4095.76923043, 4119.48717921,8.57
4078.07692273, 4088.84615350, 4077.69230735, 4081.02564068, 4087.17948684, 5548.71795150, 5327.17948948, 5391.41025885, 5176.28205323, 4097.69230735, 4082.17948684, 4079.10256376, 4093.97435863, 4115.12820485,8.57
4090.38461504, 4096.41025607, 4093.20512786, 4088.97435863, 4088.84615350, 5550.12820791, 5340.25641255, 5409.23077167, 5211.79487381, 4098.20512786, 4091.15384581, 4098.97435863, 4097.56410222, 4123.46153819,8.57
4080.38461504, 4086.92307658, 4075.64102530, 4081.66666632, 4088.07692273, 5549.23077201, 5345.89743819, 5420.38461789, 5205.89743792, 4096.66666632, 4083.07692273, 4068.58974318, 4088.46153812, 4108.97435870,8.57
4095.12820478, 4094.10256376, 4091.28205094, 4089.99999966, 4086.92307658, 5549.23077201, 5336.02564332, 5403.58974603, 5179.23077118, 4094.99999966, 4086.92307658, 4090.64102530, 4095.51282017, 4118.97435870,8.57
4095.12820478, 4096.92307658, 4090.25640991, 4090.89743555, 4088.33333299, 5559.74359253, 5339.61538691, 5388.84615628, 5183.33333528, 4095.12820478, 4085.38461504, 4094.99999966, 4097.17948684, 4119.74358947,8.57
4084.87179453, 4090.25640991, 4080.25640991, 4084.61538427, 4089.23076889, 5561.66666945, 5349.23077153, 5392.82051526, 5177.05128400, 4096.92307658, 4084.35897402, 4081.53846119, 4091.28205094, 4117.30769203,8.57
4100.76923043, 4095.76923043, 4098.58974325, 4092.56410222, 4088.33333299, 5548.46154124, 5348.84615614, 5403.07692551, 5165.89743785, 4095.64102530, 4092.30769196, 4104.35897408, 4096.92307658, 4127.05128178,8.57
4087.82051248, 4091.92307658, 4081.15384581, 4081.66666632, 4086.15384581, 5545.76923348, 5344.48718178, 5401.28205372, 5184.10256605, 4093.46153812, 4080.89743555, 4084.35897402, 4093.84615350, 4114.74358947,8.57
4090.64102530, 4096.66666632, 4090.38461504, 4084.48717914, 4087.30769196, 5553.46154124, 5336.66666896, 5389.61538705, 5190.64102766, 4095.12820478, 4086.28205094, 4100.51282017, 4099.48717914, 4123.58974332,8.57
4096.53846119, 4098.20512786, 4092.56410222, 4088.97435863, 4089.23076889, 5542.05128477, 5327.82051512, 5390.25641269, 5191.53846356, 4095.89743555, 4091.92307658, 4100.76923043, 4099.23076889, 4123.33333306,8.57
4082.94871761, 4088.07692273, 4073.33333299, 4079.35897402, 4088.97435863, 5522.94872066, 5320.51282281, 5394.35897679, 5203.84615587, 4094.48717914, 4083.07692273, 4083.07692273, 4091.02564068, 4119.23076896,8.57
4092.43589709, 4093.46153812, 4091.66666632, 4087.05128171, 4090.25640991, 5523.97436169, 5310.25641248, 5374.23077160, 5169.23077118, 4094.74358940, 4089.61538427, 4110.64102537, 4097.94871761, 4135.89743569,8.57
4085.25640991, 4091.28205094, 4079.87179453, 4084.99999966, 4089.48717914, 5542.17948989, 5318.46154076, 5363.58974596, 5131.28205316, 4094.48717914, 4088.20512786, 4083.33333299, 4094.35897402, 4122.43589716,8.57
4088.84615350, 4092.17948684, 4081.79487145, 4085.51282017, 4087.30769196, 5542.69231041, 5335.51282281, 5377.94872032, 5147.56410444, 4094.87179453, 4090.76923043, 4086.41025607, 4095.76923043, 4120.25640998,8.57
4091.41025607, 4094.48717914, 4089.35897402, 4087.56410222, 4089.23076889, 5507.56410521, 5316.41025864, 5360.12820749, 5145.38461726, 4093.97435863, 4087.69230735, 4097.17948684, 4096.02564068, 4121.28205101,8.57
4077.17948684, 4089.35897402, 4077.43589709, 4080.76923043, 4088.84615350, 5480.76923334, 5291.66666889, 5331.92307922, 5121.28205316, 4094.23076889, 4077.56410222, 4074.74358940, 4090.12820478, 4115.64102537,8.57
4094.61538427, 4098.46153812, 4094.10256376, 4088.97435863, 4090.12820478, 5484.48718213, 5294.87179710, 5335.00000230, 5124.87179675, 4099.35897402, 4088.58974325, 4097.30769196, 4100.12820478, 4126.41025614,8.57
4088.97435863, 4094.74358940, 4081.53846119, 4087.17948684, 4092.30769196, 5489.10256675, 5294.87179710, 5337.30769460, 5130.12820701, 4099.74358940, 4085.64102530, 4078.84615350, 4096.79487145, 4111.41025614,8.57
4086.53846119, 4093.33333299, 4086.41025607, 4087.17948684, 4092.17948684, 5492.82051546, 5293.33333556, 5338.07692537, 5138.20513009, 4096.28205094, 4083.46153812, 4082.43589709, 4094.48717914, 4113.71794844,8.57
4099.23076889, 4099.35897402, 4098.84615350, 4089.10256376, 4094.10256376, 5493.33333598, 5296.02564325, 5350.25641262, 5158.84615580, 4097.43589709, 4088.84615350, 4101.28205094, 4097.30769196, 4121.92307665,8.57
4089.23076889, 4094.23076889, 4079.87179453, 4081.79487145, 4093.71794837, 5476.02564360, 5283.97436113, 5342.43589973, 5139.87179675, 4098.97435863, 4084.74358940, 4076.92307658, 4093.71794837, 4110.38461511,8.57
4099.61538427, 4101.79487145, 4097.94871761, 4092.56410222, 4091.41025607, 5466.41025899, 5285.51282274, 5336.28205358, 5118.33333514, 4097.69230735, 4091.92307658, 4102.56410229, 4102.05128171, 4125.38461511,8.57
4093.97435863, 4098.33333299, 4089.87179453, 4087.17948684, 4090.76923043, 5480.25641283, 5308.84615607, 5354.23077160, 5138.46154034, 4099.23076889, 4087.94871761, 4096.15384581, 4097.30769196, 4122.43589716,8.57
4090.38461504, 4094.74358940, 4084.61538427, 4082.69230735, 4092.30769196, 5473.84615642, 5298.84615607, 5345.64102794, 5137.82051470, 4101.15384581, 4087.69230735, 4094.74358940, 4094.35897402, 4121.28205101,8.57
4100.12820478, 4102.05128171, 4098.84615350, 4094.35897402, 4092.82051248, 5456.28205386, 5276.15384831, 5327.17948948, 5113.84615566, 4098.33333299, 4093.46153812, 4114.35897408, 4101.28205094, 4129.23076896,8.57
4084.61538427, 4094.23076889, 4077.43589709, 4086.02564068, 4088.58974325, 5460.38461796, 5275.89743806, 5326.28205358, 5107.69230950, 4096.41025607, 4083.71794837, 4086.53846119, 4094.35897402, 4122.30769203,8.57
4096.53846119, 4097.94871761, 4088.71794837, 4088.84615350, 4088.97435863, 5452.30769488, 5258.58974575, 5306.15384838, 5089.48718130, 4099.99999966, 4089.23076889, 4104.48717921, 4098.97435863, 4134.35897408,8.57
4095.51282017, 4097.56410222, 4087.30769196, 4087.56410222, 4091.92307658, 5425.89743840, 5231.15384824, 5286.28205351, 5064.74359148, 4099.61538427, 4089.87179453, 4098.97435863, 4098.33333299, 4123.84615357,8.57
4082.94871761, 4092.82051248, 4081.92307658, 4085.51282017, 4090.38461504, 5423.07692558, 5226.92307901, 5288.46154069, 5078.97436072, 4097.30769196, 4088.58974325, 4087.05128171, 4096.15384581, 4117.82051255,8.57
4094.35897402, 4100.51282017, 4097.05128171, 4098.07692273, 4091.15384581, 5427.05128456, 5220.12820722, 5277.05128421, 5084.87179661, 4099.87179453, 4093.07692273, 4105.76923050, 4101.79487145, 4128.58974332,8.57
4085.12820478, 4094.35897402, 4077.69230735, 4090.89743555, 4094.61538427, 5422.43589994, 5223.07692517, 5283.33333549, 5087.05128379, 4099.10256376, 4081.02564068, 4077.94871761, 4093.07692273, 4115.25640998,8.57
4092.30769196, 4097.94871761, 4092.05128171, 4091.79487145, 4093.97435863, 5437.69231020, 5255.76923293, 5325.89743819, 5131.02564291, 4097.82051248, 4089.48717914, 4094.35897402, 4097.94871761, 4123.71794844,8.57
4091.41025607, 4102.43589709, 4095.89743555, 4091.66666632, 4092.30769196, 5438.07692558, 5250.64102773, 5310.64102787, 5116.41025822, 4099.74358940, 4093.84615350, 4093.71794837, 4099.35897402, 4120.38461511,8.57
4085.38461504, 4095.64102530, 4082.56410222, 4087.05128171, 4093.46153812, 5405.51282295, 5212.43589945, 5259.23077139, 5038.58974526, 4099.23076889, 4085.76923043, 4077.56410222, 4094.61538427, 4114.74358947,8.57
4106.02564075, 4098.84615350, 4102.30769196, 4095.89743555, 4093.46153812, 5411.92307936, 5222.43589952, 5269.23077139, 5040.64102731, 4098.46153812, 4094.23076889, 4105.89743562, 4102.69230742, 4127.56410229,8.57
4093.58974325, 4096.28205094, 4088.84615350, 4089.10256376, 4090.38461504, 5435.38461789, 5238.71795081, 5285.25641248, 5077.94871969, 4098.71794837, 4089.23076889, 4084.10256376, 4097.43589709, 4113.84615357,8.57
4092.30769196, 4103.20512793, 4096.41025607, 4091.66666632, 4092.17948684, 5404.61538705, 5207.82051484, 5258.20513036, 5049.10256577, 4097.69230735, 4090.38461504, 4095.51282017, 4100.64102530, 4121.41025614,8.57
4097.56410222, 4102.94871767, 4100.12820478, 4094.23076889, 4095.38461504, 5373.33333570, 5181.79487374, 5240.51282260, 5025.38461706, 4096.66666632, 4094.23076889, 4104.61538434, 4102.69230742, 4126.02564075,8.57
4088.07692273, 4093.58974325, 4080.51282017, 4084.61538427, 4093.58974325, 5398.71795115, 5196.79487381, 5255.64102780, 5051.15384783, 4099.87179453, 4091.02564068, 4087.30769196, 4096.92307658, 4118.33333306,8.57
4100.38461504, 4104.74358947, 4098.84615350, 4093.07692273, 4094.74358940, 5420.76923327, 5212.56410458, 5271.15384831, 5076.15384789, 4101.41025607, 4097.30769196, 4116.41025614, 4104.23076896, 4134.10256383,8.57
4091.53846119, 4099.23076889, 4089.23076889, 4091.41025607, 4094.10256376, 5403.97436141, 5209.74359176, 5271.66666882, 5090.00000181, 4099.10256376, 4088.07692273, 4092.94871761, 4099.74358940, 4128.20512793,8.57
4094.23076889, 4095.51282017, 4088.20512786, 4091.53846119, 4092.30769196, 5379.48718185, 5190.38461740, 5250.51282260, 5063.46154020, 4099.23076889, 4088.97435863, 4092.69230735, 4100.76923043, 4129.87179460,8.57
4100.64102530, 4101.02564068, 4093.97435863, 4093.58974325, 4093.58974325, 5381.92307929, 5182.56410451, 5237.30769440, 5026.15384783, 4098.97435863, 4092.82051248, 4106.53846126, 4104.74358947, 4129.35897408,8.57
4084.23076889, 4092.82051248, 4079.61538427, 4085.25640991, 4092.69230735, 5399.87179731, 5201.28205330, 5254.48718165, 5049.74359142, 4097.43589709, 4086.41025607, 4082.82051248, 4099.74358940, 4119.48717921,8.57
4096.02564068, 4097.05128171, 4097.17948684, 4094.48717914, 4095.76923043, 5376.92307929, 5182.94871990, 5236.28205337, 5048.58974526, 4099.48717914, 4095.89743555, 4104.87179460, 4104.35897408, 4133.46153819,8.57
4089.23076889, 4096.53846119, 4084.23076889, 4091.41025607, 4097.43589709, 5339.48718178, 5133.07692496, 5187.82051484, 5002.43589904, 4100.51282017, 4091.79487145, 4086.41025607, 4095.25640991, 4123.46153819,8.57
4087.82051248, 4096.92307658, 4082.69230735, 4089.10256376, 4094.61538427, 5343.71795101, 5129.48718137, 5183.84615580, 5008.33333494, 4101.66666632, 4089.23076889, 4082.69230735, 4094.23076889, 4121.53846126,8.57
4102.17948684, 4103.20512793, 4101.15384581, 4098.20512786, 4096.92307658, 5353.58974596, 5156.28205323, 5216.02564304, 5044.74359142, 4102.82051255, 4093.71794837, 4102.94871767, 4101.15384581, 4127.05128178,8.57
4089.74358940, 4097.05128171, 4087.82051248, 4092.56410222, 4096.53846119, 5347.69230999, 5153.46154041, 5220.51282260, 5031.66666834, 4100.64102530, 4086.02564068, 4080.64102530, 4093.58974325, 4117.05128178,8.57
4099.99999966, 4101.92307658, 4103.07692280, 4098.33333299, 4093.71794837, 5355.12820749, 5145.89743778, 5197.69230971, 5000.25641186, 4099.99999966, 4094.48717914, 4103.84615357, 4100.89743555, 4132.17948691,8.57
4099.10256376, 4101.15384581, 4096.02564068, 4095.38461504, 4096.02564068, 5358.97436134, 5166.41025836, 5198.33333535, 5007.69230929, 4101.41025607, 4093.71794837, 4095.51282017, 4100.76923043, 4126.41025614,8.57
4094.74358940, 4099.48717914, 4089.74358940, 4092.69230735, 4098.33333299, 5336.41025871, 5172.30769426, 5207.94871997, 5011.79487340, 4100.38461504, 4089.48717914, 4088.84615350, 4096.66666632, 4119.10256383,8.57
4106.15384588, 4106.28205101, 4106.02564075, 4101.28205094, 4095.51282017, 5314.48718171, 5152.05128393, 5192.05128407, 4986.41025794, 4099.61538427, 4097.82051248, 4113.84615357, 4102.56410229, 4128.84615357,8.57
4092.82051248, 4099.10256376, 4084.74358940, 4090.89743555, 4092.05128171, 5316.02564325, 5146.02564291, 5184.74359169, 4981.66666820, 4100.25640991, 4091.53846119, 4089.74358940, 4098.46153812, 4120.76923050,8.57
4101.53846119, 4102.17948684, 4096.02564068, 4092.30769196, 4097.43589709, 5327.56410486, 5157.94871990, 5207.56410458, 5021.41025801, 4102.69230742, 4094.87179453, 4106.66666639, 4103.84615357, 4129.10256383,8.57
4101.28205094, 4101.79487145, 4099.10256376, 4094.23076889, 4100.51282017, 5323.20513050, 5144.87179675, 5197.56410458, 5031.53846321, 4104.87179460, 4094.87179453, 4105.64102537, 4103.58974332, 4125.51282024,8.57
4091.41025607, 4096.92307658, 4086.53846119, 4091.15384581, 4093.84615350, 5300.00000223, 5114.23077104, 5162.43589939, 5001.02564263, 4102.56410229, 4092.94871761, 4094.10256376, 4101.02564068, 4125.76923050,8.57
4102.56410229, 4104.35897408, 4098.71794837, 4097.05128171, 4094.99999966, 5296.92307915, 5116.66666848, 5167.94871990, 4988.20512974, 4103.20512793, 4101.15384581, 4116.92307665, 4107.17948691, 4137.30769210,8.57
4087.17948684, 4095.89743555, 4082.69230735, 4086.79487145, 4099.35897402, 5310.38461761, 5128.20513009, 5172.43589939, 4971.41025794, 4107.94871767, 4092.94871761, 4086.02564068, 4097.30769196, 4119.74358947,8.57
4092.17948684, 4096.92307658, 4095.12820478, 4091.41025607, 4097.56410222, 5297.56410479, 5115.00000181, 5151.53846342, 4958.71795025, 4107.17948691, 4094.61538427, 4095.51282017, 4098.97435863, 4126.79487152,8.57
4098.58974325, 4102.56410229, 4099.48717914, 4095.76923043, 4095.38461504, 5281.02564318, 5116.66666848, 5160.76923272, 4970.51282205, 4102.82051255, 4095.38461504, 4100.12820478, 4104.48717921, 4129.74358947,8.57
4087.94871761, 4096.92307658, 4082.94871761, 4088.84615350, 4097.43589709, 5289.74359197, 5136.53846342, 5183.84615580, 4982.82051435, 4103.33333306, 4091.53846119, 4078.71794837, 4100.25640991, 4119.48717921,8.57
4103.97435870, 4101.79487145, 4101.79487145, 4101.79487145, 4101.79487145, 5291.79487402, 5132.69230957, 5178.20513015, 5006.53846314, 4105.76923050, 4099.61538427, 4105.64102537, 4102.69230742, 4126.92307665,8.57
4095.38461504, 4096.79487145, 4090.64102530, 4096.79487145, 4101.02564068, 5262.43589959, 5102.69230950, 5151.53846342, 5007.56410417, 4103.20512793, 4089.99999966, 4087.94871761, 4096.79487145, 4115.38461511,8.57
4096.53846119, 4100.25640991, 4097.82051248, 4092.05128171, 4098.46153812, 5239.10256619, 5078.33333507, 5118.58974540, 4945.00000146, 4103.20512793, 4093.07692273, 4096.02564068, 4102.43589709, 4124.48717921,8.57
4106.02564075, 4106.41025614, 4105.25640998, 4097.30769196, 4097.69230735, 5251.41025857, 5089.87179668, 5128.71795060, 4928.71795018, 4104.74358947, 4098.71794837, 4106.53846126, 4104.23076896, 4128.84615357,8.57
4094.23076889, 4097.82051248, 4084.87179453, 4092.43589709, 4096.02564068, 5265.25641241, 5104.48718130, 5158.71795067, 4972.69230922, 4103.84615357, 4091.92307658, 4085.76923043, 4094.87179453, 4117.43589716,8.57
4104.99999973, 4104.87179460, 4105.12820485, 4098.20512786, 4097.05128171, 5258.46154062, 5089.74359155, 5136.28205316, 4962.94871948, 4105.25640998, 4101.53846119, 4117.82051255, 4103.97435870, 4133.46153819,8.57
4097.56410222, 4104.35897408, 4095.38461504, 4092.05128171, 4097.05128171, 5257.30769447, 5085.00000174, 5117.05128386, 4947.43589890, 4104.74358947, 4097.17948684, 4100.64102530, 4102.94871767, 4126.66666639,8.57
4096.66666632, 4101.92307658, 4091.15384581, 4093.97435863, 4096.28205094, 5277.17948934, 5107.43589925, 5145.89743778, 4970.64102717, 4103.97435870, 4093.97435863, 4096.92307658, 4103.07692280, 4125.76923050,8.57
4105.64102537, 4102.82051255, 4102.30769196, 4102.82051255, 4096.02564068, 5271.15384831, 5107.30769412, 5147.56410444, 4951.41025787, 4106.41025614, 4099.87179453, 4116.66666639, 4107.56410229, 4132.30769203,8.57
4091.92307658, 4096.66666632, 4082.56410222, 4093.20512786, 4094.23076889, 5228.97436106, 5080.38461713, 5112.05128386, 4917.69230909, 4108.20512793, 4093.84615350, 4090.89743555, 4100.51282017, 4126.15384588,8.57
4102.56410229, 4104.87179460, 4096.15384581, 4097.94871761, 4096.66666632, 5209.23077125, 5068.71795046, 5104.61538643, 4927.82051428, 4108.46153819, 4098.84615350, 4108.20512793, 4106.92307665, 4139.61538441,8.57
4097.17948684, 4100.51282017, 4091.41025607, 4095.12820478, 4098.33333299, 5229.10256619, 5075.00000174, 5121.28205316, 4943.33333480, 4106.66666639, 4094.23076889, 4099.48717914, 4102.69230742, 4127.69230742,8.57
4096.15384581, 4097.17948684, 4090.12820478, 4093.84615350, 4097.94871761, 5236.02564311, 5074.10256584, 5123.46154034, 4947.17948864, 4104.23076896, 4091.53846119, 4095.51282017, 4097.94871761, 4122.69230742,8.57
4109.23076896, 4104.35897408, 4103.20512793, 4101.79487145, 4098.97435863, 5214.10256612, 5058.33333507, 5110.00000181, 4953.33333480, 4103.84615357, 4096.53846119, 4109.23076896, 4104.48717921, 4131.66666639,8.57
4091.79487145, 4099.99999966, 4085.25640991, 4093.33333299, 4098.33333299, 5208.33333535, 5049.61538629, 5101.79487361, 4954.74359121, 4104.48717921, 4090.89743555, 4079.99999966, 4100.25640991, 4119.99999973,8.57
4100.76923043, 4108.20512793, 4103.33333306, 4099.10256376, 4098.58974325, 5220.00000209, 5058.97436072, 5109.61538643, 4947.82051428, 4106.28205101, 4100.64102530, 4103.20512793, 4103.97435870, 4127.94871767,8.57
4102.17948684, 4105.89743562, 4101.28205094, 4099.48717914, 4099.48717914, 5215.38461740, 5060.38461713, 5107.17948899, 4928.71795018, 4106.79487152, 4098.58974325, 4098.97435863, 4102.94871767, 4122.30769203,8.57
4109.23076896, 4105.51282024, 4108.33333306, 4099.35897402, 4099.35897402, 5116.28205309, 4982.69230922, 5027.69230936, 4871.79487312, 4108.20512793, 4104.35897408, 4122.05128178, 4110.12820485, 4136.92307672,8.57
4097.82051248, 4102.30769196, 4090.25640991, 4097.56410222, 4100.76923043, 5107.17948899, 4978.58974512, 5012.94871955, 4845.51282177, 4107.05128178, 4098.07692273, 4094.99999966, 4101.66666632, 4129.99999973,8.57
4099.10256376, 4101.66666632, 4094.74358940, 4096.41025607, 4098.20512786, 5122.43589932, 4990.76923237, 5023.97436065, 4849.87179613, 4104.61538434, 4098.33333299, 4098.97435863, 4104.35897408, 4136.66666646,8.57
4105.64102537, 4103.84615357, 4102.43589709, 4097.94871761, 4098.46153812, 5132.94871983, 4989.10256570, 5027.43589911, 4858.46153979, 4104.23076896, 4099.35897402, 4108.46153819, 4109.87179460, 4134.23076896,8.57
4093.46153812, 4100.25640991, 4085.89743555, 4091.79487145, 4098.97435863, 5136.92307880, 4992.69230929, 5031.41025808, 4874.35897568, 4107.30769203, 4090.12820478, 4087.05128171, 4102.69230742, 4121.66666639,8.57
4103.58974332, 4105.12820485, 4101.92307658, 4098.97435863, 4100.64102530, 5137.43589932, 5004.74359135, 5038.20512988, 4882.17948850, 4108.07692280, 4096.53846119, 4109.74358947, 4106.15384588, 4135.51282031,8.57
4095.64102530, 4099.23076889, 4091.92307658, 4095.25640991, 4099.87179453, 5115.51282232, 4998.71795032, 5035.38461706, 4877.82051414, 4106.66666639, 4094.23076889, 4089.99999966, 4101.15384581, 4124.87179460,8.57
4099.23076889, 4103.71794844, 4097.69230735, 4097.94871761, 4099.23076889, 5100.25641207, 4990.00000160, 5032.94871962, 4880.76923209, 4108.71794844, 4096.28205094, 4092.82051248, 4103.58974332, 4123.20512793,8.57
4106.53846126, 4111.41025614, 4107.69230742, 4105.12820485, 4102.30769196, 5103.58974540, 4985.76923230, 5025.64102731, 4869.61538594, 4109.10256383, 4101.02564068, 4107.94871767, 4108.07692280, 4127.43589716,8.57
4092.94871761, 4101.02564068, 4089.23076889, 4096.79487145, 4101.66666632, 5094.48718130, 4975.00000153, 5009.74359135, 4835.12820638, 4107.30769203, 4096.02564068, 4083.58974325, 4099.87179453, 4120.25640998,8.57
4110.12820485, 4105.25640998, 4109.10256383, 4104.35897408, 4098.71794837, 5084.74359148, 4981.41025794, 5020.89743750, 4842.05128331, 4108.46153819, 4103.33333306, 4110.89743562, 4108.58974332, 4134.23076896,8.57
4102.56410229, 4106.02564075, 4100.25640991, 4101.53846119, 4099.74358940, 5088.46154027, 4989.35897596, 5036.53846321, 4880.25641158, 4108.07692280, 4098.20512786, 4102.56410229, 4108.20512793, 4122.69230742,8.57
4097.17948684, 4106.28205101, 4094.61538427, 4096.53846119, 4102.56410229, 5089.35897617, 4974.74359128, 5022.30769398, 4877.69230902, 4107.17948691, 4099.23076889, 4099.87179453, 4105.12820485, 4124.23076896,8.57
4113.46153819, 4111.53846126, 4111.28205101, 4102.69230742, 4101.53846119, 5087.82051463, 4964.23077076, 5007.82051442, 4843.20512946, 4108.46153819, 4105.12820485, 4121.92307665, 4108.07692280, 4137.56410236,8.57
4097.69230735, 4100.64102530, 4090.76923043, 4094.10256376, 4098.46153812, 5087.69230950, 4964.74359128, 5001.92307853, 4824.87179613, 4109.35897408, 4093.07692273, 4097.30769196, 4105.51282024, 4123.84615357,8.57
4105.38461511, 4103.71794844, 4099.61538427, 4099.99999966, 4100.89743555, 5086.02564277, 4966.41025794, 5000.12820673, 4845.12820638, 4109.48717921, 4101.28205094, 4118.33333306, 4114.23076896, 4135.38461518,8.57
4105.38461511, 4104.35897408, 4094.87179453, 4099.99999966, 4101.41025607, 5075.64102738, 4959.10256564, 4991.66666827, 4856.28205254, 4107.69230742, 4104.48717921, 4110.64102537, 4107.94871767, 4135.25640998,8.57
4097.30769196, 4099.23076889, 4087.69230735, 4095.25640991, 4099.35897402, 5065.89743764, 4956.79487333, 4988.07692461, 4841.41025766, 4109.10256383, 4099.74358940, 4097.43589709, 4103.33333306, 4132.05128178,8.57
4107.94871767, 4104.74358947, 4107.05128178, 4104.23076896, 4102.17948684, 5077.17948892, 4973.58974512, 5006.79487340, 4844.87179613, 4111.53846126, 4102.17948684, 4120.38461511, 4110.89743562, 4139.61538441,8.57
4094.35897402, 4099.74358940, 4089.61538427, 4095.64102530, 4101.28205094, 5090.76923258, 4986.92307846, 5026.41025808, 4869.10256543, 4108.20512793, 4092.30769196, 4092.17948684, 4104.61538434, 4125.51282024,8.57
4102.69230742, 4105.51282024, 4099.48717914, 4098.71794837, 4099.48717914, 5072.43589918, 4970.89743743, 5013.07692468, 4865.00000132, 4106.66666639, 4099.35897402, 4104.99999973, 4109.35897408, 4132.17948691,8.57
4105.89743562, 4106.15384588, 4103.33333306, 4101.53846119, 4102.05128171, 5051.02564270, 4950.38461685, 4990.25641186, 4834.61538587, 4109.99999973, 4101.66666632, 4106.53846126, 4107.56410229, 4129.99999973,8.57
4094.74358940, 4101.79487145, 4092.43589709, 4098.07692273, 4101.79487145, 5057.94871969, 4952.56410403, 4993.97436058, 4832.05128331, 4111.41025614, 4095.89743555, 4090.89743555, 4100.38461504, 4124.23076896,8.57
4107.17948691, 4111.79487152, 4110.38461511, 4107.56410229, 4101.79487145, 5057.30769405, 4949.10256557, 4987.30769384, 4824.87179613, 4110.89743562, 4104.23076896, 4113.46153819, 4109.35897408, 4133.33333306,8.57
4096.79487145, 4105.64102537, 4097.56410222, 4098.58974325, 4103.20512793, 5045.51282218, 4948.07692454, 4976.79487333, 4812.05128324, 4110.51282024, 4096.92307658, 4087.56410222, 4103.84615357, 4120.51282024,8.57
4102.56410229, 4108.33333306, 4107.82051255, 4098.97435863, 4104.48717921, 5054.23077090, 4963.33333487, 4991.53846314, 4838.07692433, 4110.76923050, 4101.15384581, 4101.02564068, 4106.15384588, 4130.12820485,8.57
4108.20512793, 4113.07692280, 4110.12820485, 4102.17948684, 4103.07692280, 5058.84615559, 4958.46153999, 4989.10256570, 4838.97436023, 4110.25640998, 4105.76923050, 4112.17948691, 4110.64102537, 4128.97435870,8.57
4092.56410222, 4103.71794844, 4091.28205094, 4095.25640991, 4102.17948684, 5041.15384783, 4944.23077069, 4974.23077076, 4802.69230888, 4109.10256383, 4098.58974325, 4094.35897402, 4104.35897408, 4118.20512793,8.57
4107.17948691, 4108.07692280, 4112.17948691, 4103.46153819, 4103.33333306, 5032.69230936, 4954.87179633, 4987.30769384, 4815.25641144, 4109.99999973, 4108.58974332, 4122.94871767, 4110.25640998, 4137.17948697,8.57
4104.61538434, 4103.58974332, 4096.66666632, 4096.41025607, 4099.87179453, 5047.56410424, 4964.48718102, 4998.71795032, 4852.94871920, 4110.76923050, 4102.82051255, 4102.56410229, 4106.79487152, 4131.15384588,8.57
4102.69230742, 4101.66666632, 4095.51282017, 4097.17948684, 4100.51282017, 5041.79487347, 4940.38461685, 4970.64102717, 4825.38461664, 4109.87179460, 4098.71794837, 4106.53846126, 4110.76923050, 4133.58974332,8.57
4107.69230742, 4105.38461511, 4109.10256383, 4103.97435870, 4104.61538434, 5000.76923237, 4918.71795011, 4951.15384762, 4789.35897547, 4108.20512793, 4105.51282024, 4122.82051255, 4114.74358947, 4139.23076903,8.57
4095.76923043, 4099.61538427, 4088.84615350, 4093.97435863, 4101.28205094, 4978.07692461, 4924.74359121, 4960.89743743, 4803.71794990, 4109.10256383, 4101.02564068, 4095.25640991, 4104.87179460, 4129.99999973,8.57
4107.94871767, 4106.79487152, 4101.28205094, 4100.38461504, 4100.51282017, 4997.69230929, 4938.97436044, 4965.64102717, 4819.74359093, 4111.53846126, 4104.99999973, 4117.56410229, 4110.12820485, 4141.53846133,8.57
4100.64102530, 4104.10256383, 4094.99999966, 4100.51282017, 4102.94871767, 5013.58974519, 4942.56410403, 4963.58974512, 4813.20512939, 4110.25640998, 4098.58974325, 4105.64102537, 4109.10256383, 4130.64102537,8.57
4096.53846119, 4099.87179453, 4093.71794837, 4101.15384581, 4102.43589709, 5003.46154006, 4930.12820659, 4956.92307846, 4798.33333452, 4110.25640998, 4097.56410222, 4097.05128171, 4107.94871767, 4126.28205101,8.57
4107.43589716, 4106.15384588, 4108.71794844, 4107.05128178, 4102.30769196, 4998.33333494, 4919.61538601, 4943.97436044, 4789.48718060, 4110.25640998, 4103.58974332, 4108.84615357, 4109.74358947, 4132.56410229,8.57
4094.48717914, 4102.82051255, 4093.84615350, 4097.56410222, 4102.30769196, 4990.12820673, 4912.43589883, 4927.05128351, 4776.15384727, 4107.17948691, 4098.33333299, 4084.61538427, 4103.33333306, 4123.46153819,8.57
4105.38461511, 4109.10256383, 4108.33333306, 4102.94871767, 4103.84615357, 4966.53846307, 4902.82051421, 4917.56410396, 4764.74359086, 4109.48717921, 4106.92307665, 4110.25640998, 4108.46153819, 4134.74358947,8.57
4104.99999973, 4107.05128178, 4105.76923050, 4103.58974332, 4105.64102537, 4958.07692461, 4907.94871934, 4931.53846300, 4780.76923188, 4112.94871767, 4104.23076896, 4104.48717921, 4105.89743562, 4126.41025614,8.57
4103.71794844, 4103.71794844, 4104.10256383, 4102.30769196, 4105.64102537, 4974.74359128, 4923.07692454, 4948.07692454, 4806.28205247, 4109.87179460, 4101.79487145, 4094.87179453, 4108.07692280, 4127.17948691,8.57
4117.82051255, 4112.69230742, 4117.56410229, 4108.97435870, 4103.71794844, 4979.61538615, 4920.38461678, 4943.71795018, 4812.56410375, 4107.56410229, 4110.64102537, 4116.15384588, 4115.76923050, 4138.97435877,8.57
4102.17948684, 4105.89743562, 4092.69230735, 4099.74358940, 4099.87179453, 4963.84615538, 4910.00000139, 4939.61538608, 4805.25641144, 4110.38461511, 4103.20512793, 4093.46153812, 4104.74358947, 4122.43589716,8.57
4110.64102537, 4108.33333306, 4105.64102537, 4104.87179460, 4099.74358940, 4955.64102710, 4910.89743729, 4942.56410403, 4793.97436016, 4112.69230742, 4107.56410229, 4116.79487152, 4110.51282024, 4134.87179460,8.57
4111.15384588, 4108.84615357, 4107.05128178, 4105.38461511, 4101.92307658, 4960.51282205, 4909.48718088, 4934.23077069, 4787.43589855, 4111.41025614, 4105.51282024, 4116.02564075, 4113.20512793, 4137.82051262,8.57
4100.38461504, 4104.87179460, 4093.97435863, 4097.30769196, 4104.10256383, 4962.43589897, 4903.71795011, 4920.00000139, 4776.66666778, 4110.89743562, 4100.51282017, 4099.99999966, 4108.46153819, 4131.02564075,8.57
4113.20512793, 4114.35897408, 4110.64102537, 4104.48717921, 4106.66666639, 4952.05128351, 4898.07692447, 4910.76923216, 4751.79487284, 4110.76923050, 4108.46153819, 4126.02564075, 4114.23076896, 4137.30769210,8.57
4097.82051248, 4107.56410229, 4094.35897402, 4097.43589709, 4105.51282024, 4936.92307839, 4882.17948850, 4895.00000139, 4734.48718053, 4109.61538434, 4103.07692280, 4099.74358940, 4106.79487152, 4127.43589716,8.57
4099.74358940, 4107.30769203, 4102.30769196, 4098.71794837, 4106.15384588, 4927.30769377, 4867.30769363, 4887.56410389, 4747.82051387, 4107.69230742, 4107.69230742, 4107.43589716, 4109.48717921, 4141.02564082,8.57
4107.56410229, 4109.61538434, 4106.02564075, 4104.10256383, 4105.76923050, 4936.02564249, 4886.53846286, 4917.43589883, 4790.89743701, 4107.82051255, 4106.41025614, 4111.41025614, 4112.17948691, 4138.20512800,8.57
4095.89743555, 4103.58974332, 4092.56410222, 4100.89743555, 4102.17948684, 4950.25641172, 4906.79487319, 4937.94871941, 4801.41025760, 4113.20512793, 4096.15384581, 4091.53846119, 4106.53846126, 4124.61538434,8.57
4105.76923050, 4110.25640998, 4111.02564075, 4107.17948691, 4103.58974332, 4949.35897582, 4898.58974498, 4921.15384755, 4776.66666778, 4115.89743562, 4103.58974332, 4114.74358947, 4112.43589716, 4134.48717921,8.57
4098.71794837, 4106.28205101, 4098.84615350, 4100.12820478, 4105.25640998, 4938.97436044, 4891.53846293, 4912.94871934, 4776.28205240, 4111.15384588, 4098.33333299, 4093.84615350, 4105.38461511, 4123.20512793,8.57
4098.71794837, 4106.28205101, 4098.84615350, 4100.12820478, 4105.25640998, 4938.97436044, 4891.53846293, 4912.94871934, 4776.28205240, 4111.15384588, 4098.33333299, 4093.84615350, 4105.38461511, 4123.20512793,8.57
4102.17948684, 4106.66666639, 4104.10256383, 4103.84615357, 4105.89743562, 4921.79487319, 4885.51282184, 4909.23077062, 4770.76923188, 4108.20512793, 4098.84615350, 4100.64102530, 4103.58974332, 4127.69230742,8.57
4109.61538434, 4109.99999973, 4109.87179460, 4109.23076896, 4107.69230742, 4911.15384755, 4875.00000132, 4895.25641165, 4741.66666771, 4109.74358947, 4103.07692280, 4110.51282024, 4108.46153819, 4129.35897408,8.57
4098.71794837, 4103.97435870, 4092.94871761, 4101.53846119, 4106.66666639, 4916.28205268, 4871.53846286, 4885.38461671, 4740.89743694, 4111.79487152, 4097.69230735, 4089.74358940, 4108.46153819, 4120.51282024,8.57
4112.69230742, 4111.66666639, 4113.84615357, 4110.76923050, 4105.64102537, 4916.92307832, 4873.07692440, 4887.05128338, 4763.20512932, 4113.97435870, 4107.05128178, 4117.17948691, 4115.38461511, 4137.43589723,8.57
4106.92307665, 4107.56410229, 4102.82051255, 4103.71794844, 4103.97435870, 4894.74359114, 4866.02564235, 4883.84615517, 4746.92307797, 4111.92307665, 4105.89743562, 4099.99999966, 4106.79487152, 4129.61538434,8.57
4107.94871767, 4106.41025614, 4102.30769196, 4101.02564068, 4103.33333306, 4892.05128344, 4855.00000125, 4871.66666799, 4726.66666771, 4108.46153819, 4106.66666639, 4103.84615357, 4108.58974332, 4130.25640998,8.57
4116.92307665, 4111.92307665, 4114.87179460, 4111.41025614, 4105.51282024, 4918.58974498, 4860.25641158, 4877.94871927, 4743.71794976, 4111.41025614, 4109.61538434, 4124.48717921, 4117.30769203, 4138.71794851,8.57
4099.74358940, 4103.58974332, 4092.17948684, 4101.66666632, 4104.10256383, 4916.79487319, 4870.00000132, 4893.33333473, 4751.53846258, 4110.76923050, 4101.28205094, 4097.56410222, 4109.61538434, 4131.15384588,8.57
4111.53846126, 4109.74358947, 4107.94871767, 4105.64102537, 4103.71794844, 4898.71795011, 4868.07692440, 4890.38461678, 4735.00000105, 4108.46153819, 4107.94871767, 4121.53846126, 4113.71794844, 4142.69230749,8.57
4106.53846126, 4108.46153819, 4104.74358947, 4104.48717921, 4104.35897408, 4899.10256550, 4858.97436030, 4872.69230902, 4722.30769328, 4111.15384588, 4103.46153819, 4110.51282024, 4110.89743562, 4135.25640998,8.57
4099.48717914, 4104.23076896, 4096.41025607, 4099.74358940, 4101.28205094, 4897.30769370, 4854.48718074, 4860.89743722, 4721.79487277, 4114.35897408, 4100.25640991, 4100.76923043, 4109.48717921, 4134.99999973,8.57
4113.71794844, 4110.12820485, 4110.12820485, 4106.92307665, 4101.53846119, 4886.28205261, 4855.51282177, 4861.02564235, 4729.74359079, 4112.56410229, 4107.30769203, 4121.92307665, 4114.48717921, 4139.99999980,8.57
4098.97435863, 4104.10256383, 4095.25640991, 4101.92307658, 4103.84615357, 4892.05128344, 4854.10256536, 4865.38461671, 4742.94871899, 4109.99999973, 4100.38461504, 4092.43589709, 4105.89743562, 4123.97435870,8.57
4104.35897408, 4108.33333306, 4108.84615357, 4108.07692280, 4106.02564075, 4895.38461678, 4848.07692433, 4864.35897568, 4736.53846258, 4113.07692280, 4107.17948691, 4108.46153819, 4111.02564075, 4137.43589723,8.57
4104.74358947, 4108.07692280, 4105.38461511, 4107.17948691, 4107.94871767, 4879.87179620, 4841.66666792, 4855.89743715, 4717.05128303, 4113.58974332, 4103.58974332, 4106.79487152, 4110.12820485, 4134.10256383,8.57
4099.23076889, 4106.92307665, 4098.07692273, 4103.20512793, 4106.92307665, 4872.69230902, 4843.07692433, 4853.84615510, 4716.79487277, 4108.84615357, 4097.17948684, 4094.99999966, 4104.99999973, 4125.38461511,8.57
4114.87179460, 4118.71794844, 4118.33333306, 4111.41025614, 4106.02564075, 4869.48718081, 4840.00000125, 4855.00000125, 4720.64102662, 4107.17948691, 4108.84615357, 4119.87179460, 4112.56410229, 4135.51282031,8.57
4100.25640991, 4109.61538434, 4096.92307658, 4101.79487145, 4105.12820485, 4868.07692440, 4841.02564228, 4857.17948843, 4718.07692405, 4110.76923050, 4103.07692280, 4093.33333299, 4109.87179460, 4122.43589716,8.57
4106.15384588, 4108.46153819, 4106.28205101, 4106.92307665, 4106.02564075, 4878.07692440, 4855.38461664, 4866.41025773, 4725.51282149, 4114.10256383, 4106.66666639, 4106.28205101, 4115.12820485, 4133.84615357,8.57
4113.84615357, 4113.46153819, 4113.97435870, 4110.38461511, 4105.25640998, 4872.94871927, 4845.25641151, 4855.64102690, 4722.05128303, 4113.84615357, 4110.12820485, 4112.56410229, 4113.07692280, 4138.20512800,8.57
4103.33333306, 4107.05128178, 4095.38461504, 4098.46153812, 4101.79487145, 4854.10256536, 4831.28205254, 4845.64102690, 4719.48718046, 4113.71794844, 4104.61538434, 4098.20512786, 4108.46153819, 4127.17948691,8.57
4117.30769203, 4112.69230742, 4113.84615357, 4106.92307665, 4106.02564075, 4851.28205254, 4835.89743715, 4849.87179613, 4733.71794976, 4114.48717921, 4110.64102537, 4130.89743562, 4119.48717921, 4140.89743569,8.57
4104.87179460, 4106.53846126, 4101.53846119, 4103.33333306, 4108.84615357, 4862.56410389, 4839.87179613, 4850.00000125, 4734.35897541, 4113.20512793, 4102.94871767, 4108.71794844, 4108.46153819, 4134.10256383,8.57
4105.64102537, 4106.66666639, 4102.17948684, 4102.43589709, 4104.61538434, 4862.17948850, 4842.82051408, 4851.92307818, 4717.82051380, 4111.28205101, 4103.58974332, 4110.76923050, 4109.10256383, 4136.02564082,8.57
4113.58974332, 4112.94871767, 4108.84615357, 4108.84615357, 4105.25640998, 4842.82051408, 4834.35897561, 4837.69230895, 4691.28205219, 4110.25640998, 4105.12820485, 4119.87179460, 4119.61538434, 4138.20512800,8.57
4097.82051248, 4105.25640998, 4092.30769196, 4102.30769196, 4108.97435870, 4822.56410375, 4811.02564221, 4811.92307811, 4673.71794963, 4112.05128178, 4098.07692273, 4094.74358940, 4110.64102537, 4132.17948691,8.57
4108.33333306, 4110.51282024, 4109.74358947, 4106.92307665, 4110.25640998, 4822.69230888, 4812.94871913, 4818.20512939, 4690.25641116, 4115.12820485, 4107.17948691, 4119.10256383, 4111.92307665, 4143.84615364,8.57
4102.30769196, 4108.58974332, 4098.07692273, 4102.94871767, 4108.20512793, 4837.94871920, 4832.69230895, 4839.87179613, 4712.69230867, 4113.20512793, 4101.15384581, 4101.92307658, 4112.82051255, 4130.38461511,8.57
4102.43589709, 4107.69230742, 4100.38461504, 4107.30769203, 4107.17948691, 4832.30769356, 4820.00000119, 4832.43589869, 4704.23077021, 4110.89743562, 4101.66666632, 4099.35897402, 4114.48717921, 4131.41025614,8.57
4112.30769203, 4111.79487152, 4114.23076896, 4114.74358947, 4109.74358947, 4813.84615503, 4804.74359093, 4817.43589862, 4695.51282149, 4113.33333306, 4107.69230742, 4114.99999973, 4111.66666639, 4134.99999973,8.57
4100.38461504, 4107.05128178, 4093.71794837, 4103.58974332, 4109.87179460, 4821.92307811, 4820.89743708, 4825.89743715, 4712.30769328, 4116.28205101, 4099.48717914, 4092.43589709, 4104.23076896, 4122.69230742,8.57
4114.35897408, 4114.35897408, 4111.66666639, 4110.38461511, 4107.94871767, 4828.20512946, 4825.38461664, 4826.66666792, 4702.82051380, 4114.48717921, 4108.71794844, 4114.74358947, 4111.92307665, 4135.38461518,8.57
4110.12820485, 4110.51282024, 4106.92307665, 4106.79487152, 4106.41025614, 4813.58974477, 4811.41025760, 4818.58974477, 4678.07692398, 4109.87179460, 4107.69230742, 4104.23076896, 4107.69230742, 4129.35897408,8.57
4104.74358947, 4107.56410229, 4103.20512793, 4102.82051255, 4106.41025614, 4809.87179606, 4807.30769349, 4808.84615503, 4682.17948809, 4110.38461511, 4104.87179460, 4103.97435870, 4108.33333306, 4132.69230742,8.57
4117.43589716, 4115.76923050, 4119.23076896, 4113.07692280, 4106.79487152, 4813.20512939, 4806.66666785, 4791.66666778, 4676.92307783, 4112.30769203, 4110.89743562, 4123.07692280, 4114.87179460, 4140.89743569,8.57
4105.64102537, 4108.07692280, 4097.94871761, 4102.82051255, 4106.15384588, 4798.46153965, 4805.64102683, 4791.92307811, 4659.87179571, 4111.41025614, 4104.61538434, 4095.25640991, 4108.33333306, 4127.05128178,8.57
4113.71794844, 4111.53846126, 4107.94871767, 4104.99999973, 4107.69230742, 4777.94871906, 4798.97436016, 4799.35897554, 4661.53846245, 4114.23076896, 4110.12820485, 4119.61538434, 4116.41025614, 4138.71794851,8.57
4108.46153819, 4111.92307665, 4106.28205101, 4108.84615357, 4107.17948691, 4772.82051394, 4780.64102676, 4781.79487291, 4662.94871886, 4116.28205101, 4108.46153819, 4116.79487152, 4114.61538434, 4135.51282031,8.57
4102.94871767, 4107.94871767, 4099.61538427, 4105.76923050, 4105.76923050, 4782.30769342, 4784.48718060, 4781.28205240, 4671.28205219, 4113.07692280, 4107.69230742, 4106.15384588, 4110.64102537, 4134.48717921,8.57
4118.33333306, 4113.20512793, 4116.02564075, 4108.58974332, 4108.33333306, 4791.28205240, 4810.64102683, 4814.35897554, 4695.89743687, 4111.92307665, 4112.94871767, 4128.20512793, 4118.46153819, 4145.64102544,8.57
4102.30769196, 4106.53846126, 4098.07692273, 4099.48717914, 4106.92307665, 4775.89743701, 4806.02564221, 4810.38461657, 4692.69230860, 4113.84615357, 4102.17948684, 4099.74358940, 4112.17948691, 4132.94871767,8.57
4106.53846126, 4112.43589716, 4106.28205101, 4105.76923050, 4105.64102537, 4759.48718060, 4787.94871906, 4785.38461650, 4679.74359065, 4114.61538434, 4107.17948691, 4113.97435870, 4114.74358947, 4140.64102544,8.57
4109.10256383, 4114.74358947, 4103.71794844, 4109.61538434, 4109.10256383, 4767.43589855, 4792.43589862, 4788.46153958, 4683.07692398, 4114.48717921, 4108.71794844, 4115.38461511, 4112.94871767, 4135.89743569,8.57
4099.61538427, 4107.69230742, 4094.23076889, 4103.97435870, 4108.33333306, 4774.35897547, 4785.76923188, 4783.97436009, 4660.51282142, 4115.25640998, 4103.97435870, 4096.79487145, 4109.61538434, 4129.23076896,8.57
4113.71794844, 4116.02564075, 4115.25640998, 4111.92307665, 4108.20512793, 4764.74359086, 4766.79487291, 4766.92307804, 4632.94871879, 4114.99999973, 4110.64102537, 4116.66666639, 4119.61538434, 4140.76923056,8.57
4103.46153819, 4113.07692280, 4098.97435863, 4106.92307665, 4108.97435870, 4745.89743694, 4768.07692419, 4764.87179599, 4643.33333417, 4113.07692280, 4103.58974332, 4093.97435863, 4111.79487152, 4125.76923050,8.57
4107.94871767, 4113.46153819, 4108.97435870, 4111.79487152, 4108.58974332, 4737.94871899, 4778.71794983, 4773.58974471, 4665.76923168, 4114.74358947, 4109.48717921, 4107.30769203, 4109.61538434, 4130.89743562,8.57
4113.97435870, 4115.89743562, 4116.92307665, 4113.46153819, 4108.20512793, 4752.17948823, 4790.64102676, 4791.92307811, 4685.51282142, 4116.92307665, 4111.66666639, 4110.38461511, 4112.17948691, 4132.05128178,8.57
4102.05128171, 4110.25640998, 4098.97435863, 4100.38461504, 4108.46153819, 4756.92307797, 4792.69230888, 4804.74359093, 4681.41025732, 4115.51282024, 4101.15384581, 4091.28205094, 4110.38461511, 4124.87179460,8.57
4116.53846126, 4114.35897408, 4116.28205101, 4109.23076896, 4109.74358947, 4744.87179592, 4778.46153958, 4789.74359086, 4657.69230853, 4115.51282024, 4109.61538434, 4125.25640998, 4116.66666639, 4141.92307672,8.57
4110.12820485, 4109.10256383, 4106.15384588, 4107.17948691, 4108.07692280, 4749.10256515, 4778.97436009, 4784.74359086, 4675.38461629, 4116.41025614, 4107.69230742, 4108.07692280, 4109.61538434, 4132.94871767,8.57
4108.84615357, 4111.92307665, 4107.94871767, 4104.99999973, 4107.30769203, 4752.94871899, 4780.64102676, 4786.66666778, 4691.15384706, 4115.38461511, 4108.07692280, 4112.05128178, 4113.33333306, 4134.23076896,8.57
4116.15384588, 4119.10256383, 4114.61538434, 4110.89743562, 4109.35897408, 4750.12820617, 4769.74359086, 4776.28205240, 4668.20512911, 4112.82051255, 4112.17948691, 4126.79487152, 4118.84615357, 4138.07692287,8.57
4101.79487145, 4110.76923050, 4094.74358940, 4105.12820485, 4107.94871767, 4761.28205240, 4774.48718060, 4778.71794983, 4670.76923168, 4112.30769203, 4105.89743562, 4101.92307658, 4112.05128178, 4132.82051255,8.57
4113.20512793, 4116.66666639, 4113.07692280, 4110.12820485, 4108.20512793, 4755.12820617, 4772.43589855, 4771.15384727, 4671.92307783, 4114.48717921, 4114.61538434, 4125.25640998, 4121.02564075, 4149.10256390,8.57
4106.02564075, 4113.97435870, 4104.35897408, 4103.97435870, 4108.58974332, 4733.84615489, 4751.92307797, 4752.05128310, 4631.15384699, 4116.02564075, 4109.35897408, 4108.71794844, 4115.64102537, 4136.66666646,8.57
4102.94871767, 4110.12820485, 4100.76923043, 4103.97435870, 4108.07692280, 4741.28205233, 4753.07692412, 4759.87179599, 4627.69230853, 4116.92307665, 4104.48717921, 4104.48717921, 4110.89743562, 4133.97435870,8.57
4116.15384588, 4114.61538434, 4115.12820485, 4113.58974332, 4109.10256383, 4748.33333438, 4770.25641137, 4787.17948830, 4676.15384706, 4116.79487152, 4110.38461511, 4123.07692280, 4117.56410229, 4144.74358954,8.57
4100.38461504, 4107.30769203, 4097.05128171, 4104.74358947, 4108.46153819, 4728.97436002, 4768.07692419, 4788.97436009, 4674.87179578, 4116.28205101, 4104.61538434, 4092.82051248, 4111.53846126, 4134.74358947,8.57
4108.07692280, 4113.71794844, 4111.79487152, 4109.99999973, 4109.99999973, 4723.20512918, 4757.82051387, 4773.33333445, 4649.61538545, 4117.30769203, 4109.74358947, 4111.41025614, 4115.25640998, 4140.38461518,8.57
4107.56410229, 4113.07692280, 4106.02564075, 4109.61538434, 4111.79487152, 4730.38461643, 4753.71794976, 4770.51282163, 4675.76923168, 4116.66666639, 4106.41025614, 4106.15384588, 4114.23076896, 4130.38461511,8.57
4104.74358947, 4108.97435870, 4103.07692280, 4106.28205101, 4111.02564075, 4730.38461643, 4750.64102669, 4768.20512932, 4684.74359065, 4114.74358947, 4107.43589716, 4100.25640991, 4113.58974332, 4131.02564075,8.57
4119.61538434, 4116.53846126, 4125.25640998, 4112.82051255, 4111.15384588, 4734.74359079, 4749.10256515, 4760.25641137, 4645.76923161, 4113.58974332, 4117.17948691, 4124.48717921, 4116.66666639, 4141.53846133,8.57
4106.02564075, 4109.99999973, 4101.66666632, 4103.20512793, 4108.46153819, 4729.61538566, 4739.87179592, 4746.02564207, 4623.58974436, 4113.07692280, 4104.87179460, 4097.69230735, 4107.82051255, 4122.17948691,8.57
4112.82051255, 4112.69230742, 4110.38461511, 4109.35897408, 4109.35897408, 4710.64102662, 4731.53846258, 4732.43589848, 4615.00000077, 4116.41025614, 4109.74358947, 4118.20512793, 4117.30769203, 4133.84615357,8.57
4114.74358947, 4112.56410229, 4115.38461511, 4112.30769203, 4112.30769203, 4719.74359072, 4746.92307797, 4744.10256515, 4604.87179564, 4118.58974332, 4114.61538434, 4122.30769203, 4120.12820485, 4139.35897415,8.57
4107.69230742, 4109.99999973, 4103.84615357, 4105.89743562, 4108.84615357, 4743.97436002, 4767.82051394, 4778.46153958, 4644.74359058, 4116.66666639, 4109.74358947, 4106.66666639, 4111.92307665, 4134.35897408,8.57
4120.89743562, 4120.25640998, 4117.69230742, 4113.46153819, 4107.56410229, 4723.97435995, 4749.74359079, 4774.74359086, 4676.15384706, 4114.99999973, 4114.35897408, 4130.25640998, 4117.17948691, 4145.38461518,8.57
4106.92307665, 4110.64102537, 4100.89743555, 4105.76923050, 4111.02564075, 4693.33333431, 4720.89743687, 4739.61538566, 4640.89743674, 4113.58974332, 4107.82051255, 4105.64102537, 4116.02564075, 4134.99999973,8.57
4112.17948691, 4108.58974332, 4109.48717921, 4106.79487152, 4111.92307665, 4693.33333431, 4722.30769328, 4735.64102669, 4624.61538538, 4113.97435870, 4114.87179460, 4118.33333306, 4121.02564075, 4143.20512800,8.57
4114.23076896, 4114.99999973, 4112.43589716, 4109.87179460, 4108.84615357, 4687.43589834, 4714.87179585, 4728.71794976, 4630.25641109, 4115.25640998, 4115.76923050, 4121.79487152, 4119.61538434, 4142.05128185,8.57
4098.84615350, 4110.89743562, 4095.25640991, 4103.20512793, 4107.43589716, 4679.10256501, 4709.23077021, 4718.33333431, 4608.33333410, 4114.99999973, 4103.71794844, 4096.66666632, 4112.94871767, 4132.56410229,8.57
4114.35897408, 4114.35897408, 4115.38461511, 4111.66666639, 4110.38461511, 4688.33333424, 4731.28205233, 4743.20512925, 4617.17948795, 4114.23076896, 4112.30769203, 4121.92307665, 4122.30769203, 4145.38461518,8.57
4105.38461511, 4108.58974332, 4104.10256383, 4106.53846126, 4110.38461511, 4686.79487270, 4732.17948823, 4756.41025746, 4658.58974443, 4115.12820485, 4109.74358947, 4103.33333306, 4116.02564075, 4135.12820485,8.57
4104.99999973, 4111.66666639, 4106.92307665, 4107.82051255, 4113.20512793, 4675.76923168, 4709.35897534, 4734.61538566, 4648.07692391, 4116.66666639, 4110.12820485, 4108.33333306, 4114.35897408, 4135.64102544,8.57
4113.71794844, 4117.82051255, 4114.35897408, 4112.69230742, 4115.38461511, 4680.89743680, 4712.43589841, 4723.71794969, 4603.84615461, 4114.10256383, 4112.56410229, 4118.33333306, 4118.71794844, 4134.99999973,8.57
4102.30769196, 4110.12820485, 4098.20512786, 4106.53846126, 4109.48717921, 4692.69230860, 4733.33333438, 4743.33333438, 4617.56410333, 4111.66666639, 4105.12820485, 4094.99999966, 4113.97435870, 4125.76923050,8.57
4116.15384588, 4115.76923050, 4118.58974332, 4116.15384588, 4108.84615357, 4695.12820610, 4735.12820617, 4753.71794976, 4660.00000084, 4113.84615357, 4115.89743562, 4121.15384588, 4118.84615357, 4139.35897415,8.57
4109.35897408, 4113.58974332, 4111.41025614, 4109.23076896, 4111.41025614, 4691.15384706, 4722.56410354, 4731.15384720, 4639.10256494, 4115.51282024, 4113.71794844, 4106.66666639, 4112.94871767, 4131.41025614,8.57
4108.46153819, 4114.61538434, 4110.38461511, 4108.20512793, 4109.99999973, 4677.56410347, 4712.82051380, 4713.84615482, 4594.35897506, 4114.74358947, 4108.84615357, 4106.66666639, 4114.10256383, 4134.61538434,8.57
4122.30769203, 4118.97435870, 4118.58974332, 4117.69230742, 4108.46153819, 4664.61538552, 4713.97435995, 4731.28205233, 4611.53846231, 4113.97435870, 4113.33333306, 4122.69230742, 4120.12820485, 4141.02564082,8.57
4108.97435870, 4109.61538434, 4099.48717914, 4107.05128178, 4105.76923050, 4662.69230860, 4707.30769328, 4733.07692412, 4636.02564186, 4114.74358947, 4108.20512793, 4099.87179453, 4112.94871767, 4129.48717921,8.57
4116.15384588, 4119.10256383, 4118.46153819, 4111.79487152, 4106.66666639, 4659.74359058, 4678.97435988, 4695.00000098, 4600.64102641, 4116.41025614, 4114.48717921, 4126.66666639, 4120.38461511, 4144.61538441,8.57
4111.15384588, 4118.07692280, 4110.51282024, 4112.05128178, 4110.64102537, 4650.64102648, 4671.66666757, 4686.41025732, 4588.71794942, 4115.38461511, 4109.74358947, 4118.07692280, 4119.23076896, 4139.74358954,8.57
4107.82051255, 4109.48717921, 4101.41025607, 4108.46153819, 4109.48717921, 4642.56410340, 4691.53846245, 4708.97435995, 4623.07692385, 4115.12820485, 4107.30769203, 4111.53846126, 4117.82051255, 4138.07692287,8.57
4117.94871767, 4114.99999973, 4116.92307665, 4112.43589716, 4107.82051255, 4646.15384699, 4693.46153944, 4704.48718046, 4608.71794949, 4116.53846126, 4114.74358947, 4130.25640998, 4122.82051255, 4147.56410236,8.57
4098.97435863, 4109.23076896, 4097.05128171, 4101.92307658, 4110.76923050, 4649.23077007, 4681.66666757, 4692.05128296, 4575.38461608, 4115.64102537, 4105.51282024, 4099.61538427, 4113.33333306, 4133.71794844,8.57
4108.33333306, 4113.33333306, 4108.58974332, 4107.17948691, 4112.56410229, 4654.23077007, 4692.05128296, 4708.84615482, 4595.89743667, 4115.38461511, 4111.41025614, 4120.25640998, 4118.58974332, 4144.35897415,8.57
4114.10256383, 4114.74358947, 4110.89743562, 4111.41025614, 4108.33333306, 4661.41025732, 4700.51282149, 4711.15384713, 4603.20512897, 4117.43589716, 4113.07692280, 4117.82051255, 4118.46153819, 4140.51282031,8.57
4105.76923050, 4111.79487152, 4102.30769196, 4105.12820485, 4107.43589716, 4639.35897520, 4668.71794963, 4671.15384706, 4561.02564165, 4117.69230742, 4108.20512793, 4099.61538427, 4113.33333306, 4132.43589716,8.57
4115.25640998, 4119.48717921, 4118.58974332, 4110.12820485, 4114.10256383, 4604.10256487, 4635.00000084, 4647.56410340, 4566.15384685, 4115.64102537, 4115.89743562, 4122.05128178, 4119.23076896, 4142.56410236,8.57
4103.71794844, 4113.20512793, 4103.46153819, 4106.66666639, 4114.35897408, 4600.12820590, 4633.97435981, 4654.74359058, 4596.66666743, 4113.58974332, 4108.84615357, 4096.41025607, 4112.05128178, 4128.33333306,8.57
4112.56410229, 4114.74358947, 4114.99999973, 4113.58974332, 4110.76923050, 4622.17948795, 4646.02564186, 4657.56410340, 4565.38461608, 4115.25640998, 4114.10256383, 4111.15384588, 4115.89743562, 4134.10256383,8.57
4115.12820485, 4115.38461511, 4117.43589716, 4116.15384588, 4111.28205101, 4629.10256494, 4653.20512904, 4663.97435988, 4550.64102627, 4117.43589716, 4118.33333306, 4119.35897408, 4117.30769203, 4134.99999973,8.57
4105.89743562, 4110.38461511, 4106.02564075, 4110.51282024, 4112.43589716, 4619.48718026, 4654.23077007, 4675.12820604, 4587.94871865, 4117.17948691, 4110.51282024, 4102.30769196, 4111.66666639, 4130.12820485,8.57
4123.33333306, 4118.58974332, 4125.64102537, 4118.07692280, 4112.30769203, 4613.58974436, 4657.69230853, 4674.74359065, 4579.74359044, 4117.82051255, 4116.66666639, 4127.94871767, 4119.10256383, 4144.35897415,8.57
4110.89743562, 4111.02564075, 4104.35897408, 4106.92307665, 4109.48717921, 4613.33333410, 4664.48718039, 4672.05128296, 4547.30769294, 4118.46153819, 4110.64102537, 4108.07692280, 4115.12820485, 4132.69230742,8.57
4112.17948691, 4111.15384588, 4109.35897408, 4108.97435870, 4109.87179460, 4604.74359051, 4657.05128289, 4663.07692398, 4559.87179550, 4118.58974332, 4112.82051255, 4117.82051255, 4116.79487152, 4136.53846133,8.57
4119.23076896, 4119.48717921, 4120.76923050, 4116.41025614, 4111.02564075, 4596.28205205, 4644.10256494, 4644.48718032, 4562.82051352, 4117.30769203, 4117.56410229, 4127.17948691, 4119.61538434, 4140.38461518,8.57
4102.82051255, 4111.79487152, 4098.07692273, 4104.23076896, 4109.10256383, 4607.05128282, 4648.20512904, 4645.00000084, 4542.17948781, 4115.25640998, 4109.48717921, 4101.15384581, 4115.38461511, 4134.74358947,8.57
4115.64102537, 4114.48717921, 4114.48717921, 4111.15384588, 4109.99999973, 4611.79487256, 4651.02564186, 4657.30769315, 4551.53846217, 4115.25640998, 4114.61538434, 4127.05128178, 4122.05128178, 4149.35897415,8.57
4109.87179460, 4111.15384588, 4108.58974332, 4109.87179460, 4109.74358947, 4589.74359044, 4628.46153930, 4642.56410340, 4561.66666730, 4115.38461511, 4109.35897408, 4108.33333306, 4115.76923050, 4136.53846133,8.57
4107.30769203, 4112.82051255, 4107.56410229, 4108.46153819, 4110.25640998, 4578.07692378, 4612.05128282, 4630.51282135, 4562.94871865, 4116.41025614, 4109.74358947, 4105.38461511, 4116.53846126, 4137.05128185,8.57
4113.46153819, 4117.82051255, 4114.99999973, 4112.94871767, 4113.33333306, 4595.76923154, 4625.76923154, 4657.82051366, 4590.76923147, 4117.17948691, 4114.74358947, 4123.20512793, 4122.43589716, 4142.05128185,8.57
4098.71794837, 4108.46153819, 4099.48717914, 4105.25640998, 4112.94871767, 4597.94871872, 4632.82051366, 4663.46153937, 4587.56410326, 4115.12820485, 4107.82051255, 4100.64102530, 4114.35897408, 4129.87179460,8.57
4114.10256383, 4115.25640998, 4120.76923050, 4113.07692280, 4114.10256383, 4582.30769301, 4627.30769308, 4637.05128289, 4539.87179550, 4113.71794844, 4115.89743562, 4119.99999973, 4119.23076896, 4142.30769210,8.57
4111.66666639, 4115.12820485, 4110.89743562, 4110.76923050, 4116.02564075, 4590.25641096, 4641.02564186, 4645.76923161, 4528.84615441, 4114.74358947, 4111.66666639, 4105.64102537, 4115.89743562, 4132.17948691,8.57
4106.02564075, 4113.07692280, 4106.79487152, 4109.99999973, 4113.97435870, 4602.05128282, 4658.07692391, 4664.74359065, 4548.71794935, 4117.05128178, 4109.74358947, 4104.87179460, 4113.97435870, 4131.28205101,8.57
4120.12820485, 4117.94871767, 4126.53846126, 4118.84615357, 4113.46153819, 4599.87179564, 4658.20512904, 4661.15384706, 4554.61538524, 4117.05128178, 4120.64102537, 4128.07692280, 4119.35897408, 4140.89743569,8.57
4106.28205101, 4111.53846126, 4104.48717921, 4111.41025614, 4112.30769203, 4602.82051359, 4658.46153930, 4670.76923168, 4573.20512890, 4115.25640998, 4112.82051255, 4099.61538427, 4112.05128178, 4127.56410229,8.57
4113.58974332, 4120.12820485, 4114.74358947, 4118.71794844, 4112.56410229, 4599.74359051, 4644.74359058, 4665.00000091, 4587.94871865, 4116.02564075, 4118.07692280, 4121.66666639, 4117.82051255, 4139.87179467,8.57
4116.02564075, 4118.71794844, 4115.25640998, 4114.99999973, 4113.97435870, 4581.41025711, 4615.76923154, 4629.48718032, 4562.69230839, 4117.17948691, 4118.71794844, 4121.53846126, 4118.20512793, 4138.84615364,8.57
4109.74358947, 4110.64102537, 4106.15384588, 4106.66666639, 4110.76923050, 4580.76923147, 4612.94871872, 4635.25641109, 4559.35897499, 4117.17948691, 4112.56410229, 4110.25640998, 4115.64102537, 4136.41025621,8.57
4119.61538434, 4119.23076896, 4117.17948691, 4115.89743562, 4109.35897408, 4587.69230839, 4616.79487256, 4642.56410340, 4558.07692371, 4117.56410229, 4118.84615357, 4131.41025614, 4122.43589716, 4146.79487159,8.57
4106.92307665, 4113.71794844, 4097.69230735, 4108.20512793, 4109.61538434, 4570.38461608, 4598.33333410, 4600.00000077, 4510.38461594, 4117.17948691, 4111.02564075, 4106.15384588, 4117.30769203, 4135.51282031,8.57
4114.99999973, 4112.94871767, 4109.23076896, 4109.61538434, 4111.92307665, 4559.10256473, 4600.00000077, 4595.64102641, 4503.33333389, 4116.79487152, 4114.23076896, 4122.82051255, 4123.07692280, 4144.23076903,8.57
4116.92307665, 4112.56410229, 4109.74358947, 4111.79487152, 4114.10256383, 4569.61538531, 4626.53846231, 4645.64102648, 4554.48718012, 4117.69230742, 4115.76923050, 4122.56410229, 4120.76923050, 4140.89743569,8.57
4106.66666639, 4108.97435870, 4099.10256376, 4106.41025614, 4111.15384588, 4571.15384685, 4625.51282128, 4652.05128289, 4555.89743653, 4118.71794844, 4111.15384588, 4102.56410229, 4113.97435870, 4134.74358947,8.57
4118.07692280, 4117.30769203, 4119.99999973, 4115.25640998, 4108.84615357, 4562.82051352, 4608.58974436, 4619.87179564, 4521.41025697, 4117.69230742, 4116.41025614, 4124.10256383, 4122.30769203, 4146.28205108,8.57
4105.51282024, 4113.33333306, 4103.58974332, 4111.41025614, 4110.38461511, 4567.82051352, 4615.89743667, 4628.33333417, 4547.05128268, 4114.74358947, 4107.30769203, 4099.99999966, 4114.74358947, 4132.69230742,8.57
4109.99999973, 4114.74358947, 4109.87179460, 4113.71794844, 4111.53846126, 4580.89743660, 4626.66666743, 4644.23077007, 4561.28205191, 4115.12820485, 4112.56410229, 4111.41025614, 4114.87179460, 4137.43589723,8.57
4114.10256383, 4116.92307665, 4116.53846126, 4116.41025614, 4110.64102537, 4581.53846224, 4620.00000077, 4627.82051366, 4523.07692364, 4118.20512793, 4116.66666639, 4117.05128178, 4117.43589716, 4138.07692287,8.57
4102.30769196, 4113.07692280, 4102.94871767, 4109.48717921, 4111.53846126, 4571.41025711, 4604.74359051, 4616.66666743, 4518.46153902, 4118.20512793, 4110.25640998, 4096.15384581, 4113.07692280, 4129.35897408,8.57
4118.84615357, 4118.84615357, 4120.51282024, 4118.46153819, 4114.10256383, 4569.74359044, 4596.53846231, 4620.89743667, 4546.66666730, 4118.20512793, 4119.99999973, 4126.53846126, 4119.23076896, 4140.51282031,8.57
4110.89743562, 4112.17948691, 4106.15384588, 4114.23076896, 4111.79487152, 4571.92307762, 4599.23077000, 4617.30769308, 4546.79487242, 4118.97435870, 4112.17948691, 4106.92307665, 4112.05128178, 4128.46153819,8.57
4112.05128178, 4114.23076896, 4110.51282024, 4114.35897408, 4109.61538434, 4551.79487242, 4598.97435974, 4612.82051359, 4533.97435960, 4117.82051255, 4109.48717921, 4108.97435870, 4114.99999973, 4135.25640998,8.57
4122.82051255, 4118.58974332, 4122.17948691, 4117.30769203, 4110.76923050, 4533.58974422, 4598.20512897, 4617.82051359, 4541.15384678, 4116.53846126, 4116.79487152, 4126.02564075, 4121.92307665, 4143.20512800,8.57
4110.51282024, 4110.76923050, 4103.33333306, 4106.15384588, 4110.89743562, 4545.76923140, 4598.97435974, 4612.56410333, 4536.92307755, 4116.15384588, 4112.43589716, 4104.99999973, 4115.76923050, 4133.33333306,8.57
4121.15384588, 4120.64102537, 4119.35897408, 4114.99999973, 4112.82051255, 4551.28205191, 4588.71794942, 4593.46153916, 4512.69230825, 4117.56410229, 4117.56410229, 4131.66666639, 4122.69230742, 4148.71794851,8.57
4112.82051255, 4119.61538434, 4109.74358947, 4114.35897408, 4112.56410229, 4537.30769294, 4582.56410326, 4593.20512890, 4508.07692364, 4117.94871767, 4112.30769203, 4117.82051255, 4121.02564075, 4143.07692287,8.57
4110.51282024, 4114.74358947, 4104.48717921, 4110.51282024, 4109.61538434, 4534.87179550, 4594.74359044, 4614.87179564, 4525.64102620, 4118.07692280, 4114.23076896, 4111.53846126, 4120.64102537, 4142.94871774,8.57
4118.97435870, 4120.64102537, 4117.82051255, 4115.89743562, 4110.38461511, 4540.64102627, 4586.79487249, 4611.15384692, 4522.17948774, 4116.92307665, 4117.94871767, 4128.07692280, 4124.23076896, 4146.92307672,8.57
4101.28205094, 4112.82051255, 4103.20512793, 4109.74358947, 4110.76923050, 4541.41025704, 4564.10256480, 4577.82051352, 4499.87179543, 4115.25640998, 4107.05128178, 4100.64102530, 4116.28205101, 4132.43589716,8.57
4112.94871767, 4114.99999973, 4118.58974332, 4116.02564075, 4111.79487152, 4542.94871858, 4578.07692378, 4590.89743660, 4532.69230832, 4116.15384588, 4116.53846126, 4123.07692280, 4121.66666639, 4146.28205108,8.57
4110.76923050, 4112.82051255, 4112.30769203, 4114.10256383, 4112.17948691, 4535.00000063, 4597.43589820, 4625.51282128, 4567.69230839, 4115.25640998, 4116.02564075, 4118.33333306, 4118.46153819, 4141.92307672,8.57
4102.30769196, 4110.51282024, 4105.76923050, 4110.51282024, 4113.20512793, 4526.02564159, 4584.87179557, 4598.07692385, 4512.30769287, 4115.76923050, 4111.53846126, 4106.15384588, 4115.64102537, 4134.74358947,8.57
4115.64102537, 4119.61538434, 4123.33333306, 4116.92307665, 4116.79487152, 4537.43589807, 4588.20512890, 4578.84615454, 4475.25641075, 4118.58974332, 4115.25640998, 4123.58974332, 4123.33333306, 4140.38461518,8.57
4104.99999973, 4112.56410229, 4103.97435870, 4108.46153819, 4116.02564075, 4549.61538524, 4613.20512897, 4619.74359051, 4524.48718005, 4117.43589716, 4107.56410229, 4098.07692273, 4116.92307665, 4127.05128178,8.57
4114.87179460, 4116.92307665, 4118.71794844, 4113.71794844, 4113.97435870, 4539.87179550, 4602.69230846, 4619.48718026, 4534.61538524, 4117.05128178, 4116.15384588, 4119.23076896, 4119.48717921, 4137.82051262,8.57
4115.76923050, 4118.07692280, 4122.56410229, 4114.48717921, 4113.71794844, 4528.97435953, 4578.33333403, 4577.82051352, 4493.33333382, 4117.30769203, 4116.02564075, 4118.46153819, 4116.66666639, 4137.56410236,8.57
4104.61538434, 4113.97435870, 4107.43589716, 4107.94871767, 4112.94871767, 4536.53846217, 4586.92307762, 4589.61538531, 4510.64102620, 4116.02564075, 4110.51282024, 4103.58974332, 4113.07692280, 4132.17948691,8.57
4120.89743562, 4125.38461511, 4124.48717921, 4117.17948691, 4114.99999973, 4527.17948774, 4583.97435967, 4603.33333410, 4531.79487242, 4118.46153819, 4117.17948691, 4133.71794844, 4123.46153819, 4143.58974339,8.57
4111.53846126, 4117.05128178, 4108.58974332, 4110.51282024, 4113.84615357, 4498.33333389, 4550.64102627, 4565.25641096, 4489.23076972, 4120.25640998, 4109.74358947, 4111.79487152, 4118.20512793, 4134.10256383,8.57
4112.69230742, 4113.07692280, 4112.69230742, 4113.46153819, 4111.15384588, 4505.00000056, 4551.02564165, 4566.79487249, 4482.43589793, 4116.79487152, 4115.12820485, 4122.69230742, 4119.23076896, 4144.23076903,8.57
4116.66666639, 4117.69230742, 4114.74358947, 4116.79487152, 4112.69230742, 4538.71794935, 4580.89743660, 4603.71794949, 4519.61538518, 4115.38461511, 4116.92307665, 4128.33333306, 4121.15384588, 4144.48717928,8.57
4104.74358947, 4112.17948691, 4100.51282017, 4107.82051255, 4113.97435870, 4544.35897499, 4593.58974429, 4604.23077000, 4524.74359030, 4116.92307665, 4110.38461511, 4104.99999973, 4117.94871767, 4134.99999973,8.57
4118.46153819, 4116.66666639, 4120.64102537, 4116.66666639, 4114.10256383, 4539.23076986, 4602.56410333, 4601.79487256, 4521.79487235, 4116.53846126, 4117.69230742, 4130.89743562, 4124.35897408, 4148.46153826,8.57
4111.02564075, 4112.94871767, 4104.35897408, 4112.05128178, 4113.07692280, 4544.23076986, 4610.25641102, 4615.51282128, 4531.02564165, 4117.43589716, 4111.15384588, 4109.87179460, 4114.87179460, 4136.41025621,8.57
4111.92307665, 4112.94871767, 4104.35897408, 4111.02564075, 4114.61538434, 4518.33333389, 4586.15384685, 4590.00000070, 4498.07692364, 4118.97435870, 4112.94871767, 4109.48717921, 4114.87179460, 4139.48717928,8.57
4117.43589716, 4115.38461511, 4116.53846126, 4116.53846126, 4116.02564075, 4483.71794921, 4559.61538524, 4553.71794935, 4459.35897478, 4116.92307665, 4114.35897408, 4121.66666639, 4122.82051255, 4142.82051262,8.57
4100.89743555, 4109.10256383, 4102.94871767, 4109.87179460, 4113.84615357, 4494.35897485, 4562.82051352, 4565.00000070, 4473.07692357, 4116.02564075, 4105.38461511, 4100.38461504, 4116.79487152, 4129.23076896,8.57
4113.07692280, 4117.17948691, 4119.10256383, 4117.56410229, 4115.76923050, 4507.82051338, 4559.61538524, 4570.51282121, 4492.43589793, 4118.07692280, 4113.58974332, 4123.84615357, 4120.51282024, 4141.15384595,8.57
4109.35897408, 4115.51282024, 4108.84615357, 4113.33333306, 4113.84615357, 4492.56410305, 4540.51282114, 4546.28205191, 4501.79487235, 4116.02564075, 4110.89743562, 4105.12820485, 4117.05128178, 4133.84615357,8.57
4108.58974332, 4115.64102537, 4111.79487152, 4111.02564075, 4110.12820485, 4491.41025690, 4532.05128268, 4533.33333396, 4491.79487229, 4116.15384588, 4112.82051255, 4102.94871767, 4118.84615357, 4134.99999973,8.57
4119.23076896, 4120.51282024, 4124.23076896, 4118.71794844, 4115.89743562, 4500.76923133, 4535.00000063, 4534.74359037, 4459.61538504, 4121.41025614, 4119.61538434, 4124.35897408, 4123.33333306, 4139.99999980,8.57
4105.64102537, 4113.07692280, 4103.84615357, 4112.05128178, 4119.48717921, 4498.07692364, 4549.87179550, 4547.69230832, 4459.35897478, 4120.51282024, 4110.38461511, 4101.15384581, 4113.97435870, 4127.56410229,8.57
4119.10256383, 4121.28205101, 4123.97435870, 4118.71794844, 4115.51282024, 4510.12820569, 4574.23076993, 4573.20512890, 4491.41025690, 4116.41025614, 4115.51282024, 4128.20512793, 4121.79487152, 4141.41025621,8.57
4117.17948691, 4117.17948691, 4118.07692280, 4113.07692280, 4113.97435870, 4525.38461594, 4591.15384685, 4590.76923147, 4505.76923133, 4116.15384588, 4114.61538434, 4122.56410229, 4122.56410229, 4136.41025621,8.57
4110.25640998, 4112.43589716, 4106.02564075, 4107.17948691, 4114.61538434, 4518.58974415, 4589.10256480, 4588.97435967, 4507.94871851, 4118.07692280, 4116.92307665, 4112.43589716, 4117.69230742, 4137.56410236,8.57
4123.71794844, 4124.10256383, 4121.53846126, 4117.94871767, 4112.82051255, 4504.74359030, 4577.17948788, 4585.76923147, 4532.30769294, 4121.41025614, 4123.07692280, 4134.10256383, 4120.89743562, 4151.15384595,8.57
4107.82051255, 4115.25640998, 4101.41025607, 4109.74358947, 4110.12820485, 4487.05128254, 4554.10256473, 4559.87179550, 4515.25641082, 4122.17948691, 4110.38461511, 4109.61538434, 4116.66666639, 4138.71794851,8.57
4113.46153819, 4113.07692280, 4112.56410229, 4114.48717921, 4113.33333306, 4473.84615434, 4525.38461594, 4511.92307748, 4444.74359016, 4120.64102537, 4117.43589716, 4126.79487152, 4124.35897408, 4147.17948697,8.57
4115.64102537, 4114.23076896, 4114.23076896, 4117.69230742, 4114.99999973, 4487.56410305, 4520.25641082, 4503.84615441, 4435.51282093, 4118.20512793, 4117.43589716, 4120.12820485, 4121.79487152, 4142.94871774,8.57
4106.92307665, 4112.43589716, 4103.84615357, 4112.30769203, 4113.20512793, 4499.61538518, 4529.74359037, 4522.43589800, 4480.00000049, 4118.33333306, 4109.99999973, 4102.69230742, 4117.43589716, 4136.15384595,8.57
4119.61538434, 4120.64102537, 4121.92307665, 4117.94871767, 4115.51282024, 4485.25641075, 4525.76923133, 4519.87179543, 4470.12820562, 4120.51282024, 4118.46153819, 4126.66666639, 4125.51282024, 4144.87179467,8.57
4107.17948691, 4114.99999973, 4106.02564075, 4110.12820485, 4115.25640998, 4491.15384664, 4545.12820576, 4546.28205191, 4457.82051324, 4120.12820485, 4111.41025614, 4101.92307658, 4118.46153819, 4131.28205101,8.57
4114.10256383, 4115.89743562, 4115.64102537, 4114.61538434, 4114.48717921, 4522.94871851, 4585.25641096, 4593.84615454, 4502.30769287, 4120.12820485, 4113.58974332, 4116.15384588, 4122.17948691, 4138.46153826,8.57
4118.84615357, 4117.05128178, 4118.07692280, 4117.56410229, 4114.99999973, 4517.05128261, 4579.74359044, 4579.23076993, 4513.46153902, 4121.15384588, 4114.48717921, 4119.35897408, 4122.30769203, 4137.94871774,8.57
4105.64102537, 4112.30769203, 4103.46153819, 4110.12820485, 4112.30769203, 4478.33333382, 4550.38461601, 4542.56410319, 4474.87179536, 4121.15384588, 4110.38461511, 4099.23076889, 4115.64102537, 4130.89743562,8.57
4118.97435870, 4120.25640998, 4125.51282024, 4117.17948691, 4113.84615357, 4471.41025690, 4551.79487242, 4545.25641089, 4453.58974401, 4121.66666639, 4120.12820485, 4127.30769203, 4125.64102537, 4143.97435877,8.57
4109.74358947, 4114.61538434, 4112.43589716, 4111.66666639, 4117.05128178, 4485.89743639, 4549.35897499, 4540.38461601, 4447.05128247, 4121.15384588, 4111.53846126, 4107.56410229, 4120.38461511, 4132.56410229,8.57
4114.99999973, 4116.41025614, 4116.92307665, 4115.38461511, 4116.02564075, 4470.64102613, 4516.79487235, 4507.69230825, 4438.58974401, 4119.61538434, 4114.10256383, 4117.43589716, 4119.10256383, 4139.61538441,8.57
4125.64102537, 4122.43589716, 4125.38461511, 4118.97435870, 4113.97435870, 4462.30769273, 4497.56410312, 4490.64102613, 4436.41025683, 4120.12820485, 4119.61538434, 4131.02564075, 4122.30769203, 4144.99999980,8.57
4111.28205101, 4115.76923050, 4105.51282024, 4106.92307665, 4113.20512793, 4487.94871844, 4508.46153902, 4504.87179543, 4457.56410298, 4122.17948691, 4110.64102537, 4107.30769203, 4118.33333306, 4134.74358947,8.57
4121.79487152, 4121.53846126, 4119.61538434, 4115.89743562, 4113.97435870, 4493.20512870, 4519.74359030, 4521.66666723, 4491.02564152, 4122.17948691, 4117.43589716, 4131.92307665, 4124.74358947, 4148.07692287,8.57
4115.12820485, 4117.69230742, 4108.71794844, 4114.74358947, 4113.33333306, 4481.15384664, 4524.35897492, 4526.79487235, 4490.89743639, 4120.25640998, 4113.71794844, 4116.02564075, 4120.38461511, 4141.15384595,8.57
4111.28205101, 4117.94871767, 4109.61538434, 4111.92307665, 4115.25640998, 4486.66666716, 4534.10256473, 4534.61538524, 4464.10256459, 4119.99999973, 4113.20512793, 4116.41025614, 4122.05128178, 4141.66666646,8.57
4116.41025614, 4123.20512793, 4118.46153819, 4116.79487152, 4116.53846126, 4483.46153895, 4542.30769294, 4547.30769294, 4452.17948760, 4120.25640998, 4118.97435870, 4132.05128178, 4126.15384588, 4145.38461518,8.57
4103.97435870, 4112.56410229, 4097.30769196, 4108.33333306, 4112.94871767, 4463.20512863, 4540.76923140, 4546.15384678, 4458.07692350, 4119.99999973, 4112.17948691, 4103.07692280, 4117.69230742, 4135.89743569,8.57
4117.94871767, 4117.56410229, 4117.56410229, 4114.87179460, 4115.38461511, 4476.15384664, 4548.46153909, 4554.87179550, 4479.23076972, 4120.38461511, 4116.92307665, 4121.53846126, 4123.20512793, 4146.41025621,8.57
4111.66666639, 4117.69230742, 4114.87179460, 4113.46153819, 4116.79487152, 4497.82051338, 4555.00000063, 4562.17948788, 4482.05128254, 4119.61538434, 4111.66666639, 4111.53846126, 4119.61538434, 4136.15384595,8.57
4107.56410229, 4113.07692280, 4106.92307665, 4112.56410229, 4112.94871767, 4470.89743639, 4526.66666723, 4524.87179543, 4439.10256452, 4119.23076896, 4110.76923050, 4107.56410229, 4115.76923050, 4136.79487159,8.57
4123.58974332, 4117.82051255, 4121.53846126, 4122.43589716, 4113.84615357, 4438.20512863, 4487.82051331, 4480.89743639, 4403.46153881, 4119.61538434, 4120.25640998, 4126.15384588, 4120.89743562, 4143.33333313,8.57
4109.10256383, 4115.12820485, 4107.43589716, 4112.69230742, 4113.58974332, 4449.10256452, 4476.79487229, 4471.02564152, 4408.58974394, 4119.61538434, 4113.07692280, 4099.87179453, 4117.43589716, 4128.71794844,8.57
4117.82051255, 4121.66666639, 4121.66666639, 4116.41025614, 4114.48717921, 4467.56410305, 4486.41025690, 4479.61538511, 4432.69230811, 4118.84615357, 4116.79487152, 4123.71794844, 4126.53846126, 4143.46153826,8.57
4119.10256383, 4115.76923050, 4118.20512793, 4118.84615357, 4116.79487152, 4456.02564145, 4489.10256459, 4485.00000049, 4445.12820555, 4116.53846126, 4115.51282024, 4118.97435870, 4123.84615357, 4139.10256390,8.57
4111.79487152, 4110.64102537, 4111.79487152, 4114.10256383, 4115.38461511, 4443.33333375, 4492.30769280, 4497.17948774, 4448.71794914, 4118.07692280, 4114.61538434, 4106.02564075, 4118.58974332, 4134.23076896,8.57
4124.23076896, 4124.61538434, 4130.64102537, 4119.87179460, 4114.35897408, 4457.69230811, 4514.10256466, 4524.23076979, 4459.35897478, 4120.25640998, 4122.17948691, 4135.51282031, 4126.02564075, 4149.99999980,8.57
4111.92307665, 4117.82051255, 4106.53846126, 4110.64102537, 4114.61538434, 4465.64102613, 4522.30769287, 4527.69230825, 4447.17948760, 4117.30769203, 4114.10256383, 4111.79487152, 4119.23076896, 4136.92307672,8.57
4117.56410229, 4115.51282024, 4113.20512793, 4115.12820485, 4115.51282024, 4443.33333375, 4502.30769287, 4499.35897492, 4416.92307727, 4118.97435870, 4119.74358947, 4125.51282024, 4124.10256383, 4143.20512800,8.57
4117.69230742, 4118.46153819, 4119.23076896, 4118.46153819, 4115.89743562, 4431.41025683, 4499.74359030, 4497.17948774, 4418.97435933, 4121.53846126, 4120.38461511, 4128.71794844, 4124.99999973, 4145.89743569,8.57
4106.66666639, 4113.71794844, 4104.10256383, 4109.87179460, 4115.76923050, 4453.97435940, 4516.66666723, 4522.82051338, 4437.30769273, 4117.94871767, 4113.84615357, 4108.58974332, 4117.69230742, 4140.64102544,8.57
4120.64102537, 4118.97435870, 4115.51282024, 4114.99999973, 4115.25640998, 4463.33333375, 4502.82051338, 4506.02564159, 4425.12820548, 4119.74358947, 4120.12820485, 4132.94871767, 4122.69230742, 4148.71794851,8.57
4109.23076896, 4113.33333306, 4104.48717921, 4109.61538434, 4113.71794844, 4457.94871837, 4482.94871844, 4481.41025690, 4421.92307727, 4123.07692280, 4113.97435870, 4111.15384588, 4116.28205101, 4136.02564082,8.57
4112.82051255, 4116.92307665, 4118.07692280, 4114.23076896, 4114.87179460, 4463.07692350, 4496.28205177, 4503.84615441, 4455.64102606, 4120.12820485, 4118.33333306, 4115.89743562, 4117.17948691, 4142.17948697,8.57
4118.20512793, 4123.71794844, 4120.89743562, 4116.79487152, 4116.15384588, 4453.33333375, 4496.79487235, 4504.61538518, 4455.38461581, 4119.87179460, 4119.23076896, 4121.02564075, 4117.94871767, 4143.46153826,8.57
4103.84615357, 4116.28205101, 4100.64102530, 4107.17948691, 4115.38461511, 4435.76923119, 4473.46153895, 4468.71794921, 4420.12820548, 4123.33333306, 4109.99999973, 4101.79487145, 4112.94871767, 4134.61538434,8.57
4118.84615357, 4120.25640998, 4122.56410229, 4117.05128178, 4117.30769203, 4437.82051324, 4473.71794921, 4466.28205177, 4411.92307727, 4122.05128178, 4117.94871767, 4126.66666639, 4122.05128178, 4145.64102544,8.57
4113.20512793, 4117.82051255, 4113.58974332, 4113.97435870, 4116.79487152, 4440.51282093, 4502.17948774, 4506.28205184, 4433.20512863, 4116.15384588, 4114.23076896, 4106.53846126, 4117.82051255, 4133.33333306,8.57
4113.97435870, 4119.61538434, 4116.02564075, 4113.33333306, 4116.02564075, 4434.48717991, 4510.00000056, 4522.56410312, 4435.00000042, 4117.05128178, 4117.17948691, 4112.82051255, 4118.33333306, 4137.94871774,8.57
4124.35897408, 4121.41025614, 4123.46153819, 4119.35897408, 4117.17948691, 4436.15384657, 4495.38461587, 4509.61538518, 4421.28205163, 4122.56410229, 4120.64102537, 4127.94871767, 4122.82051255, 4142.94871774,8.57
4111.66666639, 4113.07692280, 4103.58974332, 4112.17948691, 4115.38461511, 4447.30769273, 4491.66666716, 4504.35897492, 4431.28205170, 4120.76923050, 4107.82051255, 4104.35897408, 4116.41025614, 4131.28205101,8.57
4123.46153819, 4123.58974332, 4124.48717921, 4119.87179460, 4115.51282024, 4446.53846196, 4490.12820562, 4498.97435953, 4445.25641068, 4118.07692280, 4115.38461511, 4131.28205101, 4123.20512793, 4148.20512800,8.57
4116.28205101, 4121.92307665, 4117.56410229, 4115.38461511, 4114.74358947, 4432.56410298, 4476.53846203, 4487.94871844, 4436.79487222, 4120.89743562, 4116.66666639, 4117.05128178, 4120.89743562, 4143.58974339,8.57
4113.07692280, 4116.02564075, 4112.05128178, 4112.30769203, 4113.33333306, 4428.46153881, 4453.71794914, 4462.69230811, 4403.07692343, 4123.46153819, 4116.66666639, 4116.02564075, 4121.66666639, 4142.94871774,8.57
4125.51282024, 4120.51282024, 4121.41025614, 4119.99999973, 4115.25640998, 4440.00000042, 4453.33333375, 4451.28205170, 4396.53846182, 4123.33333306, 4120.89743562, 4137.05128185, 4124.61538434, 4150.64102544,8.57
4108.97435870, 4113.07692280, 4099.99999966, 4110.38461511, 4115.51282024, 4439.61538504, 4477.56410305, 4471.66666716, 4425.25641061, 4123.20512793, 4111.41025614, 4105.51282024, 4116.79487152, 4139.87179467,8.57
4116.41025614, 4117.17948691, 4116.15384588, 4113.71794844, 4115.51282024, 4416.41025676, 4476.02564152, 4479.74359023, 4417.43589779, 4124.61538434, 4118.97435870, 4126.15384588, 4125.76923050, 4152.30769210,8.57
4113.46153819, 4116.15384588, 4113.84615357, 4114.23076896, 4115.25640998, 4416.66666702, 4466.15384664, 4475.38461587, 4399.87179522, 4123.46153819, 4118.97435870, 4121.79487152, 4122.82051255, 4144.99999980,8.57
4105.76923050, 4113.33333306, 4107.82051255, 4114.48717921, 4114.10256383, 4438.46153888, 4492.69230818, 4500.64102620, 4431.79487222, 4121.41025614, 4112.94871767, 4108.46153819, 4115.12820485, 4138.97435877,8.57
4117.94871767, 4121.02564075, 4125.38461511, 4121.41025614, 4116.28205101, 4430.64102599, 4504.35897492, 4517.05128261, 4451.92307734, 4121.92307665, 4115.25640998, 4129.10256383, 4120.76923050, 4146.53846133,8.57
4108.33333306, 4113.46153819, 4107.69230742, 4110.25640998, 4117.82051255, 4413.46153881, 4472.82051331, 4483.97435946, 4414.61538497, 4121.79487152, 4109.10256383, 4103.84615357, 4116.53846126, 4133.97435870,8.57
4117.94871767, 4115.89743562, 4119.23076896, 4116.28205101, 4117.30769203, 4427.17948753, 4464.23076972, 4466.66666716, 4382.56410285, 4121.41025614, 4118.07692280, 4117.56410229, 4121.66666639, 4141.41025621,8.57
4115.76923050, 4116.28205101, 4120.25640998, 4117.30769203, 4117.30769203, 4441.15384657, 4484.23076972, 4493.58974408, 4405.12820548, 4120.51282024, 4117.30769203, 4117.94871767, 4122.94871767, 4137.17948697,8.57
4106.15384588, 4112.82051255, 4109.35897408, 4109.74358947, 4117.30769203, 4426.02564138, 4482.05128254, 4502.17948774, 4431.79487222, 4118.97435870, 4111.41025614, 4107.82051255, 4119.35897408, 4135.12820485,8.57
4123.71794844, 4122.43589716, 4126.79487152, 4119.23076896, 4116.66666639, 4417.94871830, 4463.07692350, 4466.15384664, 4408.71794907, 4118.33333306, 4122.94871767, 4131.28205101, 4124.23076896, 4146.92307672,8.57
4115.12820485, 4118.20512793, 4111.02564075, 4113.33333306, 4115.51282024, 4427.94871830, 4448.97435940, 4432.56410298, 4392.94871823, 4120.89743562, 4117.43589716, 4104.99999973, 4117.30769203, 4133.33333306,8.57
4117.05128178, 4119.35897408, 4120.38461511, 4117.82051255, 4117.05128178, 4442.17948760, 4466.66666716, 4466.53846203, 4441.28205170, 4125.64102537, 4117.82051255, 4121.41025614, 4121.41025614, 4145.12820492,8.57
4117.43589716, 4119.87179460, 4124.23076896, 4121.66666639, 4117.69230742, 4451.92307734, 4497.69230825, 4517.43589800, 4452.05128247, 4123.33333306, 4118.46153819, 4129.10256383, 4123.97435870, 4146.28205108,8.57
4108.46153819, 4116.02564075, 4105.64102537, 4108.46153819, 4116.53846126, 4436.79487222, 4482.56410305, 4492.94871844, 4392.56410285, 4117.56410229, 4114.35897408, 4108.33333306, 4116.28205101, 4135.51282031,8.57
4125.38461511, 4125.51282024, 4122.05128178, 4114.35897408, 4118.84615357, 4434.10256452, 4468.46153895, 4466.92307741, 4394.35897464, 4120.12820485, 4122.69230742, 4138.07692287, 4121.53846126, 4153.20512800,8.57
4111.28205101, 4117.43589716, 4109.35897408, 4114.48717921, 4116.79487152, 4450.38461581, 4494.23076972, 4503.97435953, 4440.12820555, 4124.61538434, 4116.53846126, 4115.76923050, 4118.20512793, 4144.10256390,8.57
4109.23076896, 4115.76923050, 4112.05128178, 4115.89743562, 4113.58974332, 4435.76923119, 4491.15384664, 4511.92307748, 4426.92307727, 4123.07692280, 4116.28205101, 4113.46153819, 4121.02564075, 4141.79487159,8.57
4122.05128178, 4121.41025614, 4119.48717921, 4116.41025614, 4116.53846126, 4414.87179522, 4457.43589786, 4470.12820562, 4396.28205156, 4120.38461511, 4119.48717921, 4125.38461511, 4122.94871767, 4144.61538441,8.57
4108.58974332, 4113.33333306, 4102.30769196, 4108.58974332, 4117.05128178, 4426.28205163, 4453.46153888, 4459.48717991, 4399.74359009, 4122.30769203, 4113.07692280, 4104.61538434, 4114.99999973, 4137.43589723,8.57
4115.12820485, 4118.84615357, 4120.76923050, 4116.92307665, 4117.43589716, 4431.92307734, 4463.97435946, 4472.82051331, 4407.17948753, 4123.84615357, 4118.97435870, 4127.94871767, 4122.82051255, 4147.05128185,8.57
4109.48717921, 4118.46153819, 4112.82051255, 4113.07692280, 4118.58974332, 4412.69230804, 4457.30769273, 4470.25641075, 4417.05128240, 4119.35897408, 4114.23076896, 4113.33333306, 4119.61538434, 4134.87179460,8.57
4112.17948691, 4117.05128178, 4113.07692280, 4113.20512793, 4116.79487152, 4410.12820548, 4456.15384657, 4472.30769280, 4435.38461581, 4118.84615357, 4117.56410229, 4113.71794844, 4118.33333306, 4138.84615364,8.57
4122.94871767, 4119.99999973, 4123.71794844, 4121.15384588, 4115.38461511, 4432.30769273, 4469.61538511, 4486.92307741, 4428.20512856, 4123.33333306, 4122.43589716, 4126.53846126, 4122.56410229, 4146.41025621,8.57
4106.53846126, 4112.56410229, 4104.99999973, 4113.71794844, 4115.25640998, 4443.07692350, 4478.20512870, 4494.10256459, 4413.84615420, 4122.30769203, 4109.99999973, 4099.48717914, 4116.28205101, 4132.43589716,8.57
4117.43589716, 4121.92307665, 4125.12820485, 4118.07692280, 4116.53846126, 4434.48717991, 4478.58974408, 4492.17948767, 4425.00000035, 4120.38461511, 4119.99999973, 4126.66666639, 4125.51282024, 4147.43589723,8.57
4116.66666639, 4123.71794844, 4118.33333306, 4115.64102537, 4117.17948691, 4426.79487215, 4477.94871844, 4492.05128254, 4438.71794914, 4121.79487152, 4120.64102537, 4116.41025614, 4122.94871767, 4142.17948697,8.57
4112.94871767, 4118.46153819, 4109.10256383, 4114.48717921, 4118.71794844, 4419.23076958, 4471.41025690, 4485.76923126, 4417.69230804, 4124.10256383, 4116.02564075, 4107.05128178, 4118.97435870, 4138.07692287,8.57
4123.71794844, 4123.58974332, 4129.48717921, 4121.41025614, 4119.74358947, 4405.64102599, 4452.30769273, 4459.87179529, 4374.35897464, 4122.82051255, 4123.20512793, 4133.46153819, 4125.76923050, 4148.20512800,8.57
4109.99999973, 4117.43589716, 4109.99999973, 4110.51282024, 4115.38461511, 4403.58974394, 4443.07692350, 4447.43589786, 4372.30769259, 4121.02564075, 4114.74358947, 4108.71794844, 4119.99999973, 4134.61538434,8.57
4120.25640998, 4121.66666639, 4115.38461511, 4116.79487152, 4114.23076896, 4400.89743625, 4443.97435940, 4451.79487222, 4407.05128240, 4124.10256383, 4118.84615357, 4126.92307665, 4127.05128178, 4144.48717928,8.57
4118.20512793, 4121.15384588, 4114.74358947, 4117.94871767, 4116.79487152, 4389.48717977, 4437.30769273, 4448.33333375, 4409.35897471, 4125.76923050, 4119.99999973, 4126.28205101, 4127.17948691, 4146.28205108,8.57
4105.76923050, 4114.10256383, 4108.33333306, 4109.99999973, 4116.79487152, 4386.15384644, 4429.87179522, 4444.74359016, 4383.71794900, 4123.84615357, 4115.12820485, 4114.23076896, 4120.89743562, 4143.84615364,8.57
4122.17948691, 4119.74358947, 4124.61538434, 4120.51282024, 4116.92307665, 4390.00000028, 4423.71794907, 4441.79487222, 4372.05128233, 4122.43589716, 4120.12820485, 4138.71794851, 4124.87179460, 4152.69230749,8.57
4114.61538434, 4113.07692280, 4104.99999973, 4115.51282024, 4114.74358947, 4407.17948753, 4434.74359016, 4452.17948760, 4381.41025669, 4122.82051255, 4112.30769203, 4107.17948691, 4119.35897408, 4138.07692287,8.57
4117.43589716, 4116.15384588, 4116.79487152, 4117.69230742, 4115.76923050, 4428.46153881, 4462.17948760, 4479.74359023, 4413.97435933, 4123.84615357, 4118.58974332, 4114.87179460, 4122.56410229, 4143.20512800,8.57
4115.38461511, 4119.35897408, 4120.51282024, 4119.23076896, 4118.46153819, 4411.66666702, 4459.10256452, 4476.41025690, 4424.35897471, 4120.89743562, 4121.79487152, 4121.02564075, 4119.61538434, 4140.51282031,8.57
4115.38461511, 4119.35897408, 4120.51282024, 4119.23076896, 4118.46153819, 4411.66666702, 4459.10256452, 4476.41025690, 4424.35897471, 4120.89743562, 4121.79487152, 4121.02564075, 4119.61538434, 4140.51282031,8.57
4103.84615357, 4113.20512793, 4100.89743555, 4109.74358947, 4115.64102537, 4386.28205156, 4431.79487222, 4445.64102606, 4383.84615413, 4120.89743562, 4111.79487152, 4100.64102530, 4114.23076896, 4132.43589716,8.57
4122.05128178, 4119.87179460, 4121.28205101, 4118.46153819, 4116.41025614, 4401.02564138, 4431.02564145, 4446.15384657, 4380.51282079, 4126.15384588, 4118.84615357, 4124.48717921, 4124.74358947, 4145.38461518,8.57
4111.79487152, 4115.12820485, 4113.97435870, 4116.02564075, 4118.97435870, 4414.10256445, 4439.61538504, 4457.43589786, 4412.56410292, 4123.71794844, 4116.53846126, 4105.64102537, 4118.46153819, 4134.87179460,8.57
4110.38461511, 4118.20512793, 4119.61538434, 4117.30769203, 4118.46153819, 4399.61538497, 4418.20512856, 4426.92307727, 4375.38461567, 4117.94871767, 4115.89743562, 4115.64102537, 4119.23076896, 4139.23076903,8.57
4118.33333306, 4124.23076896, 4126.28205101, 4120.76923050, 4117.05128178, 4397.82051310, 4406.15384651, 4408.97435933, 4327.30769245, 4121.02564075, 4116.02564075, 4127.05128178, 4124.48717921, 4139.87179467,8.57
4108.97435870, 4115.89743562, 4108.58974332, 4112.94871767, 4115.12820485, 4402.43589779, 4420.89743625, 4434.23076965, 4359.10256431, 4125.89743562, 4112.43589716, 4105.12820485, 4118.07692280, 4131.28205101,8.57
4126.79487152, 4122.43589716, 4123.97435870, 4123.46153819, 4116.79487152, 4389.74359003, 4418.07692343, 4436.53846196, 4396.92307720, 4122.56410229, 4123.71794844, 4133.97435870, 4125.38461511, 4149.23076903,8.57
4118.07692280, 4121.28205101, 4112.30769203, 4120.64102537, 4117.43589716, 4383.46153874, 4402.69230804, 4414.23076958, 4392.30769259, 4117.30769203, 4116.66666639, 4119.35897408, 4123.46153819, 4140.89743569,8.57
4110.64102537, 4119.10256383, 4114.61538434, 4116.66666639, 4114.48717921, 4401.15384651, 4410.89743625, 4423.46153881, 4382.17948746, 4119.35897408, 4115.38461511, 4120.76923050, 4122.94871767, 4140.51282031,8.57
4122.17948691, 4121.53846126, 4124.23076896, 4119.99999973, 4115.12820485, 4412.43589779, 4431.79487222, 4449.10256452, 4375.00000028, 4122.05128178, 4125.25640998, 4136.41025621, 4126.28205101, 4147.82051262,8.57
4112.30769203, 4115.25640998, 4102.05128171, 4111.15384588, 4117.05128178, 4398.97435933, 4435.89743632, 4454.74359016, 4373.71794900, 4122.94871767, 4116.15384588, 4105.89743562, 4120.76923050, 4140.64102544,8.57
4121.28205101, 4121.66666639, 4119.74358947, 4117.69230742, 4115.89743562, 4382.17948746, 4422.30769266, 4442.56410298, 4365.89743618, 4124.61538434, 4117.17948691, 4127.56410229, 4126.41025614, 4152.82051262,8.57
4113.84615357, 4117.17948691, 4115.76923050, 4114.74358947, 4115.64102537, 4388.97435926, 4412.05128240, 4425.38461574, 4348.84615406, 4123.07692280, 4115.38461511, 4121.66666639, 4121.02564075, 4142.17948697,8.57
4106.79487152, 4114.35897408, 4109.35897408, 4113.97435870, 4117.17948691, 4416.41025676, 4417.94871830, 4423.46153881, 4376.53846182, 4122.82051255, 4115.64102537, 4112.82051255, 4119.23076896, 4137.56410236,8.57
4115.51282024, 4122.05128178, 4122.05128178, 4123.20512793, 4116.41025614, 4419.48717984, 4429.23076958, 4446.79487222, 4422.56410292, 4126.28205101, 4116.92307665, 4124.87179460, 4124.61538434, 4144.35897415,8.57
4103.46153819, 4114.87179460, 4106.53846126, 4113.46153819, 4116.41025614, 4392.17948746, 4424.61538497, 4454.35897478, 4401.41025676, 4125.38461511, 4106.53846126, 4100.38461504, 4115.38461511, 4133.20512793,8.57
4116.41025614, 4120.64102537, 4122.05128178, 4119.48717921, 4119.48717921, 4377.56410285, 4406.15384651, 4427.43589779, 4348.71794893, 4120.64102537, 4117.30769203, 4123.97435870, 4121.15384588, 4144.35897415,8.57
4114.74358947, 4122.17948691, 4118.46153819, 4120.38461511, 4117.94871767, 4382.05128233, 4390.12820541, 4404.35897471, 4344.35897457, 4118.71794844, 4118.07692280, 4117.69230742, 4122.56410229, 4139.10256390,8.57
4108.58974332, 4116.53846126, 4110.38461511, 4114.10256383, 4117.94871767, 4389.23076951, 4392.43589772, 4407.94871830, 4364.74358996, 4119.61538434, 4112.43589716, 4105.64102537, 4119.23076896, 4134.87179460,8.57
4126.15384588, 4122.94871767, 4130.38461511, 4122.94871767, 4121.53846126, 4402.05128240, 4411.41025676, 4426.02564138, 4368.84615413, 4121.28205101, 4121.02564075, 4131.41025614, 4124.23076896, 4144.48717928,8.57
4112.43589716, 4117.82051255, 4110.12820485, 4116.53846126, 4118.97435870, 4404.23076958, 4421.41025676, 4438.20512863, 4374.87179515, 4122.94871767, 4115.76923050, 4106.28205101, 4118.33333306, 4132.17948691,8.57
4117.82051255, 4121.53846126, 4117.17948691, 4118.58974332, 4117.05128178, 4387.56410285, 4415.89743625, 4437.56410298, 4392.05128233, 4124.10256383, 4120.64102537, 4122.82051255, 4123.71794844, 4143.97435877,8.57
4122.94871767, 4124.10256383, 4122.69230742, 4120.25640998, 4118.71794844, 4390.00000028, 4415.25641061, 4433.84615427, 4393.07692336, 4122.94871767, 4121.15384588, 4128.46153819, 4123.71794844, 4144.99999980,8.57
4112.82051255, 4116.92307665, 4108.58974332, 4114.23076896, 4116.79487152, 4401.02564138, 4420.25641061, 4437.05128247, 4374.23076951, 4122.82051255, 4116.53846126, 4115.64102537, 4119.87179460, 4138.84615364,8.57
4125.76923050, 4122.43589716, 4122.30769203, 4123.07692280, 4116.79487152, 4386.53846182, 4407.82051317, 4428.97435933, 4364.23076944, 4124.10256383, 4124.48717921, 4141.92307672, 4129.48717921, 4152.94871774,8.57
4114.48717921, 4117.69230742, 4106.66666639, 4118.58974332, 4117.69230742, 4368.46153874, 4380.76923105, 4397.43589772, 4358.33333355, 4122.56410229, 4116.66666639, 4111.79487152, 4122.17948691, 4140.89743569,8.57
4115.51282024, 4118.46153819, 4113.33333306, 4119.10256383, 4118.71794844, 4368.07692336, 4373.33333362, 4383.20512849, 4344.61538483, 4123.33333306, 4118.46153819, 4116.53846126, 4120.89743562, 4143.97435877,8.57
4118.46153819, 4119.74358947, 4119.74358947, 4121.66666639, 4118.84615357, 4373.71794900, 4392.69230797, 4404.74359009, 4340.51282073, 4125.25640998, 4122.43589716, 4128.84615357, 4121.92307665, 4145.25641005,8.57
4103.20512793, 4112.94871767, 4103.97435870, 4116.41025614, 4114.87179460, 4374.74359003, 4407.94871830, 4421.28205163, 4346.02564124, 4120.38461511, 4114.48717921, 4105.51282024, 4116.66666639, 4136.79487159,8.57
4118.46153819, 4121.92307665, 4122.94871767, 4123.46153819, 4116.92307665, 4368.07692336, 4398.07692343, 4407.94871830, 4344.10256431, 4118.33333306, 4119.87179460, 4127.30769203, 4123.20512793, 4147.82051262,8.57
4114.99999973, 4118.58974332, 4112.94871767, 4116.02564075, 4120.89743562, 4360.12820534, 4384.35897464, 4393.20512849, 4335.51282073, 4122.82051255, 4114.23076896, 4111.02564075, 4118.46153819, 4137.43589723,8.57
4114.10256383, 4118.33333306, 4115.89743562, 4117.17948691, 4118.46153819, 4372.30769259, 4402.82051317, 4422.56410292, 4354.23076944, 4123.46153819, 4114.74358947, 4112.05128178, 4119.87179460, 4140.51282031,8.57
4121.53846126, 4123.20512793, 4123.97435870, 4123.84615357, 4117.17948691, 4386.02564131, 4420.38461574, 4449.10256452, 4391.02564131, 4121.41025614, 4119.10256383, 4122.82051255, 4124.87179460, 4142.05128185,8.57
4111.79487152, 4114.74358947, 4104.23076896, 4113.33333306, 4118.07692280, 4367.69230797, 4389.87179515, 4406.02564138, 4367.17948746, 4121.66666639, 4112.56410229, 4101.02564068, 4118.97435870, 4130.89743562,8.57
4127.69230742, 4121.92307665, 4126.15384588, 4119.99999973, 4119.23076896, 4356.02564124, 4363.97435919, 4370.64102592, 4317.82051296, 4122.30769203, 4123.46153819, 4130.38461511, 4126.92307665, 4146.92307672,8.57
4120.64102537, 4121.66666639, 4119.74358947, 4118.71794844, 4121.02564075, 4373.58974387, 4382.56410285, 4399.23076958, 4337.82051303, 4120.64102537, 4120.12820485, 4118.20512793, 4123.46153819, 4138.20512800,8.57
4114.35897408, 4119.74358947, 4112.17948691, 4118.33333306, 4123.07692280, 4370.38461567, 4387.94871823, 4404.48717984, 4362.94871816, 4121.02564075, 4118.33333306, 4115.38461511, 4121.15384588, 4138.97435877,8.57
4126.53846126, 4123.97435870, 4126.92307665, 4126.28205101, 4120.38461511, 4347.17948739, 4371.66666695, 4375.51282079, 4332.69230790, 4123.84615357, 4123.97435870, 4138.33333313, 4126.02564075, 4149.99999980,8.57
4112.94871767, 4113.58974332, 4108.84615357, 4114.10256383, 4117.43589716, 4351.15384637, 4382.69230797, 4391.28205156, 4328.07692322, 4123.20512793, 4114.10256383, 4110.51282024, 4118.20512793, 4138.33333313,8.57
4120.89743562, 4117.30769203, 4122.17948691, 4118.97435870, 4121.79487152, 4363.20512842, 4393.07692336, 4415.89743625, 4353.07692329, 4121.02564075, 4119.99999973, 4130.51282024, 4124.99999973, 4150.25641005,8.57
4117.82051255, 4120.51282024, 4116.92307665, 4120.89743562, 4120.64102537, 4358.58974380, 4377.82051310, 4402.82051317, 4347.69230790, 4120.89743562, 4119.23076896, 4125.25640998, 4124.87179460, 4145.64102544,8.57
4110.38461511, 4117.30769203, 4106.15384588, 4113.84615357, 4117.69230742, 4356.28205149, 4379.23076951, 4400.12820548, 4341.41025662, 4120.51282024, 4115.51282024, 4111.66666639, 4119.99999973, 4141.53846133,8.57
4123.33333306, 4120.89743562, 4124.23076896, 4120.12820485, 4121.66666639, 4363.71794893, 4393.71794900, 4414.23076958, 4365.76923105, 4119.48717921, 4122.82051255, 4134.61538434, 4126.28205101, 4152.30769210,8.57
4106.15384588, 4114.23076896, 4106.02564075, 4116.15384588, 4120.25640998, 4372.82051310, 4393.97435926, 4415.89743625, 4377.82051310, 4123.07692280, 4115.38461511, 4107.69230742, 4121.92307665, 4137.69230749,8.57
4111.15384588, 4119.10256383, 4113.97435870, 4122.05128178, 4118.71794844, 4367.17948746, 4386.53846182, 4400.51282086, 4346.92307714, 4127.56410229, 4119.23076896, 4119.74358947, 4123.07692280, 4144.35897415,8.57
4117.05128178, 4119.87179460, 4116.41025614, 4121.28205101, 4121.15384588, 4349.10256431, 4380.76923105, 4383.46153874, 4313.33333348, 4124.87179460, 4118.07692280, 4121.41025614, 4119.10256383, 4143.71794851,8.57
4107.82051255, 4111.92307665, 4107.82051255, 4113.33333306, 4120.12820485, 4345.64102585, 4372.69230797, 4375.76923105, 4314.74358989, 4122.56410229, 4112.17948691, 4103.58974332, 4117.56410229, 4136.41025621,8.57
4121.92307665, 4120.51282024, 4127.69230742, 4122.69230742, 4120.25640998, 4353.84615406, 4363.71794893, 4372.43589772, 4319.74358989, 4123.20512793, 4119.35897408, 4122.69230742, 4127.05128178, 4146.15384595,8.57
4112.94871767, 4117.05128178, 4111.28205101, 4116.79487152, 4119.23076896, 4359.74358996, 4373.20512849, 4383.58974387, 4331.15384630, 4122.17948691, 4113.20512793, 4100.38461504, 4118.58974332, 4134.10256383,8.57
4118.71794844, 4119.35897408, 4118.58974332, 4118.84615357, 4117.69230742, 4362.56410278, 4386.66666695, 4399.23076958, 4359.74358996, 4124.61538434, 4118.07692280, 4119.35897408, 4119.35897408, 4139.61538441,8.57
4124.99999973, 4125.64102537, 4124.74358947, 4121.15384588, 4119.99999973, 4360.00000021, 4377.30769259, 4391.66666695, 4356.28205149, 4124.87179460, 4122.82051255, 4128.58974332, 4122.43589716, 4140.76923056,8.57
4112.05128178, 4119.74358947, 4106.66666639, 4111.28205101, 4119.48717921, 4357.56410278, 4364.87179508, 4383.84615413, 4332.94871816, 4122.69230742, 4117.30769203, 4105.64102537, 4117.94871767, 4134.87179460,8.57
4127.05128178, 4126.15384588, 4126.53846126, 4122.05128178, 4117.82051255, 4366.15384644, 4375.38461567, 4401.15384651, 4353.20512842, 4124.10256383, 4124.99999973, 4136.53846133, 4127.30769203, 4151.02564082,8.57
4116.92307665, 4118.84615357, 4115.25640998, 4120.51282024, 4117.17948691, 4366.28205156, 4383.84615413, 4409.10256445, 4378.84615413, 4122.82051255, 4118.07692280, 4118.97435870, 4121.79487152, 4140.38461518,8.57
4115.38461511, 4114.48717921, 4114.61538434, 4118.84615357, 4117.30769203, 4351.53846175, 4368.97435926, 4385.51282079, 4350.00000021, 4121.66666639, 4119.10256383, 4121.41025614, 4121.15384588, 4143.46153826,8.57
4123.20512793, 4120.64102537, 4121.28205101, 4122.94871767, 4118.84615357, 4345.00000021, 4359.74358996, 4372.17948746, 4313.46153860, 4123.33333306, 4123.71794844, 4134.10256383, 4127.82051255, 4147.82051262,8.57
4105.76923050, 4115.38461511, 4103.71794844, 4114.74358947, 4118.33333306, 4343.71794893, 4365.00000021, 4382.82051310, 4311.15384630, 4123.46153819, 4116.53846126, 4105.38461511, 4123.33333306, 4137.69230749,8.57
4118.71794844, 4119.23076896, 4124.10256383, 4121.28205101, 4118.07692280, 4341.41025662, 4366.41025669, 4383.97435926, 4318.07692322, 4123.71794844, 4124.48717921, 4129.74358947, 4127.05128178, 4154.48717928,8.57
4116.02564075, 4114.61538434, 4115.51282024, 4118.33333306, 4116.28205101, 4353.58974380, 4371.28205156, 4386.02564131, 4335.38461560, 4124.61538434, 4118.33333306, 4117.43589716, 4121.02564075, 4145.64102544,8.57
4109.74358947, 4117.82051255, 4109.35897408, 4118.20512793, 4117.17948691, 4362.43589765, 4370.89743618, 4388.07692336, 4348.58974380, 4124.87179460, 4115.64102537, 4110.64102537, 4122.82051255, 4139.35897415,8.57
4119.10256383, 4128.97435870, 4121.79487152, 4124.23076896, 4120.76923050, 4340.89743611, 4351.53846175, 4363.84615406, 4327.17948732, 4123.84615357, 4122.82051255, 4126.53846126, 4128.84615357, 4144.23076903,8.57
4110.12820485, 4117.69230742, 4108.07692280, 4113.58974332, 4118.33333306, 4332.56410278, 4347.17948739, 4356.92307714, 4323.84615399, 4124.61538434, 4113.20512793, 4103.33333306, 4116.41025614, 4133.84615357,8.57
4122.43589716, 4118.58974332, 4126.66666639, 4120.12820485, 4116.92307665, 4354.87179508, 4366.02564131, 4387.30769259, 4355.76923098, 4123.46153819, 4118.46153819, 4125.89743562, 4120.51282024, 4144.10256390,8.57
4117.82051255, 4120.76923050, 4119.23076896, 4119.35897408, 4118.71794844, 4342.56410278, 4357.94871816, 4384.10256438, 4339.48717970, 4120.76923050, 4119.99999973, 4115.89743562, 4119.87179460, 4136.15384595,8.57
4113.46153819, 4120.64102537, 4111.66666639, 4115.38461511, 4119.23076896, 4314.87179501, 4336.28205149, 4351.15384637, 4302.05128219, 4123.84615357, 4117.56410229, 4106.66666639, 4117.17948691, 4135.64102544,8.57
4128.71794844, 4126.15384588, 4130.38461511, 4123.84615357, 4118.71794844, 4347.05128226, 4366.02564131, 4378.97435926, 4334.74358996, 4126.79487152, 4119.99999973, 4130.64102537, 4124.99999973, 4147.94871774,8.57
4116.15384588, 4118.58974332, 4111.79487152, 4115.38461511, 4118.46153819, 4380.64102592, 4393.97435926, 4414.35897471, 4368.84615413, 4123.58974332, 4113.33333306, 4107.05128178, 4118.84615357, 4135.38461518,8.57
4122.30769203, 4124.35897408, 4122.69230742, 4120.51282024, 4119.23076896, 4351.92307714, 4365.51282079, 4380.38461567, 4326.53846168, 4123.20512793, 4123.97435870, 4125.51282024, 4121.79487152, 4143.97435877,8.57
4120.51282024, 4124.35897408, 4122.30769203, 4121.79487152, 4117.43589716, 4328.84615399, 4350.76923098, 4357.05128226, 4293.20512828, 4125.38461511, 4122.30769203, 4125.76923050, 4123.46153819, 4143.33333313,8.57
4113.46153819, 4116.02564075, 4107.56410229, 4113.71794844, 4116.28205101, 4342.56410278, 4364.23076944, 4377.17948746, 4324.74358989, 4124.35897408, 4114.10256383, 4113.97435870, 4122.82051255, 4142.69230749,8.57
4127.05128178, 4120.76923050, 4122.82051255, 4120.12820485, 4117.94871767, 4348.58974380, 4362.56410278, 4390.64102592, 4363.97435919, 4126.02564075, 4124.87179460, 4137.43589723, 4128.46153819, 4153.33333313,8.57
4110.12820485, 4116.53846126, 4107.69230742, 4114.74358947, 4115.64102537, 4333.97435919, 4353.71794893, 4386.79487208, 4360.00000021, 4128.20512793, 4120.76923050, 4112.30769203, 4121.53846126, 4138.71794851,8.57
4114.61538434, 4120.25640998, 4115.89743562, 4117.82051255, 4116.02564075, 4324.35897450, 4354.35897457, 4389.23076951, 4339.35897457, 4125.76923050, 4119.61538434, 4123.71794844, 4124.23076896, 4145.76923056,8.57
4120.51282024, 4119.61538434, 4121.53846126, 4118.84615357, 4120.38461511, 4335.51282073, 4362.56410278, 4399.74359009, 4340.76923098, 4123.20512793, 4118.58974332, 4124.35897408, 4123.71794844, 4143.97435877,8.57
4106.28205101, 4112.94871767, 4109.10256383, 4112.82051255, 4118.33333306, 4347.43589765, 4366.66666695, 4394.10256438, 4342.56410278, 4122.82051255, 4115.51282024, 4101.28205094, 4120.76923050, 4135.51282031,8.57
4119.10256383, 4122.69230742, 4124.61538434, 4123.71794844, 4116.92307665, 4333.97435919, 4354.74358996, 4377.69230797, 4325.51282066, 4124.48717921, 4124.48717921, 4127.17948691, 4130.51282024, 4148.07692287,8.57
