AF3,F7,F3,FC5,T7,P7,O1,O2,P8,T8,FC6,F4,F8,AF4,Label
4127.56410229, 4126.15384588, 4127.05128178, 4126.66666639, 4124.10256383, 4120.51282024, 4143.71794851, 4177.69230756, 4169.99999986, 4126.41025614, 4123.46153819, 4123.46153819, 4126.02564075, 4144.74358954,8.57
4125.25640998, 4127.94871767, 4126.41025614, 4125.76923050, 4123.97435870, 4125.25640998, 4153.33333313, 4170.76923063, 4168.71794858, 4125.12820485, 4122.43589716, 4121.79487152, 4127.17948691, 4143.07692287,8.57
4116.66666639, 4126.15384588, 4125.38461511, 4123.84615357, 4121.41025614, 4127.05128178, 4165.76923056, 4183.33333320, 4172.94871781, 4127.56410229, 4120.25640998, 4120.64102537, 4128.46153819, 4143.07692287,8.57
4123.33333306, 4126.79487152, 4128.71794844, 4126.92307665, 4123.33333306, 4130.64102537, 4161.28205108, 4160.25641005, 4163.33333313, 4127.05128178, 4124.74358947, 4123.07692280, 4129.10256383, 4147.05128185,8.57
4124.23076896, 4126.02564075, 4125.51282024, 4125.64102537, 4123.97435870, 4125.64102537, 4141.66666646, 4123.20512793, 4151.15384595, 4125.64102537, 4125.64102537, 4120.89743562, 4128.07692280, 4143.07692287,8.57
4125.51282024, 4128.20512793, 4127.17948691, 4126.53846126, 4124.87179460, 4117.94871767, 4142.69230749, 4158.07692287, 4166.92307672, 4127.43589716, 4123.20512793, 4124.23076896, 4129.35897408, 4144.48717928,8.57
4109.23076896, 4119.61538434, 4112.94871767, 4122.05128178, 4123.20512793, 4116.53846126, 4158.07692287, 4207.69230763, 4187.30769217, 4128.20512793, 4125.64102537, 4119.74358947, 4130.12820485, 4145.64102544,8.57
4166.79487159, 4142.82051262, 4166.79487159, 4144.35897415, 4131.15384588, 4108.84615357, 4144.87179467, 4175.76923063, 4169.35897422, 4127.05128178, 4123.84615357, 4124.99999973, 4125.38461511, 4144.61538441,8.57
4125.38461511, 4125.38461511, 4127.17948691, 4125.76923050, 4125.89743562, 4101.53846119, 4122.56410229, 4124.99999973, 4138.84615364, 4129.99999973, 4126.53846126, 4123.46153819, 4128.46153819, 4146.66666646,8.57
3971.15384553, 4053.33333292, 3984.10256355, 4062.69230728, 4098.33333299, 4116.28205101, 4145.25641005, 4166.02564082, 4165.76923056, 4131.28205101, 4127.56410229, 4084.61538427, 4130.89743562, 4129.48717921,8.57
4346.41025662, 4225.12820506, 4331.41025655, 4214.99999993, 4156.41025621, 4144.23076903, 4184.48717935, 4221.28205122, 4202.17948711, 4125.38461511, 4111.92307665, 4159.23076903, 4114.48717921, 4151.66666646,8.57
4128.71794844, 4130.51282024, 4131.53846126, 4131.53846126, 4136.28205108, 4129.35897408, 4161.02564082, 4183.46153833, 4179.10256397, 4124.23076896, 4128.46153819, 4137.43589723, 4132.56410229, 4162.82051262,8.57
3549.61538316, 3853.07692225, 3593.58974220, 3888.46153770, 4031.79487131, 4091.02564068, 4123.58974332, 4138.46153826, 4156.79487159, 4131.28205101, 4135.51282031, 3983.20512765, 4142.17948697, 4096.02564068,8.57
4400.76923112, 4239.74358975, 4368.71794900, 4223.07692301, 4151.66666646, 4120.51282024, 4157.69230749, 4148.07692287, 4151.53846133, 4129.87179460, 4103.07692280, 4143.58974339, 4104.10256383, 4142.56410236,8.57
4512.69230825, 4307.56410271, 4484.61538511, 4284.61538469, 4193.97435884, 4141.02564082, 4181.02564089, 4175.25641012, 4161.41025621, 4125.12820485, 4124.48717921, 4229.99999993, 4125.25640998, 4201.41025634,8.57
3827.94871705, 3991.15384560, 3864.87179404, 4012.30769183, 4086.79487145, 4106.15384588, 4149.61538441, 4171.66666653, 4170.64102551, 4129.48717921, 4142.05128185, 4080.25640991, 4142.43589723, 4131.53846126,8.57
4165.38461518, 4141.79487159, 4160.89743569, 4137.30769210, 4128.46153819, 4101.41025607, 4135.12820485, 4150.38461518, 4152.30769210, 4131.53846126, 4118.97435870, 4117.82051255, 4117.17948691, 4130.51282024,8.57
4216.41025634, 4169.99999986, 4205.64102558, 4160.76923056, 4142.82051262, 4107.43589716, 4139.87179467, 4161.92307672, 4156.53846133, 4128.97435870, 4124.35897408, 4147.30769210, 4128.84615357, 4159.10256390,8.57
4050.38461497, 4091.66666632, 4057.56410215, 4098.20512786, 4114.48717921, 4105.76923050, 4148.71794851, 4178.07692294, 4174.87179474, 4128.46153819, 4129.99999973, 4110.38461511, 4133.20512793, 4140.89743569,8.57
4153.58974339, 4139.10256390, 4151.28205108, 4138.46153826, 4131.15384588, 4116.15384588, 4164.74358954, 4184.61538448, 4177.05128192, 4129.10256383, 4124.35897408, 4123.58974332, 4123.97435870, 4138.46153826,8.57
4127.30769203, 4129.74358947, 4130.76923050, 4127.43589716, 4127.69230742, 4122.69230742, 4168.07692287, 4181.53846140, 4168.46153833, 4127.05128178, 4126.92307665, 4128.07692280, 4127.56410229, 4141.41025621,8.57
4082.43589709, 4107.69230742, 4089.35897402, 4108.84615357, 4117.69230742, 4128.33333306, 4163.84615364, 4164.74358954, 4157.17948697, 4125.89743562, 4129.35897408, 4117.17948691, 4129.48717921, 4141.79487159,8.57
4124.99999973, 4123.46153819, 4124.10256383, 4125.89743562, 4125.76923050, 4117.69230742, 4154.99999980, 4156.53846133, 4160.12820492, 4125.64102537, 4123.58974332, 4114.87179460, 4128.07692280, 4143.97435877,8.57
4197.05128192, 4156.28205108, 4190.89743576, 4156.92307672, 4140.12820492, 4101.28205094, 4140.64102544, 4157.30769210, 4166.79487159, 4123.84615357, 4121.53846126, 4139.74358954, 4132.30769203, 4151.28205108,8.57
4140.51282031, 4133.07692280, 4143.33333313, 4136.41025621, 4131.02564075, 4121.79487152, 4146.79487159, 4156.15384595, 4164.87179467, 4126.15384588, 4127.43589716, 4136.41025621, 4135.38461518, 4147.05128185,8.57
4140.51282031, 4133.07692280, 4143.33333313, 4136.41025621, 4131.02564075, 4121.79487152, 4146.79487159, 4156.15384595, 4164.87179467, 4126.15384588, 4127.43589716, 4136.41025621, 4135.38461518, 4147.05128185,8.57
4086.53846119, 4108.07692280, 4091.66666632, 4112.05128178, 4119.61538434, 4144.74358954, 4172.17948704, 4173.84615371, 4168.97435884, 4128.58974332, 4129.10256383, 4115.12820485, 4129.35897408, 4141.53846133,8.57
4123.84615357, 4123.20512793, 4123.58974332, 4123.71794844, 4122.94871767, 4114.23076896, 4163.07692287, 4187.43589730, 4165.64102544, 4127.56410229, 4125.89743562, 4121.28205101, 4126.66666639, 4144.74358954,8.57
4252.82051282, 4186.28205115, 4245.25641026, 4177.30769217, 4143.58974339, 4090.38461504, 4138.97435877, 4158.20512800, 4149.48717928, 4126.66666639, 4121.66666639, 4158.20512800, 4126.41025614, 4155.38461518,8.57
4252.82051282, 4186.28205115, 4245.25641026, 4177.30769217, 4143.58974339, 4090.38461504, 4138.97435877, 4158.20512800, 4149.48717928, 4126.66666639, 4121.66666639, 4158.20512800, 4126.41025614, 4155.38461518,8.57
3998.71794817, 4070.89743555, 4016.02564054, 4075.51282017, 4104.23076896, 4104.48717921, 4141.15384595, 4147.56410236, 4162.17948697, 4126.28205101, 4130.12820485, 4109.87179460, 4135.76923056, 4140.25641005,8.57
4079.23076889, 4103.07692280, 4087.56410222, 4103.46153819, 4109.61538434, 4110.51282024, 4145.51282031, 4155.64102544, 4163.33333313, 4125.51282024, 4120.25640998, 4106.15384588, 4124.61538434, 4129.74358947,8.57
4418.71794907, 4266.02564103, 4396.79487208, 4247.69230770, 4172.17948704, 4105.89743562, 4137.69230749, 4137.17948697, 4129.61538434, 4125.76923050, 4116.28205101, 4189.48717935, 4121.53846126, 4167.56410236,8.57
3886.28205052, 4020.64102516, 3910.76923008, 4037.56410215, 4093.46153812, 4096.15384581, 4131.53846126, 4141.53846133, 4148.46153826, 4126.92307665, 4135.76923056, 4085.12820478, 4141.41025621, 4132.17948691,8.57
4004.74358926, 4063.71794830, 4011.02564054, 4072.43589709, 4096.53846119, 4114.23076896, 4148.46153826, 4158.97435877, 4173.84615371, 4125.38461511, 4124.87179460, 4086.28205094, 4123.20512793, 4120.38461511,8.57
4321.66666681, 4213.58974352, 4300.64102578, 4203.20512814, 4155.76923056, 4141.92307672, 4169.35897422, 4167.30769210, 4167.56410236, 4127.05128178, 4122.94871767, 4166.66666646, 4121.92307665, 4164.87179467,8.57
4006.66666618, 4070.51282017, 4020.51282003, 4081.92307658, 4111.28205101, 4133.84615357, 4169.35897422, 4186.15384602, 4182.69230756, 4128.58974332, 4132.30769203, 4104.10256383, 4134.10256383, 4140.64102544,8.57
4137.56410236, 4130.64102537, 4136.66666646, 4127.56410229, 4123.33333306, 4120.51282024, 4165.38461518, 4193.97435884, 4184.87179474, 4127.05128178, 4125.51282024, 4124.99999973, 4122.69230742, 4139.35897415,8.57
4143.97435877, 4138.07692287, 4141.66666646, 4128.84615357, 4128.20512793, 4107.56410229, 4156.92307672, 4183.07692294, 4166.92307672, 4130.25640998, 4123.58974332, 4128.46153819, 4126.79487152, 4148.20512800,8.57
4093.71794837, 4111.02564075, 4098.58974325, 4110.25640998, 4119.87179460, 4109.23076896, 4161.41025621, 4177.05128192, 4169.35897422, 4130.38461511, 4122.69230742, 4118.33333306, 4129.10256383, 4144.74358954,8.57
4146.28205108, 4136.66666646, 4146.28205108, 4134.23076896, 4128.33333306, 4119.74358947, 4168.84615371, 4177.94871781, 4181.41025628, 4126.15384588, 4124.74358947, 4134.48717921, 4127.05128178, 4151.02564082,8.57
4101.53846119, 4118.97435870, 4104.23076896, 4117.43589716, 4123.46153819, 4111.79487152, 4158.71794851, 4172.69230756, 4179.99999986, 4127.05128178, 4125.25640998, 4120.51282024, 4127.30769203, 4145.12820492,8.57
4132.56410229, 4127.94871767, 4131.02564075, 4128.46153819, 4127.69230742, 4110.89743562, 4151.66666646, 4159.10256390, 4164.35897415, 4128.07692280, 4126.28205101, 4133.07692280, 4129.74358947, 4148.46153826,8.57
4116.92307665, 4118.97435870, 4118.33333306, 4122.43589716, 4124.74358947, 4120.51282024, 4155.38461518, 4156.79487159, 4159.35897415, 4126.28205101, 4126.66666639, 4128.20512793, 4128.58974332, 4145.89743569,8.57
4116.53846126, 4123.07692280, 4119.23076896, 4123.97435870, 4124.48717921, 4123.71794844, 4164.99999980, 4178.20512807, 4178.46153833, 4126.79487152, 4126.28205101, 4126.53846126, 4126.15384588, 4146.92307672,8.57
4123.58974332, 4127.56410229, 4127.30769203, 4127.94871767, 4125.64102537, 4115.76923050, 4168.46153833, 4200.76923063, 4198.20512807, 4128.46153819, 4127.69230742, 4133.33333306, 4128.07692280, 4145.89743569,8.57
4117.94871767, 4121.28205101, 4121.53846126, 4124.23076896, 4123.58974332, 4108.97435870, 4161.66666646, 4185.64102551, 4187.05128192, 4127.56410229, 4127.82051255, 4126.28205101, 4128.33333306, 4138.71794851,8.57
4121.66666639, 4122.43589716, 4124.74358947, 4124.87179460, 4125.89743562, 4101.79487145, 4142.94871774, 4141.02564082, 4150.12820492, 4128.20512793, 4128.71794844, 4128.46153819, 4129.74358947, 4146.53846133,8.57
4119.61538434, 4124.48717921, 4123.97435870, 4125.51282024, 4126.79487152, 4090.64102530, 4134.23076896, 4134.99999973, 4143.71794851, 4128.84615357, 4126.79487152, 4128.20512793, 4127.56410229, 4150.64102544,8.57
4121.53846126, 4123.20512793, 4123.07692280, 4125.64102537, 4124.23076896, 4101.28205094, 4160.89743569, 4182.30769217, 4183.46153833, 4126.79487152, 4125.76923050, 4127.69230742, 4126.53846126, 4146.66666646,8.57
4120.38461511, 4119.35897408, 4122.17948691, 4124.48717921, 4122.69230742, 4126.02564075, 4179.74358961, 4196.53846140, 4199.74358961, 4126.79487152, 4126.79487152, 4133.33333306, 4131.28205101, 4146.02564082,8.57
4120.25640998, 4123.46153819, 4125.64102537, 4126.15384588, 4123.46153819, 4121.15384588, 4162.56410236, 4165.76923056, 4176.79487166, 4127.56410229, 4125.25640998, 4128.71794844, 4130.25640998, 4147.69230749,8.57
4119.61538434, 4125.38461511, 4123.58974332, 4125.25640998, 4123.58974332, 4102.05128171, 4150.76923056, 4162.05128185, 4171.41025628, 4126.92307665, 4124.99999973, 4126.66666639, 4126.79487152, 4152.43589723,8.57
4114.48717921, 4119.74358947, 4118.33333306, 4122.69230742, 4122.94871767, 4104.74358947, 4161.79487159, 4181.53846140, 4189.87179474, 4128.07692280, 4125.38461511, 4128.20512793, 4127.94871767, 4150.51282031,8.57
4116.79487152, 4123.58974332, 4124.48717921, 4124.99999973, 4123.58974332, 4106.41025614, 4157.69230749, 4171.66666653, 4181.28205115, 4128.71794844, 4123.84615357, 4128.58974332, 4130.38461511, 4146.28205108,8.57
4121.28205101, 4127.05128178, 4124.10256383, 4127.05128178, 4123.46153819, 4099.87179453, 4142.69230749, 4149.87179467, 4157.43589723, 4127.69230742, 4123.58974332, 4128.07692280, 4129.48717921, 4148.20512800,8.57
4121.92307665, 4121.41025614, 4119.23076896, 4126.79487152, 4122.94871767, 4109.35897408, 4151.66666646, 4165.89743569, 4166.92307672, 4129.35897408, 4123.84615357, 4124.10256383, 4127.17948691, 4151.28205108,8.57
4122.30769203, 4122.05128178, 4122.69230742, 4127.30769203, 4125.89743562, 4107.30769203, 4155.12820492, 4175.38461525, 4171.53846140, 4131.79487152, 4125.89743562, 4125.51282024, 4127.43589716, 4152.05128185,8.57
4121.41025614, 4126.66666639, 4122.94871767, 4126.41025614, 4125.38461511, 4088.46153812, 4137.94871774, 4147.43589723, 4150.89743569, 4128.46153819, 4127.56410229, 4125.76923050, 4126.79487152, 4147.56410236,8.57
4123.58974332, 4124.48717921, 4123.84615357, 4125.25640998, 4121.79487152, 4095.89743555, 4139.48717928, 4142.69230749, 4154.48717928, 4126.02564075, 4124.23076896, 4124.10256383, 4127.43589716, 4145.76923056,8.57
4125.76923050, 4122.69230742, 4124.35897408, 4125.51282024, 4122.17948691, 4120.51282024, 4159.74358954, 4166.02564082, 4178.20512807, 4127.94871767, 4122.30769203, 4125.38461511, 4130.76923050, 4147.17948697,8.57
4121.15384588, 4125.38461511, 4122.43589716, 4126.28205101, 4123.46153819, 4115.51282024, 4151.66666646, 4162.94871774, 4173.33333320, 4126.79487152, 4123.71794844, 4123.71794844, 4128.84615357, 4145.38461518,8.57
4117.94871767, 4124.61538434, 4125.38461511, 4126.28205101, 4122.05128178, 4095.51282017, 4127.94871767, 4139.61538441, 4151.92307672, 4125.64102537, 4124.74358947, 4125.12820485, 4125.12820485, 4147.94871774,8.57
4120.64102537, 4120.89743562, 4127.17948691, 4124.74358947, 4121.53846126, 4095.89743555, 4130.89743562, 4142.05128185, 4152.82051262, 4126.92307665, 4125.12820485, 4126.66666639, 4126.66666639, 4149.87179467,8.57
4125.64102537, 4124.48717921, 4126.53846126, 4125.12820485, 4122.82051255, 4104.61538434, 4147.05128185, 4161.53846133, 4167.05128185, 4126.92307665, 4124.23076896, 4123.20512793, 4127.05128178, 4146.53846133,8.57
4124.35897408, 4129.48717921, 4125.76923050, 4126.92307665, 4124.61538434, 4098.84615350, 4147.05128185, 4169.61538448, 4169.35897422, 4125.89743562, 4123.97435870, 4122.94871767, 4125.12820485, 4146.28205108,8.57
4117.43589716, 4125.64102537, 4122.05128178, 4126.15384588, 4124.23076896, 4086.53846119, 4138.20512800, 4160.89743569, 4163.20512800, 4126.53846126, 4123.20512793, 4121.92307665, 4124.23076896, 4146.92307672,8.57
4121.15384588, 4123.97435870, 4122.94871767, 4124.10256383, 4123.71794844, 4091.15384581, 4134.23076896, 4143.84615364, 4162.43589723, 4128.33333306, 4123.71794844, 4123.33333306, 4126.79487152, 4147.94871774,8.57
4125.76923050, 4125.25640998, 4124.23076896, 4122.43589716, 4124.99999973, 4114.48717921, 4141.15384595, 4137.30769210, 4160.76923056, 4129.87179460, 4123.33333306, 4124.99999973, 4126.92307665, 4149.35897415,8.57
4122.94871767, 4122.17948691, 4121.66666639, 4123.58974332, 4125.38461511, 4122.94871767, 4155.76923056, 4154.35897415, 4161.15384595, 4128.33333306, 4120.64102537, 4120.12820485, 4124.61538434, 4145.89743569,8.57
4123.58974332, 4122.82051255, 4124.87179460, 4126.53846126, 4124.87179460, 4104.48717921, 4158.84615364, 4179.74358961, 4173.33333320, 4127.05128178, 4123.46153819, 4121.53846126, 4126.28205101, 4144.74358954,8.57
4123.58974332, 4126.15384588, 4126.92307665, 4125.38461511, 4123.71794844, 4109.10256383, 4159.10256390, 4182.69230756, 4181.28205115, 4127.82051255, 4126.28205101, 4125.38461511, 4128.07692280, 4146.92307672,8.57
4122.69230742, 4124.61538434, 4123.71794844, 4124.23076896, 4121.92307665, 4130.25640998, 4161.28205108, 4164.10256390, 4175.51282038, 4125.89743562, 4124.61538434, 4122.94871767, 4125.51282024, 4146.41025621,8.57
4124.35897408, 4122.05128178, 4124.48717921, 4123.97435870, 4122.69230742, 4107.69230742, 4146.92307672, 4153.97435877, 4167.56410236, 4126.02564075, 4122.82051255, 4120.76923050, 4123.97435870, 4145.38461518,8.57
4123.33333306, 4124.35897408, 4124.99999973, 4123.46153819, 4123.71794844, 4086.53846119, 4141.92307672, 4170.12820499, 4168.58974345, 4127.69230742, 4122.43589716, 4121.02564075, 4126.02564075, 4146.02564082,8.57
4119.74358947, 4127.69230742, 4122.43589716, 4123.07692280, 4124.61538434, 4110.12820485, 4153.20512800, 4174.74358961, 4167.05128185, 4126.28205101, 4122.05128178, 4119.48717921, 4126.53846126, 4146.02564082,8.57
4122.43589716, 4127.17948691, 4125.38461511, 4123.33333306, 4125.12820485, 4120.89743562, 4148.97435877, 4148.33333313, 4158.20512800, 4126.28205101, 4121.41025614, 4120.25640998, 4125.25640998, 4147.43589723,8.57
4120.76923050, 4123.97435870, 4121.28205101, 4122.69230742, 4122.82051255, 4098.33333299, 4134.35897408, 4130.38461511, 4152.17948697, 4127.43589716, 4120.38461511, 4120.51282024, 4124.99999973, 4144.87179467,8.57
4120.51282024, 4126.15384588, 4118.20512793, 4124.74358947, 4122.05128178, 4098.84615350, 4135.76923056, 4136.28205108, 4147.56410236, 4127.82051255, 4121.41025614, 4119.61538434, 4125.64102537, 4143.71794851,8.57
4130.89743562, 4130.12820485, 4130.25640998, 4128.33333306, 4126.41025614, 4116.15384588, 4138.97435877, 4144.10256390, 4146.02564082, 4128.71794844, 4123.58974332, 4125.25640998, 4125.25640998, 4149.74358954,8.57
4121.02564075, 4120.64102537, 4125.89743562, 4123.20512793, 4125.25640998, 4107.05128178, 4135.38461518, 4148.58974339, 4151.15384595, 4129.74358947, 4121.15384588, 4118.97435870, 4121.28205101, 4144.35897415,8.57
4119.99999973, 4121.15384588, 4123.97435870, 4123.84615357, 4122.56410229, 4101.92307658, 4139.61538441, 4152.94871774, 4149.99999980, 4128.84615357, 4123.33333306, 4121.15384588, 4123.33333306, 4143.07692287,8.57
4129.10256383, 4128.97435870, 4130.12820485, 4124.99999973, 4123.33333306, 4115.51282024, 4143.84615364, 4157.94871774, 4148.46153826, 4128.46153819, 4125.89743562, 4128.84615357, 4126.41025614, 4148.58974339,8.57
4115.12820485, 4122.82051255, 4122.05128178, 4116.66666639, 4120.76923050, 4111.79487152, 4138.58974339, 4159.87179467, 4158.97435877, 4126.79487152, 4122.82051255, 4119.35897408, 4122.56410229, 4143.07692287,8.57
4124.35897408, 4124.61538434, 4129.87179460, 4124.35897408, 4122.94871767, 4099.99999966, 4142.05128185, 4159.48717928, 4168.33333320, 4126.92307665, 4126.02564075, 4122.82051255, 4123.46153819, 4143.71794851,8.57
4124.35897408, 4124.61538434, 4129.87179460, 4124.35897408, 4122.94871767, 4099.99999966, 4142.05128185, 4159.48717928, 4168.33333320, 4126.92307665, 4126.02564075, 4122.82051255, 4123.46153819, 4143.71794851,8.57
4129.87179460, 4123.33333306, 4124.99999973, 4127.56410229, 4124.74358947, 4112.17948691, 4161.53846133, 4173.20512807, 4169.23076910, 4129.61538434, 4125.38461511, 4118.46153819, 4127.82051255, 4140.51282031,8.57
4119.10256383, 4119.35897408, 4113.33333306, 4119.10256383, 4121.92307665, 4119.99999973, 4163.58974339, 4175.89743576, 4155.51282031, 4128.58974332, 4120.51282024, 4116.15384588, 4128.58974332, 4138.84615364,8.57
4128.71794844, 4127.43589716, 4128.84615357, 4123.71794844, 4123.46153819, 4101.53846119, 4140.12820492, 4149.74358954, 4140.25641005, 4125.64102537, 4122.82051255, 4128.20512793, 4125.12820485, 4146.92307672,8.57
4129.23076896, 4128.71794844, 4131.15384588, 4127.17948691, 4122.30769203, 4099.99999966, 4134.10256383, 4137.82051262, 4152.43589723, 4126.53846126, 4124.48717921, 4120.76923050, 4123.46153819, 4142.17948697,8.57
4124.87179460, 4125.64102537, 4126.28205101, 4125.51282024, 4121.28205101, 4113.71794844, 4147.05128185, 4151.02564082, 4165.12820492, 4128.71794844, 4123.46153819, 4119.61538434, 4129.10256383, 4140.51282031,8.57
4122.43589716, 4124.10256383, 4125.51282024, 4123.20512793, 4124.48717921, 4106.28205101, 4149.23076903, 4158.33333313, 4151.28205108, 4127.56410229, 4122.82051255, 4124.99999973, 4130.12820485, 4143.33333313,8.57
4124.10256383, 4125.25640998, 4126.15384588, 4123.84615357, 4123.84615357, 4087.43589709, 4136.53846133, 4154.61538441, 4140.12820492, 4124.99999973, 4123.46153819, 4120.76923050, 4126.02564075, 4141.15384595,8.57
4128.07692280, 4126.02564075, 4125.25640998, 4125.76923050, 4121.02564075, 4092.69230735, 4133.33333306, 4146.28205108, 4140.12820492, 4126.02564075, 4126.02564075, 4120.76923050, 4128.97435870, 4142.05128185,8.57
4123.84615357, 4123.20512793, 4121.41025614, 4123.46153819, 4121.28205101, 4112.82051255, 4146.92307672, 4147.56410236, 4145.25641005, 4127.43589716, 4125.12820485, 4121.02564075, 4131.15384588, 4141.53846133,8.57
4124.35897408, 4124.10256383, 4123.84615357, 4123.58974332, 4122.69230742, 4112.94871767, 4152.05128185, 4165.76923056, 4156.28205108, 4126.79487152, 4121.66666639, 4118.71794844, 4128.71794844, 4140.12820492,8.57
4123.58974332, 4124.35897408, 4119.61538434, 4122.69230742, 4121.66666639, 4108.97435870, 4148.20512800, 4173.07692294, 4158.97435877, 4127.94871767, 4121.53846126, 4120.51282024, 4126.02564075, 4141.02564082,8.57
4126.15384588, 4123.07692280, 4122.05128178, 4123.20512793, 4123.58974332, 4112.56410229, 4144.87179467, 4160.51282031, 4157.56410236, 4129.74358947, 4124.61538434, 4126.02564075, 4126.02564075, 4144.61538441,8.57
4127.43589716, 4123.33333306, 4126.66666639, 4124.74358947, 4124.48717921, 4104.35897408, 4131.02564075, 4142.94871774, 4149.10256390, 4128.84615357, 4124.74358947, 4122.05128178, 4127.69230742, 4144.61538441,8.57
4123.46153819, 4123.33333306, 4123.84615357, 4123.20512793, 4123.33333306, 4111.15384588, 4135.38461518, 4142.05128185, 4137.69230749, 4127.43589716, 4123.58974332, 4119.23076896, 4128.58974332, 4143.58974339,8.57
4119.74358947, 4120.38461511, 4122.56410229, 4123.46153819, 4124.23076896, 4131.02564075, 4162.17948697, 4165.25641005, 4154.35897415, 4126.53846126, 4124.48717921, 4123.84615357, 4127.94871767, 4141.02564082,8.57
4120.76923050, 4121.28205101, 4123.07692280, 4122.94871767, 4122.05128178, 4108.84615357, 4149.99999980, 4168.97435884, 4167.43589723, 4126.66666639, 4124.87179460, 4125.64102537, 4127.56410229, 4141.02564082,8.57
4122.94871767, 4125.51282024, 4122.17948691, 4124.10256383, 4119.10256383, 4083.71794837, 4123.20512793, 4143.33333313, 4145.12820492, 4126.15384588, 4124.99999973, 4125.12820485, 4128.20512793, 4149.10256390,8.57
4118.58974332, 4124.35897408, 4117.56410229, 4122.30769203, 4119.99999973, 4110.25640998, 4144.10256390, 4141.02564082, 4141.92307672, 4124.23076896, 4125.51282024, 4122.94871767, 4126.92307665, 4147.69230749,8.57
4123.33333306, 4125.12820485, 4123.33333306, 4120.25640998, 4122.17948691, 4127.94871767, 4161.02564082, 4157.69230749, 4160.64102544, 4124.87179460, 4127.30769203, 4125.76923050, 4126.28205101, 4141.02564082,8.57
4122.82051255, 4124.99999973, 4125.25640998, 4119.99999973, 4121.41025614, 4120.12820485, 4152.43589723, 4160.51282031, 4161.79487159, 4127.82051255, 4128.33333306, 4126.15384588, 4127.05128178, 4142.17948697,8.57
4120.51282024, 4124.35897408, 4122.05128178, 4122.82051255, 4121.15384588, 4124.48717921, 4150.89743569, 4153.46153826, 4154.74358954, 4127.56410229, 4129.61538434, 4122.30769203, 4126.15384588, 4146.15384595,8.57
4122.56410229, 4125.38461511, 4123.46153819, 4126.02564075, 4121.41025614, 4124.10256383, 4145.76923056, 4146.79487159, 4151.53846133, 4127.17948691, 4129.35897408, 4124.23076896, 4125.76923050, 4144.99999980,8.57
4115.76923050, 4123.84615357, 4120.89743562, 4122.82051255, 4121.66666639, 4117.30769203, 4143.07692287, 4156.66666646, 4158.33333313, 4127.69230742, 4124.74358947, 4126.53846126, 4126.92307665, 4140.89743569,8.57
4121.79487152, 4124.74358947, 4124.23076896, 4123.84615357, 4125.64102537, 4124.61538434, 4158.20512800, 4181.66666653, 4172.69230756, 4125.64102537, 4125.12820485, 4129.74358947, 4128.33333306, 4143.84615364,8.57
4122.43589716, 4124.61538434, 4119.87179460, 4123.58974332, 4125.12820485, 4120.12820485, 4156.28205108, 4182.82051269, 4166.79487159, 4126.41025614, 4127.82051255, 4129.48717921, 4127.82051255, 4145.25641005,8.57
4114.99999973, 4125.12820485, 4119.10256383, 4121.28205101, 4123.84615357, 4099.61538427, 4127.94871767, 4139.74358954, 4131.79487152, 4129.87179460, 4127.17948691, 4126.41025614, 4128.46153819, 4142.82051262,8.57
4119.23076896, 4125.25640998, 4127.30769203, 4124.48717921, 4125.12820485, 4105.89743562, 4126.79487152, 4125.64102537, 4123.33333306, 4128.46153819, 4126.15384588, 4127.82051255, 4129.10256383, 4143.20512800,8.57
4120.76923050, 4122.82051255, 4122.30769203, 4122.94871767, 4123.97435870, 4129.23076896, 4147.43589723, 4153.71794851, 4145.89743569, 4126.79487152, 4125.12820485, 4129.10256383, 4127.30769203, 4144.23076903,8.57
4121.79487152, 4127.17948691, 4120.51282024, 4121.92307665, 4126.41025614, 4126.92307665, 4141.53846133, 4146.79487159, 4143.46153826, 4128.20512793, 4126.92307665, 4128.84615357, 4124.99999973, 4146.66666646,8.57
4119.99999973, 4127.30769203, 4123.20512793, 4125.12820485, 4126.92307665, 4121.66666639, 4133.84615357, 4126.92307665, 4131.66666639, 4128.20512793, 4128.58974332, 4128.97435870, 4126.28205101, 4149.10256390,8.57
4118.46153819, 4120.64102537, 4123.20512793, 4127.82051255, 4122.43589716, 4139.23076903, 4147.69230749, 4141.15384595, 4146.02564082, 4127.05128178, 4125.25640998, 4128.97435870, 4129.74358947, 4147.69230749,8.57
4118.58974332, 4121.15384588, 4122.94871767, 4124.87179460, 4122.69230742, 4140.89743569, 4155.51282031, 4161.15384595, 4161.15384595, 4128.58974332, 4124.10256383, 4129.23076896, 4129.10256383, 4145.51282031,8.57
4116.66666639, 4125.25640998, 4121.92307665, 4122.05128178, 4126.41025614, 4124.74358947, 4152.69230749, 4158.71794851, 4157.82051262, 4129.99999973, 4128.20512793, 4129.99999973, 4127.30769203, 4145.76923056,8.57
4118.97435870, 4123.84615357, 4123.58974332, 4123.46153819, 4127.30769203, 4121.02564075, 4151.15384595, 4158.46153826, 4160.38461518, 4129.61538434, 4127.43589716, 4128.71794844, 4128.07692280, 4146.53846133,8.57
4119.23076896, 4122.30769203, 4122.30769203, 4122.82051255, 4124.35897408, 4115.51282024, 4145.89743569, 4182.30769217, 4169.48717935, 4128.71794844, 4124.48717921, 4130.12820485, 4128.84615357, 4147.17948697,8.57
4119.87179460, 4125.12820485, 4124.61538434, 4123.58974332, 4122.69230742, 4109.74358947, 4141.79487159, 4192.94871781, 4156.02564082, 4126.66666639, 4126.79487152, 4133.33333306, 4127.69230742, 4147.94871774,8.57
4117.05128178, 4124.48717921, 4124.74358947, 4124.61538434, 4124.10256383, 4117.43589716, 4141.15384595, 4165.12820492, 4127.17948691, 4126.28205101, 4125.76923050, 4127.30769203, 4126.92307665, 4146.92307672,8.57
4121.02564075, 4124.10256383, 4124.10256383, 4125.89743562, 4124.99999973, 4120.38461511, 4141.02564082, 4149.74358954, 4123.58974332, 4127.43589716, 4124.61538434, 4126.28205101, 4130.51282024, 4148.84615364,8.57
4126.41025614, 4125.25640998, 4123.46153819, 4125.38461511, 4123.46153819, 4119.74358947, 4141.15384595, 4163.46153826, 4140.51282031, 4126.53846126, 4126.92307665, 4132.05128178, 4130.38461511, 4149.23076903,8.57
4119.10256383, 4124.10256383, 4119.35897408, 4123.46153819, 4123.46153819, 4123.58974332, 4129.48717921, 4152.69230749, 4138.07692287, 4125.12820485, 4125.12820485, 4128.46153819, 4124.99999973, 4145.25641005,8.57
4121.66666639, 4126.66666639, 4126.41025614, 4127.43589716, 4126.15384588, 4119.35897408, 4125.51282024, 4147.94871774, 4138.58974339, 4125.89743562, 4125.64102537, 4126.92307665, 4126.15384588, 4148.84615364,8.57
4121.28205101, 4126.79487152, 4127.17948691, 4126.66666639, 4124.35897408, 4122.82051255, 4139.35897415, 4167.69230749, 4157.56410236, 4127.30769203, 4127.56410229, 4127.17948691, 4129.74358947, 4150.12820492,8.57
4116.15384588, 4124.23076896, 4120.12820485, 4121.79487152, 4122.69230742, 4134.10256383, 4140.64102544, 4163.33333313, 4157.56410236, 4127.69230742, 4125.76923050, 4126.66666639, 4127.94871767, 4145.89743569,8.57
4123.07692280, 4125.12820485, 4122.30769203, 4124.23076896, 4124.61538434, 4127.05128178, 4140.76923056, 4164.23076903, 4143.71794851, 4128.84615357, 4125.38461511, 4126.79487152, 4126.15384588, 4146.79487159,8.57
4125.89743562, 4126.53846126, 4123.20512793, 4126.15384588, 4123.33333306, 4108.46153819, 4142.05128185, 4167.94871774, 4137.69230749, 4128.97435870, 4125.38461511, 4122.82051255, 4126.79487152, 4148.33333313,8.57
4123.71794844, 4127.17948691, 4125.64102537, 4125.76923050, 4121.53846126, 4110.38461511, 4133.58974332, 4145.25641005, 4123.84615357, 4127.30769203, 4123.07692280, 4125.51282024, 4128.71794844, 4148.07692287,8.57
4121.53846126, 4124.74358947, 4125.64102537, 4124.87179460, 4122.82051255, 4126.53846126, 4134.23076896, 4148.33333313, 4124.87179460, 4127.30769203, 4123.20512793, 4127.82051255, 4131.02564075, 4145.25641005,8.57
4121.28205101, 4123.97435870, 4123.97435870, 4123.58974332, 4123.97435870, 4122.56410229, 4130.89743562, 4158.33333313, 4137.94871774, 4127.69230742, 4126.02564075, 4125.89743562, 4129.10256383, 4143.46153826,8.57
4121.79487152, 4127.43589716, 4124.61538434, 4125.25640998, 4123.33333306, 4119.61538434, 4128.33333306, 4148.20512800, 4132.05128178, 4128.20512793, 4125.38461511, 4126.79487152, 4127.43589716, 4145.51282031,8.57
4121.15384588, 4126.66666639, 4122.82051255, 4127.17948691, 4123.58974332, 4142.05128185, 4157.05128185, 4178.20512807, 4150.89743569, 4127.17948691, 4124.10256383, 4125.51282024, 4130.51282024, 4148.71794851,8.57
4119.74358947, 4122.17948691, 4119.99999973, 4124.99999973, 4124.48717921, 4144.10256390, 4156.28205108, 4187.69230756, 4168.58974345, 4126.15384588, 4124.48717921, 4123.33333306, 4129.61538434, 4150.51282031,8.57
4121.53846126, 4124.87179460, 4123.46153819, 4123.33333306, 4123.33333306, 4111.66666639, 4107.17948691, 4131.79487152, 4133.33333306, 4127.82051255, 4123.33333306, 4124.48717921, 4122.82051255, 4148.46153826,8.57
4124.61538434, 4127.30769203, 4127.30769203, 4125.38461511, 4122.30769203, 4119.61538434, 4120.76923050, 4141.15384595, 4128.20512793, 4128.84615357, 4124.10256383, 4125.51282024, 4122.17948691, 4146.02564082,8.57
4119.10256383, 4122.94871767, 4121.53846126, 4124.35897408, 4123.20512793, 4159.23076903, 4169.74358961, 4204.87179481, 4172.69230756, 4127.30769203, 4123.20512793, 4122.69230742, 4126.66666639, 4145.38461518,8.57
4119.48717921, 4123.71794844, 4122.56410229, 4123.46153819, 4126.02564075, 4140.89743569, 4136.41025621, 4171.92307679, 4153.20512800, 4126.66666639, 4121.02564075, 4124.23076896, 4127.05128178, 4146.28205108,8.57
4121.53846126, 4125.64102537, 4124.87179460, 4123.20512793, 4124.61538434, 4107.94871767, 4099.10256376, 4118.20512793, 4109.35897408, 4128.07692280, 4122.17948691, 4121.66666639, 4122.82051255, 4144.10256390,8.57
4122.69230742, 4126.02564075, 4124.99999973, 4124.35897408, 4123.46153819, 4131.92307665, 4129.99999973, 4140.25641005, 4128.71794844, 4129.23076896, 4123.58974332, 4118.33333306, 4123.20512793, 4145.51282031,8.57
4126.41025614, 4127.43589716, 4127.56410229, 4127.43589716, 4125.64102537, 4148.84615364, 4141.41025621, 4144.87179467, 4135.12820485, 4127.94871767, 4126.02564075, 4124.48717921, 4127.05128178, 4148.33333313,8.57
4120.12820485, 4124.10256383, 4121.92307665, 4126.79487152, 4121.66666639, 4123.46153819, 4122.94871767, 4131.79487152, 4120.38461511, 4124.99999973, 4127.30769203, 4124.48717921, 4125.12820485, 4143.07692287,8.57
4122.43589716, 4124.99999973, 4123.58974332, 4125.25640998, 4119.99999973, 4113.84615357, 4129.10256383, 4162.05128185, 4143.84615364, 4125.51282024, 4123.33333306, 4123.58974332, 4123.84615357, 4143.20512800,8.57
4124.35897408, 4125.89743562, 4126.28205101, 4121.92307665, 4123.20512793, 4138.20512800, 4150.38461518, 4193.46153833, 4172.69230756, 4127.82051255, 4118.97435870, 4122.30769203, 4125.51282024, 4145.25641005,8.57
4121.66666639, 4124.35897408, 4124.99999973, 4123.97435870, 4123.97435870, 4156.28205108, 4163.46153826, 4187.82051269, 4174.74358961, 4126.02564075, 4121.15384588, 4121.41025614, 4126.15384588, 4145.12820492,8.57
4126.92307665, 4126.92307665, 4128.20512793, 4129.23076896, 4123.07692280, 4143.20512800, 4150.51282031, 4166.92307672, 4154.10256390, 4125.12820485, 4125.76923050, 4126.41025614, 4126.53846126, 4144.10256390,8.57
4126.53846126, 4126.92307665, 4127.82051255, 4124.99999973, 4121.28205101, 4123.07692280, 4120.38461511, 4143.84615364, 4123.20512793, 4127.30769203, 4124.23076896, 4123.71794844, 4124.61538434, 4138.97435877,8.57
4125.38461511, 4126.15384588, 4126.53846126, 4123.71794844, 4122.94871767, 4130.64102537, 4120.64102537, 4134.23076896, 4123.20512793, 4127.17948691, 4122.17948691, 4120.12820485, 4125.12820485, 4141.92307672,8.57
4125.76923050, 4124.61538434, 4121.02564075, 4127.30769203, 4124.48717921, 4153.84615364, 4149.23076903, 4156.79487159, 4155.51282031, 4128.07692280, 4124.23076896, 4123.33333306, 4125.76923050, 4145.38461518,8.57
4125.51282024, 4123.97435870, 4118.33333306, 4126.41025614, 4123.58974332, 4159.61538441, 4157.43589723, 4172.69230756, 4164.74358954, 4128.33333306, 4125.51282024, 4125.76923050, 4124.35897408, 4139.61538441,8.57
4124.35897408, 4124.10256383, 4125.51282024, 4126.28205101, 4123.20512793, 4145.76923056, 4144.87179467, 4167.82051262, 4157.30769210, 4124.87179460, 4125.25640998, 4122.69230742, 4124.74358947, 4138.20512800,8.57
4126.79487152, 4122.82051255, 4129.35897408, 4128.84615357, 4124.99999973, 4131.79487152, 4140.76923056, 4164.35897415, 4156.02564082, 4124.35897408, 4124.23076896, 4119.87179460, 4124.23076896, 4144.35897415,8.57
4129.99999973, 4123.58974332, 4124.23076896, 4125.38461511, 4124.87179460, 4140.25641005, 4154.35897415, 4173.33333320, 4151.92307672, 4127.17948691, 4123.71794844, 4122.82051255, 4123.71794844, 4143.84615364,8.57
4124.48717921, 4124.61538434, 4121.41025614, 4121.79487152, 4123.71794844, 4142.82051262, 4147.69230749, 4165.12820492, 4140.12820492, 4126.53846126, 4124.99999973, 4126.02564075, 4125.25640998, 4139.48717928,8.57
4123.58974332, 4124.74358947, 4125.12820485, 4123.84615357, 4125.38461511, 4113.84615357, 4114.99999973, 4142.30769210, 4142.69230749, 4126.41025614, 4124.74358947, 4123.97435870, 4124.61538434, 4142.43589723,8.57
4128.46153819, 4123.07692280, 4123.07692280, 4124.61538434, 4124.35897408, 4107.17948691, 4114.99999973, 4146.53846133, 4154.48717928, 4128.97435870, 4122.82051255, 4120.89743562, 4122.82051255, 4146.02564082,8.57
4127.82051255, 4122.82051255, 4122.43589716, 4125.12820485, 4122.43589716, 4126.28205101, 4137.94871774, 4156.92307672, 4144.61538441, 4128.20512793, 4124.35897408, 4121.53846126, 4124.35897408, 4142.69230749,8.57
4122.43589716, 4122.43589716, 4122.43589716, 4123.71794844, 4121.79487152, 4130.51282024, 4144.23076903, 4156.53846133, 4132.82051255, 4125.51282024, 4125.76923050, 4122.30769203, 4125.38461511, 4138.46153826,8.57
4122.43589716, 4122.43589716, 4122.43589716, 4123.71794844, 4121.79487152, 4130.51282024, 4144.23076903, 4156.53846133, 4132.82051255, 4125.51282024, 4125.76923050, 4122.30769203, 4125.38461511, 4138.46153826,8.57
4122.17948691, 4123.58974332, 4121.41025614, 4121.53846126, 4120.89743562, 4130.38461511, 4143.07692287, 4155.89743569, 4140.38461518, 4126.41025614, 4124.10256383, 4122.69230742, 4126.02564075, 4139.99999980,8.57
4127.82051255, 4126.66666639, 4126.79487152, 4124.35897408, 4121.28205101, 4135.38461518, 4140.76923056, 4155.25641005, 4149.48717928, 4129.23076896, 4124.87179460, 4124.10256383, 4128.33333306, 4142.17948697,8.57
4124.74358947, 4122.43589716, 4123.97435870, 4124.87179460, 4120.64102537, 4130.64102537, 4131.41025614, 4150.12820492, 4137.30769210, 4129.99999973, 4126.15384588, 4122.69230742, 4125.12820485, 4140.89743569,8.57
4124.35897408, 4121.41025614, 4122.05128178, 4124.10256383, 4122.05128178, 4129.99999973, 4127.05128178, 4136.41025621, 4120.12820485, 4128.20512793, 4124.87179460, 4122.94871767, 4122.82051255, 4143.84615364,8.57
4124.10256383, 4123.84615357, 4122.82051255, 4123.46153819, 4123.07692280, 4138.71794851, 4127.56410229, 4126.28205101, 4123.46153819, 4128.33333306, 4125.25640998, 4121.92307665, 4125.89743562, 4143.84615364,8.57
4120.25640998, 4122.30769203, 4120.38461511, 4122.56410229, 4120.89743562, 4133.97435870, 4121.92307665, 4138.84615364, 4147.43589723, 4128.71794844, 4127.05128178, 4122.69230742, 4125.25640998, 4138.84615364,8.57
4128.46153819, 4125.12820485, 4126.28205101, 4124.35897408, 4122.30769203, 4122.43589716, 4118.46153819, 4150.25641005, 4153.58974339, 4126.41025614, 4126.92307665, 4129.61538434, 4124.35897408, 4140.51282031,8.57
4119.61538434, 4122.17948691, 4118.97435870, 4121.79487152, 4122.30769203, 4115.38461511, 4115.89743562, 4131.41025614, 4126.28205101, 4125.25640998, 4123.20512793, 4120.89743562, 4124.87179460, 4140.64102544,8.57
4120.64102537, 4126.28205101, 4119.99999973, 4123.58974332, 4122.30769203, 4119.87179460, 4123.46153819, 4129.99999973, 4122.05128178, 4128.58974332, 4123.71794844, 4122.43589716, 4127.56410229, 4145.25641005,8.57
4130.12820485, 4132.30769203, 4126.53846126, 4125.38461511, 4124.10256383, 4140.89743569, 4149.35897415, 4170.51282038, 4154.23076903, 4128.71794844, 4125.76923050, 4127.17948691, 4125.38461511, 4142.30769210,8.57
4113.33333306, 4122.05128178, 4113.20512793, 4118.33333306, 4123.07692280, 4162.56410236, 4166.79487159, 4187.30769217, 4165.12820492, 4124.99999973, 4123.46153819, 4114.35897408, 4122.05128178, 4135.76923056,8.57
4129.48717921, 4128.33333306, 4130.51282024, 4124.48717921, 4126.92307665, 4157.43589723, 4150.76923056, 4154.99999980, 4140.89743569, 4124.87179460, 4127.30769203, 4131.53846126, 4130.12820485, 4152.43589723,8.57
4122.30769203, 4127.94871767, 4124.48717921, 4122.69230742, 4122.94871767, 4137.69230749, 4132.43589716, 4144.48717928, 4133.71794844, 4126.66666639, 4125.38461511, 4124.99999973, 4127.30769203, 4142.43589723,8.57
4109.74358947, 4120.76923050, 4110.25640998, 4119.10256383, 4118.84615357, 4147.30769210, 4141.92307672, 4165.89743569, 4149.74358954, 4127.17948691, 4122.05128178, 4114.35897408, 4122.94871767, 4131.53846126,8.57
4144.48717928, 4129.35897408, 4138.84615364, 4131.92307665, 4127.30769203, 4149.99999980, 4134.35897408, 4149.99999980, 4148.46153826, 4127.69230742, 4128.33333306, 4139.48717928, 4130.38461511, 4149.10256390,8.57
4121.41025614, 4119.23076896, 4121.79487152, 4124.99999973, 4122.43589716, 4120.64102537, 4106.66666639, 4123.71794844, 4142.56410236, 4128.33333306, 4124.99999973, 4121.28205101, 4127.43589716, 4140.12820492,8.57
4116.53846126, 4121.15384588, 4120.38461511, 4123.71794844, 4120.64102537, 4116.92307665, 4114.74358947, 4142.69230749, 4146.28205108, 4127.94871767, 4124.23076896, 4123.07692280, 4127.17948691, 4141.41025621,8.57
4128.71794844, 4126.15384588, 4128.33333306, 4128.07692280, 4123.71794844, 4131.15384588, 4129.61538434, 4149.74358954, 4139.87179467, 4126.02564075, 4125.76923050, 4132.30769203, 4127.94871767, 4144.48717928,8.57
4111.41025614, 4118.07692280, 4113.33333306, 4122.43589716, 4120.38461511, 4137.05128185, 4125.51282024, 4128.58974332, 4124.23076896, 4126.79487152, 4124.61538434, 4119.87179460, 4125.76923050, 4137.94871774,8.57
4127.17948691, 4126.79487152, 4130.76923050, 4127.69230742, 4125.89743562, 4154.61538441, 4135.64102544, 4130.89743562, 4119.35897408, 4128.97435870, 4127.82051255, 4133.07692280, 4128.58974332, 4145.25641005,8.57
4114.48717921, 4120.38461511, 4116.41025614, 4119.61538434, 4124.74358947, 4166.02564082, 4151.28205108, 4151.92307672, 4137.94871774, 4127.82051255, 4123.71794844, 4122.30769203, 4124.35897408, 4139.99999980,8.57
4119.10256383, 4118.84615357, 4115.89743562, 4118.58974332, 4121.66666639, 4157.43589723, 4152.30769210, 4171.53846140, 4164.61538441, 4125.64102537, 4125.76923050, 4128.97435870, 4125.76923050, 4148.46153826,8.57
4132.94871767, 4126.15384588, 4131.02564075, 4126.28205101, 4121.79487152, 4153.33333313, 4140.12820492, 4156.79487159, 4146.02564082, 4126.92307665, 4128.97435870, 4137.69230749, 4128.58974332, 4149.61538441,8.57
4109.99999973, 4120.76923050, 4113.84615357, 4120.76923050, 4121.28205101, 4158.71794851, 4123.20512793, 4109.48717921, 4105.51282024, 4127.94871767, 4127.17948691, 4119.61538434, 4123.71794844, 4140.12820492,8.57
4124.87179460, 4127.30769203, 4125.76923050, 4126.92307665, 4126.15384588, 4162.69230749, 4119.48717921, 4107.05128178, 4119.35897408, 4126.41025614, 4131.79487152, 4131.53846126, 4127.17948691, 4149.87179467,8.57
4122.05128178, 4124.23076896, 4124.10256383, 4127.17948691, 4121.66666639, 4162.30769210, 4129.23076896, 4146.79487159, 4154.35897415, 4125.89743562, 4126.28205101, 4128.46153819, 4126.53846126, 4143.07692287,8.57
4116.41025614, 4122.69230742, 4118.58974332, 4123.33333306, 4121.79487152, 4161.02564082, 4135.12820485, 4159.48717928, 4154.23076903, 4127.69230742, 4123.46153819, 4127.69230742, 4125.51282024, 4145.12820492,8.57
4126.02564075, 4127.17948691, 4122.17948691, 4123.58974332, 4127.69230742, 4163.71794851, 4133.46153819, 4142.69230749, 4136.41025621, 4129.35897408, 4129.35897408, 4133.33333306, 4127.94871767, 4149.48717928,8.57
4111.41025614, 4117.82051255, 4110.25640998, 4119.87179460, 4123.07692280, 4162.82051262, 4137.43589723, 4139.23076903, 4131.15384588, 4127.82051255, 4126.15384588, 4119.48717921, 4125.76923050, 4140.76923056,8.57
4125.25640998, 4123.71794844, 4128.71794844, 4124.61538434, 4124.61538434, 4167.82051262, 4149.48717928, 4155.51282031, 4139.61538441, 4126.53846126, 4126.02564075, 4131.53846126, 4127.05128178, 4152.17948697,8.57
4124.74358947, 4127.30769203, 4128.84615357, 4121.53846126, 4126.15384588, 4186.28205115, 4159.10256390, 4168.20512807, 4153.33333313, 4127.56410229, 4126.92307665, 4131.92307665, 4123.97435870, 4151.66666646,8.57
4112.94871767, 4124.10256383, 4116.92307665, 4119.99999973, 4123.97435870, 4177.82051269, 4146.28205108, 4154.87179467, 4153.71794851, 4128.07692280, 4124.35897408, 4126.53846126, 4122.69230742, 4143.20512800,8.57
4123.58974332, 4126.02564075, 4126.53846126, 4124.74358947, 4123.07692280, 4158.71794851, 4132.17948691, 4139.61538441, 4143.07692287, 4128.33333306, 4123.71794844, 4133.71794844, 4128.20512793, 4145.12820492,8.57
4113.58974332, 4118.58974332, 4117.43589716, 4117.82051255, 4121.02564075, 4165.12820492, 4133.07692280, 4144.48717928, 4144.61538441, 4128.20512793, 4123.46153819, 4123.33333306, 4126.66666639, 4142.17948697,8.57
4125.89743562, 4125.38461511, 4128.46153819, 4123.58974332, 4128.20512793, 4175.89743576, 4125.38461511, 4137.56410236, 4146.02564082, 4127.69230742, 4128.84615357, 4133.33333306, 4127.56410229, 4151.66666646,8.57
4125.89743562, 4125.38461511, 4128.46153819, 4123.58974332, 4128.20512793, 4175.89743576, 4125.38461511, 4137.56410236, 4146.02564082, 4127.69230742, 4128.84615357, 4133.33333306, 4127.56410229, 4151.66666646,8.57
4126.02564075, 4127.56410229, 4128.71794844, 4126.15384588, 4127.30769203, 4170.89743576, 4111.41025614, 4112.69230742, 4125.76923050, 4127.17948691, 4128.07692280, 4131.79487152, 4128.20512793, 4149.23076903,8.57
4109.35897408, 4119.10256383, 4112.05128178, 4116.66666639, 4120.38461511, 4155.89743569, 4109.74358947, 4105.64102537, 4112.05128178, 4127.43589716, 4124.74358947, 4119.74358947, 4126.41025614, 4142.82051262,8.57
4129.23076896, 4126.66666639, 4127.05128178, 4122.30769203, 4126.02564075, 4151.02564082, 4122.43589716, 4128.84615357, 4133.97435870, 4128.07692280, 4127.30769203, 4131.41025614, 4128.84615357, 4152.17948697,8.57
4122.69230742, 4124.10256383, 4121.92307665, 4123.97435870, 4125.25640998, 4168.33333320, 4140.76923056, 4153.58974339, 4156.28205108, 4127.82051255, 4125.51282024, 4124.35897408, 4127.43589716, 4147.05128185,8.57
4116.28205101, 4122.43589716, 4119.87179460, 4122.05128178, 4122.94871767, 4189.87179474, 4141.66666646, 4142.69230749, 4140.25641005, 4128.58974332, 4122.94871767, 4127.94871767, 4129.48717921, 4147.17948697,8.57
4122.05128178, 4126.66666639, 4124.74358947, 4121.66666639, 4124.74358947, 4189.74358961, 4118.97435870, 4106.53846126, 4109.10256383, 4128.07692280, 4122.56410229, 4130.76923050, 4130.76923050, 4148.58974339,8.57
4116.92307665, 4123.07692280, 4118.33333306, 4119.61538434, 4123.46153819, 4193.46153833, 4105.89743562, 4088.46153812, 4088.84615350, 4127.05128178, 4126.15384588, 4119.74358947, 4128.97435870, 4144.48717928,8.57
4127.05128178, 4126.15384588, 4131.15384588, 4127.94871767, 4125.76923050, 4216.41025634, 4112.82051255, 4106.92307665, 4100.38461504, 4126.66666639, 4129.35897408, 4130.76923050, 4132.82051255, 4149.48717928,8.57
4113.46153819, 4120.89743562, 4121.92307665, 4122.82051255, 4123.58974332, 4228.84615378, 4112.43589716, 4127.82051255, 4130.12820485, 4124.61538434, 4120.76923050, 4124.61538434, 4128.97435870, 4143.20512800,8.57
4120.38461511, 4123.33333306, 4126.79487152, 4120.76923050, 4123.07692280, 4251.53846154, 4111.92307665, 4120.51282024, 4123.97435870, 4125.12820485, 4122.82051255, 4126.02564075, 4128.71794844, 4148.46153826,8.57
4127.56410229, 4125.51282024, 4134.74358947, 4123.58974332, 4122.94871767, 4280.51282059, 4120.38461511, 4124.48717921, 4105.89743562, 4129.48717921, 4128.58974332, 4128.07692280, 4131.02564075, 4147.30769210,8.57
4102.69230742, 4116.92307665, 4111.02564075, 4113.97435870, 4118.58974332, 4288.84615392, 4123.71794844, 4150.38461518, 4119.74358947, 4129.35897408, 4122.56410229, 4114.23076896, 4126.28205101, 4138.58974339,8.57
4133.07692280, 4131.79487152, 4132.82051255, 4124.87179460, 4127.56410229, 4290.00000007, 4109.10256383, 4126.53846126, 4118.58974332, 4126.53846126, 4127.43589716, 4138.58974339, 4129.10256383, 4156.02564082,8.57
4125.12820485, 4126.79487152, 4125.64102537, 4124.87179460, 4126.28205101, 4300.76923091, 4099.99999966, 4094.10256376, 4107.43589716, 4128.97435870, 4127.82051255, 4126.66666639, 4126.02564075, 4145.76923056,8.57
4109.74358947, 4119.23076896, 4113.33333306, 4120.25640998, 4122.30769203, 4320.00000014, 4111.66666639, 4110.89743562, 4118.07692280, 4128.58974332, 4122.82051255, 4116.15384588, 4127.43589716, 4144.61538441,8.57
4142.43589723, 4133.07692280, 4139.61538441, 4132.56410229, 4129.35897408, 4333.84615406, 4112.94871767, 4110.51282024, 4110.51282024, 4123.84615357, 4128.07692280, 4137.05128185, 4132.43589716, 4156.66666646,8.57
4106.79487152, 4116.66666639, 4110.64102537, 4122.94871767, 4121.28205101, 4326.15384630, 4090.89743555, 4080.38461504, 4088.33333299, 4125.12820485, 4123.46153819, 4107.30769203, 4122.17948691, 4132.05128178,8.57
4117.30769203, 4122.56410229, 4123.20512793, 4125.64102537, 4124.48717921, 4322.69230784, 4081.66666632, 4084.99999966, 4098.20512786, 4128.20512793, 4123.20512793, 4123.20512793, 4127.56410229, 4144.48717928,8.57
4136.02564082, 4131.79487152, 4136.41025621, 4127.17948691, 4127.82051255, 4363.07692329, 4102.56410229, 4112.43589716, 4114.10256383, 4126.79487152, 4124.35897408, 4134.74358947, 4130.89743562, 4152.30769210,8.57
4109.23076896, 4118.46153819, 4109.23076896, 4118.20512793, 4119.74358947, 4393.71794900, 4116.02564075, 4123.33333306, 4117.17948691, 4126.79487152, 4121.79487152, 4111.02564075, 4122.82051255, 4139.10256390,8.57
4134.87179460, 4129.61538434, 4135.12820485, 4130.12820485, 4128.07692280, 4376.15384644, 4108.20512793, 4135.12820485, 4131.79487152, 4130.51282024, 4127.05128178, 4134.10256383, 4129.48717921, 4150.12820492,8.57
4120.38461511, 4125.25640998, 4124.61538434, 4124.23076896, 4127.43589716, 4370.51282079, 4104.35897408, 4132.94871767, 4130.64102537, 4129.61538434, 4120.76923050, 4119.61538434, 4125.76923050, 4140.64102544,8.57
4115.25640998, 4122.69230742, 4118.07692280, 4121.53846126, 4124.10256383, 4396.41025669, 4115.12820485, 4109.35897408, 4101.66666632, 4128.20512793, 4120.25640998, 4115.89743562, 4123.20512793, 4144.48717928,8.57
4136.28205108, 4133.20512793, 4136.66666646, 4130.64102537, 4128.58974332, 4406.02564138, 4119.23076896, 4105.12820485, 4101.02564068, 4128.07692280, 4127.43589716, 4132.43589716, 4127.69230742, 4150.12820492,8.57
4114.10256383, 4123.58974332, 4118.33333306, 4121.92307665, 4123.84615357, 4388.33333362, 4104.48717921, 4109.74358947, 4119.23076896, 4127.05128178, 4124.61538434, 4113.97435870, 4123.84615357, 4137.30769210,8.57
4123.46153819, 4123.07692280, 4126.28205101, 4123.46153819, 4123.58974332, 4384.61538490, 4099.61538427, 4097.43589709, 4106.28205101, 4127.82051255, 4122.94871767, 4119.87179460, 4127.05128178, 4147.43589723,8.57
4128.20512793, 4126.66666639, 4128.46153819, 4127.82051255, 4125.89743562, 4391.66666695, 4105.25640998, 4089.61538427, 4092.30769196, 4127.05128178, 4121.53846126, 4122.82051255, 4128.33333306, 4147.69230749,8.57
4114.87179460, 4123.33333306, 4114.23076896, 4123.33333306, 4123.84615357, 4388.20512849, 4106.92307665, 4105.12820485, 4109.35897408, 4126.79487152, 4122.69230742, 4113.46153819, 4125.51282024, 4142.56410236,8.57
4128.20512793, 4125.12820485, 4126.02564075, 4123.97435870, 4125.64102537, 4378.71794900, 4105.38461511, 4119.48717921, 4129.35897408, 4129.10256383, 4125.76923050, 4121.15384588, 4127.69230742, 4149.10256390,8.57
4131.53846126, 4126.41025614, 4129.61538434, 4125.38461511, 4126.15384588, 4371.53846182, 4103.84615357, 4109.61538434, 4123.07692280, 4129.35897408, 4124.48717921, 4124.74358947, 4126.53846126, 4142.82051262,8.57
4120.76923050, 4123.46153819, 4118.46153819, 4123.58974332, 4122.17948691, 4364.48717970, 4106.28205101, 4105.51282024, 4105.76923050, 4128.07692280, 4122.94871767, 4117.43589716, 4124.87179460, 4136.66666646,8.57
4130.51282024, 4125.12820485, 4126.92307665, 4126.15384588, 4122.56410229, 4355.25641047, 4117.94871767, 4135.76923056, 4116.41025614, 4127.43589716, 4126.79487152, 4121.28205101, 4128.84615357, 4145.51282031,8.57
4127.56410229, 4123.71794844, 4128.07692280, 4123.84615357, 4122.69230742, 4354.61538483, 4129.61538434, 4152.17948697, 4132.30769203, 4127.17948691, 4126.53846126, 4119.35897408, 4124.99999973, 4140.64102544,8.57
4118.58974332, 4121.41025614, 4119.23076896, 4121.92307665, 4122.56410229, 4352.05128226, 4121.41025614, 4114.48717921, 4113.46153819, 4127.30769203, 4122.17948691, 4116.92307665, 4119.99999973, 4135.51282031,8.57
4133.07692280, 4127.56410229, 4131.66666639, 4128.84615357, 4125.89743562, 4329.87179501, 4097.43589709, 4083.46153812, 4095.25640991, 4129.48717921, 4124.35897408, 4129.48717921, 4127.05128178, 4148.97435877,8.57
4121.92307665, 4123.07692280, 4122.17948691, 4122.30769203, 4121.66666639, 4306.66666681, 4083.46153812, 4082.69230735, 4094.23076889, 4129.61538434, 4121.41025614, 4116.66666639, 4124.61538434, 4143.58974339,8.57
4126.15384588, 4124.99999973, 4122.82051255, 4124.10256383, 4121.92307665, 4317.82051296, 4095.51282017, 4076.15384581, 4086.53846119, 4129.35897408, 4122.17948691, 4120.38461511, 4123.84615357, 4142.56410236,8.57
4132.30769203, 4126.92307665, 4129.99999973, 4128.33333306, 4125.12820485, 4331.53846168, 4110.64102537, 4079.23076889, 4091.28205094, 4128.33333306, 4125.38461511, 4125.76923050, 4126.28205101, 4143.20512800,8.57
4115.38461511, 4120.25640998, 4117.17948691, 4118.84615357, 4122.30769203, 4313.46153860, 4115.76923050, 4110.89743562, 4116.79487152, 4124.87179460, 4123.46153819, 4108.71794844, 4121.02564075, 4135.64102544,8.57
4136.28205108, 4130.51282024, 4134.10256383, 4124.23076896, 4126.66666639, 4300.51282066, 4133.97435870, 4151.92307672, 4137.17948697, 4126.66666639, 4125.89743562, 4125.76923050, 4125.89743562, 4144.87179467,8.57
4124.48717921, 4126.41025614, 4121.41025614, 4123.58974332, 4124.99999973, 4311.15384630, 4156.02564082, 4167.30769210, 4143.20512800, 4130.51282024, 4123.71794844, 4120.64102537, 4126.79487152, 4138.58974339,8.57
4117.43589716, 4120.38461511, 4113.71794844, 4121.28205101, 4124.61538434, 4320.64102578, 4152.17948697, 4143.97435877, 4127.69230742, 4129.74358947, 4125.25640998, 4115.25640998, 4124.61538434, 4142.69230749,8.57
4137.82051262, 4125.76923050, 4134.48717921, 4126.79487152, 4126.53846126, 4307.43589758, 4130.89743562, 4126.79487152, 4111.41025614, 4126.53846126, 4126.79487152, 4127.43589716, 4126.41025614, 4150.51282031,8.57
4118.84615357, 4121.41025614, 4120.76923050, 4121.02564075, 4120.38461511, 4291.66666674, 4125.51282024, 4141.41025621, 4123.20512793, 4126.41025614, 4121.15384588, 4115.12820485, 4123.46153819, 4137.56410236,8.57
4127.94871767, 4128.33333306, 4127.69230742, 4125.76923050, 4125.76923050, 4285.76923084, 4118.46153819, 4132.94871767, 4130.64102537, 4128.71794844, 4127.30769203, 4127.94871767, 4125.76923050, 4146.53846133,8.57
4125.64102537, 4123.33333306, 4124.48717921, 4124.87179460, 4125.12820485, 4274.23076930, 4085.12820478, 4081.92307658, 4103.58974332, 4128.58974332, 4127.69230742, 4123.84615357, 4123.58974332, 4143.07692287,8.57
4113.71794844, 4117.30769203, 4112.94871767, 4118.33333306, 4118.33333306, 4263.07692308, 4069.74358940, 4056.53846113, 4075.76923043, 4127.56410229, 4121.53846126, 4113.58974332, 4121.66666639, 4138.71794851,8.57
4132.43589716, 4128.07692280, 4127.82051255, 4124.99999973, 4124.48717921, 4265.89743590, 4094.99999966, 4072.30769196, 4084.87179453, 4128.20512793, 4125.25640998, 4130.89743562, 4126.66666639, 4149.87179467,8.57
4117.30769203, 4121.92307665, 4116.02564075, 4122.05128178, 4123.97435870, 4264.35897436, 4117.17948691, 4096.41025607, 4118.84615357, 4129.35897408, 4125.38461511, 4121.02564075, 4124.48717921, 4140.76923056,8.57
4120.51282024, 4123.97435870, 4118.97435870, 4121.92307665, 4122.05128178, 4252.43589744, 4122.69230742, 4120.89743562, 4135.89743569, 4127.43589716, 4127.17948691, 4121.41025614, 4125.38461511, 4142.82051262,8.57
4128.97435870, 4126.79487152, 4125.76923050, 4124.48717921, 4123.71794844, 4252.05128206, 4128.46153819, 4126.53846126, 4121.92307665, 4125.76923050, 4127.30769203, 4125.38461511, 4125.25640998, 4143.20512800,8.57
4115.64102537, 4119.61538434, 4115.64102537, 4121.53846126, 4122.17948691, 4262.56410257, 4146.02564082, 4138.07692287, 4125.76923050, 4127.30769203, 4124.48717921, 4117.94871767, 4122.82051255, 4139.61538441,8.57
4125.89743562, 4125.89743562, 4126.53846126, 4126.15384588, 4123.46153819, 4259.23076923, 4159.10256390, 4165.12820492, 4145.64102544, 4128.46153819, 4128.84615357, 4127.69230742, 4128.07692280, 4149.99999980,8.57
4123.07692280, 4123.84615357, 4123.33333306, 4124.74358947, 4120.64102537, 4231.41025634, 4129.74358947, 4132.05128178, 4119.23076896, 4127.56410229, 4128.58974332, 4121.15384588, 4128.46153819, 4144.35897415,8.57
4117.43589716, 4120.51282024, 4117.05128178, 4121.53846126, 4118.71794844, 4217.43589737, 4107.43589716, 4080.89743555, 4088.46153812, 4126.28205101, 4125.76923050, 4118.58974332, 4125.89743562, 4140.76923056,8.57
4123.71794844, 4125.25640998, 4123.07692280, 4122.43589716, 4122.69230742, 4230.51282045, 4132.94871767, 4110.89743562, 4113.58974332, 4126.28205101, 4125.89743562, 4128.71794844, 4126.53846126, 4148.46153826,8.57
4118.20512793, 4123.07692280, 4118.97435870, 4123.71794844, 4123.71794844, 4220.89743583, 4131.66666639, 4136.15384595, 4134.74358947, 4126.53846126, 4123.97435870, 4122.30769203, 4125.76923050, 4145.25641005,8.57
4119.74358947, 4122.17948691, 4120.12820485, 4125.25640998, 4123.20512793, 4196.66666653, 4096.28205094, 4087.82051248, 4105.76923050, 4126.66666639, 4126.79487152, 4124.23076896, 4126.66666639, 4142.82051262,8.57
4125.51282024, 4123.84615357, 4127.05128178, 4124.10256383, 4123.07692280, 4209.23076917, 4108.46153819, 4073.46153812, 4094.35897402, 4128.71794844, 4130.51282024, 4133.84615357, 4130.76923050, 4148.46153826,8.57
4118.97435870, 4120.38461511, 4122.05128178, 4120.89743562, 4121.66666639, 4227.94871788, 4143.71794851, 4111.41025614, 4123.71794844, 4128.46153819, 4125.38461511, 4125.12820485, 4130.12820485, 4145.25641005,8.57
4121.02564075, 4121.15384588, 4121.92307665, 4123.97435870, 4121.66666639, 4220.51282045, 4145.12820492, 4121.53846126, 4129.48717921, 4124.61538434, 4122.56410229, 4125.12820485, 4126.02564075, 4141.92307672,8.57
4126.92307665, 4124.74358947, 4127.17948691, 4128.71794844, 4124.61538434, 4220.12820506, 4143.20512800, 4120.51282024, 4114.74358947, 4124.61538434, 4125.25640998, 4132.56410229, 4124.87179460, 4147.30769210,8.57
4116.53846126, 4120.64102537, 4120.89743562, 4124.35897408, 4125.76923050, 4219.35897429, 4150.12820492, 4126.41025614, 4115.12820485, 4128.58974332, 4124.35897408, 4122.56410229, 4125.76923050, 4144.61538441,8.57
4122.05128178, 4122.82051255, 4126.92307665, 4123.97435870, 4124.99999973, 4199.99999986, 4147.94871774, 4123.20512793, 4118.97435870, 4128.58974332, 4125.76923050, 4129.87179460, 4130.89743562, 4147.17948697,8.57
4124.10256383, 4122.56410229, 4124.99999973, 4123.97435870, 4121.53846126, 4187.94871781, 4140.12820492, 4121.15384588, 4114.61538434, 4125.89743562, 4125.64102537, 4135.12820485, 4131.79487152, 4148.46153826,8.57
4116.28205101, 4120.25640998, 4114.99999973, 4122.30769203, 4119.10256383, 4189.99999986, 4134.74358947, 4124.61538434, 4124.23076896, 4126.53846126, 4123.58974332, 4124.35897408, 4128.33333306, 4146.28205108,8.57
4128.46153819, 4127.82051255, 4124.87179460, 4126.02564075, 4122.69230742, 4190.12820499, 4132.69230742, 4107.43589716, 4127.05128178, 4125.76923050, 4125.76923050, 4129.10256383, 4128.97435870, 4150.25641005,8.57
4121.15384588, 4121.66666639, 4118.07692280, 4121.28205101, 4122.17948691, 4191.41025628, 4135.51282031, 4083.20512786, 4098.84615350, 4125.51282024, 4125.12820485, 4121.66666639, 4127.30769203, 4142.17948697,8.57
4119.10256383, 4119.61538434, 4120.38461511, 4121.92307665, 4123.97435870, 4189.35897422, 4148.20512800, 4106.41025614, 4098.33333299, 4127.94871767, 4126.15384588, 4124.87179460, 4128.07692280, 4144.99999980,8.57
4126.28205101, 4126.41025614, 4131.66666639, 4125.64102537, 4127.17948691, 4179.35897422, 4157.17948697, 4142.05128185, 4128.33333306, 4125.64102537, 4127.56410229, 4133.20512793, 4129.87179460, 4151.15384595,8.57
4113.46153819, 4121.28205101, 4120.38461511, 4121.53846126, 4121.28205101, 4183.71794858, 4158.20512800, 4126.15384588, 4127.94871767, 4124.10256383, 4125.25640998, 4123.84615357, 4128.33333306, 4143.71794851,8.57
4122.43589716, 4123.07692280, 4126.02564075, 4125.76923050, 4121.79487152, 4184.99999986, 4155.89743569, 4102.69230742, 4109.10256383, 4128.46153819, 4126.28205101, 4132.17948691, 4129.10256383, 4147.05128185,8.57
4122.56410229, 4124.23076896, 4126.79487152, 4124.87179460, 4124.87179460, 4163.46153826, 4148.97435877, 4117.05128178, 4115.38461511, 4129.10256383, 4122.82051255, 4127.43589716, 4126.28205101, 4145.64102544,8.57
4118.33333306, 4120.89743562, 4121.79487152, 4121.79487152, 4124.99999973, 4158.46153826, 4146.66666646, 4125.12820485, 4125.89743562, 4124.87179460, 4122.30769203, 4121.41025614, 4127.94871767, 4146.53846133,8.57
4125.76923050, 4120.64102537, 4123.84615357, 4124.87179460, 4124.87179460, 4173.97435884, 4146.66666646, 4101.79487145, 4114.48717921, 4125.12820485, 4125.12820485, 4126.66666639, 4131.15384588, 4147.56410236,8.57
4116.41025614, 4121.02564075, 4118.07692280, 4124.35897408, 4123.46153819, 4174.10256397, 4144.74358954, 4095.51282017, 4111.92307665, 4128.20512793, 4121.79487152, 4119.10256383, 4125.64102537, 4143.97435877,8.57
4123.97435870, 4126.53846126, 4126.28205101, 4127.43589716, 4126.41025614, 4171.41025628, 4149.61538441, 4115.38461511, 4118.33333306, 4127.82051255, 4125.76923050, 4126.66666639, 4127.43589716, 4153.97435877,8.57
4122.05128178, 4121.41025614, 4120.89743562, 4124.87179460, 4124.35897408, 4163.33333313, 4150.12820492, 4121.15384588, 4112.69230742, 4124.48717921, 4127.82051255, 4125.76923050, 4129.10256383, 4150.25641005,8.57
4114.87179460, 4118.46153819, 4116.66666639, 4121.15384588, 4121.92307665, 4145.76923056, 4140.64102544, 4107.30769203, 4108.33333306, 4123.84615357, 4124.48717921, 4120.89743562, 4126.41025614, 4145.64102544,8.57
4125.89743562, 4125.64102537, 4131.66666639, 4126.15384588, 4124.74358947, 4156.79487159, 4148.07692287, 4100.76923043, 4112.56410229, 4128.07692280, 4126.41025614, 4127.56410229, 4127.05128178, 4151.28205108,8.57
4120.64102537, 4119.99999973, 4124.87179460, 4124.23076896, 4122.17948691, 4165.89743569, 4162.17948697, 4107.56410229, 4113.07692280, 4127.82051255, 4126.53846126, 4122.43589716, 4126.41025614, 4144.87179467,8.57
4121.41025614, 4119.48717921, 4122.82051255, 4124.23076896, 4120.89743562, 4133.20512793, 4150.12820492, 4103.46153819, 4108.71794844, 4125.64102537, 4125.12820485, 4127.17948691, 4129.35897408, 4146.79487159,8.57
4123.20512793, 4122.69230742, 4125.51282024, 4127.05128178, 4122.05128178, 4117.82051255, 4139.35897415, 4087.69230735, 4097.69230735, 4129.35897408, 4123.97435870, 4126.02564075, 4128.58974332, 4149.23076903,8.57
4120.76923050, 4119.74358947, 4119.35897408, 4122.56410229, 4122.82051255, 4134.23076896, 4143.84615364, 4084.87179453, 4082.05128171, 4130.12820485, 4125.38461511, 4120.38461511, 4124.74358947, 4145.76923056,8.57
4127.56410229, 4121.53846126, 4124.99999973, 4120.64102537, 4125.12820485, 4128.07692280, 4141.79487159, 4098.71794837, 4095.89743555, 4126.53846126, 4128.71794844, 4127.43589716, 4126.41025614, 4147.94871774,8.57
4123.58974332, 4122.30769203, 4125.25640998, 4121.15384588, 4124.23076896, 4121.41025614, 4143.84615364, 4110.89743562, 4126.66666639, 4127.82051255, 4126.41025614, 4124.10256383, 4126.66666639, 4148.58974339,8.57
4121.53846126, 4122.56410229, 4121.41025614, 4123.20512793, 4122.30769203, 4130.76923050, 4138.20512800, 4090.89743555, 4105.38461511, 4129.48717921, 4121.28205101, 4119.61538434, 4126.15384588, 4147.17948697,8.57
4125.64102537, 4126.15384588, 4124.87179460, 4126.53846126, 4125.12820485, 4126.92307665, 4130.38461511, 4082.17948684, 4078.20512786, 4125.89743562, 4121.79487152, 4122.05128178, 4126.41025614, 4146.41025621,8.57
4119.74358947, 4125.25640998, 4124.87179460, 4124.35897408, 4124.99999973, 4126.02564075, 4147.43589723, 4124.23076896, 4117.56410229, 4126.15384588, 4126.66666639, 4123.07692280, 4128.07692280, 4146.15384595,8.57
4115.89743562, 4122.30769203, 4120.38461511, 4120.12820485, 4122.82051255, 4128.71794844, 4149.87179467, 4126.28205101, 4138.84615364, 4128.97435870, 4126.79487152, 4120.89743562, 4128.58974332, 4144.87179467,8.57
4124.35897408, 4122.69230742, 4124.48717921, 4123.97435870, 4124.35897408, 4115.89743562, 4122.69230742, 4064.87179446, 4090.12820478, 4127.30769203, 4122.05128178, 4121.28205101, 4127.69230742, 4146.53846133,8.57
4124.35897408, 4123.46153819, 4127.69230742, 4128.07692280, 4122.82051255, 4112.82051255, 4129.74358947, 4061.15384574, 4069.10256369, 4126.41025614, 4120.76923050, 4121.15384588, 4126.28205101, 4147.56410236,8.57
4120.64102537, 4124.99999973, 4123.58974332, 4124.23076896, 4120.51282024, 4124.10256383, 4153.20512800, 4103.20512793, 4096.92307658, 4126.41025614, 4122.17948691, 4119.35897408, 4124.99999973, 4143.71794851,8.57
4125.38461511, 4127.56410229, 4124.23076896, 4124.23076896, 4122.17948691, 4125.76923050, 4142.43589723, 4093.33333299, 4103.97435870, 4125.89743562, 4124.10256383, 4123.20512793, 4128.20512793, 4143.71794851,8.57
4122.82051255, 4124.99999973, 4123.97435870, 4126.66666639, 4121.41025614, 4111.79487152, 4126.53846126, 4072.94871761, 4097.30769196, 4127.17948691, 4124.99999973, 4120.38461511, 4129.23076896, 4147.82051262,8.57
4124.35897408, 4123.71794844, 4123.33333306, 4126.53846126, 4120.89743562, 4107.05128178, 4123.46153819, 4090.51282017, 4103.71794844, 4126.41025614, 4125.38461511, 4118.07692280, 4127.43589716, 4148.58974339,8.57
4128.71794844, 4124.35897408, 4123.46153819, 4125.51282024, 4123.97435870, 4122.69230742, 4130.89743562, 4115.76923050, 4115.89743562, 4124.87179460, 4124.35897408, 4118.20512793, 4125.12820485, 4142.43589723,8.57
4122.69230742, 4122.43589716, 4121.79487152, 4123.33333306, 4126.02564075, 4127.05128178, 4142.30769210, 4122.30769203, 4128.07692280, 4126.92307665, 4124.10256383, 4114.35897408, 4123.71794844, 4140.89743569,8.57
4123.97435870, 4123.84615357, 4125.76923050, 4124.48717921, 4126.53846126, 4119.10256383, 4138.58974339, 4094.74358940, 4113.46153819, 4128.46153819, 4127.43589716, 4119.61538434, 4125.38461511, 4145.25641005,8.57
4128.71794844, 4126.66666639, 4126.28205101, 4125.89743562, 4125.12820485, 4128.84615357, 4141.92307672, 4079.99999966, 4083.20512786, 4126.41025614, 4126.02564075, 4122.30769203, 4123.97435870, 4143.07692287,8.57
4123.97435870, 4123.84615357, 4123.20512793, 4124.99999973, 4122.05128178, 4134.23076896, 4148.97435877, 4103.46153819, 4082.05128171, 4127.30769203, 4121.92307665, 4118.71794844, 4123.20512793, 4139.23076903,8.57
4122.82051255, 4120.89743562, 4124.61538434, 4122.82051255, 4122.94871767, 4117.05128178, 4134.87179460, 4108.46153819, 4102.56410229, 4128.84615357, 4123.46153819, 4118.46153819, 4126.28205101, 4141.92307672,8.57
4128.20512793, 4122.69230742, 4124.74358947, 4122.82051255, 4125.38461511, 4120.25640998, 4133.07692280, 4101.41025607, 4113.71794844, 4127.30769203, 4124.87179460, 4119.10256383, 4127.43589716, 4142.69230749,8.57
4128.84615357, 4124.87179460, 4125.76923050, 4126.79487152, 4124.10256383, 4134.99999973, 4140.76923056, 4106.66666639, 4112.94871767, 4128.84615357, 4123.97435870, 4121.02564075, 4125.64102537, 4139.10256390,8.57
4123.97435870, 4124.10256383, 4129.10256383, 4127.69230742, 4122.43589716, 4132.43589716, 4123.20512793, 4086.28205094, 4104.35897408, 4130.64102537, 4123.07692280, 4120.64102537, 4124.74358947, 4137.56410236,8.57
4122.05128178, 4124.35897408, 4128.07692280, 4123.71794844, 4122.56410229, 4133.97435870, 4111.02564075, 4065.38461497, 4098.20512786, 4127.05128178, 4121.02564075, 4118.58974332, 4125.25640998, 4141.66666646,8.57
4123.46153819, 4126.66666639, 4124.99999973, 4123.97435870, 4124.23076896, 4136.92307672, 4115.38461511, 4076.53846119, 4095.25640991, 4125.76923050, 4122.82051255, 4120.89743562, 4126.66666639, 4147.17948697,8.57
4123.46153819, 4125.38461511, 4122.43589716, 4127.56410229, 4125.64102537, 4137.56410236, 4116.79487152, 4089.99999966, 4092.30769196, 4127.69230742, 4127.17948691, 4121.15384588, 4127.17948691, 4145.12820492,8.57
4123.58974332, 4124.74358947, 4123.71794844, 4125.76923050, 4124.48717921, 4141.79487159, 4131.66666639, 4125.64102537, 4119.48717921, 4126.41025614, 4125.12820485, 4117.94871767, 4125.64102537, 4145.89743569,8.57
4127.82051255, 4127.82051255, 4128.58974332, 4122.56410229, 4123.46153819, 4148.07692287, 4147.56410236, 4147.43589723, 4138.84615364, 4126.28205101, 4120.89743562, 4120.64102537, 4126.92307665, 4150.76923056,8.57
4123.97435870, 4125.89743562, 4123.07692280, 4122.30769203, 4125.12820485, 4160.38461518, 4141.66666646, 4100.64102530, 4102.43589709, 4128.97435870, 4121.15384588, 4119.10256383, 4127.82051255, 4144.48717928,8.57
4121.53846126, 4124.48717921, 4120.89743562, 4124.87179460, 4125.64102537, 4166.28205108, 4135.38461518, 4080.51282017, 4085.12820478, 4127.82051255, 4123.97435870, 4117.94871767, 4126.02564075, 4141.15384595,8.57
4127.43589716, 4125.38461511, 4128.20512793, 4124.61538434, 4122.05128178, 4158.71794851, 4139.61538441, 4122.94871767, 4118.58974332, 4127.30769203, 4123.58974332, 4123.33333306, 4127.56410229, 4146.53846133,8.57
4120.25640998, 4119.61538434, 4122.94871767, 4119.23076896, 4119.23076896, 4162.56410236, 4138.46153826, 4125.51282024, 4121.41025614, 4128.33333306, 4119.48717921, 4116.02564075, 4126.79487152, 4141.92307672,8.57
4122.82051255, 4121.92307665, 4123.07692280, 4123.71794844, 4125.76923050, 4172.17948704, 4121.15384588, 4088.58974325, 4087.30769196, 4126.15384588, 4122.56410229, 4117.69230742, 4124.35897408, 4140.76923056,8.57
4128.84615357, 4127.43589716, 4124.61538434, 4126.92307665, 4128.84615357, 4176.15384602, 4114.10256383, 4092.43589709, 4087.69230735, 4127.30769203, 4126.02564075, 4126.28205101, 4125.76923050, 4145.12820492,8.57
4122.05128178, 4123.46153819, 4118.46153819, 4122.30769203, 4124.23076896, 4186.02564089, 4112.82051255, 4097.17948684, 4094.99999966, 4130.51282024, 4121.79487152, 4120.64102537, 4126.79487152, 4141.66666646,8.57
4128.46153819, 4125.12820485, 4126.02564075, 4125.38461511, 4125.76923050, 4186.28205115, 4087.82051248, 4057.56410215, 4067.05128164, 4127.82051255, 4122.69230742, 4123.46153819, 4126.66666639, 4142.69230749,8.57
4124.74358947, 4124.48717921, 4123.71794844, 4124.48717921, 4124.87179460, 4179.48717935, 4073.97435863, 4034.99999952, 4056.79487138, 4125.38461511, 4125.51282024, 4124.23076896, 4125.89743562, 4142.69230749,8.57
4118.33333306, 4122.30769203, 4117.43589716, 4121.92307665, 4122.69230742, 4185.25641012, 4096.92307658, 4066.66666625, 4085.51282017, 4127.43589716, 4124.87179460, 4118.20512793, 4125.38461511, 4141.28205108,8.57
4125.76923050, 4126.79487152, 4124.61538434, 4125.38461511, 4125.38461511, 4193.71794858, 4108.58974332, 4088.07692273, 4089.99999966, 4128.58974332, 4125.12820485, 4119.61538434, 4125.76923050, 4144.35897415,8.57
4122.30769203, 4126.28205101, 4125.12820485, 4123.58974332, 4123.84615357, 4201.79487173, 4105.12820485, 4082.56410222, 4075.64102530, 4127.56410229, 4124.74358947, 4121.66666639, 4127.43589716, 4143.33333313,8.57
4121.79487152, 4125.25640998, 4125.12820485, 4122.69230742, 4123.33333306, 4213.20512814, 4117.17948691, 4090.51282017, 4091.15384581, 4127.05128178, 4124.48717921, 4126.02564075, 4129.48717921, 4142.17948697,8.57
4123.97435870, 4123.58974332, 4124.23076896, 4122.82051255, 4122.43589716, 4213.58974352, 4120.38461511, 4101.79487145, 4103.71794844, 4127.17948691, 4125.12820485, 4124.74358947, 4125.89743562, 4141.15384595,8.57
4120.89743562, 4122.56410229, 4122.17948691, 4121.79487152, 4120.64102537, 4203.46153840, 4106.41025614, 4095.89743555, 4091.79487145, 4128.58974332, 4126.02564075, 4122.82051255, 4123.58974332, 4141.66666646,8.57
4122.43589716, 4124.35897408, 4124.87179460, 4124.35897408, 4123.46153819, 4217.82051275, 4109.61538434, 4091.92307658, 4096.41025607, 4127.69230742, 4126.02564075, 4126.15384588, 4127.17948691, 4142.17948697,8.57
4122.30769203, 4121.66666639, 4122.30769203, 4124.48717921, 4124.61538434, 4238.07692308, 4119.87179460, 4095.89743555, 4105.64102537, 4124.99999973, 4125.51282024, 4123.71794844, 4126.92307665, 4141.79487159,8.57
4124.23076896, 4121.92307665, 4124.48717921, 4123.20512793, 4123.46153819, 4225.89743583, 4104.74358947, 4080.76923043, 4077.94871761, 4126.15384588, 4125.64102537, 4123.46153819, 4124.99999973, 4143.58974339,8.57
4125.51282024, 4125.25640998, 4126.79487152, 4122.30769203, 4123.58974332, 4211.66666660, 4088.71794837, 4058.07692266, 4055.12820472, 4129.99999973, 4125.51282024, 4125.89743562, 4124.87179460, 4143.58974339,8.57
4122.17948691, 4124.10256383, 4120.25640998, 4122.05128178, 4122.82051255, 4231.02564096, 4107.82051255, 4079.35897402, 4088.33333299, 4130.64102537, 4125.38461511, 4123.20512793, 4125.51282024, 4144.10256390,8.57
4121.02564075, 4121.15384588, 4121.53846126, 4124.23076896, 4122.69230742, 4244.48717949, 4119.48717921, 4104.61538434, 4114.61538434, 4128.71794844, 4125.25640998, 4123.84615357, 4126.92307665, 4145.51282031,8.57
4121.66666639, 4120.38461511, 4123.33333306, 4125.89743562, 4125.64102537, 4238.84615385, 4114.48717921, 4091.66666632, 4096.15384581, 4128.58974332, 4125.38461511, 4126.02564075, 4127.43589716, 4144.35897415,8.57
4122.43589716, 4122.17948691, 4120.38461511, 4124.74358947, 4126.02564075, 4244.35897436, 4126.15384588, 4096.41025607, 4092.43589709, 4129.74358947, 4126.28205101, 4124.23076896, 4128.46153819, 4143.97435877,8.57
4121.79487152, 4123.20512793, 4123.58974332, 4123.84615357, 4124.87179460, 4244.23076923, 4126.53846126, 4114.35897408, 4108.97435870, 4130.76923050, 4127.05128178, 4125.25640998, 4129.74358947, 4145.51282031,8.57
4118.33333306, 4121.66666639, 4125.51282024, 4126.15384588, 4124.99999973, 4236.53846154, 4106.41025614, 4089.48717914, 4101.28205094, 4128.20512793, 4126.28205101, 4129.74358947, 4129.10256383, 4145.25641005,8.57
4119.74358947, 4121.02564075, 4122.94871767, 4126.66666639, 4123.84615357, 4234.10256411, 4109.35897408, 4079.23076889, 4098.71794837, 4123.33333306, 4126.53846126, 4126.53846126, 4128.33333306, 4146.41025621,8.57
4123.71794844, 4121.41025614, 4122.69230742, 4122.82051255, 4122.56410229, 4218.97435891, 4114.35897408, 4097.05128171, 4105.51282024, 4124.35897408, 4126.41025614, 4123.71794844, 4128.84615357, 4148.84615364,8.57
4119.35897408, 4121.15384588, 4119.87179460, 4121.02564075, 4122.94871767, 4219.35897429, 4108.84615357, 4087.69230735, 4091.53846119, 4128.07692280, 4124.74358947, 4127.94871767, 4128.97435870, 4146.28205108,8.57
4119.10256383, 4125.12820485, 4119.61538434, 4123.07692280, 4125.12820485, 4229.61538455, 4110.64102537, 4077.82051248, 4086.66666632, 4128.84615357, 4126.41025614, 4127.69230742, 4127.43589716, 4145.51282031,8.57
4123.84615357, 4127.56410229, 4127.56410229, 4124.23076896, 4127.05128178, 4216.15384609, 4115.51282024, 4094.23076889, 4104.48717921, 4128.71794844, 4125.89743562, 4126.66666639, 4126.28205101, 4147.05128185,8.57
4118.84615357, 4121.66666639, 4124.23076896, 4123.58974332, 4124.23076896, 4212.56410250, 4127.05128178, 4109.35897408, 4115.12820485, 4127.94871767, 4123.58974332, 4127.30769203, 4126.66666639, 4147.05128185,8.57
4119.23076896, 4118.58974332, 4119.74358947, 4126.02564075, 4122.43589716, 4213.97435891, 4131.66666639, 4110.38461511, 4109.61538434, 4127.17948691, 4126.53846126, 4128.20512793, 4129.10256383, 4149.23076903,8.57
4122.94871767, 4121.53846126, 4123.84615357, 4125.64102537, 4123.07692280, 4196.41025628, 4128.20512793, 4116.53846126, 4107.69230742, 4127.94871767, 4127.17948691, 4127.30769203, 4129.23076896, 4148.33333313,8.57
4121.53846126, 4123.84615357, 4123.07692280, 4121.41025614, 4121.28205101, 4194.74358961, 4134.74358947, 4124.99999973, 4117.43589716, 4127.94871767, 4124.35897408, 4124.10256383, 4127.56410229, 4144.61538441,8.57
4125.25640998, 4124.48717921, 4125.25640998, 4123.97435870, 4121.66666639, 4207.30769224, 4137.17948697, 4111.53846126, 4118.97435870, 4126.15384588, 4125.51282024, 4127.82051255, 4128.20512793, 4146.53846133,8.57
4121.41025614, 4120.64102537, 4126.02564075, 4126.79487152, 4124.35897408, 4198.07692294, 4135.38461518, 4106.53846126, 4116.92307665, 4126.15384588, 4127.43589716, 4126.41025614, 4126.53846126, 4146.66666646,8.57
4117.30769203, 4119.87179460, 4123.33333306, 4125.76923050, 4125.51282024, 4183.46153833, 4137.82051262, 4123.97435870, 4125.51282024, 4127.69230742, 4127.69230742, 4124.35897408, 4127.17948691, 4146.79487159,8.57
4123.71794844, 4123.97435870, 4122.56410229, 4124.48717921, 4125.25640998, 4189.87179474, 4144.99999980, 4132.43589716, 4134.10256383, 4128.58974332, 4126.79487152, 4127.69230742, 4129.99999973, 4150.25641005,8.57
4121.66666639, 4121.79487152, 4121.92307665, 4123.33333306, 4122.69230742, 4198.97435884, 4148.20512800, 4114.35897408, 4128.33333306, 4128.58974332, 4121.53846126, 4124.10256383, 4128.84615357, 4149.48717928,8.57
4119.23076896, 4119.48717921, 4124.99999973, 4123.71794844, 4121.66666639, 4194.35897422, 4145.12820492, 4104.99999973, 4124.99999973, 4128.07692280, 4121.02564075, 4124.48717921, 4128.07692280, 4148.33333313,8.57
4123.07692280, 4123.71794844, 4128.20512793, 4124.23076896, 4125.12820485, 4171.53846140, 4133.84615357, 4123.07692280, 4133.58974332, 4128.20512793, 4126.53846126, 4127.82051255, 4128.07692280, 4147.69230749,8.57
4121.15384588, 4123.58974332, 4126.15384588, 4123.71794844, 4125.76923050, 4152.56410236, 4123.33333306, 4127.56410229, 4134.48717921, 4126.66666639, 4125.25640998, 4123.46153819, 4127.56410229, 4147.30769210,8.57
4119.74358947, 4119.23076896, 4124.48717921, 4122.82051255, 4122.82051255, 4156.66666646, 4127.94871767, 4115.38461511, 4128.84615357, 4124.48717921, 4122.94871767, 4124.61538434, 4128.33333306, 4150.51282031,8.57
4123.58974332, 4119.74358947, 4125.76923050, 4121.66666639, 4124.10256383, 4167.30769210, 4143.20512800, 4123.71794844, 4130.89743562, 4127.43589716, 4126.28205101, 4129.10256383, 4127.94871767, 4149.74358954,8.57
4119.48717921, 4122.05128178, 4121.15384588, 4119.87179460, 4126.28205101, 4177.05128192, 4158.71794851, 4155.76923056, 4144.99999980, 4129.10256383, 4125.51282024, 4123.46153819, 4125.89743562, 4144.23076903,8.57
4120.89743562, 4123.46153819, 4123.97435870, 4122.43589716, 4125.64102537, 4171.66666653, 4158.97435877, 4167.05128185, 4148.71794851, 4126.41025614, 4121.92307665, 4124.10256383, 4127.56410229, 4145.38461518,8.57
4124.23076896, 4120.25640998, 4127.94871767, 4123.97435870, 4124.35897408, 4159.99999980, 4156.02564082, 4147.69230749, 4135.38461518, 4125.76923050, 4124.10256383, 4127.30769203, 4125.89743562, 4147.94871774,8.57
4117.94871767, 4118.20512793, 4122.30769203, 4121.53846126, 4124.35897408, 4156.15384595, 4149.99999980, 4121.41025614, 4127.94871767, 4128.84615357, 4125.38461511, 4124.10256383, 4123.07692280, 4148.58974339,8.57
4125.12820485, 4125.64102537, 4128.46153819, 4124.35897408, 4126.15384588, 4148.46153826, 4136.02564082, 4103.46153819, 4128.07692280, 4129.35897408, 4124.48717921, 4127.30769203, 4127.94871767, 4151.15384595,8.57
4120.64102537, 4124.99999973, 4125.12820485, 4123.58974332, 4123.84615357, 4139.87179467, 4144.48717928, 4121.41025614, 4133.46153819, 4125.64102537, 4124.99999973, 4122.69230742, 4127.43589716, 4144.99999980,8.57
4114.10256383, 4119.74358947, 4118.71794844, 4121.28205101, 4121.92307665, 4138.46153826, 4152.56410236, 4134.99999973, 4133.33333306, 4124.61538434, 4123.71794844, 4119.35897408, 4124.87179460, 4144.61538441,8.57
4123.84615357, 4124.61538434, 4128.07692280, 4123.84615357, 4124.23076896, 4133.33333306, 4130.64102537, 4111.41025614, 4116.15384588, 4126.66666639, 4121.41025614, 4126.53846126, 4128.97435870, 4149.99999980,8.57
4123.97435870, 4126.66666639, 4127.56410229, 4124.35897408, 4124.35897408, 4124.10256383, 4116.66666639, 4103.07692280, 4112.05128178, 4127.30769203, 4121.66666639, 4123.46153819, 4130.25640998, 4144.99999980,8.57
4124.99999973, 4125.38461511, 4125.12820485, 4125.25640998, 4123.71794844, 4128.71794844, 4129.74358947, 4124.87179460, 4130.76923050, 4126.41025614, 4123.84615357, 4123.58974332, 4127.69230742, 4146.02564082,8.57
4124.23076896, 4123.46153819, 4124.35897408, 4124.61538434, 4123.97435870, 4131.79487152, 4138.07692287, 4132.17948691, 4136.02564082, 4126.53846126, 4124.35897408, 4124.48717921, 4126.41025614, 4147.82051262,8.57
4123.97435870, 4122.82051255, 4122.05128178, 4122.94871767, 4124.87179460, 4120.12820485, 4137.56410236, 4130.64102537, 4130.64102537, 4128.58974332, 4124.35897408, 4116.66666639, 4126.02564075, 4143.58974339,8.57
4129.23076896, 4126.15384588, 4125.12820485, 4124.61538434, 4127.30769203, 4114.23076896, 4144.23076903, 4137.69230749, 4133.58974332, 4127.43589716, 4122.17948691, 4117.30769203, 4125.25640998, 4143.97435877,8.57
4121.92307665, 4122.30769203, 4124.48717921, 4123.20512793, 4126.92307665, 4123.71794844, 4147.82051262, 4129.48717921, 4132.17948691, 4125.89743562, 4122.43589716, 4122.56410229, 4126.79487152, 4144.87179467,8.57
4118.46153819, 4117.56410229, 4125.12820485, 4122.82051255, 4124.48717921, 4131.53846126, 4141.66666646, 4110.89743562, 4126.92307665, 4127.69230742, 4124.87179460, 4122.30769203, 4127.17948691, 4142.82051262,8.57
4128.58974332, 4124.23076896, 4127.43589716, 4125.38461511, 4124.61538434, 4115.38461511, 4131.15384588, 4108.33333306, 4126.53846126, 4128.84615357, 4123.07692280, 4118.20512793, 4126.79487152, 4142.30769210,8.57
4128.58974332, 4128.33333306, 4125.38461511, 4123.58974332, 4126.66666639, 4097.43589709, 4129.10256383, 4119.48717921, 4131.28205101, 4127.17948691, 4123.58974332, 4118.97435870, 4128.07692280, 4143.71794851,8.57
4119.23076896, 4121.15384588, 4124.74358947, 4121.28205101, 4126.15384588, 4106.92307665, 4144.23076903, 4133.33333306, 4135.89743569, 4127.69230742, 4126.53846126, 4123.20512793, 4128.33333306, 4144.61538441,8.57
4121.92307665, 4121.28205101, 4126.02564075, 4124.35897408, 4124.87179460, 4118.84615357, 4150.38461518, 4140.64102544, 4134.99999973, 4129.48717921, 4124.35897408, 4121.53846126, 4125.38461511, 4145.38461518,8.57
4128.46153819, 4130.25640998, 4126.53846126, 4126.02564075, 4126.28205101, 4113.07692280, 4142.05128185, 4137.82051262, 4133.20512793, 4128.58974332, 4122.17948691, 4118.84615357, 4123.20512793, 4144.87179467,8.57
4123.71794844, 4127.43589716, 4125.51282024, 4122.69230742, 4126.41025614, 4111.02564075, 4148.58974339, 4141.15384595, 4140.51282031, 4128.46153819, 4122.69230742, 4119.87179460, 4122.94871767, 4141.79487159,8.57
4120.12820485, 4121.41025614, 4124.87179460, 4122.56410229, 4125.12820485, 4109.74358947, 4158.07692287, 4144.35897415, 4141.79487159, 4128.58974332, 4122.43589716, 4121.41025614, 4125.38461511, 4145.12820492,8.57
4125.76923050, 4124.74358947, 4125.51282024, 4124.99999973, 4125.89743562, 4091.41025607, 4142.94871774, 4130.38461511, 4130.64102537, 4126.66666639, 4123.33333306, 4122.05128178, 4128.33333306, 4149.23076903,8.57
4123.71794844, 4124.99999973, 4124.35897408, 4123.71794844, 4127.43589716, 4079.74358940, 4121.66666639, 4106.41025614, 4116.79487152, 4126.15384588, 4123.46153819, 4119.74358947, 4124.23076896, 4143.33333313,8.57
4121.28205101, 4124.23076896, 4125.51282024, 4121.41025614, 4127.17948691, 4095.76923043, 4132.82051255, 4103.97435870, 4114.99999973, 4127.69230742, 4122.05128178, 4118.46153819, 4121.79487152, 4140.25641005,8.57
4124.35897408, 4126.02564075, 4126.28205101, 4121.53846126, 4125.89743562, 4102.17948684, 4150.12820492, 4129.35897408, 4134.10256383, 4127.56410229, 4123.71794844, 4118.97435870, 4126.15384588, 4142.56410236,8.57
4122.56410229, 4124.61538434, 4123.20512793, 4123.84615357, 4123.84615357, 4075.89743555, 4119.87179460, 4107.69230742, 4122.94871767, 4126.41025614, 4124.35897408, 4118.07692280, 4126.92307665, 4141.41025621,8.57
4125.25640998, 4125.51282024, 4124.23076896, 4125.25640998, 4122.94871767, 4071.92307658, 4096.79487145, 4072.43589709, 4096.92307658, 4128.20512793, 4122.43589716, 4119.35897408, 4124.61538434, 4141.41025621,8.57
4128.97435870, 4125.12820485, 4122.94871767, 4122.94871767, 4121.41025614, 4102.94871767, 4136.41025621, 4120.64102537, 4128.46153819, 4129.74358947, 4123.71794844, 4121.41025614, 4125.25640998, 4144.61538441,8.57
4124.10256383, 4121.28205101, 4121.53846126, 4122.69230742, 4119.74358947, 4106.02564075, 4157.82051262, 4159.87179467, 4158.84615364, 4127.17948691, 4126.15384588, 4119.35897408, 4124.35897408, 4144.74358954,8.57
4125.76923050, 4122.82051255, 4127.82051255, 4126.15384588, 4122.56410229, 4085.89743555, 4125.89743562, 4110.89743562, 4124.74358947, 4126.79487152, 4123.71794844, 4118.07692280, 4122.56410229, 4141.41025621,8.57
4130.38461511, 4126.15384588, 4131.92307665, 4125.25640998, 4124.35897408, 4088.20512786, 4126.79487152, 4099.10256376, 4105.64102537, 4130.12820485, 4121.02564075, 4123.84615357, 4125.12820485, 4141.92307672,8.57
4124.10256383, 4124.23076896, 4126.15384588, 4122.30769203, 4124.23076896, 4096.92307658, 4158.97435877, 4161.66666646, 4137.94871774, 4129.10256383, 4124.23076896, 4122.69230742, 4125.25640998, 4141.41025621,8.57
4123.84615357, 4122.69230742, 4122.94871767, 4122.17948691, 4127.17948691, 4088.33333299, 4153.58974339, 4167.05128185, 4151.92307672, 4126.53846126, 4127.05128178, 4116.92307665, 4124.61538434, 4140.25641005,8.57
4127.94871767, 4124.23076896, 4124.61538434, 4122.56410229, 4126.28205101, 4085.12820478, 4134.61538434, 4113.33333306, 4128.58974332, 4128.20512793, 4124.74358947, 4120.89743562, 4127.82051255, 4142.94871774,8.57
4125.76923050, 4126.02564075, 4123.71794844, 4121.92307665, 4123.71794844, 4091.41025607, 4143.07692287, 4110.76923050, 4114.74358947, 4131.15384588, 4123.84615357, 4125.12820485, 4127.94871767, 4142.17948697,8.57
4127.43589716, 4127.94871767, 4125.76923050, 4123.33333306, 4125.89743562, 4081.02564068, 4144.48717928, 4139.48717928, 4126.79487152, 4129.74358947, 4125.64102537, 4125.51282024, 4124.48717921, 4139.99999980,8.57
4124.74358947, 4123.97435870, 4123.07692280, 4124.61538434, 4126.28205101, 4070.89743555, 4128.84615357, 4133.71794844, 4142.17948697, 4126.15384588, 4125.12820485, 4119.10256383, 4123.58974332, 4140.89743569,8.57
4123.84615357, 4121.66666639, 4120.25640998, 4124.61538434, 4123.07692280, 4077.94871761, 4125.64102537, 4118.46153819, 4142.82051262, 4127.05128178, 4124.74358947, 4119.99999973, 4125.12820485, 4145.38461518,8.57
4126.79487152, 4124.87179460, 4124.48717921, 4124.74358947, 4122.56410229, 4077.82051248, 4133.20512793, 4132.05128178, 4148.20512800, 4130.12820485, 4126.92307665, 4127.82051255, 4124.48717921, 4145.64102544,8.57
4121.15384588, 4122.94871767, 4123.33333306, 4122.69230742, 4124.87179460, 4070.89743555, 4142.56410236, 4148.07692287, 4158.07692287, 4128.07692280, 4126.41025614, 4123.07692280, 4124.61538434, 4141.53846133,8.57
4122.05128178, 4121.66666639, 4123.84615357, 4121.79487152, 4124.87179460, 4070.51282017, 4142.05128185, 4127.69230742, 4137.82051262, 4124.87179460, 4125.51282024, 4120.76923050, 4126.02564075, 4144.87179467,8.57
4126.41025614, 4125.64102537, 4124.99999973, 4122.17948691, 4124.87179460, 4071.02564068, 4136.66666646, 4121.28205101, 4128.07692280, 4127.05128178, 4125.89743562, 4121.92307665, 4123.71794844, 4145.51282031,8.57
4121.02564075, 4125.25640998, 4122.43589716, 4123.20512793, 4126.41025614, 4081.41025607, 4147.05128185, 4148.33333313, 4153.84615364, 4128.71794844, 4123.46153819, 4121.79487152, 4123.20512793, 4138.71794851,8.57
4118.84615357, 4121.79487152, 4124.61538434, 4123.97435870, 4127.17948691, 4098.33333299, 4156.92307672, 4141.15384595, 4147.05128185, 4126.79487152, 4123.84615357, 4127.56410229, 4126.92307665, 4139.99999980,8.57
4125.12820485, 4123.71794844, 4126.15384588, 4123.84615357, 4125.64102537, 4082.05128171, 4134.10256383, 4097.56410222, 4110.51282024, 4126.66666639, 4126.28205101, 4130.25640998, 4127.69230742, 4145.89743569,8.57
4123.46153819, 4126.28205101, 4119.61538434, 4124.10256383, 4125.12820485, 4056.41025600, 4121.15384588, 4115.76923050, 4129.10256383, 4127.82051255, 4124.23076896, 4122.56410229, 4124.61538434, 4144.35897415,8.57
4120.89743562, 4124.74358947, 4118.84615357, 4123.84615357, 4126.53846126, 4068.58974318, 4148.33333313, 4182.05128192, 4171.28205115, 4126.66666639, 4123.58974332, 4121.28205101, 4126.41025614, 4143.46153826,8.57
4123.84615357, 4123.97435870, 4123.97435870, 4122.82051255, 4125.12820485, 4080.76923043, 4154.87179467, 4166.28205108, 4157.56410236, 4125.38461511, 4127.69230742, 4128.33333306, 4128.97435870, 4144.74358954,8.57
4123.33333306, 4124.74358947, 4122.56410229, 4123.84615357, 4123.84615357, 4070.12820478, 4139.23076903, 4120.12820485, 4137.56410236, 4126.15384588, 4129.87179460, 4127.94871767, 4128.07692280, 4143.58974339,8.57
4128.46153819, 4123.97435870, 4126.41025614, 4127.56410229, 4127.17948691, 4064.35897395, 4137.43589723, 4124.99999973, 4141.28205108, 4128.97435870, 4128.07692280, 4127.56410229, 4129.10256383, 4147.69230749,8.57
4124.87179460, 4121.02564075, 4124.74358947, 4124.74358947, 4124.35897408, 4064.99999959, 4138.71794851, 4136.92307672, 4139.99999980, 4129.35897408, 4125.25640998, 4124.48717921, 4127.82051255, 4146.02564082,8.57
4120.12820485, 4122.43589716, 4120.89743562, 4120.76923050, 4120.38461511, 4069.99999966, 4142.43589723, 4141.15384595, 4138.07692287, 4126.28205101, 4124.99999973, 4121.79487152, 4126.66666639, 4143.84615364,8.57
4126.28205101, 4126.02564075, 4126.15384588, 4122.69230742, 4124.35897408, 4079.99999966, 4150.12820492, 4140.25641005, 4140.51282031, 4126.15384588, 4126.92307665, 4124.48717921, 4128.07692280, 4146.92307672,8.57
4125.51282024, 4123.33333306, 4123.97435870, 4123.71794844, 4126.53846126, 4072.43589709, 4142.94871774, 4125.51282024, 4140.89743569, 4129.48717921, 4125.38461511, 4123.20512793, 4128.84615357, 4145.76923056,8.57
4126.53846126, 4123.46153819, 4124.23076896, 4125.12820485, 4125.38461511, 4051.02564061, 4130.12820485, 4124.99999973, 4137.17948697, 4129.23076896, 4124.23076896, 4127.56410229, 4129.23076896, 4148.33333313,8.57
4123.58974332, 4126.66666639, 4124.74358947, 4125.12820485, 4125.64102537, 4055.51282010, 4137.69230749, 4150.89743569, 4144.74358954, 4126.41025614, 4126.53846126, 4128.97435870, 4125.76923050, 4150.25641005,8.57
4117.82051255, 4124.99999973, 4120.51282024, 4123.84615357, 4125.76923050, 4071.02564068, 4138.20512800, 4139.10256390, 4144.10256390, 4126.53846126, 4126.28205101, 4125.89743562, 4122.17948691, 4146.53846133,8.57
4121.28205101, 4122.30769203, 4121.53846126, 4125.64102537, 4124.87179460, 4068.97435856, 4124.23076896, 4103.84615357, 4124.48717921, 4127.82051255, 4124.10256383, 4128.07692280, 4127.30769203, 4145.64102544,8.57
4122.69230742, 4122.43589716, 4122.43589716, 4124.10256383, 4123.58974332, 4067.17948677, 4131.53846126, 4119.35897408, 4134.23076896, 4127.94871767, 4122.69230742, 4123.20512793, 4131.15384588, 4145.64102544,8.57
4125.64102537, 4125.25640998, 4125.76923050, 4121.79487152, 4125.76923050, 4070.64102530, 4152.94871774, 4159.35897415, 4172.05128192, 4128.58974332, 4123.84615357, 4120.38461511, 4127.69230742, 4145.38461518,8.57
4123.84615357, 4122.82051255, 4125.64102537, 4122.94871767, 4124.99999973, 4071.53846119, 4149.87179467, 4154.35897415, 4164.23076903, 4128.46153819, 4125.12820485, 4123.58974332, 4126.02564075, 4145.25641005,8.57
4117.17948691, 4120.12820485, 4121.41025614, 4123.71794844, 4123.58974332, 4066.92307651, 4132.69230742, 4119.74358947, 4119.99999973, 4127.05128178, 4125.38461511, 4127.05128178, 4129.99999973, 4146.28205108,8.57
4122.43589716, 4124.10256383, 4123.84615357, 4125.12820485, 4128.97435870, 4058.84615343, 4140.51282031, 4133.20512793, 4129.48717921, 4126.02564075, 4126.41025614, 4128.33333306, 4130.64102537, 4149.74358954,8.57
4124.10256383, 4123.20512793, 4124.23076896, 4124.87179460, 4128.07692280, 4055.12820472, 4149.74358954, 4154.23076903, 4153.71794851, 4126.92307665, 4126.53846126, 4122.94871767, 4123.46153819, 4149.74358954,8.57
4118.20512793, 4123.20512793, 4122.94871767, 4123.97435870, 4121.92307665, 4060.38461497, 4143.33333313, 4139.10256390, 4135.12820485, 4127.56410229, 4126.79487152, 4122.82051255, 4123.07692280, 4148.97435877,8.57
4119.74358947, 4126.79487152, 4123.84615357, 4124.99999973, 4124.48717921, 4062.69230728, 4141.92307672, 4146.15384595, 4135.89743569, 4127.69230742, 4126.28205101, 4125.12820485, 4128.07692280, 4148.97435877,8.57
4122.43589716, 4123.20512793, 4124.23076896, 4124.23076896, 4127.56410229, 4054.74358933, 4140.64102544, 4155.51282031, 4152.82051262, 4128.97435870, 4125.38461511, 4123.33333306, 4126.28205101, 4147.17948697,8.57
4122.05128178, 4121.15384588, 4126.79487152, 4123.46153819, 4124.48717921, 4056.53846113, 4135.51282031, 4129.23076896, 4142.17948697, 4129.48717921, 4126.92307665, 4124.87179460, 4126.28205101, 4146.92307672,8.57
4121.66666639, 4123.97435870, 4126.79487152, 4123.58974332, 4122.05128178, 4067.82051241, 4141.79487159, 4127.69230742, 4139.48717928, 4128.58974332, 4124.74358947, 4125.51282024, 4129.99999973, 4147.56410236,8.57
4122.05128178, 4123.97435870, 4123.58974332, 4123.20512793, 4121.92307665, 4069.99999966, 4148.46153826, 4157.82051262, 4155.12820492, 4126.66666639, 4121.28205101, 4124.10256383, 4130.12820485, 4147.56410236,8.57
4123.84615357, 4124.23076896, 4124.23076896, 4124.48717921, 4124.23076896, 4061.41025600, 4133.46153819, 4140.89743569, 4141.79487159, 4125.25640998, 4123.97435870, 4124.35897408, 4128.20512793, 4146.92307672,8.57
4124.23076896, 4125.64102537, 4126.79487152, 4124.48717921, 4128.71794844, 4051.79487138, 4113.58974332, 4102.05128171, 4116.53846126, 4126.66666639, 4126.66666639, 4124.10256383, 4130.12820485, 4146.41025621,8.57
4121.53846126, 4123.58974332, 4124.87179460, 4122.69230742, 4127.94871767, 4053.58974318, 4119.61538434, 4118.58974332, 4128.46153819, 4129.23076896, 4124.48717921, 4122.56410229, 4131.28205101, 4146.41025621,8.57
4121.15384588, 4122.05128178, 4122.56410229, 4124.48717921, 4123.71794844, 4057.82051241, 4140.76923056, 4157.56410236, 4150.64102544, 4128.07692280, 4123.20512793, 4124.48717921, 4129.35897408, 4145.38461518,8.57
4123.71794844, 4124.10256383, 4123.97435870, 4125.89743562, 4125.25640998, 4059.23076882, 4144.48717928, 4149.23076903, 4144.35897415, 4126.02564075, 4123.07692280, 4124.99999973, 4127.94871767, 4146.02564082,8.57
4124.48717921, 4123.97435870, 4125.38461511, 4124.48717921, 4126.41025614, 4069.48717907, 4137.56410236, 4128.07692280, 4139.99999980, 4129.10256383, 4122.82051255, 4122.30769203, 4125.38461511, 4148.71794851,8.57
4122.43589716, 4123.84615357, 4126.53846126, 4126.15384588, 4122.82051255, 4079.23076889, 4141.92307672, 4137.43589723, 4148.58974339, 4129.10256383, 4123.33333306, 4124.35897408, 4125.38461511, 4149.61538441,8.57
4120.51282024, 4126.41025614, 4125.38461511, 4127.69230742, 4122.05128178, 4070.25640991, 4138.97435877, 4137.82051262, 4133.84615357, 4126.02564075, 4124.23076896, 4122.69230742, 4127.56410229, 4147.56410236,8.57
4124.74358947, 4127.43589716, 4124.10256383, 4126.66666639, 4123.97435870, 4058.33333292, 4128.46153819, 4126.92307665, 4117.69230742, 4127.82051255, 4123.71794844, 4118.58974332, 4126.28205101, 4147.56410236,8.57
4127.05128178, 4125.12820485, 4123.07692280, 4126.53846126, 4123.71794844, 4067.30769189, 4129.35897408, 4127.56410229, 4136.02564082, 4127.56410229, 4122.43589716, 4122.82051255, 4126.15384588, 4148.71794851,8.57
4122.17948691, 4121.53846126, 4123.46153819, 4124.99999973, 4124.35897408, 4075.51282017, 4132.05128178, 4130.76923050, 4150.51282031, 4122.82051255, 4120.89743562, 4124.74358947, 4127.30769203, 4146.02564082,8.57
4119.48717921, 4123.33333306, 4126.41025614, 4122.17948691, 4124.87179460, 4073.33333299, 4134.48717921, 4146.92307672, 4149.74358954, 4124.35897408, 4120.38461511, 4117.82051255, 4125.12820485, 4144.23076903,8.57
4122.05128178, 4127.17948691, 4125.51282024, 4121.66666639, 4123.58974332, 4083.46153812, 4146.41025621, 4163.97435877, 4161.02564082, 4127.94871767, 4121.15384588, 4115.76923050, 4125.64102537, 4146.15384595,8.57
4123.97435870, 4124.99999973, 4124.10256383, 4123.46153819, 4122.56410229, 4095.12820478, 4148.58974339, 4154.23076903, 4163.84615364, 4124.99999973, 4121.02564075, 4119.74358947, 4126.79487152, 4147.17948697,8.57
4123.97435870, 4123.46153819, 4124.99999973, 4123.46153819, 4122.43589716, 4087.43589709, 4137.05128185, 4144.61538441, 4151.41025621, 4125.51282024, 4121.92307665, 4119.61538434, 4123.97435870, 4146.15384595,8.57
4123.33333306, 4127.43589716, 4125.25640998, 4121.79487152, 4123.84615357, 4069.61538420, 4127.17948691, 4142.69230749, 4144.74358954, 4128.46153819, 4124.10256383, 4119.35897408, 4124.48717921, 4143.97435877,8.57
4122.43589716, 4127.56410229, 4125.25640998, 4123.07692280, 4126.79487152, 4060.76923036, 4128.58974332, 4131.02564075, 4143.20512800, 4125.38461511, 4123.71794844, 4119.48717921, 4128.33333306, 4141.15384595,8.57
4123.84615357, 4123.07692280, 4125.38461511, 4125.51282024, 4127.82051255, 4070.76923043, 4148.33333313, 4144.74358954, 4152.69230749, 4125.38461511, 4122.56410229, 4117.82051255, 4128.07692280, 4141.66666646,8.57
4125.51282024, 4122.94871767, 4125.51282024, 4124.99999973, 4124.99999973, 4080.64102530, 4163.84615364, 4163.46153826, 4157.94871774, 4129.87179460, 4122.05128178, 4117.94871767, 4126.79487152, 4142.17948697,8.57
4126.15384588, 4123.97435870, 4124.99999973, 4124.48717921, 4123.97435870, 4063.84615343, 4148.46153826, 4154.35897415, 4153.33333313, 4130.25640998, 4121.53846126, 4119.10256383, 4126.53846126, 4139.87179467,8.57
4123.58974332, 4124.35897408, 4124.48717921, 4124.99999973, 4126.02564075, 4056.66666625, 4130.12820485, 4146.53846133, 4151.53846133, 4128.71794844, 4121.92307665, 4120.12820485, 4126.79487152, 4139.87179467,8.57
4121.79487152, 4126.02564075, 4122.69230742, 4124.87179460, 4127.43589716, 4076.79487145, 4135.38461518, 4147.69230749, 4147.56410236, 4129.74358947, 4123.07692280, 4119.35897408, 4126.79487152, 4140.25641005,8.57
4127.05128178, 4126.41025614, 4123.71794844, 4125.12820485, 4126.02564075, 4069.48717907, 4134.74358947, 4141.15384595, 4141.15384595, 4130.12820485, 4122.69230742, 4118.71794844, 4124.87179460, 4140.89743569,8.57
4127.69230742, 4126.02564075, 4127.30769203, 4124.23076896, 4125.25640998, 4044.99999959, 4115.64102537, 4128.46153819, 4135.38461518, 4128.58974332, 4123.33333306, 4120.25640998, 4125.38461511, 4142.56410236,8.57
4122.94871767, 4125.51282024, 4126.66666639, 4124.48717921, 4125.64102537, 4063.84615343, 4119.48717921, 4124.74358947, 4132.69230742, 4129.35897408, 4125.76923050, 4121.02564075, 4128.46153819, 4144.35897415,8.57
4124.74358947, 4128.07692280, 4126.53846126, 4128.97435870, 4125.38461511, 4091.92307658, 4147.43589723, 4143.33333313, 4147.05128185, 4129.23076896, 4123.07692280, 4119.23076896, 4126.41025614, 4145.76923056,8.57
4124.48717921, 4129.48717921, 4126.79487152, 4128.71794844, 4122.69230742, 4086.92307658, 4162.94871774, 4174.10256397, 4171.28205115, 4128.58974332, 4120.51282024, 4117.56410229, 4124.48717921, 4144.35897415,8.57
4122.17948691, 4126.79487152, 4125.25640998, 4123.71794844, 4121.53846126, 4082.17948684, 4153.46153826, 4175.76923063, 4176.28205115, 4129.10256383, 4124.99999973, 4119.87179460, 4125.25640998, 4143.07692287,8.57
4126.66666639, 4126.02564075, 4125.64102537, 4124.61538434, 4123.58974332, 4088.07692273, 4137.69230749, 4143.46153826, 4162.30769210, 4127.69230742, 4125.38461511, 4119.87179460, 4123.97435870, 4141.41025621,8.57
4127.56410229, 4126.92307665, 4126.15384588, 4127.30769203, 4124.35897408, 4099.23076889, 4150.38461518, 4137.56410236, 4155.38461518, 4125.89743562, 4122.05128178, 4116.92307665, 4123.71794844, 4137.94871774,8.57
4126.79487152, 4126.92307665, 4126.79487152, 4125.25640998, 4126.28205101, 4100.89743555, 4164.74358954, 4162.43589723, 4155.76923056, 4127.05128178, 4124.10256383, 4117.05128178, 4125.76923050, 4139.61538441,8.57
4127.82051255, 4123.97435870, 4124.87179460, 4123.07692280, 4126.66666639, 4083.71794837, 4146.92307672, 4173.97435884, 4161.15384595, 4126.66666639, 4124.61538434, 4116.53846126, 4124.48717921, 4141.53846133,8.57
4125.89743562, 4124.61538434, 4124.23076896, 4127.05128178, 4124.48717921, 4089.10256376, 4144.48717928, 4172.69230756, 4178.71794858, 4125.51282024, 4124.61538434, 4118.20512793, 4123.20512793, 4139.99999980,8.57
4124.35897408, 4125.76923050, 4125.64102537, 4128.20512793, 4125.25640998, 4108.58974332, 4157.17948697, 4159.23076903, 4174.23076910, 4127.43589716, 4126.15384588, 4120.51282024, 4126.41025614, 4139.99999980,8.57
4124.23076896, 4122.69230742, 4123.58974332, 4123.07692280, 4125.64102537, 4089.87179453, 4142.17948697, 4132.30769203, 4144.99999980, 4126.53846126, 4124.48717921, 4117.17948691, 4127.43589716, 4140.12820492,8.57
4127.43589716, 4124.99999973, 4124.99999973, 4122.82051255, 4123.46153819, 4074.10256376, 4146.41025621, 4147.30769210, 4157.56410236, 4125.25640998, 4123.33333306, 4118.07692280, 4125.64102537, 4142.05128185,8.57
4127.69230742, 4128.71794844, 4126.53846126, 4124.23076896, 4124.10256383, 4098.84615350, 4173.58974345, 4177.69230756, 4185.12820499, 4128.20512793, 4124.10256383, 4124.48717921, 4126.28205101, 4141.92307672,8.57
4123.07692280, 4127.05128178, 4123.07692280, 4124.23076896, 4127.43589716, 4106.28205101, 4155.64102544, 4154.87179467, 4156.02564082, 4128.07692280, 4122.05128178, 4122.94871767, 4128.58974332, 4141.53846133,8.57
4125.64102537, 4124.61538434, 4122.30769203, 4125.38461511, 4124.74358947, 4101.41025607, 4141.15384595, 4135.64102544, 4128.20512793, 4127.69230742, 4124.10256383, 4118.07692280, 4128.33333306, 4144.61538441,8.57
4126.53846126, 4122.69230742, 4123.46153819, 4125.51282024, 4119.87179460, 4111.92307665, 4166.02564082, 4162.69230749, 4155.64102544, 4129.23076896, 4129.35897408, 4119.74358947, 4126.66666639, 4143.46153826,8.57
4122.05128178, 4121.66666639, 4122.94871767, 4123.58974332, 4120.51282024, 4108.58974332, 4166.15384595, 4177.56410243, 4177.17948704, 4126.79487152, 4127.69230742, 4123.71794844, 4127.69230742, 4140.64102544,8.57
4123.58974332, 4123.58974332, 4121.92307665, 4123.20512793, 4122.56410229, 4105.76923050, 4153.07692287, 4164.48717928, 4162.82051262, 4125.89743562, 4122.94871767, 4121.53846126, 4128.07692280, 4139.23076903,8.57
4126.02564075, 4124.87179460, 4122.82051255, 4125.38461511, 4124.61538434, 4118.46153819, 4163.58974339, 4161.15384595, 4159.48717928, 4129.35897408, 4122.82051255, 4119.74358947, 4126.79487152, 4140.12820492,8.57
4123.84615357, 4123.58974332, 4124.74358947, 4124.74358947, 4126.66666639, 4107.82051255, 4163.33333313, 4164.61538441, 4173.33333320, 4128.84615357, 4126.02564075, 4123.84615357, 4126.79487152, 4142.30769210,8.57
4122.56410229, 4125.12820485, 4124.61538434, 4122.05128178, 4124.23076896, 4093.33333299, 4157.17948697, 4169.61538448, 4177.05128192, 4127.05128178, 4125.38461511, 4121.28205101, 4127.94871767, 4141.02564082,8.57
4124.48717921, 4125.89743562, 4124.10256383, 4121.79487152, 4121.53846126, 4105.12820485, 4179.48717935, 4194.87179474, 4181.53846140, 4128.33333306, 4124.48717921, 4118.71794844, 4128.58974332, 4141.79487159,8.57
4123.58974332, 4122.05128178, 4123.84615357, 4122.30769203, 4123.71794844, 4104.23076896, 4186.15384602, 4209.23076917, 4184.48717935, 4127.82051255, 4126.79487152, 4123.46153819, 4128.07692280, 4142.69230749,8.57
4123.97435870, 4123.46153819, 4124.74358947, 4123.97435870, 4125.76923050, 4085.76923043, 4151.79487159, 4176.41025628, 4165.12820492, 4125.89743562, 4124.74358947, 4124.10256383, 4126.28205101, 4140.89743569,8.57
4127.17948691, 4130.25640998, 4126.15384588, 4125.25640998, 4124.35897408, 4090.12820478, 4141.28205108, 4161.28205108, 4160.12820492, 4125.51282024, 4122.82051255, 4123.20512793, 4126.15384588, 4140.89743569,8.57
4123.84615357, 4127.05128178, 4124.35897408, 4123.84615357, 4122.82051255, 4103.46153819, 4162.82051262, 4190.38461525, 4188.07692294, 4126.92307665, 4126.28205101, 4123.84615357, 4128.84615357, 4141.66666646,8.57
4120.89743562, 4121.92307665, 4124.48717921, 4122.94871767, 4124.35897408, 4104.61538434, 4162.43589723, 4193.20512807, 4190.38461525, 4129.35897408, 4128.07692280, 4126.02564075, 4129.61538434, 4141.53846133,8.57
4120.51282024, 4123.71794844, 4125.51282024, 4123.84615357, 4125.25640998, 4104.99999973, 4150.51282031, 4170.76923063, 4166.28205108, 4128.20512793, 4125.38461511, 4124.35897408, 4126.15384588, 4140.64102544,8.57
4121.41025614, 4123.84615357, 4123.46153819, 4123.46153819, 4123.84615357, 4094.35897402, 4148.58974339, 4163.71794851, 4161.66666646, 4125.51282024, 4125.89743562, 4120.64102537, 4124.74358947, 4143.20512800,8.57
4123.58974332, 4121.28205101, 4123.71794844, 4123.07692280, 4124.74358947, 4074.99999966, 4141.53846133, 4157.82051262, 4161.53846133, 4124.87179460, 4128.07692280, 4124.23076896, 4129.10256383, 4145.51282031,8.57
4122.05128178, 4122.30769203, 4125.38461511, 4124.61538434, 4125.12820485, 4083.33333299, 4149.10256390, 4177.43589730, 4170.38461525, 4125.51282024, 4127.69230742, 4126.28205101, 4129.61538434, 4142.17948697,8.57
4123.33333306, 4125.89743562, 4125.38461511, 4124.74358947, 4123.58974332, 4102.30769196, 4171.66666653, 4212.94871788, 4194.23076910, 4127.17948691, 4126.92307665, 4124.23076896, 4126.28205101, 4141.15384595,8.57
4125.76923050, 4125.76923050, 4124.35897408, 4124.35897408, 4123.58974332, 4099.61538427, 4169.61538448, 4198.58974345, 4196.66666653, 4129.99999973, 4125.12820485, 4124.48717921, 4127.82051255, 4141.79487159,8.57
4120.51282024, 4121.28205101, 4123.07692280, 4122.94871767, 4124.23076896, 4101.79487145, 4157.82051262, 4165.89743569, 4175.64102551, 4127.94871767, 4122.94871767, 4124.61538434, 4129.61538434, 4142.17948697,8.57
4120.25640998, 4122.94871767, 4123.97435870, 4122.56410229, 4125.76923050, 4101.28205094, 4148.46153826, 4151.79487159, 4155.64102544, 4122.56410229, 4124.74358947, 4127.05128178, 4128.58974332, 4145.25641005,8.57
4126.15384588, 4128.33333306, 4123.84615357, 4123.58974332, 4125.12820485, 4075.38461504, 4134.61538434, 4148.97435877, 4150.76923056, 4125.12820485, 4127.82051255, 4124.10256383, 4127.56410229, 4144.99999980,8.57
4124.10256383, 4127.05128178, 4121.66666639, 4124.23076896, 4123.33333306, 4069.48717907, 4140.12820492, 4166.28205108, 4166.28205108, 4129.87179460, 4127.05128178, 4120.89743562, 4125.89743562, 4142.56410236,8.57
4122.94871767, 4125.64102537, 4123.97435870, 4125.76923050, 4124.35897408, 4085.89743555, 4148.71794851, 4171.15384602, 4168.71794858, 4126.66666639, 4125.51282024, 4128.84615357, 4127.17948691, 4145.76923056,8.57
4123.46153819, 4126.15384588, 4126.28205101, 4123.20512793, 4125.51282024, 4092.82051248, 4144.10256390, 4162.69230749, 4155.12820492, 4122.05128178, 4125.12820485, 4130.12820485, 4129.48717921, 4147.82051262,8.57
4122.05128178, 4124.74358947, 4125.76923050, 4120.38461511, 4124.10256383, 4099.99999966, 4160.51282031, 4179.74358961, 4171.02564089, 4125.76923050, 4125.51282024, 4128.33333306, 4130.12820485, 4147.30769210,8.57
4124.23076896, 4125.12820485, 4123.58974332, 4121.02564075, 4123.46153819, 4099.61538427, 4183.84615371, 4207.05128199, 4202.56410250, 4128.58974332, 4124.35897408, 4128.33333306, 4130.12820485, 4146.41025621,8.57
4123.71794844, 4125.51282024, 4121.92307665, 4122.17948691, 4125.64102537, 4092.69230735, 4175.64102551, 4200.12820499, 4197.05128192, 4123.97435870, 4122.05128178, 4121.15384588, 4128.84615357, 4144.87179467,8.57
4122.05128178, 4125.76923050, 4125.64102537, 4125.25640998, 4127.17948691, 4103.20512793, 4164.10256390, 4174.61538448, 4170.64102551, 4124.87179460, 4124.74358947, 4122.05128178, 4128.58974332, 4148.46153826,8.57
4119.35897408, 4125.25640998, 4123.97435870, 4125.89743562, 4125.76923050, 4101.66666632, 4165.12820492, 4170.25641012, 4171.15384602, 4129.74358947, 4125.51282024, 4127.05128178, 4127.94871767, 4149.10256390,8.57
4120.64102537, 4124.23076896, 4120.12820485, 4123.46153819, 4125.64102537, 4072.82051248, 4150.76923056, 4175.38461525, 4176.15384602, 4128.46153819, 4124.99999973, 4125.64102537, 4128.84615357, 4146.79487159,8.57
4123.97435870, 4123.33333306, 4121.53846126, 4121.92307665, 4126.53846126, 4068.07692266, 4138.71794851, 4171.41025628, 4163.20512800, 4123.71794844, 4125.25640998, 4123.33333306, 4128.97435870, 4146.92307672,8.57
4122.30769203, 4123.58974332, 4118.71794844, 4121.41025614, 4124.99999973, 4093.20512786, 4153.71794851, 4174.10256397, 4166.53846133, 4126.53846126, 4123.58974332, 4124.74358947, 4129.35897408, 4146.15384595,8.57
4126.79487152, 4126.41025614, 4120.51282024, 4123.84615357, 4126.28205101, 4113.58974332, 4174.35897422, 4182.43589730, 4183.20512807, 4132.17948691, 4124.61538434, 4130.89743562, 4132.56410229, 4148.84615364,8.57
4126.79487152, 4126.66666639, 4125.25640998, 4125.64102537, 4126.53846126, 4111.15384588, 4177.17948704, 4182.82051269, 4188.84615371, 4128.20512793, 4126.15384588, 4127.30769203, 4128.46153819, 4147.94871774,8.57
4118.46153819, 4125.25640998, 4123.71794844, 4123.97435870, 4122.05128178, 4091.92307658, 4169.87179474, 4193.84615371, 4199.99999986, 4122.56410229, 4125.76923050, 4122.17948691, 4126.28205101, 4144.23076903,8.57
4121.02564075, 4126.15384588, 4124.87179460, 4124.61538434, 4123.33333306, 4086.28205094, 4167.17948697, 4204.61538455, 4210.89743583, 4124.87179460, 4123.46153819, 4127.17948691, 4133.46153819, 4147.17948697,8.57
4123.84615357, 4125.51282024, 4121.92307665, 4124.99999973, 4127.94871767, 4103.46153819, 4171.66666653, 4184.99999986, 4187.05128192, 4127.94871767, 4121.28205101, 4124.10256383, 4132.94871767, 4146.79487159,8.57
4120.89743562, 4126.53846126, 4121.79487152, 4123.33333306, 4126.41025614, 4110.51282024, 4175.64102551, 4173.33333320, 4168.97435884, 4126.92307665, 4123.20512793, 4121.79487152, 4127.69230742, 4145.64102544,8.57
4120.38461511, 4127.43589716, 4125.38461511, 4122.30769203, 4122.05128178, 4088.58974325, 4165.89743569, 4181.41025628, 4181.28205115, 4125.25640998, 4123.58974332, 4126.53846126, 4128.46153819, 4147.43589723,8.57
4123.07692280, 4124.23076896, 4122.82051255, 4123.84615357, 4122.94871767, 4073.20512786, 4158.84615364, 4188.46153833, 4189.99999986, 4124.23076896, 4122.94871767, 4124.74358947, 4129.23076896, 4146.28205108,8.57
4125.64102537, 4125.76923050, 4124.61538434, 4127.17948691, 4127.94871767, 4084.61538427, 4167.17948697, 4194.61538448, 4192.43589730, 4125.25640998, 4124.10256383, 4123.58974332, 4127.69230742, 4146.66666646,8.57
4123.84615357, 4127.43589716, 4125.12820485, 4124.87179460, 4128.07692280, 4099.23076889, 4172.56410243, 4189.48717935, 4185.76923063, 4128.33333306, 4124.10256383, 4125.12820485, 4127.30769203, 4145.89743569,8.57
4122.82051255, 4125.76923050, 4120.25640998, 4122.17948691, 4125.64102537, 4102.30769196, 4168.33333320, 4176.02564089, 4176.92307679, 4128.71794844, 4122.43589716, 4123.84615357, 4128.33333306, 4145.89743569,8.57
4124.74358947, 4124.87179460, 4124.35897408, 4124.87179460, 4126.53846126, 4101.02564068, 4168.71794858, 4179.99999986, 4186.15384602, 4126.02564075, 4123.33333306, 4123.97435870, 4129.10256383, 4148.71794851,8.57
4123.58974332, 4124.87179460, 4128.46153819, 4124.23076896, 4127.17948691, 4101.92307658, 4170.89743576, 4189.61538448, 4195.76923063, 4125.38461511, 4123.33333306, 4124.87179460, 4128.58974332, 4146.41025621,8.57
4122.17948691, 4125.12820485, 4122.17948691, 4122.30769203, 4124.23076896, 4105.25640998, 4168.46153833, 4177.69230756, 4180.89743576, 4127.05128178, 4120.76923050, 4123.07692280, 4127.30769203, 4144.74358954,8.57
4123.07692280, 4125.76923050, 4122.69230742, 4124.99999973, 4125.25640998, 4106.66666639, 4173.46153833, 4175.89743576, 4174.48717935, 4128.07692280, 4120.38461511, 4123.33333306, 4127.30769203, 4149.99999980,8.57
4121.79487152, 4124.10256383, 4126.28205101, 4122.56410229, 4126.28205101, 4101.15384581, 4183.07692294, 4200.38461525, 4194.99999986, 4125.89743562, 4122.30769203, 4122.43589716, 4127.56410229, 4147.82051262,8.57
4125.76923050, 4123.58974332, 4124.87179460, 4122.82051255, 4122.69230742, 4100.38461504, 4174.61538448, 4198.33333320, 4196.79487166, 4125.64102537, 4124.23076896, 4121.79487152, 4126.41025614, 4141.53846133,8.57
4128.84615357, 4127.43589716, 4127.56410229, 4129.48717921, 4121.53846126, 4103.33333306, 4168.20512807, 4192.05128192, 4197.82051269, 4130.51282024, 4125.51282024, 4126.15384588, 4127.30769203, 4144.87179467,8.57
4118.71794844, 4126.92307665, 4123.97435870, 4127.30769203, 4122.69230742, 4109.23076896, 4192.56410243, 4231.92307686, 4223.97435891, 4129.48717921, 4126.41025614, 4122.56410229, 4127.69230742, 4144.35897415,8.57
4121.92307665, 4125.89743562, 4122.30769203, 4124.23076896, 4123.97435870, 4112.05128178, 4192.30769217, 4227.94871788, 4216.02564096, 4125.76923050, 4126.15384588, 4121.66666639, 4127.05128178, 4142.82051262,8.57
4130.64102537, 4125.51282024, 4126.66666639, 4124.74358947, 4122.94871767, 4093.58974325, 4147.05128185, 4154.48717928, 4170.89743576, 4129.61538434, 4122.94871767, 4123.97435870, 4126.53846126, 4145.64102544,8.57
4123.07692280, 4122.56410229, 4124.87179460, 4124.61538434, 4121.79487152, 4089.61538427, 4141.92307672, 4141.15384595, 4161.92307672, 4131.53846126, 4122.30769203, 4120.64102537, 4125.64102537, 4144.35897415,8.57
4123.84615357, 4127.43589716, 4125.25640998, 4126.92307665, 4124.61538434, 4117.05128178, 4178.71794858, 4182.82051269, 4186.66666653, 4126.15384588, 4125.25640998, 4123.20512793, 4126.41025614, 4145.64102544,8.57
4127.30769203, 4130.25640998, 4124.99999973, 4126.02564075, 4124.74358947, 4125.38461511, 4186.41025628, 4197.43589730, 4198.71794858, 4125.64102537, 4122.94871767, 4119.99999973, 4125.76923050, 4143.84615364,8.57
4124.10256383, 4127.56410229, 4122.94871767, 4121.66666639, 4122.05128178, 4108.07692280, 4176.53846140, 4211.02564096, 4210.38461532, 4129.87179460, 4122.94871767, 4115.51282024, 4127.94871767, 4141.41025621,8.57
4125.38461511, 4128.71794844, 4124.87179460, 4122.43589716, 4123.20512793, 4112.69230742, 4185.12820499, 4219.87179481, 4213.97435891, 4129.10256383, 4128.46153819, 4121.53846126, 4130.25640998, 4143.84615364,8.57
4123.71794844, 4126.79487152, 4125.64102537, 4126.79487152, 4124.35897408, 4128.58974332, 4195.76923063, 4207.94871788, 4205.12820506, 4126.15384588, 4126.92307665, 4122.69230742, 4126.02564075, 4142.82051262,8.57
4120.76923050, 4124.35897408, 4125.25640998, 4127.30769203, 4121.79487152, 4130.64102537, 4198.58974345, 4222.43589737, 4212.30769224, 4126.53846126, 4123.71794844, 4118.33333306, 4124.10256383, 4140.76923056,8.57
4125.89743562, 4127.43589716, 4126.66666639, 4125.38461511, 4121.79487152, 4131.92307665, 4192.17948704, 4229.61538455, 4217.56410250, 4129.48717921, 4124.48717921, 4117.69230742, 4127.82051255, 4141.28205108,8.57
4126.53846126, 4127.82051255, 4124.87179460, 4122.82051255, 4124.99999973, 4130.89743562, 4179.74358961, 4189.61538448, 4201.92307686, 4129.74358947, 4122.82051255, 4117.43589716, 4129.48717921, 4140.76923056,8.57
4121.41025614, 4123.58974332, 4123.20512793, 4124.74358947, 4124.10256383, 4122.94871767, 4163.97435877, 4150.64102544, 4172.56410243, 4127.94871767, 4122.56410229, 4119.74358947, 4126.28205101, 4142.17948697,8.57
4126.79487152, 4124.74358947, 4127.43589716, 4128.71794844, 4123.07692280, 4114.87179460, 4152.94871774, 4157.69230749, 4165.51282031, 4127.82051255, 4125.89743562, 4124.10256383, 4124.48717921, 4143.97435877,8.57
4125.89743562, 4124.99999973, 4122.69230742, 4124.23076896, 4124.74358947, 4118.46153819, 4164.23076903, 4194.48717935, 4195.12820499, 4127.56410229, 4125.38461511, 4119.23076896, 4127.05128178, 4138.97435877,8.57
4122.56410229, 4124.10256383, 4123.33333306, 4122.94871767, 4125.64102537, 4123.58974332, 4173.71794858, 4203.33333327, 4206.66666660, 4126.79487152, 4124.48717921, 4120.64102537, 4130.25640998, 4139.74358954,8.57
4124.74358947, 4128.20512793, 4129.87179460, 4126.66666639, 4124.35897408, 4124.61538434, 4175.76923063, 4194.61538448, 4190.64102551, 4127.30769203, 4124.87179460, 4122.56410229, 4128.84615357, 4143.33333313,8.57
4119.48717921, 4126.53846126, 4122.30769203, 4126.02564075, 4122.30769203, 4132.56410229, 4188.97435884, 4223.84615378, 4202.69230763, 4126.41025614, 4121.66666639, 4117.30769203, 4126.53846126, 4140.89743569,8.57
4124.23076896, 4124.35897408, 4124.99999973, 4125.64102537, 4124.35897408, 4127.30769203, 4180.38461525, 4221.02564096, 4215.25641019, 4125.25640998, 4124.10256383, 4125.51282024, 4129.87179460, 4144.61538441,8.57
4123.84615357, 4124.10256383, 4127.69230742, 4122.30769203, 4125.38461511, 4122.94871767, 4163.71794851, 4164.35897415, 4194.10256397, 4127.30769203, 4129.61538434, 4121.15384588, 4127.56410229, 4142.30769210,8.57
4121.66666639, 4124.48717921, 4124.74358947, 4123.84615357, 4123.97435870, 4140.25641005, 4181.79487166, 4169.23076910, 4190.64102551, 4128.20512793, 4128.20512793, 4114.61538434, 4123.84615357, 4142.05128185,8.57
4129.35897408, 4127.30769203, 4127.94871767, 4127.82051255, 4123.20512793, 4146.28205108, 4199.61538448, 4221.92307686, 4207.94871788, 4126.92307665, 4123.97435870, 4124.99999973, 4128.71794844, 4147.56410236,8.57
4122.69230742, 4123.84615357, 4124.35897408, 4124.23076896, 4120.89743562, 4129.35897408, 4181.15384602, 4213.84615378, 4198.58974345, 4128.20512793, 4121.28205101, 4122.17948691, 4126.28205101, 4143.46153826,8.57
4124.99999973, 4124.35897408, 4125.51282024, 4125.76923050, 4122.56410229, 4124.74358947, 4161.28205108, 4165.51282031, 4169.61538448, 4129.87179460, 4124.61538434, 4121.02564075, 4121.53846126, 4144.99999980,8.57
4128.46153819, 4125.25640998, 4126.79487152, 4125.89743562, 4124.23076896, 4135.64102544, 4166.15384595, 4160.12820492, 4168.20512807, 4128.71794844, 4127.30769203, 4121.02564075, 4124.10256383, 4142.69230749,8.57
4119.48717921, 4121.79487152, 4125.51282024, 4122.82051255, 4124.10256383, 4132.43589716, 4179.48717935, 4198.20512807, 4191.41025628, 4127.82051255, 4125.89743562, 4118.07692280, 4126.41025614, 4138.97435877,8.57
4122.69230742, 4123.33333306, 4126.15384588, 4125.89743562, 4125.38461511, 4129.87179460, 4180.89743576, 4216.79487173, 4195.64102551, 4129.23076896, 4124.35897408, 4125.76923050, 4126.92307665, 4144.10256390,8.57
4125.89743562, 4125.25640998, 4120.38461511, 4126.28205101, 4123.07692280, 4136.53846133, 4163.46153826, 4176.15384602, 4173.07692294, 4128.58974332, 4122.43589716, 4124.23076896, 4126.02564075, 4142.17948697,8.57
4122.56410229, 4125.76923050, 4122.17948691, 4124.61538434, 4121.79487152, 4132.43589716, 4156.15384595, 4151.28205108, 4170.76923063, 4126.66666639, 4123.84615357, 4121.02564075, 4126.92307665, 4140.38461518,8.57
4120.76923050, 4123.84615357, 4127.17948691, 4125.51282024, 4125.89743562, 4122.05128178, 4169.48717935, 4190.12820499, 4193.07692294, 4125.89743562, 4126.02564075, 4125.38461511, 4129.48717921, 4142.69230749,8.57
4120.64102537, 4122.56410229, 4122.17948691, 4124.87179460, 4126.92307665, 4125.76923050, 4178.97435884, 4197.17948704, 4187.56410243, 4124.87179460, 4124.35897408, 4122.69230742, 4128.71794844, 4141.79487159,8.57
4123.46153819, 4124.35897408, 4120.64102537, 4124.35897408, 4123.20512793, 4140.51282031, 4176.79487166, 4164.10256390, 4168.07692287, 4124.61538434, 4122.69230742, 4119.35897408, 4126.79487152, 4140.64102544,8.57
4126.28205101, 4123.71794844, 4124.87179460, 4124.10256383, 4121.41025614, 4134.87179460, 4167.43589723, 4171.41025628, 4177.69230756, 4126.41025614, 4125.25640998, 4123.71794844, 4127.30769203, 4143.46153826,8.57
4119.74358947, 4120.76923050, 4122.43589716, 4122.82051255, 4120.51282024, 4121.15384588, 4157.43589723, 4198.07692294, 4196.41025628, 4126.28205101, 4127.94871767, 4125.38461511, 4128.07692280, 4143.07692287,8.57
4116.53846126, 4122.30769203, 4121.92307665, 4124.61538434, 4121.15384588, 4117.17948691, 4146.28205108, 4185.38461525, 4180.25641012, 4126.79487152, 4125.12820485, 4122.30769203, 4127.43589716, 4140.12820492,8.57
4124.23076896, 4128.33333306, 4128.58974332, 4126.53846126, 4123.84615357, 4122.94871767, 4145.64102544, 4178.58974345, 4161.92307672, 4130.51282024, 4123.46153819, 4122.05128178, 4128.58974332, 4143.33333313,8.57
4122.05128178, 4126.02564075, 4124.10256383, 4122.17948691, 4122.69230742, 4135.12820485, 4157.43589723, 4196.79487166, 4182.69230756, 4129.48717921, 4126.41025614, 4124.48717921, 4128.84615357, 4144.87179467,8.57
4118.46153819, 4121.79487152, 4119.48717921, 4121.02564075, 4119.74358947, 4133.33333306, 4155.89743569, 4185.51282038, 4195.51282038, 4126.53846126, 4126.92307665, 4126.15384588, 4128.71794844, 4141.79487159,8.57
4120.89743562, 4122.56410229, 4121.66666639, 4121.79487152, 4121.53846126, 4120.12820485, 4143.07692287, 4158.97435877, 4174.35897422, 4128.84615357, 4124.61538434, 4123.58974332, 4131.66666639, 4140.89743569,8.57
4121.28205101, 4122.69230742, 4121.79487152, 4122.56410229, 4125.51282024, 4120.12820485, 4151.66666646, 4171.53846140, 4175.38461525, 4129.99999973, 4123.71794844, 4123.97435870, 4129.99999973, 4144.99999980,8.57
4124.10256383, 4123.84615357, 4125.12820485, 4123.84615357, 4125.89743562, 4132.05128178, 4173.84615371, 4200.12820499, 4202.43589737, 4127.56410229, 4125.12820485, 4129.48717921, 4124.61538434, 4145.51282031,8.57
4123.33333306, 4124.61538434, 4124.35897408, 4121.53846126, 4122.43589716, 4135.76923056, 4175.38461525, 4194.61538448, 4197.30769217, 4127.17948691, 4127.56410229, 4128.84615357, 4124.23076896, 4143.46153826,8.57
4120.38461511, 4122.43589716, 4119.74358947, 4122.43589716, 4120.76923050, 4132.17948691, 4166.66666646, 4180.51282038, 4177.30769217, 4128.07692280, 4127.05128178, 4123.46153819, 4126.41025614, 4144.99999980,8.57
4119.10256383, 4120.12820485, 4119.87179460, 4124.87179460, 4122.69230742, 4124.10256383, 4160.76923056, 4176.92307679, 4172.82051269, 4127.94871767, 4122.43589716, 4123.84615357, 4127.69230742, 4144.61538441,8.57
4118.71794844, 4121.02564075, 4122.69230742, 4122.56410229, 4124.87179460, 4121.02564075, 4156.53846133, 4173.71794858, 4173.71794858, 4128.20512793, 4122.94871767, 4126.41025614, 4128.46153819, 4143.33333313,8.57
4125.64102537, 4124.61538434, 4124.99999973, 4122.82051255, 4125.51282024, 4127.30769203, 4172.17948704, 4220.12820506, 4207.56410250, 4128.33333306, 4127.30769203, 4127.69230742, 4127.94871767, 4143.84615364,8.57
4127.17948691, 4125.76923050, 4122.17948691, 4125.64102537, 4124.61538434, 4121.02564075, 4181.15384602, 4252.17948718, 4235.00000000, 4128.20512793, 4127.17948691, 4127.56410229, 4127.82051255, 4142.82051262,8.57
4120.12820485, 4127.30769203, 4122.56410229, 4127.17948691, 4124.74358947, 4102.82051255, 4146.79487159, 4175.89743576, 4179.23076910, 4128.58974332, 4126.41025614, 4128.84615357, 4129.74358947, 4145.38461518,8.57
