AF3,F7,F3,FC5,T7,P7,O1,O2,P8,T8,FC6,F4,F8,AF4,Label
4107.17948691, 4119.35897408, 4109.87179460, 4119.87179460, 4119.61538434, 4081.79487145, 4117.94871767, 4133.71794844, 4107.43589716, 4137.56410236, 4127.69230742, 4124.87179460, 4130.38461511, 4187.56410243,8.57
4119.99999973, 4124.35897408, 4119.48717921, 4124.74358947, 4124.10256383, 4085.12820478, 4127.17948691, 4144.10256390, 4113.84615357, 4137.56410236, 4122.94871767, 4124.99999973, 4130.64102537, 4194.35897422,8.57
4124.74358947, 4125.76923050, 4125.89743562, 4127.17948691, 4124.10256383, 4082.69230735, 4127.17948691, 4146.28205108, 4114.61538434, 4137.56410236, 4124.87179460, 4128.20512793, 4133.46153819, 4199.48717935,8.57
4100.25640991, 4117.30769203, 4109.23076896, 4120.64102537, 4114.99999973, 4084.61538427, 4130.38461511, 4161.15384595, 4127.17948691, 4137.56410236, 4129.74358947, 4121.79487152, 4131.53846126, 4189.99999986,8.57
4137.56410236, 4132.82051255, 4133.97435870, 4132.43589716, 4126.28205101, 4089.74358940, 4127.30769203, 4159.74358954, 4121.15384588, 4137.56410236, 4126.15384588, 4127.43589716, 4131.15384588, 4193.97435884,8.57
4110.12820485, 4116.28205101, 4114.74358947, 4123.71794844, 4117.69230742, 4089.35897402, 4111.66666639, 4135.51282031, 4103.07692280, 4137.56410236, 4125.51282024, 4122.56410229, 4129.74358947, 4188.97435884,8.57
4119.10256383, 4120.89743562, 4123.84615357, 4124.35897408, 4120.25640998, 4091.53846119, 4117.30769203, 4144.48717928, 4120.38461511, 4137.56410236, 4130.64102537, 4122.56410229, 4130.76923050, 4194.10256397,8.57
4131.15384588, 4129.99999973, 4131.02564075, 4128.33333306, 4129.23076896, 4097.05128171, 4133.97435870, 4172.43589730, 4149.61538441, 4137.56410236, 4128.97435870, 4125.38461511, 4132.56410229, 4192.56410243,8.57
4100.38461504, 4118.84615357, 4103.84615357, 4119.10256383, 4120.12820485, 4096.02564068, 4127.56410229, 4164.48717928, 4141.53846133, 4137.56410236, 4124.74358947, 4123.33333306, 4133.20512793, 4187.30769217,8.57
4138.58974339, 4133.20512793, 4135.12820485, 4127.69230742, 4127.05128178, 4090.64102530, 4118.07692280, 4143.58974339, 4123.46153819, 4137.56410236, 4125.89743562, 4130.25640998, 4132.94871767, 4200.25641012,8.57
4108.33333306, 4118.46153819, 4118.46153819, 4117.82051255, 4121.79487152, 4096.41025607, 4130.76923050, 4152.69230749, 4134.74358947, 4137.56410236, 4123.97435870, 4121.53846126, 4129.74358947, 4191.53846140,8.57
4106.41025614, 4119.87179460, 4111.41025614, 4118.20512793, 4119.87179460, 4098.07692273, 4129.87179460, 4154.87179467, 4134.61538434, 4137.56410236, 4120.76923050, 4122.94871767, 4130.76923050, 4193.33333320,8.57
4139.99999980, 4134.99999973, 4131.66666639, 4129.35897408, 4124.87179460, 4090.64102530, 4114.48717921, 4141.53846133, 4119.87179460, 4137.56410236, 4122.17948691, 4132.94871767, 4131.92307665, 4197.56410243,8.57
4106.41025614, 4117.56410229, 4108.97435870, 4118.71794844, 4118.20512793, 4096.41025607, 4123.84615357, 4159.35897415, 4136.92307672, 4137.56410236, 4125.64102537, 4125.76923050, 4126.28205101, 4188.33333320,8.57
4129.48717921, 4127.05128178, 4130.25640998, 4126.79487152, 4127.05128178, 4098.20512786, 4129.48717921, 4170.25641012, 4149.87179467, 4137.56410236, 4128.84615357, 4129.10256383, 4127.17948691, 4198.84615371,8.57
4112.69230742, 4122.43589716, 4121.92307665, 4125.12820485, 4120.51282024, 4091.41025607, 4116.66666639, 4138.33333313, 4130.76923050, 4137.56410236, 4123.97435870, 4123.84615357, 4131.79487152, 4191.28205115,8.57
4109.23076896, 4124.23076896, 4116.92307665, 4125.89743562, 4118.46153819, 4096.28205094, 4125.89743562, 4136.79487159, 4140.12820492, 4137.56410236, 4121.92307665, 4120.25640998, 4132.56410229, 4187.56410243,8.57
4136.41025621, 4134.10256383, 4135.89743569, 4132.56410229, 4129.35897408, 4103.71794844, 4137.94871774, 4169.35897422, 4166.28205108, 4137.56410236, 4124.99999973, 4125.76923050, 4131.53846126, 4196.41025628,8.57
4100.38461504, 4114.48717921, 4110.64102537, 4118.07692280, 4120.64102537, 4094.99999966, 4128.33333306, 4169.23076910, 4151.79487159, 4137.56410236, 4122.43589716, 4117.69230742, 4129.61538434, 4188.97435884,8.57
4133.58974332, 4129.35897408, 4134.10256383, 4125.64102537, 4127.05128178, 4082.43589709, 4111.41025614, 4138.46153826, 4113.58974332, 4137.56410236, 4122.05128178, 4122.82051255, 4131.92307665, 4194.48717935,8.57
4124.10256383, 4128.20512793, 4125.89743562, 4123.97435870, 4123.84615357, 4086.66666632, 4103.71794844, 4128.97435870, 4109.10256383, 4137.56410236, 4128.07692280, 4124.87179460, 4131.79487152, 4191.66666653,8.57
4102.94871767, 4118.97435870, 4108.07692280, 4116.41025614, 4118.46153819, 4089.23076889, 4107.69230742, 4141.28205108, 4128.33333306, 4137.56410236, 4126.92307665, 4123.46153819, 4131.79487152, 4191.28205115,8.57
4139.61538441, 4129.61538434, 4133.33333306, 4127.17948691, 4129.99999973, 4083.33333299, 4115.51282024, 4145.76923056, 4126.53846126, 4137.56410236, 4122.56410229, 4129.10256383, 4133.58974332, 4199.23076910,8.57
4106.15384588, 4113.97435870, 4106.79487152, 4119.74358947, 4116.66666639, 4095.64102530, 4124.48717921, 4142.94871774, 4124.10256383, 4137.56410236, 4127.17948691, 4123.46153819, 4131.15384588, 4191.53846140,8.57
4128.20512793, 4131.28205101, 4125.51282024, 4125.51282024, 4119.23076896, 4110.38461511, 4121.92307665, 4133.84615357, 4134.99999973, 4137.56410236, 4130.51282024, 4130.12820485, 4131.92307665, 4199.35897422,8.57
4127.43589716, 4132.56410229, 4132.56410229, 4124.61538434, 4126.53846126, 4097.30769196, 4115.25640998, 4136.92307672, 4149.10256390, 4137.56410236, 4125.25640998, 4126.66666639, 4129.74358947, 4191.28205115,8.57
4095.12820478, 4113.07692280, 4106.28205101, 4114.74358947, 4119.48717921, 4073.46153812, 4107.82051255, 4137.43589723, 4138.84615364, 4137.56410236, 4122.17948691, 4121.02564075, 4129.10256383, 4183.20512807,8.57
4137.17948697, 4127.69230742, 4130.64102537, 4126.53846126, 4123.33333306, 4071.79487145, 4098.20512786, 4115.12820485, 4109.74358947, 4137.56410236, 4125.25640998, 4137.69230749, 4134.48717921, 4197.69230756,8.57
4112.43589716, 4117.17948691, 4116.41025614, 4121.02564075, 4118.58974332, 4086.53846119, 4108.84615357, 4119.10256383, 4123.33333306, 4137.56410236, 4126.53846126, 4128.71794844, 4132.69230742, 4188.46153833,8.57
4120.25640998, 4124.61538434, 4125.51282024, 4126.41025614, 4127.17948691, 4086.02564068, 4117.69230742, 4141.66666646, 4145.64102544, 4137.56410236, 4123.58974332, 4122.82051255, 4133.46153819, 4193.46153833,8.57
4130.38461511, 4129.48717921, 4129.87179460, 4131.15384588, 4127.17948691, 4079.61538427, 4111.53846126, 4138.20512800, 4133.84615357, 4137.56410236, 4125.89743562, 4128.07692280, 4135.12820485, 4198.46153833,8.57
4103.71794844, 4114.87179460, 4106.28205101, 4120.76923050, 4114.74358947, 4086.15384581, 4111.92307665, 4128.84615357, 4123.20512793, 4137.56410236, 4128.97435870, 4122.94871767, 4131.79487152, 4187.05128192,8.57
4142.56410236, 4131.92307665, 4136.15384595, 4129.74358947, 4127.69230742, 4086.53846119, 4119.35897408, 4138.58974339, 4130.89743562, 4137.56410236, 4126.66666639, 4126.79487152, 4132.43589716, 4193.20512807,8.57
4116.92307665, 4123.20512793, 4119.48717921, 4122.17948691, 4121.66666639, 4085.51282017, 4120.12820485, 4154.74358954, 4145.64102544, 4137.56410236, 4124.61538434, 4122.43589716, 4131.02564075, 4190.89743576,8.57
4116.92307665, 4122.82051255, 4118.07692280, 4123.58974332, 4119.74358947, 4084.10256376, 4101.28205094, 4134.61538434, 4125.51282024, 4137.56410236, 4125.25640998, 4125.76923050, 4128.46153819, 4193.07692294,8.57
4135.51282031, 4129.74358947, 4134.61538434, 4130.12820485, 4127.17948691, 4072.56410222, 4080.76923043, 4091.79487145, 4084.10256376, 4137.56410236, 4126.66666639, 4132.05128178, 4131.66666639, 4194.35897422,8.57
4106.28205101, 4118.33333306, 4112.43589716, 4119.74358947, 4118.58974332, 4078.97435863, 4095.64102530, 4106.66666639, 4099.99999966, 4137.56410236, 4128.46153819, 4126.28205101, 4134.74358947, 4190.76923063,8.57
4140.25641005, 4133.20512793, 4134.35897408, 4129.87179460, 4126.79487152, 4093.71794837, 4122.94871767, 4153.84615364, 4146.66666646, 4137.56410236, 4127.56410229, 4132.05128178, 4133.84615357, 4200.64102551,8.57
4115.25640998, 4119.99999973, 4119.10256383, 4123.33333306, 4122.94871767, 4084.48717914, 4120.25640998, 4149.99999980, 4144.10256390, 4137.56410236, 4126.92307665, 4127.82051255, 4130.51282024, 4191.15384602,8.57
4108.20512793, 4118.97435870, 4112.69230742, 4118.33333306, 4120.76923050, 4074.35897402, 4108.33333306, 4127.17948691, 4117.17948691, 4137.56410236, 4127.69230742, 4127.05128178, 4132.69230742, 4190.64102551,8.57
4141.28205108, 4135.38461518, 4131.79487152, 4128.07692280, 4127.69230742, 4087.56410222, 4117.56410229, 4133.20512793, 4111.02564075, 4137.56410236, 4129.74358947, 4132.17948691, 4135.25640998, 4194.61538448,8.57
4107.82051255, 4118.20512793, 4107.82051255, 4121.79487152, 4117.56410229, 4092.05128171, 4121.79487152, 4134.74358947, 4111.92307665, 4137.56410236, 4128.46153819, 4125.89743562, 4132.69230742, 4185.25641012,8.57
4127.94871767, 4126.28205101, 4127.69230742, 4129.23076896, 4125.89743562, 4078.97435863, 4108.46153819, 4129.99999973, 4134.35897408, 4137.69230749, 4123.71794844, 4131.41025614, 4134.23076896, 4196.92307679,8.57
4112.17948691, 4122.82051255, 4119.87179460, 4122.69230742, 4124.87179460, 4087.56410222, 4115.76923050, 4147.56410236, 4167.17948697, 4138.46153826, 4124.74358947, 4127.05128178, 4133.46153819, 4194.61538448,8.57
4101.53846119, 4120.38461511, 4109.61538434, 4118.46153819, 4119.10256383, 4093.07692273, 4125.25640998, 4142.69230749, 4143.58974339, 4136.92307672, 4128.46153819, 4120.38461511, 4133.07692280, 4189.23076910,8.57
4140.12820492, 4134.48717921, 4137.05128185, 4130.64102537, 4128.58974332, 4079.48717914, 4113.33333306, 4126.79487152, 4110.38461511, 4137.30769210, 4127.05128178, 4130.38461511, 4135.51282031, 4195.51282038,8.57
4130.38461511, 4127.82051255, 4134.35897408, 4129.23076896, 4123.97435870, 4083.71794837, 4115.64102537, 4148.84615364, 4134.23076896, 4140.25641005, 4123.33333306, 4138.97435877, 4131.53846126, 4189.10256397,8.57
4072.43589709, 4102.56410229, 4075.12820478, 4102.05128171, 4121.41025614, 4092.43589709, 4119.87179460, 4152.94871774, 4145.64102544, 4133.07692280, 4118.20512793, 4090.12820478, 4125.25640998, 4174.48717935,8.57
4149.74358954, 4133.46153819, 4147.43589723, 4127.30769203, 4130.76923050, 4084.35897402, 4108.84615357, 4119.87179460, 4114.48717921, 4127.17948691, 4132.94871767, 4142.43589723, 4137.94871774, 4210.64102558,8.57
4251.92307693, 4182.94871781, 4246.15384616, 4183.58974345, 4127.69230742, 4079.48717914, 4106.92307665, 4111.92307665, 4100.51282017, 4129.35897408, 4130.89743562, 4210.25641019, 4132.43589716, 4215.25641019,8.57
3927.56410187, 4042.56410215, 3940.12820451, 4053.33333292, 4095.76923043, 4087.43589709, 4123.46153819, 4141.92307672, 4135.51282031, 4133.58974332, 4098.84615350, 3999.99999945, 4108.07692280, 4120.51282024,8.57
3927.56410187, 4042.56410215, 3940.12820451, 4053.33333292, 4095.76923043, 4087.43589709, 4123.46153819, 4141.92307672, 4135.51282031, 4133.58974332, 4098.84615350, 3999.99999945, 4108.07692280, 4120.51282024,8.57
4031.15384567, 4077.69230735, 4033.46153798, 4066.79487138, 4119.23076896, 4090.25640991, 4130.12820485, 4156.66666646, 4163.97435877, 4134.35897408, 4129.87179460, 4081.53846119, 4142.94871774, 4200.12820499,8.57
4358.71794893, 4227.94871788, 4335.12820534, 4211.41025634, 4155.51282031, 4084.61538427, 4125.51282024, 4149.10256390, 4149.74358954, 4124.87179460, 4150.89743569, 4265.51282052, 4152.17948697, 4266.53846154,8.57
4066.02564061, 4108.20512793, 4076.02564068, 4114.99999973, 4116.92307665, 4078.97435863, 4124.99999973, 4146.02564082, 4133.58974332, 4123.97435870, 4120.89743562, 4095.38461504, 4120.38461511, 4161.15384595,8.57
4066.28205087, 4101.02564068, 4075.51282017, 4100.38461504, 4113.58974332, 4081.92307658, 4118.58974332, 4131.28205101, 4126.15384588, 4130.89743562, 4125.25640998, 4104.48717921, 4134.74358947, 4184.87179474,8.57
4201.92307686, 4158.07692287, 4189.61538448, 4153.20512800, 4133.33333306, 4089.35897402, 4116.66666639, 4132.05128178, 4130.51282024, 4131.66666639, 4131.15384588, 4165.89743569, 4142.17948697, 4217.17948711,8.57
4087.94871761, 4109.23076896, 4094.99999966, 4117.56410229, 4118.33333306, 4085.38461504, 4124.35897408, 4148.46153826, 4132.05128178, 4132.17948691, 4122.17948691, 4117.30769203, 4130.64102537, 4181.66666653,8.57
4118.07692280, 4124.35897408, 4121.28205101, 4126.79487152, 4119.87179460, 4091.79487145, 4126.15384588, 4132.56410229, 4115.51282024, 4130.64102537, 4119.10256383, 4128.71794844, 4128.84615357, 4190.64102551,8.57
4129.48717921, 4128.97435870, 4128.33333306, 4126.41025614, 4123.84615357, 4100.38461504, 4113.58974332, 4108.58974332, 4108.97435870, 4128.46153819, 4126.41025614, 4134.48717921, 4135.64102544, 4196.53846140,8.57
4107.30769203, 4120.89743562, 4115.25640998, 4121.79487152, 4120.51282024, 4076.66666632, 4096.66666632, 4110.12820485, 4113.71794844, 4127.05128178, 4127.43589716, 4124.48717921, 4130.76923050, 4186.53846140,8.57
4127.30769203, 4132.05128178, 4129.61538434, 4128.20512793, 4131.02564075, 4064.35897395, 4098.71794837, 4122.56410229, 4119.35897408, 4129.61538434, 4125.12820485, 4122.05128178, 4126.02564075, 4194.10256397,8.57
4117.05128178, 4121.66666639, 4123.20512793, 4123.20512793, 4124.61538434, 4097.82051248, 4122.17948691, 4139.48717928, 4131.15384588, 4130.64102537, 4129.48717921, 4132.94871767, 4132.43589716, 4196.02564089,8.57
4109.48717921, 4117.43589716, 4115.51282024, 4122.17948691, 4119.35897408, 4118.97435870, 4134.61538434, 4154.35897415, 4144.35897415, 4126.92307665, 4121.28205101, 4116.15384588, 4128.71794844, 4185.89743576,8.57
4135.76923056, 4129.87179460, 4136.66666646, 4128.84615357, 4128.46153819, 4099.23076889, 4126.02564075, 4148.97435877, 4151.28205108, 4129.35897408, 4124.74358947, 4131.28205101, 4134.23076896, 4197.94871781,8.57
4115.51282024, 4120.89743562, 4124.23076896, 4122.56410229, 4117.43589716, 4083.71794837, 4120.12820485, 4132.56410229, 4142.82051262, 4129.87179460, 4125.51282024, 4131.79487152, 4132.69230742, 4189.23076910,8.57
4127.94871767, 4129.23076896, 4129.48717921, 4125.51282024, 4123.20512793, 4091.41025607, 4120.76923050, 4128.71794844, 4124.87179460, 4128.33333306, 4122.17948691, 4122.17948691, 4131.41025614, 4190.51282038,8.57
4126.41025614, 4127.56410229, 4131.92307665, 4127.94871767, 4126.53846126, 4101.41025607, 4125.89743562, 4141.15384595, 4136.15384595, 4130.25640998, 4127.43589716, 4133.07692280, 4136.41025621, 4197.17948704,8.57
4105.38461511, 4117.05128178, 4110.76923050, 4123.20512793, 4118.84615357, 4097.82051248, 4128.84615357, 4152.69230749, 4161.79487159, 4130.64102537, 4121.66666639, 4114.87179460, 4129.48717921, 4188.20512807,8.57
4140.38461518, 4132.82051255, 4129.87179460, 4129.23076896, 4124.99999973, 4095.51282017, 4121.53846126, 4143.07692287, 4143.71794851, 4130.51282024, 4126.53846126, 4128.97435870, 4133.46153819, 4196.15384602,8.57
4117.43589716, 4124.10256383, 4116.79487152, 4123.58974332, 4118.84615357, 4103.97435870, 4118.97435870, 4132.17948691, 4119.61538434, 4129.74358947, 4129.87179460, 4133.84615357, 4132.30769203, 4187.94871781,8.57
4116.15384588, 4121.92307665, 4117.69230742, 4123.97435870, 4125.12820485, 4104.23076896, 4130.76923050, 4146.53846133, 4138.20512800, 4127.56410229, 4123.20512793, 4122.17948691, 4128.33333306, 4196.02564089,8.57
4124.48717921, 4123.20512793, 4129.35897408, 4127.82051255, 4126.02564075, 4102.43589709, 4142.82051262, 4169.48717935, 4162.56410236, 4127.30769203, 4126.66666639, 4133.58974332, 4133.97435870, 4201.02564096,8.57
4102.43589709, 4117.56410229, 4111.28205101, 4123.20512793, 4116.92307665, 4104.74358947, 4135.12820485, 4156.02564082, 4152.30769210, 4128.58974332, 4124.87179460, 4120.12820485, 4131.28205101, 4183.20512807,8.57
4128.20512793, 4129.74358947, 4127.05128178, 4128.46153819, 4127.82051255, 4099.61538427, 4118.33333306, 4122.43589716, 4126.53846126, 4128.20512793, 4123.20512793, 4116.15384588, 4129.23076896, 4193.46153833,8.57
4119.61538434, 4125.64102537, 4125.64102537, 4126.02564075, 4123.33333306, 4103.58974332, 4127.30769203, 4131.02564075, 4134.35897408, 4127.94871767, 4127.30769203, 4129.10256383, 4129.99999973, 4192.94871781,8.57
4123.97435870, 4128.97435870, 4124.35897408, 4127.17948691, 4124.74358947, 4116.41025614, 4140.64102544, 4158.33333313, 4166.15384595, 4127.69230742, 4125.12820485, 4125.64102537, 4131.53846126, 4187.56410243,8.57
4126.66666639, 4128.71794844, 4127.30769203, 4128.71794844, 4124.23076896, 4115.38461511, 4131.02564075, 4152.94871774, 4163.20512800, 4126.79487152, 4124.23076896, 4123.07692280, 4130.89743562, 4191.28205115,8.57
4109.61538434, 4121.66666639, 4115.76923050, 4121.92307665, 4114.74358947, 4114.99999973, 4131.79487152, 4148.58974339, 4138.58974339, 4127.56410229, 4126.92307665, 4128.46153819, 4129.23076896, 4192.69230756,8.57
4133.46153819, 4134.61538434, 4128.20512793, 4126.15384588, 4127.69230742, 4116.66666639, 4142.30769210, 4155.89743569, 4131.79487152, 4127.69230742, 4124.23076896, 4126.15384588, 4130.38461511, 4195.76923063,8.57
4114.10256383, 4123.20512793, 4119.35897408, 4124.35897408, 4122.94871767, 4100.64102530, 4130.89743562, 4144.10256390, 4136.66666646, 4128.84615357, 4125.51282024, 4126.79487152, 4131.41025614, 4190.76923063,8.57
4114.87179460, 4119.48717921, 4118.58974332, 4125.25640998, 4119.10256383, 4087.30769196, 4112.56410229, 4121.28205101, 4123.71794844, 4131.53846126, 4129.99999973, 4129.74358947, 4132.43589716, 4193.71794858,8.57
4125.51282024, 4122.43589716, 4124.35897408, 4128.58974332, 4123.46153819, 4097.69230735, 4116.02564075, 4118.20512793, 4113.46153819, 4130.25640998, 4125.76923050, 4123.71794844, 4128.84615357, 4192.82051269,8.57
4105.89743562, 4114.74358947, 4114.10256383, 4124.99999973, 4118.20512793, 4108.84615357, 4134.74358947, 4138.84615364, 4137.30769210, 4128.07692280, 4124.61538434, 4132.17948691, 4129.48717921, 4193.58974345,8.57
4127.94871767, 4126.79487152, 4127.05128178, 4130.12820485, 4126.79487152, 4100.51282017, 4137.30769210, 4151.02564082, 4153.84615364, 4132.17948691, 4124.74358947, 4131.28205101, 4130.89743562, 4198.97435884,8.57
4113.97435870, 4119.61538434, 4119.74358947, 4126.41025614, 4122.43589716, 4093.33333299, 4125.51282024, 4143.46153826, 4139.61538441, 4130.89743562, 4124.87179460, 4126.28205101, 4129.99999973, 4193.71794858,8.57
4111.53846126, 4118.33333306, 4117.30769203, 4124.48717921, 4120.25640998, 4093.33333299, 4118.07692280, 4128.84615357, 4117.43589716, 4126.15384588, 4127.30769203, 4132.17948691, 4135.12820485, 4196.92307679,8.57
4125.64102537, 4127.30769203, 4123.20512793, 4127.17948691, 4127.43589716, 4095.64102530, 4123.46153819, 4132.94871767, 4125.25640998, 4129.61538434, 4121.66666639, 4121.28205101, 4135.51282031, 4193.46153833,8.57
4108.46153819, 4118.58974332, 4113.97435870, 4124.23076896, 4124.48717921, 4102.43589709, 4127.69230742, 4151.02564082, 4153.20512800, 4132.43589716, 4122.82051255, 4124.35897408, 4134.35897408, 4191.92307679,8.57
4126.53846126, 4125.25640998, 4125.76923050, 4128.07692280, 4129.10256383, 4097.05128171, 4114.99999973, 4146.66666646, 4144.99999980, 4128.07692280, 4125.25640998, 4126.41025614, 4133.46153819, 4195.25641012,8.57
4115.12820485, 4123.71794844, 4116.92307665, 4123.84615357, 4121.41025614, 4083.33333299, 4105.12820485, 4127.69230742, 4126.28205101, 4127.17948691, 4124.48717921, 4118.33333306, 4131.02564075, 4186.53846140,8.57
4115.64102537, 4124.35897408, 4117.17948691, 4124.35897408, 4120.38461511, 4084.48717914, 4112.82051255, 4123.07692280, 4131.66666639, 4129.35897408, 4127.56410229, 4126.66666639, 4134.35897408, 4190.89743576,8.57
4133.58974332, 4127.43589716, 4132.05128178, 4129.87179460, 4128.07692280, 4096.15384581, 4125.51282024, 4130.89743562, 4135.64102544, 4129.10256383, 4123.71794844, 4126.53846126, 4131.02564075, 4191.41025628,8.57
4112.05128178, 4116.28205101, 4119.35897408, 4122.43589716, 4121.66666639, 4098.20512786, 4126.53846126, 4124.61538434, 4126.79487152, 4129.23076896, 4125.64102537, 4128.33333306, 4127.17948691, 4189.10256397,8.57
4138.20512800, 4129.87179460, 4132.69230742, 4125.25640998, 4129.99999973, 4089.61538427, 4111.15384588, 4106.28205101, 4114.48717921, 4130.38461511, 4129.10256383, 4133.58974332, 4132.82051255, 4196.15384602,8.57
4129.35897408, 4126.66666639, 4127.05128178, 4124.10256383, 4122.82051255, 4091.66666632, 4107.69230742, 4110.64102537, 4112.82051255, 4129.48717921, 4124.23076896, 4128.97435870, 4133.84615357, 4187.30769217,8.57
4107.17948691, 4116.15384588, 4111.53846126, 4119.74358947, 4116.66666639, 4105.89743562, 4127.43589716, 4133.84615357, 4133.33333306, 4128.71794844, 4122.43589716, 4125.64102537, 4130.76923050, 4187.43589730,8.57
4135.76923056, 4129.48717921, 4127.17948691, 4123.84615357, 4128.71794844, 4105.12820485, 4138.33333313, 4140.89743569, 4152.17948697, 4126.66666639, 4123.84615357, 4129.10256383, 4129.10256383, 4196.79487166,8.57
4120.38461511, 4124.99999973, 4116.53846126, 4121.02564075, 4119.48717921, 4092.17948684, 4128.97435870, 4135.64102544, 4145.25641005, 4125.76923050, 4123.97435870, 4134.48717921, 4128.58974332, 4193.97435884,8.57
4122.69230742, 4125.76923050, 4120.51282024, 4126.66666639, 4124.74358947, 4093.46153812, 4117.94871767, 4131.28205101, 4129.10256383, 4127.05128178, 4123.58974332, 4128.97435870, 4132.69230742, 4197.56410243,8.57
4117.05128178, 4119.61538434, 4121.79487152, 4125.89743562, 4127.94871767, 4101.28205094, 4120.38461511, 4128.07692280, 4127.05128178, 4128.33333306, 4123.97435870, 4122.17948691, 4133.97435870, 4192.30769217,8.57
4105.25640998, 4115.25640998, 4110.76923050, 4119.74358947, 4119.87179460, 4100.25640991, 4132.69230742, 4141.02564082, 4139.99999980, 4128.46153819, 4123.71794844, 4123.46153819, 4130.12820485, 4187.69230756,8.57
4133.84615357, 4131.41025614, 4127.30769203, 4126.66666639, 4127.17948691, 4100.25640991, 4135.64102544, 4154.10256390, 4150.38461518, 4128.07692280, 4123.46153819, 4126.53846126, 4129.99999973, 4196.66666653,8.57
4111.41025614, 4122.82051255, 4118.46153819, 4124.10256383, 4122.94871767, 4100.38461504, 4117.43589716, 4126.15384588, 4134.23076896, 4128.46153819, 4123.58974332, 4122.69230742, 4130.89743562, 4189.61538448,8.57
4114.61538434, 4123.33333306, 4122.30769203, 4123.33333306, 4125.38461511, 4087.43589709, 4096.41025607, 4084.87179453, 4095.76923043, 4130.25640998, 4121.66666639, 4117.56410229, 4130.38461511, 4188.58974345,8.57
4127.43589716, 4124.48717921, 4129.87179460, 4126.15384588, 4125.38461511, 4081.79487145, 4104.23076896, 4098.33333299, 4096.66666632, 4125.51282024, 4121.92307665, 4125.89743562, 4129.74358947, 4192.94871781,8.57
4127.43589716, 4124.48717921, 4129.87179460, 4126.15384588, 4125.38461511, 4081.79487145, 4104.23076896, 4098.33333299, 4096.66666632, 4125.51282024, 4121.92307665, 4125.89743562, 4129.74358947, 4192.94871781,8.57
4113.20512793, 4117.43589716, 4115.51282024, 4122.82051255, 4120.64102537, 4090.89743555, 4119.61538434, 4127.94871767, 4131.28205101, 4120.51282024, 4124.35897408, 4126.92307665, 4130.51282024, 4190.64102551,8.57
4138.33333313, 4129.99999973, 4131.92307665, 4126.02564075, 4130.51282024, 4095.38461504, 4114.35897408, 4121.41025614, 4132.05128178, 4124.10256383, 4124.61538434, 4126.28205101, 4131.79487152, 4194.48717935,8.57
4118.33333306, 4121.66666639, 4122.69230742, 4122.56410229, 4121.02564075, 4094.48717914, 4114.48717921, 4121.02564075, 4120.89743562, 4127.30769203, 4123.20512793, 4128.71794844, 4129.87179460, 4191.53846140,8.57
4119.48717921, 4122.94871767, 4119.35897408, 4125.12820485, 4123.20512793, 4089.23076889, 4114.74358947, 4123.20512793, 4112.94871767, 4126.28205101, 4123.46153819, 4127.56410229, 4130.38461511, 4197.94871781,8.57
4138.71794851, 4131.79487152, 4134.87179460, 4127.56410229, 4130.64102537, 4087.69230735, 4098.07692273, 4102.94871767, 4104.48717921, 4127.30769203, 4126.02564075, 4133.71794844, 4133.58974332, 4201.02564096,8.57
4112.82051255, 4119.99999973, 4118.84615357, 4118.20512793, 4116.66666639, 4103.07692280, 4099.74358940, 4100.76923043, 4111.53846126, 4128.33333306, 4125.51282024, 4129.35897408, 4134.23076896, 4191.15384602,8.57
4132.43589716, 4125.12820485, 4128.97435870, 4126.79487152, 4120.89743562, 4103.07692280, 4108.20512793, 4108.46153819, 4104.48717921, 4128.46153819, 4124.61538434, 4128.97435870, 4135.25640998, 4197.82051269,8.57
4118.97435870, 4119.23076896, 4124.23076896, 4128.58974332, 4123.07692280, 4080.25640991, 4091.28205094, 4091.15384581, 4081.66666632, 4127.43589716, 4125.51282024, 4134.61538434, 4132.43589716, 4194.10256397,8.57
4107.69230742, 4118.58974332, 4113.20512793, 4120.89743562, 4126.53846126, 4081.66666632, 4087.56410222, 4089.99999966, 4096.53846119, 4124.23076896, 4120.64102537, 4124.35897408, 4128.07692280, 4188.97435884,8.57
4131.41025614, 4126.92307665, 4127.82051255, 4124.87179460, 4132.30769203, 4102.82051255, 4112.94871767, 4122.82051255, 4136.15384595, 4124.61538434, 4121.79487152, 4127.56410229, 4129.35897408, 4195.38461525,8.57
4112.30769203, 4117.94871767, 4119.87179460, 4125.76923050, 4122.30769203, 4101.02564068, 4122.05128178, 4136.53846133, 4139.35897415, 4126.79487152, 4126.41025614, 4129.74358947, 4132.30769203, 4192.05128192,8.57
4126.41025614, 4128.07692280, 4130.25640998, 4128.07692280, 4124.87179460, 4091.92307658, 4110.25640998, 4125.25640998, 4121.41025614, 4126.53846126, 4124.23076896, 4122.43589716, 4132.94871767, 4193.71794858,8.57
4119.23076896, 4123.84615357, 4125.12820485, 4123.07692280, 4120.51282024, 4099.35897402, 4114.35897408, 4123.07692280, 4122.30769203, 4126.28205101, 4124.61538434, 4121.79487152, 4128.33333306, 4188.20512807,8.57
4109.87179460, 4119.74358947, 4116.79487152, 4123.71794844, 4120.25640998, 4098.07692273, 4121.15384588, 4121.53846126, 4121.79487152, 4126.02564075, 4126.66666639, 4118.58974332, 4127.82051255, 4185.51282038,8.57
4135.38461518, 4130.89743562, 4135.38461518, 4130.51282024, 4128.97435870, 4086.28205094, 4110.12820485, 4116.66666639, 4112.30769203, 4126.28205101, 4123.58974332, 4124.48717921, 4132.56410229, 4191.53846140,8.57
4108.71794844, 4116.15384588, 4114.10256383, 4121.15384588, 4118.84615357, 4093.97435863, 4107.30769203, 4124.74358947, 4114.74358947, 4126.79487152, 4123.07692280, 4128.97435870, 4131.41025614, 4189.48717935,8.57
4139.23076903, 4130.89743562, 4136.92307672, 4131.53846126, 4126.66666639, 4105.38461511, 4116.53846126, 4124.74358947, 4115.76923050, 4127.17948691, 4128.07692280, 4135.25640998, 4132.94871767, 4201.28205122,8.57
4121.92307665, 4124.99999973, 4126.92307665, 4125.38461511, 4124.23076896, 4109.99999973, 4122.05128178, 4114.61538434, 4110.38461511, 4128.46153819, 4126.28205101, 4122.94871767, 4130.51282024, 4189.99999986,8.57
4074.61538427, 4100.38461504, 4083.71794837, 4101.15384581, 4116.79487152, 4115.64102537, 4127.82051255, 4133.97435870, 4128.97435870, 4129.10256383, 4123.33333306, 4107.17948691, 4131.66666639, 4184.99999986,8.57
4221.92307686, 4164.35897415, 4206.92307686, 4156.79487159, 4136.92307672, 4102.82051255, 4123.07692280, 4145.76923056, 4143.20512800, 4126.15384588, 4129.61538434, 4178.71794858, 4138.58974339, 4220.12820506,8.57
4049.23076882, 4093.84615350, 4058.33333292, 4101.53846119, 4108.46153819, 4089.87179453, 4115.51282024, 4133.07692280, 4140.64102544, 4127.30769203, 4113.71794844, 4085.25640991, 4121.53846126, 4162.30769210,8.57
4061.53846113, 4093.97435863, 4064.61538420, 4090.64102530, 4121.28205101, 4089.74358940, 4106.15384588, 4117.94871767, 4126.28205101, 4133.07692280, 4125.25640998, 4099.87179453, 4140.51282031, 4196.79487166,8.57
4300.38461553, 4199.87179474, 4285.38461546, 4193.84615371, 4144.99999980, 4098.84615350, 4106.53846126, 4120.38461511, 4119.35897408, 4128.20512793, 4138.33333313, 4228.07692301, 4146.79487159, 4240.51282052,8.57
4000.12820458, 4077.94871761, 4022.56410208, 4090.38461504, 4098.07692273, 4114.35897408, 4129.10256383, 4148.46153826, 4144.99999980, 4126.28205101, 4105.89743562, 4047.69230728, 4108.20512793, 4135.51282031,8.57
4063.97435856, 4100.12820478, 4069.74358940, 4092.82051248, 4120.76923050, 4102.69230742, 4121.53846126, 4138.46153826, 4137.43589723, 4135.76923056, 4122.82051255, 4092.69230735, 4132.82051255, 4191.66666653,8.57
4214.61538455, 4164.48717928, 4211.53846147, 4164.87179467, 4132.17948691, 4095.64102530, 4113.20512793, 4129.74358947, 4126.28205101, 4131.02564075, 4137.30769210, 4188.71794858, 4143.71794851, 4221.66666660,8.57
4060.25640984, 4098.97435863, 4069.99999966, 4107.05128178, 4110.25640998, 4108.71794844, 4130.89743562, 4153.46153826, 4146.66666646, 4119.35897408, 4116.92307665, 4083.71794837, 4123.71794844, 4165.64102544,8.57
4137.56410236, 4129.99999973, 4135.64102544, 4122.56410229, 4127.30769203, 4105.12820485, 4126.66666639, 4134.87179460, 4135.64102544, 4121.79487152, 4124.10256383, 4133.58974332, 4132.05128178, 4195.76923063,8.57
4117.82051255, 4123.33333306, 4122.30769203, 4123.58974332, 4120.76923050, 4101.28205094, 4112.94871767, 4107.69230742, 4120.25640998, 4130.89743562, 4127.43589716, 4133.07692280, 4130.38461511, 4187.56410243,8.57
4124.74358947, 4125.12820485, 4123.46153819, 4125.76923050, 4125.25640998, 4103.07692280, 4109.99999973, 4108.20512793, 4121.02564075, 4129.74358947, 4128.58974332, 4122.05128178, 4131.53846126, 4193.97435884,8.57
4119.87179460, 4120.25640998, 4125.38461511, 4123.84615357, 4123.46153819, 4093.97435863, 4110.64102537, 4117.56410229, 4127.69230742, 4124.10256383, 4126.15384588, 4128.20512793, 4129.74358947, 4191.79487166,8.57
4104.48717921, 4116.28205101, 4108.84615357, 4117.43589716, 4122.82051255, 4088.58974325, 4113.71794844, 4132.17948691, 4136.28205108, 4133.84615357, 4122.30769203, 4120.12820485, 4129.74358947, 4188.84615371,8.57
4130.51282024, 4131.02564075, 4131.02564075, 4129.23076896, 4126.66666639, 4109.61538434, 4129.48717921, 4148.97435877, 4134.35897408, 4141.15384595, 4126.92307665, 4129.10256383, 4133.33333306, 4195.89743576,8.57
4095.38461504, 4112.56410229, 4105.38461511, 4118.46153819, 4116.92307665, 4123.07692280, 4133.07692280, 4143.33333313, 4122.82051255, 4134.87179460, 4130.38461511, 4118.84615357, 4129.10256383, 4188.20512807,8.57
4139.74358954, 4129.61538434, 4133.97435870, 4128.84615357, 4128.84615357, 4101.41025607, 4109.99999973, 4123.07692280, 4115.89743562, 4134.10256383, 4129.48717921, 4133.33333306, 4132.17948691, 4199.74358961,8.57
4117.56410229, 4123.58974332, 4121.15384588, 4123.20512793, 4123.20512793, 4086.28205094, 4103.20512793, 4124.61538434, 4130.89743562, 4139.74358954, 4125.64102537, 4128.20512793, 4133.71794844, 4187.56410243,8.57
4101.66666632, 4119.10256383, 4115.12820485, 4119.99999973, 4119.87179460, 4096.66666632, 4118.84615357, 4133.33333306, 4142.69230749, 4134.99999973, 4126.66666639, 4117.69230742, 4131.53846126, 4187.94871781,8.57
4136.79487159, 4132.17948691, 4139.87179467, 4130.76923050, 4130.89743562, 4101.53846119, 4119.74358947, 4127.56410229, 4133.33333306, 4126.02564075, 4129.35897408, 4126.15384588, 4131.53846126, 4201.02564096,8.57
4106.92307665, 4115.51282024, 4111.15384588, 4118.84615357, 4118.97435870, 4090.89743555, 4107.05128178, 4119.23076896, 4119.10256383, 4127.69230742, 4124.87179460, 4121.41025614, 4128.71794844, 4186.53846140,8.57
4137.05128185, 4126.92307665, 4129.87179460, 4125.89743562, 4122.30769203, 4084.35897402, 4103.58974332, 4117.30769203, 4117.05128178, 4134.35897408, 4121.66666639, 4126.53846126, 4129.74358947, 4190.38461525,8.57
4127.17948691, 4123.58974332, 4124.61538434, 4124.74358947, 4121.28205101, 4100.51282017, 4121.53846126, 4135.38461518, 4140.25641005, 4131.41025614, 4127.69230742, 4125.51282024, 4133.07692280, 4189.10256397,8.57
4106.92307665, 4118.33333306, 4111.02564075, 4119.74358947, 4118.33333306, 4121.15384588, 4138.33333313, 4150.89743569, 4152.05128185, 4126.66666639, 4128.58974332, 4122.43589716, 4132.43589716, 4184.48717935,8.57
4138.07692287, 4132.82051255, 4135.51282031, 4128.07692280, 4128.58974332, 4116.92307665, 4124.10256383, 4123.07692280, 4114.74358947, 4129.87179460, 4124.35897408, 4129.35897408, 4131.41025614, 4192.05128192,8.57
4105.76923050, 4116.53846126, 4111.15384588, 4118.58974332, 4119.23076896, 4115.25640998, 4121.02564075, 4115.12820485, 4101.28205094, 4131.28205101, 4125.38461511, 4123.58974332, 4131.15384588, 4190.12820499,8.57
4129.35897408, 4126.92307665, 4129.10256383, 4124.87179460, 4123.84615357, 4124.87179460, 4140.25641005, 4153.84615364, 4145.51282031, 4126.02564075, 4127.43589716, 4130.12820485, 4133.58974332, 4197.69230756,8.57
4126.15384588, 4124.35897408, 4130.89743562, 4124.23076896, 4122.56410229, 4118.84615357, 4133.71794844, 4151.79487159, 4160.51282031, 4127.56410229, 4126.79487152, 4128.46153819, 4132.69230742, 4190.64102551,8.57
4099.35897402, 4112.43589716, 4107.82051255, 4117.56410229, 4114.74358947, 4109.74358947, 4113.33333306, 4113.20512793, 4130.38461511, 4132.56410229, 4126.79487152, 4118.84615357, 4132.82051255, 4185.51282038,8.57
4141.28205108, 4132.69230742, 4133.58974332, 4129.23076896, 4126.53846126, 4114.48717921, 4117.05128178, 4121.02564075, 4135.25640998, 4134.10256383, 4128.20512793, 4131.15384588, 4137.17948697, 4198.33333320,8.57
4111.79487152, 4119.35897408, 4113.20512793, 4120.76923050, 4118.97435870, 4122.43589716, 4137.69230749, 4159.10256390, 4161.41025621, 4133.84615357, 4127.56410229, 4128.58974332, 4133.33333306, 4189.10256397,8.57
4117.69230742, 4121.92307665, 4119.48717921, 4123.46153819, 4121.41025614, 4116.53846126, 4140.38461518, 4154.99999980, 4141.79487159, 4129.74358947, 4125.89743562, 4124.61538434, 4131.28205101, 4192.82051269,8.57
4127.17948691, 4126.79487152, 4129.61538434, 4129.23076896, 4124.35897408, 4103.71794844, 4132.69230742, 4141.15384595, 4131.15384588, 4124.87179460, 4127.43589716, 4127.05128178, 4134.87179460, 4194.35897422,8.57
4127.17948691, 4126.79487152, 4129.61538434, 4129.23076896, 4124.35897408, 4103.71794844, 4132.69230742, 4141.15384595, 4131.15384588, 4124.87179460, 4127.43589716, 4127.05128178, 4134.87179460, 4194.35897422,8.57
4103.84615357, 4116.53846126, 4110.89743562, 4122.30769203, 4116.02564075, 4103.84615357, 4134.61538434, 4151.15384595, 4150.64102544, 4129.61538434, 4127.43589716, 4123.58974332, 4134.35897408, 4184.99999986,8.57
4143.58974339, 4132.82051255, 4135.12820485, 4130.38461511, 4126.66666639, 4110.89743562, 4128.84615357, 4140.76923056, 4128.33333306, 4137.43589723, 4127.05128178, 4127.30769203, 4131.79487152, 4195.64102551,8.57
4114.61538434, 4120.12820485, 4115.64102537, 4121.41025614, 4120.89743562, 4109.99999973, 4114.35897408, 4117.30769203, 4103.58974332, 4135.12820485, 4128.71794844, 4123.20512793, 4128.97435870, 4190.64102551,8.57
4116.79487152, 4122.56410229, 4117.05128178, 4123.33333306, 4119.61538434, 4100.89743555, 4109.48717921, 4117.94871767, 4123.46153819, 4133.58974332, 4128.33333306, 4126.02564075, 4131.02564075, 4188.58974345,8.57
4142.94871774, 4134.61538434, 4134.74358947, 4131.79487152, 4126.28205101, 4093.07692273, 4108.58974332, 4122.94871767, 4127.17948691, 4137.05128185, 4127.69230742, 4130.51282024, 4132.82051255, 4192.17948704,8.57
4111.28205101, 4120.76923050, 4111.66666639, 4118.71794844, 4118.33333306, 4091.53846119, 4103.97435870, 4109.35897408, 4103.33333306, 4135.76923056, 4129.23076896, 4125.25640998, 4131.79487152, 4189.23076910,8.57
4136.41025621, 4130.76923050, 4131.53846126, 4124.74358947, 4124.48717921, 4104.61538434, 4114.61538434, 4115.64102537, 4123.20512793, 4134.99999973, 4128.20512793, 4131.28205101, 4131.41025614, 4195.25641012,8.57
4113.97435870, 4118.84615357, 4118.33333306, 4122.05128178, 4120.76923050, 4116.41025614, 4129.74358947, 4142.56410236, 4166.28205108, 4134.74358947, 4128.07692280, 4127.94871767, 4130.51282024, 4187.94871781,8.57
4110.89743562, 4118.07692280, 4113.46153819, 4119.87179460, 4120.12820485, 4100.76923043, 4116.66666639, 4129.87179460, 4146.28205108, 4134.23076896, 4129.61538434, 4126.92307665, 4132.82051255, 4192.94871781,8.57
4139.87179467, 4134.23076896, 4132.30769203, 4125.51282024, 4127.69230742, 4090.12820478, 4111.02564075, 4121.41025614, 4118.71794844, 4134.61538434, 4128.97435870, 4132.56410229, 4133.07692280, 4197.56410243,8.57
4105.25640998, 4118.46153819, 4108.97435870, 4117.82051255, 4119.99999973, 4111.41025614, 4138.46153826, 4166.92307672, 4154.61538441, 4134.48717921, 4128.07692280, 4125.25640998, 4129.74358947, 4187.17948704,8.57
4132.82051255, 4127.30769203, 4130.38461511, 4128.84615357, 4126.28205101, 4122.69230742, 4144.61538441, 4174.87179474, 4167.69230749, 4134.48717921, 4128.97435870, 4129.35897408, 4132.17948691, 4200.64102551,8.57
4120.38461511, 4121.66666639, 4123.33333306, 4124.48717921, 4123.20512793, 4111.41025614, 4129.35897408, 4137.05128185, 4137.17948697, 4135.25640998, 4126.79487152, 4125.64102537, 4133.20512793, 4197.56410243,8.57
4102.82051255, 4116.79487152, 4110.76923050, 4119.99999973, 4119.35897408, 4104.74358947, 4129.87179460, 4128.20512793, 4127.69230742, 4133.97435870, 4123.97435870, 4118.58974332, 4132.30769203, 4189.74358961,8.57
4134.48717921, 4130.64102537, 4133.07692280, 4130.64102537, 4129.23076896, 4101.79487145, 4122.43589716, 4121.79487152, 4120.76923050, 4133.71794844, 4126.53846126, 4126.28205101, 4134.23076896, 4196.92307679,8.57
4106.92307665, 4116.66666639, 4113.07692280, 4120.51282024, 4120.51282024, 4101.92307658, 4109.23076896, 4108.97435870, 4113.07692280, 4136.79487159, 4127.30769203, 4125.25640998, 4132.43589716, 4190.38461525,8.57
4128.71794844, 4127.82051255, 4133.84615357, 4127.43589716, 4126.15384588, 4109.23076896, 4118.58974332, 4127.05128178, 4128.84615357, 4131.41025614, 4126.15384588, 4127.94871767, 4130.89743562, 4193.71794858,8.57
4122.56410229, 4126.41025614, 4129.99999973, 4126.66666639, 4124.74358947, 4115.64102537, 4136.28205108, 4156.15384595, 4148.33333313, 4124.74358947, 4126.92307665, 4123.46153819, 4130.12820485, 4190.76923063,8.57
4106.92307665, 4119.10256383, 4109.23076896, 4117.94871767, 4117.69230742, 4107.69230742, 4131.02564075, 4150.25641005, 4142.56410236, 4131.28205101, 4125.12820485, 4121.02564075, 4128.97435870, 4188.97435884,8.57
4142.94871774, 4133.84615357, 4136.28205108, 4128.33333306, 4131.28205101, 4099.74358940, 4113.58974332, 4127.17948691, 4127.43589716, 4138.58974339, 4125.76923050, 4129.74358947, 4132.05128178, 4195.51282038,8.57
4103.33333306, 4115.89743562, 4113.33333306, 4119.99999973, 4125.12820485, 4107.05128178, 4110.38461511, 4121.92307665, 4131.79487152, 4135.38461518, 4129.61538434, 4122.69230742, 4133.07692280, 4187.82051269,8.57
4122.05128178, 4124.61538434, 4121.15384588, 4122.82051255, 4124.74358947, 4106.53846126, 4115.89743562, 4126.53846126, 4140.64102544, 4132.43589716, 4128.46153819, 4126.28205101, 4133.33333306, 4196.79487166,8.57
4136.66666646, 4130.51282024, 4128.71794844, 4125.51282024, 4123.97435870, 4105.25640998, 4129.10256383, 4142.30769210, 4147.43589723, 4138.58974339, 4126.66666639, 4128.33333306, 4131.92307665, 4194.74358961,8.57
4105.38461511, 4118.20512793, 4110.64102537, 4118.58974332, 4118.58974332, 4117.17948691, 4136.79487159, 4153.20512800, 4147.30769210, 4136.53846133, 4129.10256383, 4121.53846126, 4131.15384588, 4186.79487166,8.57
4135.76923056, 4132.69230742, 4137.17948697, 4129.48717921, 4130.64102537, 4112.56410229, 4126.66666639, 4143.84615364, 4133.07692280, 4124.48717921, 4128.71794844, 4133.71794844, 4135.64102544, 4200.12820499,8.57
4105.51282024, 4116.92307665, 4114.23076896, 4121.66666639, 4121.92307665, 4103.84615357, 4137.94871774, 4159.23076903, 4141.79487159, 4124.87179460, 4125.25640998, 4128.07692280, 4133.20512793, 4190.89743576,8.57
4114.74358947, 4119.23076896, 4115.64102537, 4121.92307665, 4122.30769203, 4113.58974332, 4152.82051262, 4179.35897422, 4156.02564082, 4129.23076896, 4125.89743562, 4121.66666639, 4130.51282024, 4192.56410243,8.57
4133.97435870, 4130.12820485, 4130.76923050, 4127.82051255, 4127.56410229, 4112.69230742, 4123.84615357, 4137.94871774, 4127.69230742, 4126.28205101, 4128.46153819, 4127.17948691, 4133.84615357, 4199.99999986,8.57
4099.74358940, 4118.71794844, 4110.38461511, 4121.15384588, 4118.97435870, 4094.48717914, 4096.15384581, 4094.23076889, 4103.20512793, 4129.61538434, 4128.84615357, 4123.84615357, 4134.61538434, 4189.35897422,8.57
4136.41025621, 4133.20512793, 4134.99999973, 4130.12820485, 4129.48717921, 4083.20512786, 4101.28205094, 4103.46153819, 4116.02564075, 4138.84615364, 4128.84615357, 4131.02564075, 4134.10256383, 4194.48717935,8.57
4118.46153819, 4123.84615357, 4118.46153819, 4121.41025614, 4124.23076896, 4088.84615350, 4112.56410229, 4121.28205101, 4131.02564075, 4138.07692287, 4126.15384588, 4127.56410229, 4130.64102537, 4188.84615371,8.57
4116.92307665, 4124.74358947, 4118.71794844, 4122.43589716, 4122.82051255, 4103.71794844, 4123.97435870, 4135.51282031, 4142.05128185, 4133.33333306, 4124.74358947, 4122.94871767, 4129.23076896, 4189.23076910,8.57
4141.53846133, 4134.10256383, 4139.35897415, 4132.17948691, 4130.25640998, 4111.41025614, 4138.07692287, 4154.48717928, 4156.15384595, 4136.28205108, 4128.84615357, 4127.43589716, 4129.23076896, 4194.10256397,8.57
4107.82051255, 4118.84615357, 4111.28205101, 4120.64102537, 4119.61538434, 4111.66666639, 4144.87179467, 4159.99999980, 4163.58974339, 4138.97435877, 4128.07692280, 4123.07692280, 4129.87179460, 4187.30769217,8.57
4137.56410236, 4133.33333306, 4132.17948691, 4129.10256383, 4128.20512793, 4113.33333306, 4138.20512800, 4149.23076903, 4154.74358954, 4132.56410229, 4124.99999973, 4128.20512793, 4133.71794844, 4194.61538448,8.57
4118.71794844, 4122.30769203, 4122.69230742, 4124.99999973, 4126.28205101, 4117.56410229, 4133.58974332, 4143.20512800, 4138.46153826, 4125.25640998, 4126.53846126, 4124.10256383, 4130.25640998, 4187.43589730,8.57
4105.64102537, 4116.28205101, 4108.84615357, 4119.87179460, 4120.51282024, 4108.46153819, 4129.61538434, 4137.43589723, 4129.74358947, 4129.87179460, 4127.17948691, 4124.48717921, 4129.35897408, 4187.17948704,8.57
4138.46153826, 4133.46153819, 4131.41025614, 4128.20512793, 4128.46153819, 4093.58974325, 4117.17948691, 4123.84615357, 4132.94871767, 4136.92307672, 4128.20512793, 4131.92307665, 4133.20512793, 4192.30769217,8.57
4103.58974332, 4116.92307665, 4114.10256383, 4117.43589716, 4122.17948691, 4100.38461504, 4116.53846126, 4124.61538434, 4137.56410236, 4135.12820485, 4128.33333306, 4121.53846126, 4129.10256383, 4185.51282038,8.57
4128.07692280, 4123.84615357, 4129.87179460, 4123.07692280, 4127.56410229, 4116.53846126, 4125.64102537, 4130.64102537, 4132.69230742, 4133.33333306, 4126.02564075, 4128.46153819, 4130.76923050, 4201.66666660,8.57
4122.56410229, 4121.28205101, 4120.25640998, 4123.71794844, 4122.43589716, 4112.82051255, 4121.28205101, 4128.07692280, 4140.89743569, 4131.66666639, 4127.05128178, 4129.23076896, 4133.97435870, 4196.41025628,8.57
4101.79487145, 4117.05128178, 4107.82051255, 4121.41025614, 4119.23076896, 4097.43589709, 4109.23076896, 4122.17948691, 4147.05128185, 4127.30769203, 4128.71794844, 4120.76923050, 4132.56410229, 4183.58974345,8.57
4137.17948697, 4132.30769203, 4138.71794851, 4130.76923050, 4132.69230742, 4099.74358940, 4122.05128178, 4137.30769210, 4143.33333313, 4129.74358947, 4126.66666639, 4130.25640998, 4133.58974332, 4196.02564089,8.57
4109.74358947, 4115.51282024, 4116.53846126, 4121.53846126, 4122.30769203, 4112.69230742, 4144.99999980, 4172.56410243, 4166.15384595, 4132.56410229, 4127.05128178, 4128.33333306, 4133.33333306, 4194.61538448,8.57
4130.12820485, 4127.43589716, 4127.05128178, 4128.97435870, 4125.25640998, 4113.20512793, 4135.89743569, 4174.87179474, 4173.33333320, 4124.48717921, 4129.61538434, 4126.28205101, 4132.82051255, 4193.07692294,8.57
4131.28205101, 4132.17948691, 4128.84615357, 4127.56410229, 4126.41025614, 4114.99999973, 4119.87179460, 4147.82051262, 4147.30769210, 4121.79487152, 4128.71794844, 4123.84615357, 4132.69230742, 4187.05128192,8.57
4106.79487152, 4118.58974332, 4108.97435870, 4116.15384588, 4117.17948691, 4115.51282024, 4114.61538434, 4124.35897408, 4127.94871767, 4131.66666639, 4127.56410229, 4123.20512793, 4132.56410229, 4189.48717935,8.57
4142.94871774, 4129.61538434, 4134.10256383, 4128.71794844, 4127.56410229, 4099.74358940, 4103.58974332, 4115.25640998, 4119.99999973, 4135.25640998, 4129.74358947, 4132.43589716, 4132.43589716, 4200.76923063,8.57
4110.76923050, 4116.92307665, 4110.12820485, 4121.41025614, 4120.25640998, 4097.94871761, 4105.25640998, 4122.56410229, 4119.99999973, 4130.12820485, 4131.28205101, 4126.66666639, 4129.87179460, 4186.92307679,8.57
4122.17948691, 4125.76923050, 4116.66666639, 4122.17948691, 4123.20512793, 4117.82051255, 4112.05128178, 4120.38461511, 4119.87179460, 4126.79487152, 4129.87179460, 4129.74358947, 4133.07692280, 4191.92307679,8.57
4133.84615357, 4129.99999973, 4130.89743562, 4127.05128178, 4131.02564075, 4124.23076896, 4107.05128178, 4111.53846126, 4121.53846126, 4125.64102537, 4127.82051255, 4128.97435870, 4135.51282031, 4197.82051269,8.57
4096.53846119, 4112.56410229, 4107.69230742, 4118.58974332, 4122.30769203, 4110.76923050, 4111.28205101, 4128.71794844, 4139.35897415, 4124.87179460, 4127.30769203, 4118.46153819, 4131.41025614, 4190.76923063,8.57
4134.35897408, 4129.74358947, 4131.41025614, 4127.82051255, 4128.71794844, 4098.20512786, 4122.30769203, 4156.79487159, 4157.56410236, 4122.94871767, 4129.74358947, 4131.41025614, 4131.41025614, 4198.33333320,8.57
4113.71794844, 4120.12820485, 4117.82051255, 4122.94871767, 4124.99999973, 4104.99999973, 4124.74358947, 4166.15384595, 4154.35897415, 4126.66666639, 4127.56410229, 4130.89743562, 4132.82051255, 4186.79487166,8.57
4108.46153819, 4117.43589716, 4116.28205101, 4122.94871767, 4125.76923050, 4117.69230742, 4124.87179460, 4167.82051262, 4144.48717928, 4130.12820485, 4122.30769203, 4123.71794844, 4133.20512793, 4188.71794858,8.57
4131.02564075, 4128.84615357, 4129.61538434, 4128.20512793, 4127.94871767, 4115.38461511, 4124.23076896, 4163.71794851, 4138.97435877, 4126.92307665, 4126.53846126, 4127.56410229, 4132.82051255, 4198.20512807,8.57
4107.94871767, 4117.17948691, 4110.89743562, 4120.12820485, 4117.69230742, 4106.41025614, 4117.94871767, 4147.17948697, 4129.61538434, 4126.79487152, 4130.76923050, 4122.56410229, 4130.76923050, 4188.07692294,8.57
4138.33333313, 4128.07692280, 4136.28205108, 4131.53846126, 4127.94871767, 4093.71794837, 4105.64102537, 4129.10256383, 4119.74358947, 4133.20512793, 4126.79487152, 4127.05128178, 4133.58974332, 4194.23076910,8.57
4117.17948691, 4120.76923050, 4121.92307665, 4125.12820485, 4123.84615357, 4079.48717914, 4092.69230735, 4116.15384588, 4113.97435870, 4135.51282031, 4127.30769203, 4127.56410229, 4134.35897408, 4190.89743576,8.57
4114.87179460, 4122.69230742, 4112.69230742, 4120.51282024, 4119.48717921, 4085.12820478, 4099.48717914, 4117.43589716, 4109.35897408, 4128.33333306, 4129.48717921, 4125.38461511, 4131.79487152, 4188.84615371,8.57
4143.71794851, 4133.97435870, 4134.23076896, 4129.99999973, 4127.94871767, 4100.25640991, 4117.94871767, 4129.87179460, 4115.64102537, 4125.12820485, 4125.89743562, 4127.69230742, 4132.30769203, 4193.07692294,8.57
4105.76923050, 4116.02564075, 4112.56410229, 4119.99999973, 4121.28205101, 4102.17948684, 4119.35897408, 4142.69230749, 4136.15384595, 4129.35897408, 4126.15384588, 4125.12820485, 4133.71794844, 4188.58974345,8.57
4135.25640998, 4131.28205101, 4132.30769203, 4127.17948691, 4127.82051255, 4100.51282017, 4105.76923050, 4137.69230749, 4129.74358947, 4137.56410236, 4130.89743562, 4132.69230742, 4135.38461518, 4197.43589730,8.57
4125.51282024, 4127.43589716, 4123.07692280, 4124.74358947, 4122.94871767, 4110.89743562, 4107.05128178, 4129.48717921, 4117.82051255, 4138.71794851, 4129.48717921, 4127.05128178, 4129.10256383, 4189.74358961,8.57
4105.25640998, 4117.94871767, 4109.10256383, 4119.10256383, 4116.79487152, 4115.76923050, 4124.99999973, 4147.43589723, 4138.33333313, 4134.48717921, 4128.84615357, 4122.30769203, 4127.17948691, 4188.20512807,8.57
4137.30769210, 4132.30769203, 4135.51282031, 4129.74358947, 4128.20512793, 4108.33333306, 4128.07692280, 4159.61538441, 4140.64102544, 4136.41025621, 4130.51282024, 4132.05128178, 4135.12820485, 4201.28205122,8.57
4104.61538434, 4116.79487152, 4111.41025614, 4120.89743562, 4120.76923050, 4108.20512793, 4118.58974332, 4138.84615364, 4119.74358947, 4135.38461518, 4124.87179460, 4124.74358947, 4134.87179460, 4193.97435884,8.57
4124.87179460, 4123.84615357, 4121.28205101, 4125.89743562, 4123.46153819, 4107.30769203, 4115.38461511, 4125.51282024, 4124.23076896, 4134.48717921, 4121.79487152, 4126.66666639, 4133.33333306, 4198.46153833,8.57
4126.15384588, 4124.23076896, 4121.79487152, 4125.89743562, 4123.33333306, 4100.76923043, 4116.15384588, 4145.12820492, 4146.79487159, 4135.64102544, 4126.92307665, 4126.02564075, 4133.58974332, 4194.99999986,8.57
4102.30769196, 4117.43589716, 4109.35897408, 4119.48717921, 4118.07692280, 4098.07692273, 4107.82051255, 4133.84615357, 4127.05128178, 4135.38461518, 4127.94871767, 4120.12820485, 4132.69230742, 4187.82051269,8.57
4133.71794844, 4133.20512793, 4134.23076896, 4130.25640998, 4128.58974332, 4098.46153812, 4097.69230735, 4095.25640991, 4090.89743555, 4136.41025621, 4127.17948691, 4129.23076896, 4132.43589716, 4194.10256397,8.57
4108.97435870, 4120.38461511, 4115.38461511, 4122.56410229, 4120.38461511, 4104.48717921, 4108.20512793, 4113.07692280, 4108.58974332, 4136.28205108, 4128.07692280, 4123.84615357, 4131.66666639, 4184.61538448,8.57
4126.41025614, 4128.71794844, 4130.89743562, 4126.66666639, 4123.20512793, 4106.53846126, 4117.69230742, 4146.66666646, 4133.97435870, 4136.02564082, 4126.53846126, 4121.15384588, 4132.30769203, 4188.71794858,8.57
4129.23076896, 4130.25640998, 4133.58974332, 4128.71794844, 4126.28205101, 4107.94871767, 4121.92307665, 4157.30769210, 4140.25641005, 4136.66666646, 4125.76923050, 4125.12820485, 4130.64102537, 4189.99999986,8.57
4103.97435870, 4118.71794844, 4106.53846126, 4118.20512793, 4118.58974332, 4117.82051255, 4134.23076896, 4172.05128192, 4154.10256390, 4136.53846133, 4127.17948691, 4127.30769203, 4131.02564075, 4186.53846140,8.57
4146.28205108, 4137.17948697, 4135.89743569, 4127.56410229, 4129.87179460, 4114.74358947, 4128.33333306, 4162.30769210, 4149.87179467, 4135.12820485, 4124.23076896, 4130.76923050, 4135.64102544, 4195.76923063,8.57
4116.41025614, 4120.51282024, 4118.97435870, 4123.20512793, 4123.33333306, 4101.28205094, 4112.69230742, 4134.35897408, 4129.61538434, 4137.69230749, 4123.46153819, 4120.76923050, 4134.23076896, 4188.20512807,8.57
4120.76923050, 4120.12820485, 4117.30769203, 4125.64102537, 4122.82051255, 4101.92307658, 4112.94871767, 4130.25640998, 4122.43589716, 4136.41025621, 4128.84615357, 4126.66666639, 4132.43589716, 4193.71794858,8.57
4141.79487159, 4131.66666639, 4133.71794844, 4128.07692280, 4129.23076896, 4117.30769203, 4123.33333306, 4138.07692287, 4126.66666639, 4128.46153819, 4130.51282024, 4131.41025614, 4132.56410229, 4196.28205115,8.57
4104.74358947, 4117.69230742, 4110.64102537, 4118.46153819, 4120.38461511, 4126.02564075, 4125.89743562, 4136.79487159, 4128.20512793, 4128.46153819, 4126.92307665, 4121.28205101, 4130.51282024, 4187.30769217,8.57
4134.99999973, 4130.25640998, 4130.25640998, 4129.74358947, 4127.56410229, 4118.33333306, 4120.89743562, 4134.35897408, 4129.10256383, 4132.56410229, 4127.05128178, 4129.99999973, 4130.89743562, 4198.33333320,8.57
4115.38461511, 4121.53846126, 4119.10256383, 4126.66666639, 4124.61538434, 4116.53846126, 4124.61538434, 4146.53846133, 4143.33333313, 4130.38461511, 4128.33333306, 4128.58974332, 4130.51282024, 4191.41025628,8.57
4106.79487152, 4118.46153819, 4113.97435870, 4124.99999973, 4126.28205101, 4126.66666639, 4127.69230742, 4156.66666646, 4158.20512800, 4130.89743562, 4126.53846126, 4125.51282024, 4130.89743562, 4189.48717935,8.57
4132.05128178, 4130.89743562, 4127.56410229, 4127.30769203, 4130.76923050, 4129.87179460, 4126.02564075, 4154.35897415, 4155.38461518, 4136.15384595, 4126.02564075, 4131.92307665, 4131.28205101, 4197.05128192,8.57
4107.30769203, 4122.94871767, 4109.87179460, 4117.69230742, 4119.35897408, 4121.41025614, 4121.41025614, 4147.17948697, 4136.28205108, 4134.87179460, 4126.41025614, 4125.51282024, 4130.51282024, 4189.35897422,8.57
4137.56410236, 4133.33333306, 4136.79487159, 4130.64102537, 4128.84615357, 4118.07692280, 4114.99999973, 4141.28205108, 4116.92307665, 4132.56410229, 4125.64102537, 4127.17948691, 4131.53846126, 4193.58974345,8.57
4120.25640998, 4119.48717921, 4123.46153819, 4123.84615357, 4123.20512793, 4126.79487152, 4121.79487152, 4145.89743569, 4121.79487152, 4134.61538434, 4127.17948691, 4126.92307665, 4129.99999973, 4190.51282038,8.57
4112.56410229, 4117.17948691, 4113.20512793, 4115.51282024, 4117.43589716, 4128.20512793, 4131.79487152, 4149.87179467, 4137.43589723, 4133.46153819, 4127.43589716, 4124.61538434, 4130.89743562, 4190.38461525,8.57
4143.20512800, 4134.23076896, 4137.43589723, 4128.33333306, 4129.48717921, 4123.97435870, 4130.51282024, 4145.51282031, 4142.43589723, 4134.35897408, 4126.41025614, 4126.41025614, 4133.07692280, 4193.33333320,8.57
4107.94871767, 4116.92307665, 4111.53846126, 4119.99999973, 4121.28205101, 4128.58974332, 4131.53846126, 4145.12820492, 4139.48717928, 4136.02564082, 4127.82051255, 4126.53846126, 4132.30769203, 4186.92307679,8.57
4135.25640998, 4128.07692280, 4129.35897408, 4123.97435870, 4126.28205101, 4133.97435870, 4134.48717921, 4148.07692287, 4135.64102544, 4127.43589716, 4128.84615357, 4135.51282031, 4131.15384588, 4196.79487166,8.57
4124.61538434, 4124.35897408, 4125.38461511, 4122.69230742, 4125.89743562, 4136.41025621, 4127.05128178, 4143.07692287, 4138.33333313, 4120.51282024, 4128.07692280, 4126.15384588, 4127.05128178, 4189.23076910,8.57
4098.58974325, 4112.69230742, 4104.48717921, 4117.17948691, 4117.30769203, 4141.53846133, 4116.41025614, 4131.79487152, 4136.15384595, 4127.94871767, 4127.30769203, 4121.02564075, 4128.07692280, 4185.51282038,8.57
4138.46153826, 4131.02564075, 4132.43589716, 4128.33333306, 4126.92307665, 4146.28205108, 4118.58974332, 4141.15384595, 4133.07692280, 4134.35897408, 4126.28205101, 4134.74358947, 4133.20512793, 4198.07692294,8.57
4106.02564075, 4118.71794844, 4114.23076896, 4119.35897408, 4124.48717921, 4153.46153826, 4134.99999973, 4168.84615371, 4146.53846133, 4131.92307665, 4125.51282024, 4127.17948691, 4129.48717921, 4190.12820499,8.57
4117.69230742, 4122.56410229, 4121.41025614, 4124.48717921, 4127.17948691, 4154.87179467, 4130.76923050, 4162.56410236, 4143.71794851, 4133.20512793, 4128.71794844, 4127.43589716, 4128.84615357, 4195.51282038,8.57
4126.15384588, 4124.48717921, 4123.71794844, 4128.46153819, 4122.56410229, 4150.38461518, 4113.20512793, 4133.84615357, 4123.71794844, 4136.15384595, 4128.07692280, 4130.51282024, 4131.28205101, 4195.89743576,8.57
4102.82051255, 4116.53846126, 4109.35897408, 4121.66666639, 4117.82051255, 4152.69230749, 4116.28205101, 4134.74358947, 4124.10256383, 4133.84615357, 4121.28205101, 4121.66666639, 4129.74358947, 4188.71794858,8.57
4136.92307672, 4132.56410229, 4138.71794851, 4131.53846126, 4131.79487152, 4154.23076903, 4115.25640998, 4134.74358947, 4121.79487152, 4132.82051255, 4122.82051255, 4127.17948691, 4132.43589716, 4199.35897422,8.57
4114.99999973, 4120.38461511, 4117.94871767, 4123.46153819, 4120.38461511, 4152.05128185, 4107.43589716, 4120.64102537, 4112.56410229, 4133.97435870, 4128.58974332, 4126.15384588, 4132.94871767, 4192.94871781,8.57
4126.41025614, 4125.12820485, 4122.69230742, 4124.87179460, 4121.41025614, 4153.07692287, 4115.51282024, 4125.64102537, 4114.23076896, 4134.10256383, 4126.92307665, 4125.12820485, 4129.48717921, 4190.38461525,8.57
4134.61538434, 4128.20512793, 4131.41025614, 4128.46153819, 4132.05128178, 4161.79487159, 4118.84615357, 4133.71794844, 4116.28205101, 4134.74358947, 4124.99999973, 4126.41025614, 4128.46153819, 4188.46153833,8.57
4106.41025614, 4114.87179460, 4106.79487152, 4120.89743562, 4123.33333306, 4168.33333320, 4100.64102530, 4119.35897408, 4115.12820485, 4134.48717921, 4126.53846126, 4123.71794844, 4130.51282024, 4186.15384602,8.57
4144.35897415, 4133.84615357, 4134.10256383, 4130.25640998, 4127.82051255, 4158.46153826, 4089.87179453, 4111.41025614, 4111.66666639, 4133.84615357, 4127.05128178, 4131.41025614, 4132.43589716, 4197.30769217,8.57
4112.69230742, 4120.64102537, 4118.46153819, 4119.99999973, 4121.53846126, 4154.74358954, 4104.48717921, 4125.12820485, 4110.38461511, 4135.76923056, 4129.35897408, 4127.17948691, 4130.89743562, 4190.12820499,8.57
4111.41025614, 4117.94871767, 4114.23076896, 4118.07692280, 4122.56410229, 4162.82051262, 4119.74358947, 4138.20512800, 4113.46153819, 4135.89743569, 4129.35897408, 4129.23076896, 4132.30769203, 4193.20512807,8.57
4138.84615364, 4129.10256383, 4130.76923050, 4128.46153819, 4129.23076896, 4159.23076903, 4116.66666639, 4139.99999980, 4115.25640998, 4131.53846126, 4127.05128178, 4134.87179460, 4133.97435870, 4196.28205115,8.57
4102.94871767, 4114.48717921, 4109.74358947, 4120.89743562, 4118.84615357, 4146.79487159, 4106.92307665, 4132.94871767, 4114.35897408, 4129.48717921, 4127.30769203, 4126.41025614, 4132.30769203, 4188.46153833,8.57
4134.10256383, 4128.97435870, 4131.41025614, 4126.92307665, 4127.05128178, 4138.58974339, 4093.07692273, 4110.64102537, 4099.23076889, 4126.28205101, 4129.48717921, 4133.58974332, 4133.71794844, 4200.51282038,8.57
4115.51282024, 4122.82051255, 4115.12820485, 4122.82051255, 4125.12820485, 4142.17948697, 4084.10256376, 4093.71794837, 4076.66666632, 4124.99999973, 4131.02564075, 4127.82051255, 4131.66666639, 4191.41025628,8.57
4100.12820478, 4118.97435870, 4107.56410229, 4121.92307665, 4123.20512793, 4155.38461518, 4090.64102530, 4106.02564075, 4082.05128171, 4127.17948691, 4128.33333306, 4119.23076896, 4129.61538434, 4187.82051269,8.57
4133.20512793, 4130.89743562, 4135.25640998, 4129.87179460, 4131.41025614, 4169.74358961, 4095.12820478, 4114.10256383, 4104.48717921, 4130.25640998, 4125.89743562, 4127.05128178, 4132.17948691, 4199.35897422,8.57
4108.46153819, 4117.30769203, 4113.97435870, 4121.92307665, 4119.23076896, 4176.02564089, 4094.23076889, 4105.76923050, 4106.79487152, 4134.35897408, 4126.79487152, 4123.33333306, 4132.05128178, 4191.41025628,8.57
4133.84615357, 4131.66666639, 4130.25640998, 4130.25640998, 4124.10256383, 4171.41025628, 4097.69230735, 4111.02564075, 4099.87179453, 4130.25640998, 4127.69230742, 4126.15384588, 4133.46153819, 4193.46153833,8.57
4119.35897408, 4125.64102537, 4124.35897408, 4121.66666639, 4123.97435870, 4171.28205115, 4109.61538434, 4135.25640998, 4114.10256383, 4126.02564075, 4127.94871767, 4126.66666639, 4132.94871767, 4188.97435884,8.57
4106.02564075, 4115.76923050, 4112.30769203, 4114.10256383, 4119.74358947, 4169.10256397, 4109.99999973, 4142.30769210, 4126.15384588, 4131.15384588, 4128.71794844, 4127.82051255, 4130.76923050, 4187.69230756,8.57
4146.41025621, 4132.05128178, 4134.48717921, 4128.97435870, 4126.66666639, 4165.76923056, 4102.82051255, 4136.41025621, 4124.87179460, 4133.97435870, 4128.33333306, 4131.79487152, 4132.43589716, 4193.97435884,8.57
4109.74358947, 4117.69230742, 4107.43589716, 4119.74358947, 4116.53846126, 4181.28205115, 4114.99999973, 4145.38461518, 4128.58974332, 4130.64102537, 4126.66666639, 4121.28205101, 4134.74358947, 4188.97435884,8.57
4126.53846126, 4125.25640998, 4122.56410229, 4126.28205101, 4124.48717921, 4185.51282038, 4108.97435870, 4123.46153819, 4104.87179460, 4132.30769203, 4127.69230742, 4127.43589716, 4135.76923056, 4202.17948711,8.57
4126.92307665, 4124.87179460, 4126.53846126, 4128.58974332, 4126.92307665, 4163.46153826, 4089.10256376, 4090.64102530, 4076.53846119, 4137.69230749, 4128.46153819, 4129.23076896, 4129.99999973, 4196.53846140,8.57
4098.20512786, 4115.64102537, 4104.35897408, 4117.17948691, 4116.92307665, 4157.56410236, 4100.38461504, 4106.66666639, 4095.76923043, 4130.76923050, 4126.53846126, 4121.79487152, 4126.92307665, 4185.12820499,8.57
4134.10256383, 4131.92307665, 4128.33333306, 4126.28205101, 4126.15384588, 4174.23076910, 4114.61538434, 4124.99999973, 4112.17948691, 4121.28205101, 4127.82051255, 4129.87179460, 4129.35897408, 4197.94871781,8.57
4104.35897408, 4115.25640998, 4110.51282024, 4119.74358947, 4120.12820485, 4175.76923063, 4104.10256383, 4113.97435870, 4102.17948684, 4126.15384588, 4128.97435870, 4126.92307665, 4128.84615357, 4192.43589730,8.57
4116.79487152, 4121.28205101, 4121.15384588, 4123.46153819, 4125.12820485, 4163.33333313, 4095.64102530, 4108.84615357, 4102.82051255, 4131.79487152, 4126.53846126, 4126.53846126, 4131.15384588, 4193.97435884,8.57
4133.97435870, 4130.76923050, 4131.53846126, 4128.46153819, 4128.46153819, 4174.87179474, 4110.76923050, 4126.02564075, 4123.20512793, 4129.61538434, 4127.17948691, 4125.76923050, 4131.53846126, 4193.58974345,8.57
4107.94871767, 4120.12820485, 4112.56410229, 4120.76923050, 4116.79487152, 4195.64102551, 4129.61538434, 4146.41025621, 4138.84615364, 4128.46153819, 4127.17948691, 4121.28205101, 4128.20512793, 4186.15384602,8.57
4138.84615364, 4135.12820485, 4138.33333313, 4129.10256383, 4124.74358947, 4184.48717935, 4125.76923050, 4143.07692287, 4125.89743562, 4130.51282024, 4125.25640998, 4129.48717921, 4131.15384588, 4194.23076910,8.57
4112.56410229, 4122.30769203, 4116.15384588, 4120.89743562, 4120.51282024, 4166.66666646, 4112.43589716, 4123.33333306, 4103.84615357, 4128.46153819, 4126.66666639, 4121.41025614, 4130.89743562, 4187.56410243,8.57
4121.92307665, 4123.58974332, 4116.02564075, 4122.69230742, 4123.58974332, 4169.35897422, 4111.28205101, 4113.07692280, 4100.12820478, 4129.87179460, 4129.48717921, 4120.38461511, 4129.23076896, 4191.02564089,8.57
4140.38461518, 4133.58974332, 4134.74358947, 4129.74358947, 4129.74358947, 4178.33333320, 4123.46153819, 4120.38461511, 4113.71794844, 4135.64102544, 4128.33333306, 4128.33333306, 4132.05128178, 4196.02564089,8.57
4102.69230742, 4118.58974332, 4108.84615357, 4118.84615357, 4118.33333306, 4184.10256397, 4134.87179460, 4129.23076896, 4120.38461511, 4134.10256383, 4125.64102537, 4122.94871767, 4131.28205101, 4190.25641012,8.57
4102.69230742, 4118.58974332, 4108.84615357, 4118.84615357, 4118.33333306, 4184.10256397, 4134.87179460, 4129.23076896, 4120.38461511, 4134.10256383, 4125.64102537, 4122.94871767, 4131.28205101, 4190.25641012,8.57
4136.02564082, 4129.61538434, 4129.48717921, 4126.92307665, 4129.10256383, 4169.23076910, 4123.46153819, 4118.20512793, 4106.79487152, 4133.71794844, 4126.41025614, 4128.20512793, 4131.02564075, 4197.43589730,8.57
4116.66666639, 4120.76923050, 4119.61538434, 4121.02564075, 4127.17948691, 4149.99999980, 4113.84615357, 4116.15384588, 4106.66666639, 4135.64102544, 4128.97435870, 4125.38461511, 4133.20512793, 4187.17948704,8.57
4107.43589716, 4121.28205101, 4111.15384588, 4117.94871767, 4120.89743562, 4157.69230749, 4128.97435870, 4136.28205108, 4122.56410229, 4134.61538434, 4128.84615357, 4122.30769203, 4133.97435870, 4185.76923063,8.57
4137.05128185, 4133.46153819, 4129.10256383, 4127.56410229, 4126.79487152, 4170.38461525, 4135.76923056, 4145.38461518, 4129.35897408, 4132.82051255, 4127.56410229, 4128.46153819, 4132.05128178, 4193.20512807,8.57
4105.89743562, 4113.46153819, 4109.48717921, 4117.82051255, 4121.28205101, 4164.48717928, 4123.07692280, 4133.07692280, 4121.02564075, 4129.61538434, 4128.33333306, 4124.23076896, 4131.15384588, 4187.17948704,8.57
4130.38461511, 4124.61538434, 4127.82051255, 4122.94871767, 4127.43589716, 4146.53846133, 4110.76923050, 4113.71794844, 4100.51282017, 4129.74358947, 4127.17948691, 4129.74358947, 4133.71794844, 4197.05128192,8.57
4117.94871767, 4124.61538434, 4120.12820485, 4121.66666639, 4122.94871767, 4146.92307672, 4113.33333306, 4108.71794844, 4094.23076889, 4131.66666639, 4123.33333306, 4128.84615357, 4131.92307665, 4193.71794858,8.57
4103.71794844, 4118.71794844, 4111.28205101, 4120.25640998, 4119.74358947, 4165.12820492, 4120.25640998, 4115.12820485, 4106.53846126, 4129.48717921, 4122.82051255, 4123.07692280, 4131.28205101, 4190.64102551,8.57
4136.02564082, 4127.94871767, 4132.56410229, 4128.97435870, 4129.48717921, 4163.97435877, 4123.20512793, 4123.07692280, 4120.76923050, 4122.30769203, 4127.30769203, 4126.66666639, 4133.58974332, 4199.35897422,8.57
4108.46153819, 4116.28205101, 4110.64102537, 4120.89743562, 4122.82051255, 4154.61538441, 4125.38461511, 4132.30769203, 4135.64102544, 4124.48717921, 4128.20512793, 4122.94871767, 4131.79487152, 4191.41025628,8.57
4128.07692280, 4131.53846126, 4130.51282024, 4128.71794844, 4130.38461511, 4171.15384602, 4122.69230742, 4134.61538434, 4137.05128185, 4135.76923056, 4124.99999973, 4126.53846126, 4132.69230742, 4193.84615371,8.57
4120.64102537, 4126.15384588, 4125.64102537, 4126.53846126, 4128.46153819, 4179.74358961, 4122.94871767, 4136.15384595, 4125.89743562, 4138.58974339, 4123.71794844, 4124.61538434, 4132.69230742, 4193.07692294,8.57
4105.12820485, 4115.12820485, 4106.15384588, 4120.12820485, 4119.48717921, 4149.23076903, 4121.66666639, 4127.56410229, 4114.87179460, 4134.87179460, 4126.15384588, 4120.51282024, 4130.12820485, 4189.74358961,8.57
4141.41025621, 4134.99999973, 4136.92307672, 4130.51282024, 4129.99999973, 4142.82051262, 4108.33333306, 4101.79487145, 4101.15384581, 4136.15384595, 4127.94871767, 4127.17948691, 4131.28205101, 4194.48717935,8.57
4106.02564075, 4119.87179460, 4117.94871767, 4121.15384588, 4121.28205101, 4166.53846133, 4097.56410222, 4090.76923043, 4095.89743555, 4137.82051262, 4124.10256383, 4121.28205101, 4133.33333306, 4188.84615371,8.57
4124.23076896, 4124.35897408, 4125.12820485, 4125.38461511, 4122.30769203, 4159.61538441, 4098.84615350, 4100.38461504, 4101.02564068, 4136.15384595, 4121.66666639, 4125.25640998, 4134.48717921, 4194.23076910,8.57
4132.82051255, 4129.10256383, 4129.35897408, 4127.43589716, 4126.02564075, 4138.33333313, 4102.94871767, 4104.87179460, 4109.48717921, 4135.38461518, 4125.51282024, 4126.92307665, 4129.35897408, 4187.05128192,8.57
4100.64102530, 4115.89743562, 4106.66666639, 4117.94871767, 4118.58974332, 4140.89743569, 4109.48717921, 4113.97435870, 4123.07692280, 4135.12820485, 4128.97435870, 4120.12820485, 4126.53846126, 4180.89743576,8.57
4136.02564082, 4129.23076896, 4129.74358947, 4128.33333306, 4123.97435870, 4159.61538441, 4122.69230742, 4135.25640998, 4134.23076896, 4136.15384595, 4128.46153819, 4129.61538434, 4134.35897408, 4198.33333320,8.57
4108.07692280, 4117.69230742, 4111.28205101, 4121.53846126, 4118.71794844, 4167.69230749, 4119.74358947, 4127.17948691, 4123.07692280, 4136.41025621, 4128.58974332, 4124.99999973, 4136.02564082, 4190.51282038,8.57
4111.28205101, 4119.87179460, 4114.61538434, 4121.79487152, 4123.58974332, 4163.84615364, 4110.25640998, 4103.58974332, 4099.23076889, 4135.89743569, 4129.35897408, 4122.94871767, 4132.05128178, 4190.76923063,8.57
4134.61538434, 4128.20512793, 4127.43589716, 4127.17948691, 4126.79487152, 4162.82051262, 4119.35897408, 4109.74358947, 4097.94871761, 4136.15384595, 4129.35897408, 4129.87179460, 4133.46153819, 4196.79487166,8.57
4104.10256383, 4117.94871767, 4107.82051255, 4119.35897408, 4118.97435870, 4164.74358954, 4119.74358947, 4111.79487152, 4101.41025607, 4136.28205108, 4128.46153819, 4124.74358947, 4135.25640998, 4186.53846140,8.57
4129.99999973, 4132.43589716, 4133.33333306, 4127.43589716, 4129.10256383, 4168.71794858, 4102.69230742, 4095.76923043, 4089.74358940, 4136.28205108, 4125.89743562, 4125.64102537, 4133.07692280, 4191.66666653,8.57
4114.99999973, 4122.69230742, 4120.25640998, 4119.99999973, 4119.99999973, 4182.82051269, 4108.71794844, 4104.35897408, 4100.25640991, 4137.05128185, 4125.51282024, 4122.43589716, 4127.56410229, 4189.23076910,8.57
4119.23076896, 4123.71794844, 4119.23076896, 4122.05128178, 4119.48717921, 4192.17948704, 4124.61538434, 4122.69230742, 4122.82051255, 4135.64102544, 4125.25640998, 4123.58974332, 4127.30769203, 4190.25641012,8.57
4137.69230749, 4131.15384588, 4136.28205108, 4131.02564075, 4130.38461511, 4182.69230756, 4118.84615357, 4115.89743562, 4118.20512793, 4136.02564082, 4126.53846126, 4127.56410229, 4130.25640998, 4192.69230756,8.57
4106.41025614, 4115.12820485, 4109.87179460, 4118.46153819, 4118.97435870, 4181.66666653, 4117.30769203, 4117.69230742, 4117.94871767, 4139.10256390, 4128.97435870, 4123.33333306, 4128.20512793, 4187.30769217,8.57
4142.30769210, 4131.15384588, 4129.23076896, 4125.25640998, 4126.53846126, 4183.71794858, 4112.56410229, 4123.20512793, 4124.61538434, 4130.89743562, 4127.05128178, 4127.69230742, 4129.61538434, 4195.25641012,8.57
4122.94871767, 4123.84615357, 4119.87179460, 4119.35897408, 4126.02564075, 4181.02564089, 4105.12820485, 4113.71794844, 4112.82051255, 4124.87179460, 4123.58974332, 4121.79487152, 4131.28205101, 4187.56410243,8.57
4107.17948691, 4119.61538434, 4110.89743562, 4114.61538434, 4120.89743562, 4192.82051269, 4120.38461511, 4127.43589716, 4117.43589716, 4129.35897408, 4123.33333306, 4123.46153819, 4130.64102537, 4189.61538448,8.57
4139.61538441, 4133.46153819, 4130.76923050, 4127.05128178, 4131.53846126, 4200.89743576, 4124.61538434, 4133.97435870, 4126.79487152, 4126.79487152, 4127.17948691, 4134.35897408, 4132.43589716, 4197.17948704,8.57
4104.87179460, 4116.41025614, 4106.15384588, 4118.33333306, 4124.61538434, 4196.15384602, 4106.02564075, 4099.74358940, 4099.61538427, 4123.46153819, 4128.46153819, 4125.25640998, 4131.79487152, 4186.28205115,8.57
4126.15384588, 4126.28205101, 4124.99999973, 4121.79487152, 4128.33333306, 4195.51282038, 4097.82051248, 4073.97435863, 4064.61538420, 4133.07692280, 4127.69230742, 4128.84615357, 4132.17948691, 4198.33333320,8.57
4118.33333306, 4123.58974332, 4122.82051255, 4121.79487152, 4127.05128178, 4196.15384602, 4106.28205101, 4089.48717914, 4078.58974325, 4138.07692287, 4125.38461511, 4130.25640998, 4132.05128178, 4193.58974345,8.57
4099.35897402, 4117.69230742, 4107.94871767, 4121.53846126, 4122.94871767, 4195.51282038, 4116.53846126, 4110.38461511, 4112.43589716, 4132.82051255, 4122.17948691, 4123.71794844, 4130.12820485, 4180.89743576,8.57
4136.15384595, 4131.79487152, 4132.94871767, 4130.25640998, 4132.17948691, 4205.76923070, 4123.71794844, 4119.61538434, 4121.28205101, 4134.61538434, 4125.89743562, 4131.02564075, 4132.43589716, 4192.56410243,8.57
4107.56410229, 4114.87179460, 4113.07692280, 4118.97435870, 4123.33333306, 4214.87179481, 4124.99999973, 4126.92307665, 4122.94871767, 4137.30769210, 4130.38461511, 4125.51282024, 4134.23076896, 4190.64102551,8.57
4125.12820485, 4126.15384588, 4126.28205101, 4126.41025614, 4127.43589716, 4199.87179474, 4115.89743562, 4115.76923050, 4117.43589716, 4134.99999973, 4126.02564075, 4121.92307665, 4133.33333306, 4191.66666653,8.57
4125.64102537, 4129.74358947, 4127.30769203, 4125.89743562, 4125.51282024, 4186.79487166, 4111.79487152, 4110.64102537, 4118.20512793, 4134.61538434, 4124.23076896, 4119.87179460, 4127.82051255, 4188.33333320,8.57
4104.74358947, 4116.53846126, 4107.05128178, 4115.38461511, 4117.17948691, 4196.53846140, 4119.23076896, 4127.17948691, 4127.43589716, 4134.35897408, 4129.35897408, 4119.87179460, 4127.69230742, 4185.64102551,8.57
4144.48717928, 4133.20512793, 4134.87179460, 4129.35897408, 4131.66666639, 4194.35897422, 4116.66666639, 4118.84615357, 4105.51282024, 4134.61538434, 4129.35897408, 4131.92307665, 4133.33333306, 4194.74358961,8.57
4107.17948691, 4119.99999973, 4112.05128178, 4120.64102537, 4124.35897408, 4179.74358961, 4112.05128178, 4105.51282024, 4088.71794837, 4134.48717921, 4124.48717921, 4126.02564075, 4131.53846126, 4188.33333320,8.57
4114.87179460, 4121.92307665, 4117.05128178, 4117.56410229, 4121.02564075, 4182.94871781, 4120.25640998, 4113.58974332, 4100.38461504, 4134.48717921, 4125.12820485, 4124.87179460, 4131.02564075, 4195.89743576,8.57
4130.12820485, 4126.79487152, 4130.12820485, 4124.10256383, 4125.64102537, 4189.99999986, 4122.82051255, 4108.58974332, 4094.99999966, 4134.48717921, 4128.84615357, 4127.30769203, 4130.64102537, 4196.02564089,8.57
4096.28205094, 4114.23076896, 4103.97435870, 4118.84615357, 4122.17948691, 4196.92307679, 4123.20512793, 4102.82051255, 4087.43589709, 4134.48717921, 4127.17948691, 4121.28205101, 4129.87179460, 4184.99999986,8.57
4138.20512800, 4131.15384588, 4129.23076896, 4126.92307665, 4131.15384588, 4210.38461532, 4131.66666639, 4119.61538434, 4109.87179460, 4134.48717921, 4126.02564075, 4129.87179460, 4134.61538434, 4195.51282038,8.57
4119.74358947, 4118.71794844, 4119.10256383, 4121.66666639, 4121.79487152, 4211.92307686, 4137.94871774, 4137.56410236, 4133.84615357, 4134.48717921, 4127.17948691, 4127.17948691, 4132.30769203, 4186.41025628,8.57
4108.46153819, 4116.79487152, 4118.07692280, 4122.43589716, 4122.56410229, 4198.33333320, 4131.66666639, 4139.87179467, 4130.25640998, 4134.48717921, 4126.53846126, 4122.82051255, 4129.99999973, 4184.99999986,8.57
4128.58974332, 4130.64102537, 4132.17948691, 4127.17948691, 4131.15384588, 4196.02564089, 4130.89743562, 4141.66666646, 4123.58974332, 4134.48717921, 4123.97435870, 4125.64102537, 4134.48717921, 4194.99999986,8.57
4106.66666639, 4121.41025614, 4111.41025614, 4118.58974332, 4118.71794844, 4202.30769224, 4140.12820492, 4138.46153826, 4116.15384588, 4134.48717921, 4121.92307665, 4119.99999973, 4133.58974332, 4188.58974345,8.57
4139.61538441, 4132.17948691, 4134.35897408, 4129.23076896, 4125.38461511, 4191.02564089, 4131.92307665, 4119.23076896, 4095.38461504, 4134.48717921, 4125.76923050, 4122.69230742, 4131.66666639, 4192.94871781,8.57
4122.05128178, 4122.17948691, 4121.53846126, 4124.48717921, 4124.10256383, 4181.41025628, 4121.28205101, 4108.58974332, 4092.56410222, 4134.48717921, 4129.99999973, 4122.94871767, 4130.76923050, 4189.23076910,8.57
4112.05128178, 4120.38461511, 4111.15384588, 4118.97435870, 4119.35897408, 4185.89743576, 4120.76923050, 4098.84615350, 4090.38461504, 4134.48717921, 4125.12820485, 4122.69230742, 4130.12820485, 4188.84615371,8.57
4139.35897415, 4131.79487152, 4132.05128178, 4123.71794844, 4124.87179460, 4186.41025628, 4124.10256383, 4095.51282017, 4075.51282017, 4134.48717921, 4122.43589716, 4127.94871767, 4131.02564075, 4192.69230756,8.57
4109.61538434, 4117.17948691, 4113.46153819, 4115.12820485, 4118.46153819, 4186.53846140, 4129.35897408, 4113.84615357, 4086.66666632, 4134.48717921, 4127.43589716, 4127.30769203, 4132.43589716, 4189.74358961,8.57
4133.58974332, 4130.76923050, 4128.97435870, 4124.99999973, 4128.97435870, 4180.25641012, 4119.74358947, 4112.69230742, 4100.76923043, 4134.48717921, 4129.10256383, 4131.28205101, 4133.97435870, 4199.74358961,8.57
4122.05128178, 4124.35897408, 4123.71794844, 4123.97435870, 4124.99999973, 4173.71794858, 4114.23076896, 4107.05128178, 4097.69230735, 4134.48717921, 4128.20512793, 4124.74358947, 4128.97435870, 4192.17948704,8.57
4108.20512793, 4113.97435870, 4111.53846126, 4118.97435870, 4114.61538434, 4171.15384602, 4118.07692280, 4119.23076896, 4094.35897402, 4134.48717921, 4127.05128178, 4122.43589716, 4129.10256383, 4190.25641012,8.57
4139.87179467, 4131.28205101, 4131.15384588, 4127.94871767, 4123.84615357, 4170.64102551, 4119.48717921, 4125.38461511, 4100.12820478, 4134.48717921, 4126.15384588, 4129.87179460, 4136.28205108, 4197.05128192,8.57
4105.51282024, 4117.94871767, 4109.61538434, 4117.56410229, 4118.33333306, 4182.69230756, 4133.07692280, 4138.58974339, 4119.23076896, 4134.48717921, 4127.56410229, 4122.69230742, 4133.84615357, 4186.15384602,8.57
4127.69230742, 4122.56410229, 4125.76923050, 4122.43589716, 4121.53846126, 4185.51282038, 4138.97435877, 4145.51282031, 4114.74358947, 4134.48717921, 4128.07692280, 4129.61538434, 4131.92307665, 4196.79487166,8.57
4124.74358947, 4121.92307665, 4125.64102537, 4125.12820485, 4120.25640998, 4172.82051269, 4120.38461511, 4120.89743562, 4080.38461504, 4134.48717921, 4125.76923050, 4131.41025614, 4134.35897408, 4197.82051269,8.57
4098.33333299, 4117.82051255, 4109.87179460, 4121.66666639, 4117.30769203, 4164.35897415, 4106.92307665, 4097.56410222, 4071.02564068, 4134.48717921, 4124.74358947, 4121.66666639, 4132.82051255, 4188.58974345,8.57
4137.30769210, 4134.48717921, 4137.05128185, 4130.76923050, 4129.48717921, 4164.87179467, 4113.97435870, 4107.69230742, 4097.56410222, 4134.48717921, 4126.92307665, 4126.66666639, 4132.43589716, 4194.74358961,8.57
4110.25640998, 4115.76923050, 4111.92307665, 4117.94871767, 4119.99999973, 4169.99999986, 4119.61538434, 4118.71794844, 4110.51282024, 4134.48717921, 4127.69230742, 4122.43589716, 4133.07692280, 4188.07692294,8.57
4123.33333306, 4123.07692280, 4121.15384588, 4121.92307665, 4122.17948691, 4168.97435884, 4107.43589716, 4100.38461504, 4085.76923043, 4134.48717921, 4125.64102537, 4120.89743562, 4132.17948691, 4193.20512807,8.57
4129.99999973, 4130.38461511, 4131.66666639, 4126.02564075, 4126.41025614, 4171.02564089, 4105.64102537, 4093.71794837, 4069.23076882, 4134.48717921, 4125.89743562, 4122.43589716, 4131.15384588, 4194.61538448,8.57
4102.17948684, 4117.17948691, 4109.99999973, 4116.28205101, 4119.23076896, 4173.97435884, 4119.61538434, 4110.76923050, 4083.97435863, 4134.48717921, 4127.43589716, 4123.84615357, 4132.17948691, 4186.15384602,8.57
4141.53846133, 4133.97435870, 4135.25640998, 4128.33333306, 4129.74358947, 4165.51282031, 4117.56410229, 4109.23076896, 4097.43589709, 4134.48717921, 4126.92307665, 4129.87179460, 4132.56410229, 4193.84615371,8.57
4112.43589716, 4119.61538434, 4111.79487152, 4120.25640998, 4122.69230742, 4163.97435877, 4115.12820485, 4109.10256383, 4102.69230742, 4134.48717921, 4127.56410229, 4121.15384588, 4129.99999973, 4190.51282038,8.57
4115.38461511, 4117.56410229, 4113.97435870, 4118.84615357, 4122.56410229, 4170.76923063, 4118.71794844, 4116.28205101, 4091.41025607, 4134.48717921, 4128.58974332, 4124.10256383, 4132.05128178, 4193.07692294,8.57
4138.20512800, 4129.35897408, 4137.69230749, 4127.05128178, 4128.20512793, 4166.02564082, 4109.35897408, 4103.97435870, 4072.69230735, 4134.48717921, 4127.69230742, 4129.87179460, 4133.33333306, 4194.10256397,8.57
4104.10256383, 4119.74358947, 4113.84615357, 4118.20512793, 4115.76923050, 4169.23076910, 4116.28205101, 4111.53846126, 4086.02564068, 4134.48717921, 4128.58974332, 4124.74358947, 4131.92307665, 4192.94871781,8.57
4133.33333306, 4132.69230742, 4128.97435870, 4126.28205101, 4124.10256383, 4181.28205115, 4134.35897408, 4123.71794844, 4104.61538434, 4134.48717921, 4127.82051255, 4131.53846126, 4132.43589716, 4205.25641019,8.57
4114.23076896, 4120.89743562, 4117.69230742, 4124.48717921, 4124.23076896, 4184.35897422, 4132.94871767, 4110.12820485, 4107.30769203, 4134.48717921, 4124.99999973, 4128.97435870, 4132.69230742, 4193.84615371,8.57
4107.17948691, 4117.69230742, 4116.41025614, 4120.51282024, 4121.92307665, 4191.79487166, 4127.05128178, 4113.07692280, 4106.28205101, 4134.48717921, 4124.61538434, 4127.56410229, 4135.25640998, 4191.15384602,8.57
4132.17948691, 4130.76923050, 4131.28205101, 4123.33333306, 4125.76923050, 4188.84615371, 4115.76923050, 4109.87179460, 4082.56410222, 4134.48717921, 4124.61538434, 4126.92307665, 4133.84615357, 4196.79487166,8.57
4107.56410229, 4121.02564075, 4108.33333306, 4118.97435870, 4117.56410229, 4165.64102544, 4102.82051255, 4089.48717914, 4073.84615350, 4134.48717921, 4124.87179460, 4120.64102537, 4130.89743562, 4190.12820499,8.57
4133.46153819, 4130.12820485, 4129.10256383, 4129.87179460, 4126.92307665, 4165.89743569, 4120.38461511, 4118.84615357, 4120.64102537, 4134.48717921, 4124.87179460, 4127.69230742, 4133.07692280, 4194.74358961,8.57
4115.12820485, 4118.84615357, 4121.15384588, 4121.28205101, 4123.58974332, 4179.10256397, 4132.17948691, 4142.56410236, 4132.05128178, 4134.48717921, 4125.38461511, 4126.53846126, 4132.94871767, 4187.69230756,8.57
4110.76923050, 4119.10256383, 4114.87179460, 4117.56410229, 4120.89743562, 4165.89743569, 4113.58974332, 4110.64102537, 4086.66666632, 4134.48717921, 4127.69230742, 4126.41025614, 4133.58974332, 4186.41025628,8.57
4142.05128185, 4137.05128185, 4134.99999973, 4131.41025614, 4130.51282024, 4177.82051269, 4122.43589716, 4117.05128178, 4094.87179453, 4134.48717921, 4125.76923050, 4128.07692280, 4132.30769203, 4191.41025628,8.57
4103.46153819, 4118.97435870, 4109.87179460, 4119.48717921, 4119.74358947, 4220.51282045, 4149.87179467, 4149.10256390, 4136.41025621, 4134.48717921, 4125.38461511, 4123.58974332, 4129.99999973, 4186.92307679,8.57
4129.48717921, 4126.79487152, 4127.56410229, 4123.20512793, 4126.15384588, 4203.71794865, 4139.74358954, 4131.15384588, 4125.89743562, 4134.48717921, 4128.71794844, 4129.74358947, 4132.05128178, 4193.58974345,8.57
4126.02564075, 4124.74358947, 4122.43589716, 4124.35897408, 4125.76923050, 4160.51282031, 4125.64102537, 4119.10256383, 4108.84615357, 4134.48717921, 4127.05128178, 4124.99999973, 4130.38461511, 4188.07692294,8.57
4100.76923043, 4114.74358947, 4103.71794844, 4118.07692280, 4117.56410229, 4170.89743576, 4123.20512793, 4119.48717921, 4102.17948684, 4134.48717921, 4124.23076896, 4121.79487152, 4131.41025614, 4190.51282038,8.57
4136.92307672, 4130.89743562, 4134.23076896, 4128.58974332, 4128.33333306, 4197.30769217, 4105.64102537, 4089.74358940, 4072.82051248, 4134.48717921, 4124.35897408, 4133.46153819, 4135.12820485, 4200.51282038,8.57
4105.76923050, 4117.05128178, 4113.07692280, 4119.74358947, 4121.53846126, 4197.30769217, 4106.02564075, 4088.07692273, 4075.51282017, 4134.48717921, 4124.61538434, 4126.79487152, 4131.28205101, 4186.66666653,8.57
4120.64102537, 4122.05128178, 4120.51282024, 4121.02564075, 4124.61538434, 4179.87179474, 4120.64102537, 4113.46153819, 4102.82051255, 4134.48717921, 4125.25640998, 4126.41025614, 4132.56410229, 4195.76923063,8.57
4130.51282024, 4125.64102537, 4130.64102537, 4124.74358947, 4125.89743562, 4171.53846140, 4121.79487152, 4115.64102537, 4101.41025607, 4134.48717921, 4126.28205101, 4130.38461511, 4136.53846133, 4198.20512807,8.57
4100.25640991, 4117.43589716, 4110.51282024, 4121.02564075, 4117.69230742, 4188.84615371, 4130.51282024, 4119.10256383, 4094.87179453, 4134.48717921, 4125.25640998, 4121.92307665, 4130.89743562, 4184.61538448,8.57
4137.94871774, 4134.23076896, 4135.76923056, 4132.05128178, 4128.46153819, 4199.87179474, 4136.92307672, 4127.82051255, 4101.66666632, 4134.48717921, 4124.99999973, 4128.07692280, 4131.15384588, 4197.94871781,8.57
4111.02564075, 4117.69230742, 4116.41025614, 4119.99999973, 4119.61538434, 4188.07692294, 4136.02564082, 4138.84615364, 4123.07692280, 4134.48717921, 4124.48717921, 4122.94871767, 4133.33333306, 4191.02564089,8.57
4116.92307665, 4122.17948691, 4120.12820485, 4120.76923050, 4119.48717921, 4179.87179474, 4135.76923056, 4137.56410236, 4118.46153819, 4134.48717921, 4123.07692280, 4122.17948691, 4129.74358947, 4188.84615371,8.57
4142.05128185, 4131.92307665, 4134.87179460, 4128.71794844, 4128.84615357, 4178.07692294, 4131.66666639, 4117.17948691, 4089.10256376, 4134.48717921, 4126.28205101, 4133.20512793, 4130.89743562, 4196.02564089,8.57
4107.43589716, 4115.12820485, 4106.28205101, 4117.56410229, 4119.87179460, 4183.58974345, 4129.23076896, 4108.20512793, 4083.20512786, 4134.48717921, 4126.53846126, 4122.56410229, 4131.41025614, 4188.58974345,8.57
4138.33333313, 4130.76923050, 4133.97435870, 4126.02564075, 4125.12820485, 4205.25641019, 4137.94871774, 4112.56410229, 4096.28205094, 4134.48717921, 4127.56410229, 4130.38461511, 4133.71794844, 4200.12820499,8.57
4112.30769203, 4118.58974332, 4118.20512793, 4120.64102537, 4120.89743562, 4211.66666660, 4146.53846133, 4112.94871767, 4111.28205101, 4134.48717921, 4129.10256383, 4129.23076896, 4134.23076896, 4193.71794858,8.57
4106.66666639, 4115.64102537, 4108.46153819, 4120.12820485, 4122.05128178, 4186.53846140, 4140.89743569, 4112.69230742, 4116.79487152, 4134.48717921, 4124.48717921, 4119.74358947, 4131.53846126, 4188.71794858,8.57
4137.43589723, 4132.05128178, 4134.35897408, 4128.46153819, 4129.23076896, 4171.28205115, 4131.92307665, 4108.97435870, 4108.58974332, 4134.48717921, 4128.97435870, 4134.23076896, 4133.71794844, 4195.76923063,8.57
4101.15384581, 4117.56410229, 4112.56410229, 4116.92307665, 4118.46153819, 4179.74358961, 4136.53846133, 4113.58974332, 4115.38461511, 4134.48717921, 4131.79487152, 4131.53846126, 4134.10256383, 4188.71794858,8.57
4130.38461511, 4128.46153819, 4131.02564075, 4127.82051255, 4125.89743562, 4177.05128192, 4143.20512800, 4133.46153819, 4129.99999973, 4134.48717921, 4126.79487152, 4130.12820485, 4134.74358947, 4198.71794858,8.57
4116.41025614, 4121.92307665, 4121.92307665, 4126.66666639, 4123.58974332, 4174.87179474, 4145.64102544, 4145.38461518, 4122.69230742, 4134.48717921, 4126.66666639, 4128.71794844, 4132.05128178, 4192.30769217,8.57
4101.15384581, 4118.84615357, 4110.76923050, 4120.76923050, 4120.89743562, 4182.43589730, 4146.15384595, 4135.51282031, 4108.58974332, 4134.48717921, 4125.89743562, 4123.20512793, 4130.25640998, 4184.99999986,8.57
4135.25640998, 4133.84615357, 4132.30769203, 4128.97435870, 4129.23076896, 4176.28205115, 4137.43589723, 4123.58974332, 4107.30769203, 4135.12820485, 4126.41025614, 4128.46153819, 4133.58974332, 4196.02564089,8.57
4108.84615357, 4117.94871767, 4112.17948691, 4121.02564075, 4118.33333306, 4163.07692287, 4122.56410229, 4110.51282024, 4095.12820478, 4134.74358947, 4127.94871767, 4123.71794844, 4131.53846126, 4190.38461525,8.57
4133.20512793, 4126.41025614, 4128.58974332, 4128.46153819, 4124.87179460, 4162.30769210, 4112.94871767, 4082.05128171, 4066.41025600, 4133.20512793, 4127.17948691, 4128.07692280, 4132.43589716, 4192.05128192,8.57
4122.82051255, 4123.84615357, 4121.41025614, 4125.64102537, 4123.58974332, 4187.82051269, 4126.53846126, 4078.46153812, 4072.82051248, 4136.66666646, 4126.02564075, 4127.05128178, 4132.82051255, 4188.71794858,8.57
4106.15384588, 4117.94871767, 4107.94871767, 4117.94871767, 4116.02564075, 4205.76923070, 4143.07692287, 4100.76923043, 4107.56410229, 4134.10256383, 4124.99999973, 4124.35897408, 4130.25640998, 4189.23076910,8.57
4140.25641005, 4131.53846126, 4133.71794844, 4126.41025614, 4126.79487152, 4179.99999986, 4139.74358954, 4108.46153819, 4120.38461511, 4124.87179460, 4127.43589716, 4132.30769203, 4133.20512793, 4196.79487166,8.57
4103.33333306, 4115.25640998, 4111.53846126, 4118.71794844, 4120.89743562, 4159.48717928, 4146.92307672, 4120.25640998, 4128.07692280, 4127.56410229, 4128.20512793, 4125.76923050, 4132.94871767, 4188.20512807,8.57
4124.99999973, 4127.82051255, 4127.30769203, 4126.41025614, 4125.12820485, 4166.02564082, 4152.05128185, 4130.51282024, 4137.94871774, 4133.07692280, 4124.74358947, 4128.84615357, 4132.56410229, 4198.46153833,8.57
4131.92307665, 4131.92307665, 4130.12820485, 4127.94871767, 4123.97435870, 4168.33333320, 4141.53846133, 4127.82051255, 4136.53846133, 4131.41025614, 4123.46153819, 4128.58974332, 4133.97435870, 4197.94871781,8.57
4100.51282017, 4118.20512793, 4107.17948691, 4119.10256383, 4114.10256383, 4174.99999986, 4145.64102544, 4133.84615357, 4130.38461511, 4128.46153819, 4123.97435870, 4122.43589716, 4132.05128178, 4186.15384602,8.57
4134.48717921, 4130.38461511, 4130.76923050, 4127.94871767, 4125.51282024, 4187.43589730, 4148.71794851, 4129.10256383, 4112.94871767, 4124.74358947, 4126.15384588, 4132.30769203, 4132.43589716, 4195.51282038,8.57
4111.66666639, 4113.58974332, 4109.61538434, 4118.46153819, 4120.64102537, 4172.69230756, 4128.46153819, 4104.74358947, 4094.87179453, 4125.89743562, 4127.17948691, 4126.41025614, 4133.46153819, 4191.15384602,8.57
4121.28205101, 4118.84615357, 4116.15384588, 4121.28205101, 4122.05128178, 4155.89743569, 4120.51282024, 4103.71794844, 4104.74358947, 4134.10256383, 4124.87179460, 4123.97435870, 4133.84615357, 4193.33333320,8.57
4127.17948691, 4126.66666639, 4129.10256383, 4126.28205101, 4125.64102537, 4172.56410243, 4141.02564082, 4118.33333306, 4119.99999973, 4133.84615357, 4124.23076896, 4126.02564075, 4131.53846126, 4194.35897422,8.57
4098.84615350, 4114.99999973, 4112.69230742, 4120.25640998, 4120.12820485, 4189.23076910, 4149.23076903, 4097.43589709, 4101.41025607, 4126.15384588, 4124.74358947, 4121.28205101, 4130.89743562, 4187.94871781,8.57
4138.07692287, 4131.66666639, 4138.33333313, 4131.92307665, 4129.74358947, 4178.58974345, 4138.20512800, 4070.64102530, 4086.53846119, 4128.97435870, 4125.12820485, 4128.58974332, 4131.66666639, 4195.25641012,8.57
4117.30769203, 4122.82051255, 4118.20512793, 4121.28205101, 4120.12820485, 4171.41025628, 4144.48717928, 4097.56410222, 4124.23076896, 4132.82051255, 4126.79487152, 4124.61538434, 4127.17948691, 4185.12820499,8.57
4121.02564075, 4125.25640998, 4117.56410229, 4120.25640998, 4121.15384588, 4187.30769217, 4168.33333320, 4145.12820492, 4153.46153826, 4126.79487152, 4126.41025614, 4122.30769203, 4130.12820485, 4185.89743576,8.57
4137.17948697, 4132.43589716, 4133.46153819, 4130.51282024, 4130.12820485, 4202.30769224, 4173.20512807, 4153.33333313, 4136.02564082, 4124.61538434, 4124.99999973, 4128.07692280, 4133.20512793, 4192.56410243,8.57
4104.23076896, 4117.30769203, 4111.79487152, 4123.20512793, 4118.84615357, 4189.99999986, 4150.38461518, 4132.69230742, 4127.05128178, 4128.33333306, 4126.66666639, 4126.41025614, 4127.94871767, 4188.84615371,8.57
4137.56410236, 4130.51282024, 4133.97435870, 4129.35897408, 4124.74358947, 4171.53846140, 4139.61538441, 4131.66666639, 4138.84615364, 4126.02564075, 4127.82051255, 4131.41025614, 4130.25640998, 4198.46153833,8.57
4114.10256383, 4118.97435870, 4116.92307665, 4120.89743562, 4121.02564075, 4183.97435884, 4149.23076903, 4147.05128185, 4142.69230749, 4123.07692280, 4126.41025614, 4125.64102537, 4134.10256383, 4190.89743576,8.57
4108.20512793, 4118.07692280, 4112.82051255, 4119.10256383, 4120.38461511, 4198.97435884, 4136.66666646, 4131.92307665, 4130.25640998, 4125.89743562, 4126.66666639, 4125.76923050, 4133.33333306, 4191.15384602,8.57
4138.97435877, 4132.69230742, 4135.38461518, 4127.69230742, 4130.25640998, 4188.58974345, 4117.69230742, 4103.97435870, 4118.71794844, 4125.12820485, 4128.46153819, 4134.10256383, 4132.56410229, 4195.89743576,8.57
4102.69230742, 4113.71794844, 4107.17948691, 4116.66666639, 4120.64102537, 4172.43589730, 4127.56410229, 4098.20512786, 4114.61538434, 4123.97435870, 4126.41025614, 4126.41025614, 4130.76923050, 4187.94871781,8.57
4133.07692280, 4124.35897408, 4125.12820485, 4124.74358947, 4122.69230742, 4157.69230749, 4130.89743562, 4092.82051248, 4104.87179460, 4132.69230742, 4125.12820485, 4129.10256383, 4131.92307665, 4198.97435884,8.57
4118.58974332, 4121.02564075, 4122.43589716, 4123.97435870, 4118.97435870, 4159.48717928, 4131.28205101, 4092.82051248, 4102.17948684, 4140.89743569, 4125.64102537, 4127.94871767, 4132.30769203, 4195.64102551,8.57
4101.15384581, 4116.53846126, 4114.48717921, 4119.87179460, 4119.99999973, 4186.66666653, 4158.58974339, 4113.33333306, 4113.20512793, 4132.56410229, 4124.74358947, 4124.87179460, 4131.02564075, 4191.66666653,8.57
4147.56410236, 4133.20512793, 4136.92307672, 4128.71794844, 4130.25640998, 4196.66666653, 4174.74358961, 4132.17948691, 4128.97435870, 4124.10256383, 4126.02564075, 4129.23076896, 4130.76923050, 4196.41025628,8.57
4121.66666639, 4121.02564075, 4112.43589716, 4118.33333306, 4119.87179460, 4174.48717935, 4164.48717928, 4139.74358954, 4140.64102544, 4128.58974332, 4127.30769203, 4120.38461511, 4129.74358947, 4186.02564089,8.57
4133.33333306, 4130.89743562, 4130.76923050, 4126.41025614, 4127.56410229, 4162.43589723, 4151.66666646, 4122.56410229, 4118.20512793, 4127.94871767, 4124.35897408, 4125.64102537, 4132.43589716, 4194.74358961,8.57
4119.35897408, 4125.38461511, 4129.61538434, 4126.02564075, 4124.23076896, 4169.87179474, 4145.76923056, 4098.58974325, 4091.53846119, 4122.43589716, 4125.38461511, 4127.30769203, 4133.07692280, 4192.30769217,8.57
4100.12820478, 4116.41025614, 4109.10256383, 4114.10256383, 4115.12820485, 4165.38461518, 4144.35897415, 4106.53846126, 4113.33333306, 4123.46153819, 4128.84615357, 4121.15384588, 4131.92307665, 4185.12820499,8.57
4141.79487159, 4134.48717921, 4134.23076896, 4124.23076896, 4129.48717921, 4159.74358954, 4137.05128185, 4112.94871767, 4135.64102544, 4126.28205101, 4127.30769203, 4128.84615357, 4133.84615357, 4193.97435884,8.57
4107.17948691, 4118.84615357, 4109.99999973, 4118.84615357, 4119.10256383, 4173.71794858, 4133.97435870, 4093.07692273, 4123.33333306, 4127.94871767, 4125.51282024, 4128.71794844, 4133.33333306, 4187.82051269,8.57
4121.28205101, 4127.43589716, 4120.25640998, 4124.61538434, 4119.10256383, 4172.17948704, 4132.82051255, 4070.25640991, 4102.05128171, 4131.92307665, 4127.69230742, 4134.87179460, 4132.69230742, 4195.76923063,8.57
4130.12820485, 4129.35897408, 4129.48717921, 4126.15384588, 4125.89743562, 4158.20512800, 4128.07692280, 4064.23076882, 4101.02564068, 4134.61538434, 4129.99999973, 4132.56410229, 4130.64102537, 4194.23076910,8.57
4102.17948684, 4113.20512793, 4105.76923050, 4116.15384588, 4117.94871767, 4164.61538441, 4128.20512793, 4067.94871754, 4107.17948691, 4132.82051255, 4129.61538434, 4122.43589716, 4130.51282024, 4185.89743576,8.57
4137.17948697, 4131.41025614, 4129.99999973, 4126.92307665, 4126.28205101, 4179.74358961, 4143.97435877, 4084.99999966, 4104.35897408, 4133.33333306, 4127.56410229, 4132.30769203, 4133.58974332, 4198.07692294,8.57
4106.53846126, 4118.71794844, 4110.51282024, 4119.23076896, 4122.82051255, 4189.23076910, 4162.56410236, 4119.48717921, 4123.07692280, 4132.17948691, 4126.79487152, 4127.05128178, 4129.99999973, 4189.99999986,8.57
4115.76923050, 4118.58974332, 4115.38461511, 4121.53846126, 4123.84615357, 4182.82051269, 4153.20512800, 4125.89743562, 4141.79487159, 4124.61538434, 4128.33333306, 4124.10256383, 4129.74358947, 4192.69230756,8.57
4137.05128185, 4128.71794844, 4132.17948691, 4127.56410229, 4128.07692280, 4174.48717935, 4140.76923056, 4109.23076896, 4131.41025614, 4122.94871767, 4127.69230742, 4128.84615357, 4132.69230742, 4197.69230756,8.57
4103.46153819, 4117.94871767, 4112.05128178, 4120.25640998, 4122.94871767, 4181.53846140, 4154.87179467, 4115.12820485, 4126.92307665, 4129.23076896, 4123.46153819, 4121.41025614, 4129.35897408, 4186.92307679,8.57
4136.79487159, 4133.20512793, 4138.71794851, 4133.20512793, 4131.92307665, 4184.99999986, 4165.12820492, 4132.82051255, 4143.07692287, 4130.51282024, 4124.10256383, 4128.07692280, 4128.97435870, 4194.35897422,8.57
4113.97435870, 4119.99999973, 4118.71794844, 4124.10256383, 4121.53846126, 4185.25641012, 4159.48717928, 4130.12820485, 4153.07692287, 4126.15384588, 4127.82051255, 4126.28205101, 4129.35897408, 4190.76923063,8.57
4113.97435870, 4117.17948691, 4114.48717921, 4120.12820485, 4121.41025614, 4190.89743576, 4152.94871774, 4114.61538434, 4147.94871774, 4125.38461511, 4127.82051255, 4124.61538434, 4128.84615357, 4192.82051269,8.57
4141.41025621, 4131.92307665, 4136.02564082, 4129.10256383, 4131.28205101, 4178.71794858, 4151.02564082, 4108.97435870, 4141.28205108, 4126.79487152, 4126.66666639, 4130.89743562, 4131.28205101, 4196.53846140,8.57
4105.64102537, 4121.02564075, 4107.94871767, 4119.74358947, 4118.46153819, 4162.17948697, 4153.97435877, 4113.84615357, 4132.30769203, 4126.92307665, 4126.28205101, 4126.53846126, 4133.33333306, 4186.15384602,8.57
4139.61538441, 4132.69230742, 4129.87179460, 4127.69230742, 4126.28205101, 4168.20512807, 4151.92307672, 4114.35897408, 4120.25640998, 4126.92307665, 4128.33333306, 4130.51282024, 4134.10256383, 4194.48717935,8.57
4120.64102537, 4119.99999973, 4119.74358947, 4122.56410229, 4125.12820485, 4177.94871781, 4154.99999980, 4118.07692280, 4127.94871767, 4127.94871767, 4129.61538434, 4123.97435870, 4131.53846126, 4192.69230756,8.57
4105.89743562, 4116.28205101, 4110.38461511, 4116.79487152, 4119.10256383, 4177.94871781, 4172.43589730, 4137.94871774, 4156.79487159, 4125.51282024, 4126.92307665, 4123.58974332, 4132.17948691, 4192.30769217,8.57
4138.97435877, 4131.66666639, 4135.51282031, 4125.76923050, 4127.30769203, 4184.35897422, 4175.25641012, 4142.05128185, 4170.12820499, 4124.23076896, 4127.43589716, 4133.07692280, 4132.82051255, 4195.38461525,8.57
4099.74358940, 4111.53846126, 4108.07692280, 4118.07692280, 4119.99999973, 4194.35897422, 4169.10256397, 4130.12820485, 4159.35897415, 4130.38461511, 4128.84615357, 4126.15384588, 4129.48717921, 4188.58974345,8.57
4127.56410229, 4123.46153819, 4126.53846126, 4129.35897408, 4126.79487152, 4188.58974345, 4171.79487166, 4129.48717921, 4142.17948697, 4131.79487152, 4126.15384588, 4132.56410229, 4132.05128178, 4203.07692301,8.57
4122.05128178, 4124.23076896, 4125.51282024, 4126.28205101, 4125.12820485, 4177.82051269, 4168.58974345, 4133.20512793, 4136.92307672, 4128.20512793, 4124.48717921, 4129.48717921, 4131.66666639, 4195.12820499,8.57
4095.89743555, 4115.64102537, 4106.79487152, 4115.64102537, 4119.61538434, 4165.12820492, 4154.10256390, 4123.71794844, 4137.05128185, 4125.89743562, 4126.28205101, 4119.35897408, 4129.74358947, 4184.74358961,8.57
4134.61538434, 4131.53846126, 4130.76923050, 4127.94871767, 4130.51282024, 4150.76923056, 4149.35897415, 4110.89743562, 4125.51282024, 4125.12820485, 4127.05128178, 4127.30769203, 4132.94871767, 4196.66666653,8.57
4113.97435870, 4118.58974332, 4115.64102537, 4120.12820485, 4122.56410229, 4149.23076903, 4152.94871774, 4114.35897408, 4117.69230742, 4126.92307665, 4125.76923050, 4126.02564075, 4130.76923050, 4190.38461525,8.57
4132.43589716, 4127.17948691, 4132.43589716, 4123.20512793, 4128.71794844, 4147.82051262, 4142.56410236, 4112.69230742, 4115.25640998, 4128.58974332, 4124.99999973, 4126.66666639, 4128.07692280, 4191.79487166,8.57
4123.58974332, 4124.61538434, 4127.43589716, 4124.23076896, 4127.69230742, 4142.56410236, 4136.92307672, 4105.25640998, 4118.58974332, 4125.12820485, 4126.92307665, 4125.64102537, 4128.97435870, 4190.76923063,8.57
4097.43589709, 4115.12820485, 4105.25640998, 4118.97435870, 4117.43589716, 4153.97435877, 4153.20512800, 4119.99999973, 4133.07692280, 4126.15384588, 4129.48717921, 4123.97435870, 4131.53846126, 4189.10256397,8.57
4139.10256390, 4137.17948697, 4135.12820485, 4130.64102537, 4127.82051255, 4164.74358954, 4165.51282031, 4140.25641005, 4147.30769210, 4139.10256390, 4125.38461511, 4131.66666639, 4131.41025614, 4195.76923063,8.57
4105.38461511, 4119.23076896, 4111.02564075, 4119.61538434, 4118.33333306, 4165.64102544, 4169.87179474, 4139.23076903, 4155.12820492, 4138.33333313, 4121.28205101, 4124.23076896, 4126.15384588, 4185.89743576,8.57
4117.43589716, 4121.41025614, 4115.51282024, 4121.15384588, 4120.64102537, 4172.30769217, 4174.74358961, 4132.30769203, 4155.89743569, 4124.61538434, 4125.38461511, 4125.25640998, 4128.20512793, 4193.97435884,8.57
4136.28205108, 4133.71794844, 4130.25640998, 4126.41025614, 4126.15384588, 4176.15384602, 4176.66666653, 4147.17948697, 4162.05128185, 4123.71794844, 4129.35897408, 4127.94871767, 4134.23076896, 4196.15384602,8.57
4100.25640991, 4118.46153819, 4108.84615357, 4117.56410229, 4115.89743562, 4165.38461518, 4172.17948704, 4154.23076903, 4161.41025621, 4132.43589716, 4128.20512793, 4123.58974332, 4134.74358947, 4187.05128192,8.57
4133.07692280, 4127.05128178, 4133.33333306, 4127.17948691, 4128.07692280, 4147.69230749, 4148.84615364, 4113.97435870, 4128.58974332, 4135.76923056, 4128.33333306, 4134.48717921, 4134.35897408, 4199.87179474,8.57
4111.92307665, 4118.97435870, 4119.48717921, 4124.23076896, 4126.02564075, 4139.23076903, 4134.74358947, 4087.43589709, 4105.51282024, 4128.33333306, 4128.20512793, 4129.48717921, 4131.79487152, 4194.74358961,8.57
4109.87179460, 4124.23076896, 4118.97435870, 4126.66666639, 4123.20512793, 4136.28205108, 4136.66666646, 4098.58974325, 4112.30769203, 4126.92307665, 4126.66666639, 4124.87179460, 4130.12820485, 4191.92307679,8.57
4128.84615357, 4129.61538434, 4132.43589716, 4131.02564075, 4127.69230742, 4136.92307672, 4131.02564075, 4098.84615350, 4116.79487152, 4130.89743562, 4127.05128178, 4128.84615357, 4132.82051255, 4196.79487166,8.57
4104.23076896, 4116.41025614, 4113.46153819, 4120.51282024, 4121.28205101, 4150.12820492, 4134.99999973, 4101.28205094, 4118.97435870, 4128.71794844, 4126.41025614, 4128.46153819, 4133.71794844, 4193.46153833,8.57
4140.38461518, 4134.61538434, 4138.58974339, 4129.61538434, 4127.94871767, 4151.53846133, 4139.35897415, 4109.48717921, 4128.84615357, 4128.20512793, 4124.35897408, 4131.28205101, 4131.66666639, 4197.17948704,8.57
4118.71794844, 4124.10256383, 4122.17948691, 4122.94871767, 4118.97435870, 4136.66666646, 4133.46153819, 4110.51282024, 4138.84615364, 4130.38461511, 4123.84615357, 4120.89743562, 4130.76923050, 4185.12820499,8.57
4114.10256383, 4122.43589716, 4116.79487152, 4120.76923050, 4118.46153819, 4130.89743562, 4136.53846133, 4112.30769203, 4124.10256383, 4128.07692280, 4125.38461511, 4122.82051255, 4131.79487152, 4189.74358961,8.57
4140.76923056, 4135.64102544, 4138.20512800, 4130.12820485, 4130.89743562, 4138.20512800, 4154.87179467, 4124.35897408, 4116.02564075, 4124.74358947, 4127.43589716, 4130.64102537, 4128.33333306, 4197.69230756,8.57
4100.12820478, 4115.76923050, 4111.66666639, 4116.15384588, 4118.58974332, 4150.51282031, 4172.69230756, 4151.41025621, 4154.48717928, 4129.23076896, 4126.79487152, 4124.74358947, 4129.99999973, 4187.69230756,8.57
4128.97435870, 4126.28205101, 4133.07692280, 4124.10256383, 4123.33333306, 4156.79487159, 4169.35897422, 4158.84615364, 4164.10256390, 4137.05128185, 4125.89743562, 4130.64102537, 4137.94871774, 4198.58974345,8.57
4119.74358947, 4121.15384588, 4125.89743562, 4125.89743562, 4121.15384588, 4155.89743569, 4158.84615364, 4144.35897415, 4135.76923056, 4136.92307672, 4126.02564075, 4126.02564075, 4131.53846126, 4193.71794858,8.57
4101.41025607, 4114.61538434, 4108.58974332, 4120.89743562, 4117.43589716, 4147.69230749, 4147.94871774, 4132.17948691, 4139.10256390, 4135.25640998, 4125.12820485, 4118.58974332, 4125.51282024, 4186.28205115,8.57
4133.58974332, 4131.66666639, 4131.79487152, 4127.94871767, 4129.74358947, 4141.28205108, 4136.41025621, 4125.25640998, 4148.84615364, 4137.30769210, 4126.15384588, 4127.05128178, 4132.56410229, 4194.99999986,8.57
4102.82051255, 4116.79487152, 4110.25640998, 4117.94871767, 4119.61538434, 4148.84615364, 4138.97435877, 4120.76923050, 4133.33333306, 4136.15384595, 4128.97435870, 4124.87179460, 4133.58974332, 4191.92307679,8.57
4126.92307665, 4127.30769203, 4125.76923050, 4125.25640998, 4124.87179460, 4150.51282031, 4144.35897415, 4116.79487152, 4126.66666639, 4134.61538434, 4127.82051255, 4126.53846126, 4132.05128178, 4200.12820499,8.57
4123.71794844, 4129.10256383, 4127.69230742, 4127.43589716, 4129.35897408, 4141.66666646, 4144.61538441, 4125.51282024, 4137.69230749, 4136.66666646, 4126.02564075, 4126.02564075, 4130.64102537, 4193.33333320,8.57
4098.07692273, 4117.05128178, 4112.43589716, 4120.64102537, 4122.05128178, 4139.23076903, 4147.17948697, 4136.02564082, 4138.33333313, 4136.92307672, 4126.02564075, 4122.56410229, 4128.33333306, 4184.61538448,8.57
4135.76923056, 4130.89743562, 4135.89743569, 4128.46153819, 4126.15384588, 4136.79487159, 4146.02564082, 4131.79487152, 4128.46153819, 4135.64102544, 4126.28205101, 4128.46153819, 4130.38461511, 4195.76923063,8.57
4108.20512793, 4122.82051255, 4113.97435870, 4121.79487152, 4117.43589716, 4127.94871767, 4138.20512800, 4121.41025614, 4122.43589716, 4136.92307672, 4127.82051255, 4122.56410229, 4129.87179460, 4189.35897422,8.57
4118.84615357, 4131.02564075, 4124.35897408, 4126.79487152, 4124.48717921, 4126.28205101, 4132.94871767, 4112.17948691, 4116.79487152, 4136.53846133, 4128.46153819, 4123.84615357, 4130.12820485, 4190.38461525,8.57
4123.33333306, 4126.02564075, 4129.61538434, 4123.33333306, 4126.92307665, 4136.92307672, 4133.71794844, 4112.43589716, 4121.66666639, 4132.43589716, 4127.94871767, 4123.71794844, 4131.02564075, 4189.99999986,8.57
4099.48717914, 4111.53846126, 4108.97435870, 4115.38461511, 4114.87179460, 4138.33333313, 4134.87179460, 4117.30769203, 4128.84615357, 4128.97435870, 4127.43589716, 4120.51282024, 4129.61538434, 4188.07692294,8.57
4138.46153826, 4131.53846126, 4135.64102544, 4132.30769203, 4124.23076896, 4132.56410229, 4138.84615364, 4118.84615357, 4124.35897408, 4125.76923050, 4127.05128178, 4130.64102537, 4132.05128178, 4198.58974345,8.57
4106.79487152, 4118.07692280, 4113.97435870, 4123.33333306, 4121.53846126, 4136.79487159, 4147.94871774, 4127.82051255, 4136.66666646, 4126.28205101, 4127.43589716, 4126.02564075, 4132.17948691, 4188.84615371,8.57
4113.20512793, 4119.23076896, 4116.41025614, 4121.53846126, 4123.97435870, 4140.25641005, 4152.56410236, 4140.76923056, 4159.35897415, 4132.94871767, 4127.82051255, 4127.17948691, 4131.41025614, 4189.87179474,8.57
4137.43589723, 4129.87179460, 4133.20512793, 4127.56410229, 4129.61538434, 4146.41025621, 4161.28205108, 4155.12820492, 4167.69230749, 4136.41025621, 4126.53846126, 4132.69230742, 4131.53846126, 4193.46153833,8.57
4104.87179460, 4117.69230742, 4109.74358947, 4118.20512793, 4120.76923050, 4150.25641005, 4168.97435884, 4169.10256397, 4165.51282031, 4134.35897408, 4124.99999973, 4126.02564075, 4131.66666639, 4189.23076910,8.57
4133.46153819, 4130.76923050, 4130.12820485, 4129.61538434, 4126.53846126, 4134.10256383, 4162.05128185, 4169.10256397, 4160.89743569, 4136.02564082, 4127.94871767, 4131.79487152, 4135.76923056, 4200.51282038,8.57
4107.69230742, 4118.58974332, 4115.76923050, 4125.89743562, 4118.33333306, 4127.17948691, 4153.97435877, 4154.99999980, 4162.05128185, 4139.10256390, 4129.23076896, 4130.64102537, 4134.23076896, 4193.71794858,8.57
4105.12820485, 4118.07692280, 4116.28205101, 4122.82051255, 4117.82051255, 4131.02564075, 4136.66666646, 4122.17948691, 4139.61538441, 4137.69230749, 4123.20512793, 4125.38461511, 4128.71794844, 4192.43589730,8.57
4136.15384595, 4130.64102537, 4136.53846133, 4127.43589716, 4129.61538434, 4117.05128178, 4117.17948691, 4089.74358940, 4096.28205094, 4137.43589723, 4123.46153819, 4123.58974332, 4128.84615357, 4198.33333320,8.57
4104.87179460, 4116.28205101, 4112.94871767, 4120.76923050, 4123.20512793, 4116.15384588, 4130.38461511, 4097.30769196, 4096.66666632, 4137.94871774, 4130.25640998, 4119.35897408, 4132.69230742, 4189.35897422,8.57
4131.28205101, 4128.33333306, 4133.84615357, 4130.12820485, 4129.23076896, 4131.53846126, 4146.66666646, 4121.02564075, 4134.61538434, 4137.94871774, 4128.58974332, 4128.07692280, 4132.43589716, 4193.07692294,8.57
4115.25640998, 4121.79487152, 4120.51282024, 4120.51282024, 4121.79487152, 4129.87179460, 4140.12820492, 4130.38461511, 4154.61538441, 4138.58974339, 4123.58974332, 4126.41025614, 4125.64102537, 4185.76923063,8.57
4107.82051255, 4119.23076896, 4111.66666639, 4116.92307665, 4117.17948691, 4123.97435870, 4145.76923056, 4147.69230749, 4149.99999980, 4136.79487159, 4126.02564075, 4122.17948691, 4127.94871767, 4186.53846140,8.57
4138.97435877, 4132.69230742, 4136.02564082, 4129.48717921, 4129.10256383, 4138.97435877, 4173.84615371, 4182.69230756, 4160.12820492, 4137.94871774, 4129.23076896, 4126.41025614, 4134.23076896, 4197.17948704,8.57
4102.43589709, 4114.87179460, 4105.89743562, 4119.23076896, 4118.46153819, 4144.74358954, 4178.84615371, 4186.02564089, 4173.20512807, 4139.74358954, 4126.92307665, 4122.05128178, 4130.12820485, 4190.64102551,8.57
4134.99999973, 4127.05128178, 4122.30769203, 4127.94871767, 4122.05128178, 4116.15384588, 4149.35897415, 4150.12820492, 4155.76923056, 4129.99999973, 4126.66666639, 4131.28205101, 4128.33333306, 4198.58974345,8.57
4130.64102537, 4124.99999973, 4124.48717921, 4127.30769203, 4122.94871767, 4097.94871761, 4129.23076896, 4129.23076896, 4132.56410229, 4122.56410229, 4128.58974332, 4129.87179460, 4130.89743562, 4191.53846140,8.57
4099.99999966, 4116.28205101, 4107.69230742, 4116.28205101, 4117.43589716, 4112.69230742, 4134.35897408, 4126.28205101, 4122.17948691, 4125.25640998, 4127.05128178, 4123.20512793, 4132.30769203, 4186.41025628,8.57
4136.15384595, 4134.74358947, 4133.33333306, 4127.30769203, 4126.53846126, 4125.38461511, 4141.79487159, 4116.53846126, 4117.05128178, 4127.94871767, 4124.35897408, 4134.74358947, 4132.43589716, 4200.12820499,8.57
4107.43589716, 4116.53846126, 4112.56410229, 4122.82051255, 4119.61538434, 4128.20512793, 4153.33333313, 4121.41025614, 4129.61538434, 4130.64102537, 4125.51282024, 4127.82051255, 4129.10256383, 4190.89743576,8.57
4119.35897408, 4120.25640998, 4122.94871767, 4124.74358947, 4126.28205101, 4126.28205101, 4161.02564082, 4137.56410236, 4146.66666646, 4136.02564082, 4127.82051255, 4126.15384588, 4132.05128178, 4195.12820499,8.57
4123.33333306, 4127.43589716, 4126.92307665, 4123.71794844, 4126.02564075, 4120.51282024, 4159.35897415, 4149.99999980, 4158.20512800, 4136.02564082, 4127.30769203, 4127.69230742, 4134.35897408, 4195.76923063,8.57
4102.17948684, 4118.58974332, 4108.97435870, 4116.79487152, 4118.33333306, 4121.28205101, 4171.15384602, 4177.30769217, 4182.94871781, 4133.07692280, 4126.02564075, 4120.38461511, 4128.97435870, 4187.05128192,8.57
4138.58974339, 4130.64102537, 4136.79487159, 4128.33333306, 4130.76923050, 4116.28205101, 4166.15384595, 4177.94871781, 4177.17948704, 4135.38461518, 4126.79487152, 4127.30769203, 4129.99999973, 4195.89743576,8.57
4106.28205101, 4116.92307665, 4115.51282024, 4120.25640998, 4120.76923050, 4103.07692280, 4139.48717928, 4139.74358954, 4132.43589716, 4134.61538434, 4127.69230742, 4127.17948691, 4133.71794844, 4187.56410243,8.57
4120.12820485, 4127.43589716, 4121.28205101, 4122.69230742, 4122.05128178, 4108.07692280, 4133.46153819, 4117.69230742, 4105.25640998, 4131.02564075, 4126.15384588, 4130.76923050, 4131.28205101, 4185.89743576,8.57
4138.71794851, 4132.43589716, 4134.48717921, 4126.53846126, 4127.56410229, 4111.79487152, 4137.82051262, 4120.25640998, 4116.66666639, 4129.87179460, 4124.87179460, 4130.12820485, 4125.12820485, 4188.58974345,8.57
4102.05128171, 4113.07692280, 4110.76923050, 4117.56410229, 4118.84615357, 4095.64102530, 4135.12820485, 4127.69230742, 4140.38461518, 4130.64102537, 4124.35897408, 4122.05128178, 4125.25640998, 4186.92307679,8.57
4133.33333306, 4131.66666639, 4134.48717921, 4128.33333306, 4131.15384588, 4090.64102530, 4129.87179460, 4126.28205101, 4136.92307672, 4132.05128178, 4126.15384588, 4131.41025614, 4132.43589716, 4196.28205115,8.57
4109.61538434, 4122.05128178, 4116.28205101, 4118.58974332, 4126.02564075, 4109.48717921, 4134.10256383, 4120.25640998, 4129.10256383, 4131.53846126, 4128.20512793, 4128.20512793, 4131.66666639, 4188.20512807,8.57
4110.12820485, 4117.69230742, 4114.74358947, 4117.56410229, 4122.05128178, 4114.74358947, 4142.56410236, 4118.71794844, 4134.61538434, 4128.97435870, 4126.02564075, 4126.66666639, 4130.38461511, 4191.15384602,8.57
4136.02564082, 4126.66666639, 4132.82051255, 4127.94871767, 4129.74358947, 4099.74358940, 4153.46153826, 4137.43589723, 4147.43589723, 4129.99999973, 4126.02564075, 4134.48717921, 4132.94871767, 4193.97435884,8.57
4103.84615357, 4112.94871767, 4104.74358947, 4119.23076896, 4124.48717921, 4106.79487152, 4172.69230756, 4167.17948697, 4184.87179474, 4134.87179460, 4128.84615357, 4128.07692280, 4133.07692280, 4187.43589730,8.57
4132.69230742, 4127.17948691, 4125.25640998, 4128.46153819, 4131.66666639, 4124.48717921, 4183.07692294, 4179.10256397, 4217.05128199, 4134.61538434, 4128.46153819, 4130.51282024, 4133.33333306, 4199.74358961,8.57
4111.79487152, 4120.12820485, 4119.61538434, 4125.64102537, 4124.87179460, 4113.07692280, 4169.10256397, 4168.58974345, 4184.99999986, 4129.61538434, 4125.76923050, 4127.82051255, 4130.38461511, 4191.15384602,8.57
4104.61538434, 4119.23076896, 4115.12820485, 4122.82051255, 4121.28205101, 4091.92307658, 4139.87179467, 4137.30769210, 4117.43589716, 4129.87179460, 4124.99999973, 4124.23076896, 4127.94871767, 4187.17948704,8.57
4137.17948697, 4132.43589716, 4136.15384595, 4128.58974332, 4129.10256383, 4092.94871761, 4128.97435870, 4111.66666639, 4102.56410229, 4132.17948691, 4126.66666639, 4129.23076896, 4129.99999973, 4196.15384602,8.57
4104.74358947, 4117.43589716, 4114.61538434, 4117.30769203, 4118.97435870, 4096.02564068, 4136.53846133, 4115.25640998, 4132.43589716, 4130.38461511, 4127.05128178, 4123.07692280, 4129.23076896, 4186.66666653,8.57
4133.84615357, 4130.25640998, 4134.61538434, 4126.15384588, 4127.43589716, 4090.89743555, 4134.87179460, 4119.48717921, 4138.33333313, 4129.87179460, 4125.64102537, 4124.61538434, 4129.35897408, 4191.92307679,8.57
4123.84615357, 4124.23076896, 4126.02564075, 4125.89743562, 4127.94871767, 4108.20512793, 4143.20512800, 4116.15384588, 4129.61538434, 4131.53846126, 4125.51282024, 4123.97435870, 4131.28205101, 4191.92307679,8.57
4103.07692280, 4117.43589716, 4110.64102537, 4119.87179460, 4119.35897408, 4115.64102537, 4159.87179467, 4122.82051255, 4138.46153826, 4130.89743562, 4126.66666639, 4124.23076896, 4133.33333306, 4189.87179474,8.57
4136.53846133, 4133.07692280, 4136.02564082, 4129.10256383, 4126.66666639, 4092.05128171, 4165.25641005, 4141.66666646, 4160.76923056, 4130.12820485, 4127.05128178, 4130.51282024, 4132.94871767, 4192.30769217,8.57
4107.56410229, 4116.66666639, 4111.53846126, 4120.38461511, 4122.94871767, 4088.71794837, 4174.87179474, 4168.20512807, 4182.56410243, 4130.76923050, 4127.56410229, 4124.99999973, 4129.99999973, 4184.74358961,8.57
4130.38461511, 4127.43589716, 4123.07692280, 4124.23076896, 4130.25640998, 4099.35897402, 4171.79487166, 4171.79487166, 4176.15384602, 4131.66666639, 4127.82051255, 4129.35897408, 4129.87179460, 4194.35897422,8.57
4126.79487152, 4125.64102537, 4127.94871767, 4124.10256383, 4126.53846126, 4097.30769196, 4152.30769210, 4152.69230749, 4151.92307672, 4131.66666639, 4128.07692280, 4130.25640998, 4128.07692280, 4189.74358961,8.57
4098.84615350, 4112.17948691, 4112.82051255, 4116.41025614, 4117.05128178, 4091.02564068, 4148.33333313, 4143.46153826, 4134.99999973, 4131.15384588, 4127.56410229, 4125.76923050, 4128.71794844, 4185.25641012,8.57
4135.25640998, 4129.87179460, 4134.87179460, 4125.64102537, 4127.43589716, 4084.87179453, 4153.33333313, 4143.07692287, 4130.76923050, 4131.41025614, 4127.56410229, 4131.79487152, 4132.17948691, 4200.76923063,8.57
4107.05128178, 4117.69230742, 4113.33333306, 4119.87179460, 4121.02564075, 4089.99999966, 4149.74358954, 4133.33333306, 4141.79487159, 4133.97435870, 4128.58974332, 4125.76923050, 4129.87179460, 4192.69230756,8.57
4118.46153819, 4123.46153819, 4123.58974332, 4124.48717921, 4124.48717921, 4113.84615357, 4156.92307672, 4125.25640998, 4147.17948697, 4135.25640998, 4127.94871767, 4125.12820485, 4132.56410229, 4193.58974345,8.57
4129.74358947, 4129.87179460, 4130.76923050, 4126.66666639, 4126.28205101, 4128.84615357, 4183.84615371, 4147.94871774, 4154.48717928, 4135.64102544, 4127.43589716, 4125.51282024, 4134.99999973, 4193.97435884,8.57
4104.99999973, 4117.43589716, 4111.28205101, 4119.48717921, 4119.23076896, 4117.43589716, 4190.64102551, 4170.25641012, 4164.10256390, 4134.99999973, 4126.41025614, 4121.41025614, 4130.89743562, 4185.38461525,8.57
4138.33333313, 4130.76923050, 4136.53846133, 4131.15384588, 4131.28205101, 4108.84615357, 4174.61538448, 4156.02564082, 4156.41025621, 4131.53846126, 4125.51282024, 4127.05128178, 4129.74358947, 4191.53846140,8.57
4109.87179460, 4123.20512793, 4116.41025614, 4122.82051255, 4120.89743562, 4109.48717921, 4160.89743569, 4127.30769203, 4148.84615364, 4129.23076896, 4128.46153819, 4123.20512793, 4130.25640998, 4188.33333320,8.57
4117.94871767, 4127.17948691, 4117.43589716, 4123.46153819, 4119.23076896, 4107.94871767, 4159.99999980, 4136.02564082, 4167.82051262, 4130.25640998, 4128.97435870, 4127.56410229, 4132.82051255, 4192.56410243,8.57
4138.20512800, 4128.84615357, 4132.17948691, 4128.58974332, 4129.23076896, 4109.61538434, 4163.71794851, 4169.74358961, 4190.12820499, 4129.61538434, 4126.53846126, 4131.66666639, 4133.07692280, 4191.02564089,8.57
4102.69230742, 4112.43589716, 4110.12820485, 4119.35897408, 4120.12820485, 4117.56410229, 4158.71794851, 4171.92307679, 4184.87179474, 4128.46153819, 4126.66666639, 4124.35897408, 4129.48717921, 4183.46153833,8.57
4136.02564082, 4131.66666639, 4134.99999973, 4131.28205101, 4125.89743562, 4114.87179460, 4149.99999980, 4151.92307672, 4169.99999986, 4129.99999973, 4126.02564075, 4130.76923050, 4130.38461511, 4195.38461525,8.57
4113.71794844, 4124.10256383, 4118.84615357, 4124.48717921, 4121.15384588, 4099.35897402, 4147.56410236, 4147.05128185, 4165.38461518, 4130.51282024, 4124.61538434, 4130.12820485, 4132.05128178, 4189.35897422,8.57
4106.41025614, 4118.58974332, 4111.41025614, 4119.61538434, 4119.99999973, 4103.71794844, 4151.28205108, 4144.10256390, 4149.99999980, 4129.61538434, 4127.30769203, 4129.61538434, 4134.23076896, 4189.99999986,8.57
4136.79487159, 4128.58974332, 4132.82051255, 4128.07692280, 4127.69230742, 4125.76923050, 4157.43589723, 4134.10256383, 4118.46153819, 4129.99999973, 4131.41025614, 4132.82051255, 4136.15384595, 4195.38461525,8.57
4103.58974332, 4114.61538434, 4110.64102537, 4119.10256383, 4119.61538434, 4114.10256383, 4163.71794851, 4136.28205108, 4111.79487152, 4130.38461511, 4131.15384588, 4126.28205101, 4133.46153819, 4185.76923063,8.57
4129.99999973, 4128.46153819, 4131.66666639, 4126.79487152, 4128.46153819, 4083.97435863, 4157.05128185, 4131.79487152, 4127.17948691, 4129.61538434, 4127.69230742, 4130.64102537, 4131.92307665, 4197.43589730,8.57
4115.51282024, 4122.94871767, 4121.02564075, 4124.35897408, 4124.48717921, 4108.46153819, 4160.25641005, 4144.48717928, 4156.02564082, 4130.51282024, 4124.99999973, 4125.89743562, 4131.53846126, 4194.10256397,8.57
4101.79487145, 4117.56410229, 4108.84615357, 4122.05128178, 4120.51282024, 4136.66666646, 4174.35897422, 4183.07692294, 4188.46153833, 4134.74358947, 4123.97435870, 4119.48717921, 4131.79487152, 4185.51282038,8.57
4135.38461518, 4131.92307665, 4137.17948697, 4131.53846126, 4130.25640998, 4094.99999966, 4153.71794851, 4171.28205115, 4179.10256397, 4138.58974339, 4123.84615357, 4124.61538434, 4131.28205101, 4192.05128192,8.57
4104.99999973, 4117.43589716, 4116.79487152, 4120.64102537, 4120.64102537, 4066.92307651, 4130.38461511, 4141.28205108, 4152.69230749, 4138.58974339, 4123.33333306, 4121.66666639, 4127.56410229, 4187.82051269,8.57
4132.56410229, 4129.99999973, 4131.41025614, 4127.43589716, 4128.84615357, 4086.66666632, 4124.61538434, 4135.12820485, 4138.71794851, 4136.15384595, 4126.15384588, 4127.82051255, 4129.87179460, 4191.79487166,8.57
4127.05128178, 4126.15384588, 4126.02564075, 4126.15384588, 4127.69230742, 4094.23076889, 4118.33333306, 4123.07692280, 4128.84615357, 4139.99999980, 4130.64102537, 4128.07692280, 4134.10256383, 4186.02564089,8.57
4103.33333306, 4115.38461511, 4109.87179460, 4117.82051255, 4117.30769203, 4091.41025607, 4126.28205101, 4121.02564075, 4129.74358947, 4138.71794851, 4129.48717921, 4123.71794844, 4133.33333306, 4187.94871781,8.57
4137.94871774, 4131.79487152, 4137.17948697, 4128.58974332, 4128.33333306, 4096.53846119, 4140.64102544, 4137.82051262, 4150.51282031, 4126.66666639, 4127.56410229, 4131.15384588, 4131.53846126, 4199.10256397,8.57
4103.07692280, 4116.53846126, 4112.43589716, 4120.25640998, 4120.89743562, 4101.41025607, 4146.92307672, 4143.20512800, 4165.64102544, 4126.92307665, 4128.07692280, 4126.53846126, 4132.17948691, 4187.56410243,8.57
4121.53846126, 4125.64102537, 4120.64102537, 4124.35897408, 4122.43589716, 4104.23076896, 4153.58974339, 4138.84615364, 4151.53846133, 4130.89743562, 4127.05128178, 4128.58974332, 4134.87179460, 4192.30769217,8.57
4129.23076896, 4128.07692280, 4129.23076896, 4125.12820485, 4126.92307665, 4104.61538434, 4157.17948697, 4138.84615364, 4144.87179467, 4124.87179460, 4127.30769203, 4128.33333306, 4129.23076896, 4191.02564089,8.57
4096.28205094, 4111.79487152, 4110.64102537, 4114.87179460, 4119.48717921, 4098.20512786, 4150.25641005, 4142.56410236, 4164.23076903, 4126.28205101, 4128.33333306, 4121.53846126, 4127.43589716, 4185.64102551,8.57
4134.23076896, 4129.74358947, 4134.74358947, 4126.92307665, 4126.79487152, 4099.23076889, 4149.10256390, 4150.64102544, 4170.51282038, 4134.23076896, 4126.92307665, 4130.38461511, 4137.17948697, 4199.10256397,8.57
