AF3,F7,F3,FC5,T7,P7,O1,O2,P8,T8,FC6,F4,F8,AF4,Label
4117.69230742, 4120.64102537, 4120.51282024, 4088.07692273, 4123.58974332, 4072.30769196, 4068.84615343, 3991.41025586, 4073.97435863, 4125.89743562, 4120.12820485, 4118.20512793, 4125.89743562, 4187.30769217,8.57
4120.51282024, 4120.12820485, 4121.92307665, 4086.79487145, 4126.66666639, 4077.69230735, 4074.74358940, 4001.41025586, 4080.12820478, 4126.41025614, 4121.41025614, 4121.02564075, 4128.84615357, 4191.66666653,8.57
4125.89743562, 4126.28205101, 4124.61538434, 4113.46153819, 4127.82051255, 4091.92307658, 4087.82051248, 4018.84615336, 4097.94871761, 4127.69230742, 4131.28205101, 4127.69230742, 4133.71794844, 4189.10256397,8.57
4113.71794844, 4120.89743562, 4116.02564075, 4112.82051255, 4124.23076896, 4091.15384581, 4092.56410222, 4026.28205080, 4105.51282024, 4127.43589716, 4128.84615357, 4111.02564075, 4123.97435870, 4181.28205115,8.57
4128.20512793, 4127.05128178, 4132.30769203, 4082.82051248, 4126.28205101, 4067.82051241, 4072.69230735, 3998.46153791, 4076.28205094, 4127.43589716, 4122.30769203, 4129.48717921, 4131.41025614, 4197.17948704,8.57
4123.46153819, 4122.43589716, 4126.53846126, 4083.58974325, 4124.48717921, 4056.28205087, 4059.74358933, 3981.15384560, 4057.05128164, 4127.82051255, 4120.51282024, 4120.64102537, 4127.94871767, 4187.05128192,8.57
4121.53846126, 4123.84615357, 4122.43589716, 4105.76923050, 4123.33333306, 4064.35897395, 4068.46153805, 3992.30769176, 4069.35897395, 4127.94871767, 4126.02564075, 4119.23076896, 4128.46153819, 4185.51282038,8.57
4129.35897408, 4129.48717921, 4131.15384588, 4104.10256383, 4124.74358947, 4069.74358940, 4072.05128171, 3987.82051227, 4067.05128164, 4128.20512793, 4126.79487152, 4133.97435870, 4134.87179460, 4191.79487166,8.57
4118.97435870, 4117.69230742, 4121.28205101, 4098.07692273, 4121.15384588, 4070.12820478, 4067.69230728, 3973.71794817, 4054.35897395, 4128.33333306, 4122.82051255, 4119.87179460, 4125.25640998, 4183.71794858,8.57
4134.61538434, 4128.20512793, 4131.02564075, 4111.79487152, 4125.25640998, 4074.74358940, 4072.69230735, 3992.94871740, 4077.94871761, 4128.20512793, 4128.33333306, 4137.05128185, 4133.20512793, 4197.82051269,8.57
4125.64102537, 4127.56410229, 4124.48717921, 4121.41025614, 4124.48717921, 4089.23076889, 4090.25640991, 4034.74358926, 4113.20512793, 4126.53846126, 4125.89743562, 4127.17948691, 4133.71794844, 4196.92307679,8.57
4117.69230742, 4121.15384588, 4119.61538434, 4099.87179453, 4121.66666639, 4082.56410222, 4081.92307658, 4026.41025593, 4094.10256376, 4127.05128178, 4118.58974332, 4120.64102537, 4130.64102537, 4197.30769217,8.57
4133.71794844, 4128.71794844, 4131.92307665, 4085.64102530, 4128.71794844, 4062.43589702, 4058.71794830, 3991.79487124, 4069.23076882, 4131.15384588, 4120.64102537, 4141.28205108, 4137.69230749, 4200.51282038,8.57
4116.41025614, 4117.43589716, 4118.84615357, 4102.69230742, 4125.25640998, 4075.12820478, 4073.84615350, 4007.43589695, 4089.87179453, 4130.76923050, 4120.76923050, 4118.46153819, 4129.87179460, 4184.35897422,8.57
4122.17948691, 4122.43589716, 4124.23076896, 4096.66666632, 4123.07692280, 4086.02564068, 4089.10256376, 4021.15384567, 4090.25640991, 4130.76923050, 4118.71794844, 4129.74358947, 4133.20512793, 4195.89743576,8.57
4122.94871767, 4126.41025614, 4125.38461511, 4081.41025607, 4126.53846126, 4077.56410222, 4079.87179453, 4004.61538413, 4078.84615350, 4131.53846126, 4117.94871767, 4130.38461511, 4132.17948691, 4193.07692294,8.57
4112.17948691, 4119.23076896, 4120.12820485, 4098.71794837, 4123.33333306, 4077.05128171, 4074.35897402, 4003.71794817, 4091.66666632, 4128.07692280, 4121.92307665, 4111.79487152, 4127.56410229, 4181.79487166,8.57
4124.99999973, 4124.87179460, 4126.66666639, 4105.12820485, 4124.61538434, 4073.58974325, 4067.56410215, 4003.46153791, 4084.61538427, 4128.33333306, 4123.97435870, 4130.89743562, 4135.38461518, 4190.89743576,8.57
4114.99999973, 4119.48717921, 4116.15384588, 4083.97435863, 4126.79487152, 4063.20512779, 4058.46153805, 3983.20512765, 4057.94871754, 4129.61538434, 4117.56410229, 4117.17948691, 4128.07692280, 4186.15384602,8.57
4122.17948691, 4125.64102537, 4125.51282024, 4077.94871761, 4127.17948691, 4061.92307651, 4056.53846113, 3974.74358919, 4047.94871754, 4128.71794844, 4117.56410229, 4120.89743562, 4129.48717921, 4192.69230756,8.57
4127.17948691, 4126.53846126, 4127.43589716, 4092.05128171, 4124.87179460, 4074.87179453, 4068.20512779, 3993.71794817, 4056.28205087, 4127.30769203, 4117.82051255, 4124.10256383, 4129.61538434, 4187.43589730,8.57
4118.07692280, 4119.87179460, 4119.87179460, 4103.58974332, 4123.46153819, 4089.10256376, 4084.87179453, 4019.35897388, 4082.05128171, 4128.46153819, 4119.10256383, 4111.79487152, 4124.87179460, 4181.92307679,8.57
4130.25640998, 4130.25640998, 4132.94871767, 4096.79487145, 4129.48717921, 4081.79487145, 4079.99999966, 4016.53846106, 4094.48717914, 4130.12820485, 4123.71794844, 4130.25640998, 4132.69230742, 4192.05128192,8.57
4116.28205101, 4119.48717921, 4120.89743562, 4079.23076889, 4125.51282024, 4067.94871754, 4065.76923036, 4004.10256362, 4084.74358940, 4127.43589716, 4118.33333306, 4116.15384588, 4125.51282024, 4180.76923063,8.57
4121.28205101, 4122.05128178, 4126.02564075, 4081.53846119, 4121.28205101, 4075.64102530, 4076.53846119, 4025.25640977, 4096.92307658, 4128.84615357, 4119.10256383, 4121.66666639, 4131.79487152, 4191.66666653,8.57
4132.17948691, 4129.99999973, 4133.58974332, 4097.82051248, 4126.02564075, 4092.17948684, 4097.82051248, 4052.05128164, 4119.48717921, 4132.43589716, 4122.56410229, 4131.66666639, 4138.33333313, 4195.51282038,8.57
4118.71794844, 4117.56410229, 4117.56410229, 4091.53846119, 4124.99999973, 4087.43589709, 4088.07692273, 4029.61538413, 4099.23076889, 4131.02564075, 4122.30769203, 4118.07692280, 4127.69230742, 4184.61538448,8.57
4129.87179460, 4128.33333306, 4130.64102537, 4075.12820478, 4125.38461511, 4068.46153805, 4059.23076882, 3987.17948663, 4056.15384574, 4127.56410229, 4124.23076896, 4138.07692287, 4136.28205108, 4199.10256397,8.57
4120.25640998, 4124.74358947, 4125.12820485, 4083.20512786, 4123.84615357, 4078.97435863, 4067.17948677, 3993.97435842, 4061.28205087, 4125.25640998, 4121.02564075, 4122.82051255, 4135.38461518, 4190.76923063,8.57
4123.33333306, 4123.33333306, 4121.02564075, 4097.05128171, 4122.56410229, 4100.89743555, 4089.48717914, 4014.48717900, 4086.79487145, 4129.10256383, 4122.69230742, 4122.05128178, 4132.30769203, 4189.23076910,8.57
4130.89743562, 4131.66666639, 4131.41025614, 4093.46153812, 4125.25640998, 4099.10256376, 4086.28205094, 4009.23076875, 4086.02564068, 4132.05128178, 4125.51282024, 4138.84615364, 4134.23076896, 4195.12820499,8.57
4106.66666639, 4116.92307665, 4118.97435870, 4091.79487145, 4121.28205101, 4091.92307658, 4080.51282017, 4013.84615336, 4087.05128171, 4128.33333306, 4122.05128178, 4118.46153819, 4128.46153819, 4188.97435884,8.57
4125.12820485, 4122.69230742, 4123.20512793, 4093.07692273, 4124.87179460, 4091.15384581, 4083.58974325, 4027.69230721, 4096.28205094, 4127.82051255, 4123.33333306, 4135.38461518, 4136.66666646, 4200.64102551,8.57
4124.23076896, 4123.20512793, 4116.79487152, 4087.69230735, 4127.17948691, 4092.69230735, 4082.69230735, 4027.17948670, 4092.82051248, 4128.71794844, 4121.15384588, 4125.76923050, 4128.97435870, 4188.97435884,8.57
4113.84615357, 4120.89743562, 4116.79487152, 4075.25640991, 4126.53846126, 4079.10256376, 4064.48717907, 4007.94871747, 4066.53846113, 4128.46153819, 4115.89743562, 4114.10256383, 4126.15384588, 4185.51282038,8.57
4127.30769203, 4129.35897408, 4128.84615357, 4075.64102530, 4128.97435870, 4071.79487145, 4053.58974318, 3993.97435842, 4053.07692266, 4129.48717921, 4113.33333306, 4130.64102537, 4137.43589723, 4193.33333320,8.57
4111.02564075, 4115.51282024, 4115.51282024, 4103.84615357, 4124.35897408, 4099.10256376, 4075.64102530, 4007.82051234, 4077.17948684, 4128.84615357, 4114.23076896, 4107.43589716, 4127.43589716, 4179.35897422,8.57
4123.84615357, 4123.97435870, 4127.82051255, 4112.56410229, 4126.92307665, 4107.05128178, 4086.02564068, 4013.84615336, 4086.79487145, 4129.35897408, 4118.97435870, 4121.92307665, 4129.74358947, 4188.97435884,8.57
4127.82051255, 4128.33333306, 4128.07692280, 4090.38461504, 4128.46153819, 4079.48717914, 4065.25640984, 3992.94871740, 4069.35897395, 4129.23076896, 4114.61538434, 4124.10256383, 4129.48717921, 4187.05128192,8.57
4115.64102537, 4117.30769203, 4118.58974332, 4080.12820478, 4123.20512793, 4058.84615343, 4041.92307651, 3970.51281989, 4054.48717907, 4127.82051255, 4113.46153819, 4109.99999973, 4124.74358947, 4181.92307679,8.57
4128.97435870, 4128.71794844, 4129.99999973, 4085.51282017, 4124.99999973, 4057.56410215, 4036.41025593, 3967.56410194, 4047.30769189, 4128.07692280, 4119.35897408, 4132.43589716, 4132.56410229, 4190.76923063,8.57
4116.66666639, 4123.58974332, 4117.56410229, 4089.61538427, 4123.46153819, 4065.51282010, 4044.61538420, 3979.35897381, 4052.82051241, 4128.20512793, 4118.71794844, 4118.58974332, 4126.15384588, 4182.69230756,8.57
4126.79487152, 4126.66666639, 4125.89743562, 4081.53846119, 4124.23076896, 4066.41025600, 4044.35897395, 3982.17948663, 4059.87179446, 4130.51282024, 4120.25640998, 4129.74358947, 4133.07692280, 4194.23076910,8.57
4130.89743562, 4129.61538434, 4130.25640998, 4076.53846119, 4124.35897408, 4063.58974318, 4042.17948677, 3985.76923022, 4064.87179446, 4130.76923050, 4117.30769203, 4134.74358947, 4135.12820485, 4190.89743576,8.57
4120.51282024, 4121.66666639, 4119.99999973, 4089.87179453, 4121.28205101, 4067.43589702, 4051.66666625, 4003.84615329, 4080.89743555, 4127.30769203, 4115.38461511, 4117.94871767, 4128.33333306, 4181.53846140,8.57
4136.53846133, 4128.58974332, 4131.53846126, 4098.97435863, 4126.02564075, 4071.15384581, 4058.97435856, 4011.15384567, 4090.12820478, 4127.69230742, 4119.99999973, 4140.89743569, 4136.28205108, 4197.43589730,8.57
4118.07692280, 4115.64102537, 4120.51282024, 4093.33333299, 4125.38461511, 4080.25640991, 4068.58974318, 4012.30769183, 4088.07692273, 4129.48717921, 4115.12820485, 4125.38461511, 4128.46153819, 4189.99999986,8.57
4120.89743562, 4120.51282024, 4125.51282024, 4086.92307658, 4123.46153819, 4081.92307658, 4069.35897395, 4007.94871747, 4077.94871761, 4129.99999973, 4112.94871767, 4126.53846126, 4133.58974332, 4191.28205115,8.57
4131.92307665, 4131.02564075, 4132.69230742, 4092.17948684, 4124.61538434, 4084.99999966, 4073.58974325, 4015.89743541, 4083.71794837, 4128.58974332, 4116.15384588, 4135.25640998, 4140.38461518, 4190.12820499,8.57
4117.56410229, 4118.97435870, 4118.07692280, 4106.28205101, 4120.64102537, 4103.33333306, 4094.35897402, 4043.58974318, 4105.38461511, 4127.94871767, 4118.84615357, 4115.25640998, 4130.38461511, 4184.87179474,8.57
4129.74358947, 4126.66666639, 4126.15384588, 4112.05128178, 4123.07692280, 4092.69230735, 4084.74358940, 4032.69230721, 4096.02564068, 4131.02564075, 4121.79487152, 4129.35897408, 4136.28205108, 4200.89743576,8.57
4116.15384588, 4122.82051255, 4119.35897408, 4109.10256383, 4124.74358947, 4069.35897395, 4064.74358933, 4009.48717900, 4086.02564068, 4130.64102537, 4117.82051255, 4115.51282024, 4130.89743562, 4188.71794858,8.57
4115.76923050, 4124.35897408, 4123.46153819, 4109.35897408, 4124.48717921, 4077.17948684, 4078.07692273, 4025.89743541, 4100.64102530, 4127.43589716, 4119.10256383, 4120.12820485, 4130.76923050, 4189.48717935,8.57
4129.48717921, 4127.43589716, 4133.46153819, 4113.33333306, 4125.12820485, 4089.87179453, 4093.84615350, 4044.87179446, 4104.99999973, 4126.92307665, 4119.99999973, 4133.07692280, 4135.12820485, 4194.10256397,8.57
4112.30769203, 4112.30769203, 4120.76923050, 4112.56410229, 4122.05128178, 4080.76923043, 4083.58974325, 4038.71794830, 4103.33333306, 4126.66666639, 4113.07692280, 4106.41025614, 4123.58974332, 4180.76923063,8.57
4122.82051255, 4126.92307665, 4130.38461511, 4104.87179460, 4126.41025614, 4072.56410222, 4068.20512779, 4020.76923029, 4101.66666632, 4129.23076896, 4114.23076896, 4125.12820485, 4130.25640998, 4191.15384602,8.57
4118.46153819, 4129.23076896, 4122.94871767, 4108.71794844, 4126.28205101, 4089.48717914, 4081.02564068, 4019.99999952, 4099.61538427, 4131.28205101, 4115.89743562, 4122.30769203, 4130.12820485, 4184.74358961,8.57
4118.58974332, 4122.17948691, 4122.43589716, 4112.05128178, 4123.58974332, 4088.20512786, 4085.64102530, 4028.33333285, 4097.94871761, 4127.43589716, 4117.30769203, 4115.76923050, 4128.20512793, 4188.33333320,8.57
4133.33333306, 4130.76923050, 4135.89743569, 4103.46153819, 4125.76923050, 4066.92307651, 4070.76923043, 4034.48717900, 4100.25640991, 4125.12820485, 4119.10256383, 4130.76923050, 4134.87179460, 4196.41025628,8.57
4117.56410229, 4123.33333306, 4120.51282024, 4108.97435870, 4120.89743562, 4073.97435863, 4077.94871761, 4038.84615343, 4101.79487145, 4127.17948691, 4116.79487152, 4113.84615357, 4128.58974332, 4181.41025628,8.57
4133.46153819, 4131.41025614, 4130.51282024, 4118.97435870, 4125.12820485, 4089.23076889, 4090.12820478, 4035.89743541, 4099.35897402, 4128.97435870, 4119.99999973, 4134.87179460, 4134.61538434, 4193.20512807,8.57
4128.84615357, 4128.84615357, 4128.46153819, 4106.41025614, 4126.79487152, 4086.28205094, 4081.53846119, 4028.58974311, 4098.58974325, 4127.17948691, 4119.87179460, 4131.92307665, 4131.15384588, 4191.28205115,8.57
4116.15384588, 4120.12820485, 4118.20512793, 4085.51282017, 4119.10256383, 4073.71794837, 4065.64102523, 4012.30769183, 4088.71794837, 4126.53846126, 4118.20512793, 4119.74358947, 4127.05128178, 4187.43589730,8.57
4135.25640998, 4132.94871767, 4130.25640998, 4089.23076889, 4123.46153819, 4073.46153812, 4065.25640984, 4005.12820465, 4081.41025607, 4130.25640998, 4117.43589716, 4144.61538441, 4135.64102544, 4197.69230756,8.57
4119.10256383, 4124.48717921, 4118.07692280, 4107.94871767, 4126.15384588, 4086.53846119, 4080.25640991, 4021.79487131, 4091.02564068, 4130.64102537, 4115.12820485, 4125.12820485, 4128.71794844, 4189.48717935,8.57
4114.35897408, 4123.46153819, 4120.76923050, 4119.61538434, 4124.23076896, 4096.15384581, 4093.20512786, 4044.23076882, 4106.53846126, 4129.35897408, 4121.02564075, 4124.61538434, 4133.20512793, 4194.87179474,8.57
4120.64102537, 4128.71794844, 4127.82051255, 4129.23076896, 4123.58974332, 4101.53846119, 4100.76923043, 4052.82051241, 4115.25640998, 4128.71794844, 4120.76923050, 4132.17948691, 4133.84615357, 4192.43589730,8.57
4118.20512793, 4121.79487152, 4121.53846126, 4128.97435870, 4122.94871767, 4098.07692273, 4098.07692273, 4046.28205087, 4109.48717921, 4129.74358947, 4118.07692280, 4122.56410229, 4129.10256383, 4189.48717935,8.57
4124.35897408, 4123.46153819, 4122.56410229, 4114.74358947, 4125.89743562, 4086.66666632, 4082.82051248, 4032.94871747, 4097.05128171, 4130.76923050, 4119.99999973, 4127.17948691, 4134.87179460, 4192.94871781,8.57
4116.41025614, 4121.92307665, 4117.05128178, 4112.30769203, 4125.25640998, 4084.35897402, 4078.71794837, 4024.99999952, 4091.41025607, 4127.43589716, 4116.28205101, 4113.97435870, 4126.41025614, 4182.43589730,8.57
4121.28205101, 4125.25640998, 4125.25640998, 4120.64102537, 4124.99999973, 4085.51282017, 4082.56410222, 4023.33333285, 4087.56410222, 4128.33333306, 4116.28205101, 4124.35897408, 4127.94871767, 4190.51282038,8.57
4123.33333306, 4122.82051255, 4124.35897408, 4122.69230742, 4124.35897408, 4084.87179453, 4079.99999966, 4024.61538413, 4091.41025607, 4131.41025614, 4117.17948691, 4123.46153819, 4130.64102537, 4190.12820499,8.57
4117.69230742, 4121.28205101, 4117.94871767, 4119.23076896, 4122.56410229, 4090.76923043, 4084.74358940, 4031.53846106, 4101.15384581, 4127.69230742, 4115.25640998, 4111.15384588, 4124.74358947, 4184.10256397,8.57
4126.15384588, 4129.99999973, 4128.58974332, 4109.48717921, 4124.74358947, 4091.28205094, 4090.51282017, 4038.71794830, 4096.15384581, 4126.66666639, 4116.15384588, 4130.12820485, 4131.02564075, 4192.82051269,8.57
4119.35897408, 4119.74358947, 4121.28205101, 4109.35897408, 4122.82051255, 4097.05128171, 4099.99999966, 4054.10256369, 4104.61538434, 4127.69230742, 4115.38461511, 4116.15384588, 4129.48717921, 4185.51282038,8.57
4126.02564075, 4122.94871767, 4126.53846126, 4114.74358947, 4123.97435870, 4102.43589709, 4103.33333306, 4057.17948677, 4117.69230742, 4127.56410229, 4115.76923050, 4121.15384588, 4132.56410229, 4189.74358961,8.57
4130.89743562, 4132.17948691, 4130.38461511, 4108.71794844, 4125.51282024, 4088.84615350, 4087.69230735, 4036.41025593, 4103.07692280, 4128.20512793, 4116.02564075, 4137.17948697, 4132.69230742, 4190.89743576,8.57
4116.79487152, 4123.07692280, 4116.02564075, 4102.69230742, 4120.64102537, 4077.82051248, 4076.53846119, 4027.94871747, 4089.74358940, 4127.56410229, 4113.58974332, 4120.38461511, 4124.35897408, 4184.74358961,8.57
4127.69230742, 4130.12820485, 4129.35897408, 4101.02564068, 4124.87179460, 4079.87179453, 4076.92307658, 4033.58974311, 4093.33333299, 4126.79487152, 4113.46153819, 4134.23076896, 4134.61538434, 4197.94871781,8.57
4121.15384588, 4125.89743562, 4126.53846126, 4112.17948691, 4125.89743562, 4095.51282017, 4089.35897402, 4046.02564061, 4108.97435870, 4125.38461511, 4113.71794844, 4127.30769203, 4133.20512793, 4189.87179474,8.57
4121.15384588, 4123.58974332, 4120.64102537, 4107.56410229, 4122.82051255, 4098.58974325, 4089.35897402, 4041.92307651, 4106.28205101, 4127.05128178, 4114.87179460, 4124.10256383, 4131.28205101, 4187.43589730,8.57
4130.25640998, 4130.25640998, 4128.07692280, 4088.71794837, 4126.02564075, 4089.87179453, 4080.38461504, 4023.84615336, 4089.48717914, 4129.35897408, 4112.69230742, 4136.02564082, 4136.92307672, 4194.61538448,8.57
4111.28205101, 4116.41025614, 4117.43589716, 4091.53846119, 4124.48717921, 4084.61538427, 4075.89743555, 4023.84615336, 4090.51282017, 4127.56410229, 4109.61538434, 4116.66666639, 4128.46153819, 4188.20512807,8.57
4124.23076896, 4121.41025614, 4126.53846126, 4101.79487145, 4123.84615357, 4081.15384581, 4070.76923043, 4029.99999952, 4096.28205094, 4128.84615357, 4115.51282024, 4133.20512793, 4132.05128178, 4197.69230756,8.57
4125.38461511, 4124.23076896, 4124.74358947, 4118.97435870, 4123.46153819, 4111.66666639, 4100.51282017, 4054.87179446, 4119.48717921, 4129.87179460, 4118.46153819, 4127.56410229, 4131.79487152, 4189.48717935,8.57
4113.07692280, 4117.94871767, 4116.53846126, 4135.38461518, 4121.92307665, 4132.43589716, 4124.87179460, 4075.51282017, 4138.20512800, 4126.66666639, 4118.71794844, 4111.66666639, 4132.17948691, 4186.79487166,8.57
4123.97435870, 4124.74358947, 4125.12820485, 4116.92307665, 4124.87179460, 4096.02564068, 4089.48717914, 4044.74358933, 4103.46153819, 4126.15384588, 4115.12820485, 4132.43589716, 4137.43589723, 4195.38461525,8.57
4115.38461511, 4120.12820485, 4119.48717921, 4090.64102530, 4122.17948691, 4069.23076882, 4062.82051241, 4025.76923029, 4081.28205094, 4129.99999973, 4109.61538434, 4120.25640998, 4124.99999973, 4184.23076910,8.57
4122.82051255, 4124.48717921, 4125.51282024, 4103.33333306, 4123.58974332, 4082.82051248, 4081.53846119, 4045.51282010, 4107.69230742, 4131.15384588, 4117.56410229, 4125.89743562, 4132.43589716, 4192.94871781,8.57
4122.05128178, 4125.12820485, 4120.89743562, 4127.69230742, 4126.79487152, 4099.99999966, 4096.28205094, 4049.74358933, 4116.15384588, 4129.35897408, 4118.20512793, 4125.51282024, 4136.28205108, 4190.89743576,8.57
4113.20512793, 4120.12820485, 4115.89743562, 4124.35897408, 4125.51282024, 4102.43589709, 4091.15384581, 4040.76923036, 4098.97435863, 4129.48717921, 4112.43589716, 4114.99999973, 4126.02564075, 4184.74358961,8.57
4129.10256383, 4126.41025614, 4128.97435870, 4111.53846126, 4126.28205101, 4095.25640991, 4086.53846119, 4041.66666625, 4098.33333299, 4129.74358947, 4117.30769203, 4131.41025614, 4131.15384588, 4192.56410243,8.57
4119.10256383, 4117.94871767, 4116.92307665, 4103.46153819, 4121.15384588, 4089.48717914, 4086.79487145, 4039.23076882, 4100.25640991, 4126.79487152, 4116.79487152, 4114.61538434, 4128.07692280, 4183.33333320,8.57
4124.48717921, 4124.74358947, 4123.58974332, 4093.33333299, 4121.02564075, 4081.28205094, 4078.33333299, 4031.53846106, 4086.15384581, 4127.17948691, 4113.46153819, 4121.15384588, 4134.61538434, 4191.92307679,8.57
4127.69230742, 4127.43589716, 4127.56410229, 4099.10256376, 4123.07692280, 4080.12820478, 4076.02564068, 4037.56410215, 4088.84615350, 4129.23076896, 4114.35897408, 4128.84615357, 4136.15384595, 4193.33333320,8.57
4114.74358947, 4116.79487152, 4115.51282024, 4117.30769203, 4121.41025614, 4095.12820478, 4088.46153812, 4045.76923036, 4102.82051255, 4129.61538434, 4118.46153819, 4117.17948691, 4127.56410229, 4186.92307679,8.57
4128.84615357, 4129.99999973, 4131.28205101, 4109.23076896, 4126.28205101, 4096.41025607, 4086.15384581, 4040.89743548, 4094.35897402, 4130.76923050, 4120.51282024, 4137.17948697, 4136.53846133, 4198.20512807,8.57
4117.17948691, 4122.94871767, 4124.99999973, 4087.69230735, 4123.58974332, 4080.76923043, 4070.76923043, 4036.02564054, 4087.30769196, 4129.23076896, 4114.23076896, 4122.05128178, 4130.12820485, 4190.51282038,8.57
4119.99999973, 4121.15384588, 4121.28205101, 4092.17948684, 4119.87179460, 4076.41025607, 4064.87179446, 4031.15384567, 4092.17948684, 4128.20512793, 4115.38461511, 4124.87179460, 4129.10256383, 4194.48717935,8.57
4128.84615357, 4130.51282024, 4126.28205101, 4105.64102537, 4124.23076896, 4087.94871761, 4076.41025607, 4029.23076875, 4093.71794837, 4128.97435870, 4117.30769203, 4137.82051262, 4134.23076896, 4196.66666653,8.57
4111.53846126, 4120.12820485, 4116.92307665, 4103.84615357, 4123.97435870, 4096.15384581, 4088.46153812, 4042.17948677, 4104.99999973, 4128.20512793, 4112.82051255, 4114.23076896, 4128.71794844, 4189.23076910,8.57
4126.92307665, 4126.41025614, 4128.07692280, 4097.94871761, 4124.48717921, 4095.76923043, 4088.20512786, 4056.53846113, 4121.41025614, 4129.23076896, 4115.38461511, 4130.76923050, 4135.25640998, 4200.64102551,8.57
4126.02564075, 4123.20512793, 4123.97435870, 4105.51282024, 4123.71794844, 4100.51282017, 4091.41025607, 4056.41025600, 4118.46153819, 4127.82051255, 4116.66666639, 4124.74358947, 4129.35897408, 4190.12820499,8.57
4121.66666639, 4121.15384588, 4122.94871767, 4118.71794844, 4124.61538434, 4105.64102537, 4098.97435863, 4057.56410215, 4110.76923050, 4124.99999973, 4118.97435870, 4119.10256383, 4128.33333306, 4189.23076910,8.57
4125.64102537, 4129.10256383, 4127.94871767, 4121.53846126, 4128.07692280, 4104.23076896, 4104.61538434, 4075.89743555, 4125.38461511, 4125.89743562, 4119.23076896, 4134.61538434, 4134.48717921, 4194.23076910,8.57
4109.61538434, 4118.97435870, 4116.02564075, 4121.53846126, 4122.82051255, 4105.25640998, 4104.99999973, 4080.51282017, 4133.07692280, 4126.41025614, 4115.25640998, 4116.41025614, 4125.38461511, 4183.97435884,8.57
4121.28205101, 4123.46153819, 4126.28205101, 4123.33333306, 4123.46153819, 4111.53846126, 4102.94871767, 4059.99999959, 4113.20512793, 4128.07692280, 4118.46153819, 4123.84615357, 4129.23076896, 4193.84615371,8.57
4122.17948691, 4125.51282024, 4122.94871767, 4126.02564075, 4124.99999973, 4123.84615357, 4114.99999973, 4062.30769189, 4112.05128178, 4129.48717921, 4118.84615357, 4117.56410229, 4127.56410229, 4186.15384602,8.57
4120.89743562, 4123.33333306, 4119.10256383, 4126.41025614, 4121.92307665, 4127.94871767, 4125.76923050, 4083.20512786, 4131.53846126, 4128.46153819, 4117.94871767, 4116.79487152, 4127.30769203, 4186.53846140,8.57
4128.20512793, 4127.17948691, 4128.97435870, 4118.20512793, 4124.48717921, 4121.28205101, 4116.66666639, 4078.97435863, 4127.56410229, 4129.10256383, 4118.33333306, 4133.33333306, 4133.33333306, 4194.99999986,8.57
4113.33333306, 4121.79487152, 4120.38461511, 4111.28205101, 4123.84615357, 4114.61538434, 4102.43589709, 4064.61538420, 4111.53846126, 4128.33333306, 4116.15384588, 4111.79487152, 4125.12820485, 4180.64102551,8.57
4129.10256383, 4133.71794844, 4133.20512793, 4106.66666639, 4123.84615357, 4104.74358947, 4096.28205094, 4064.87179446, 4115.25640998, 4128.33333306, 4116.53846126, 4128.20512793, 4134.99999973, 4192.43589730,8.57
4126.41025614, 4127.94871767, 4128.58974332, 4107.69230742, 4123.33333306, 4112.82051255, 4107.56410229, 4076.53846119, 4133.46153819, 4128.71794844, 4113.46153819, 4133.33333306, 4137.94871774, 4193.58974345,8.57
4115.12820485, 4115.25640998, 4114.35897408, 4114.23076896, 4121.15384588, 4128.07692280, 4115.25640998, 4074.74358940, 4127.94871767, 4129.48717921, 4115.76923050, 4122.17948691, 4131.41025614, 4187.05128192,8.57
4134.99999973, 4127.17948691, 4128.97435870, 4114.61538434, 4123.71794844, 4117.69230742, 4097.82051248, 4057.17948677, 4104.61538434, 4129.87179460, 4122.30769203, 4138.33333313, 4139.48717928, 4195.38461525,8.57
4121.41025614, 4120.89743562, 4123.20512793, 4112.69230742, 4122.30769203, 4119.74358947, 4103.46153819, 4067.82051241, 4119.61538434, 4126.92307665, 4120.51282024, 4118.46153819, 4133.97435870, 4190.12820499,8.57
4123.20512793, 4126.53846126, 4126.41025614, 4112.94871767, 4124.61538434, 4133.07692280, 4119.23076896, 4078.84615350, 4139.48717928, 4127.69230742, 4120.64102537, 4127.56410229, 4133.97435870, 4198.71794858,8.57
4126.53846126, 4129.74358947, 4126.28205101, 4109.87179460, 4125.25640998, 4113.71794844, 4097.17948684, 4053.20512779, 4113.46153819, 4129.35897408, 4119.35897408, 4134.74358947, 4134.74358947, 4193.46153833,8.57
4114.10256383, 4117.69230742, 4117.56410229, 4106.53846126, 4121.28205101, 4093.20512786, 4080.12820478, 4039.35897395, 4094.74358940, 4127.56410229, 4117.05128178, 4118.58974332, 4129.74358947, 4183.20512807,8.57
4127.69230742, 4125.89743562, 4127.94871767, 4108.20512793, 4124.48717921, 4103.84615357, 4093.97435863, 4054.10256369, 4107.82051255, 4127.05128178, 4118.33333306, 4137.56410236, 4134.61538434, 4195.89743576,8.57
4117.17948691, 4119.48717921, 4114.35897408, 4111.53846126, 4124.48717921, 4117.69230742, 4106.53846126, 4065.38461497, 4113.58974332, 4128.84615357, 4112.30769203, 4120.25640998, 4125.89743562, 4187.56410243,8.57
4118.46153819, 4122.56410229, 4117.94871767, 4120.64102537, 4127.82051255, 4118.58974332, 4109.48717921, 4068.20512779, 4114.23076896, 4130.76923050, 4114.48717921, 4121.92307665, 4130.38461511, 4191.15384602,8.57
4125.64102537, 4129.74358947, 4128.07692280, 4132.17948691, 4130.89743562, 4120.76923050, 4114.10256383, 4075.12820478, 4129.74358947, 4128.07692280, 4121.15384588, 4132.82051255, 4134.87179460, 4192.43589730,8.57
4111.28205101, 4116.02564075, 4118.97435870, 4119.10256383, 4123.84615357, 4114.35897408, 4107.05128178, 4067.56410215, 4120.89743562, 4124.61538434, 4115.89743562, 4110.51282024, 4124.74358947, 4182.43589730,8.57
4123.71794844, 4123.07692280, 4129.99999973, 4100.38461504, 4124.74358947, 4102.94871767, 4094.99999966, 4059.35897395, 4102.30769196, 4127.69230742, 4113.58974332, 4128.07692280, 4133.58974332, 4193.71794858,8.57
4118.07692280, 4123.07692280, 4122.69230742, 4115.51282024, 4126.53846126, 4112.56410229, 4105.76923050, 4075.64102530, 4129.10256383, 4129.23076896, 4115.51282024, 4120.38461511, 4130.64102537, 4183.46153833,8.57
4119.87179460, 4123.71794844, 4120.89743562, 4124.99999973, 4125.38461511, 4115.12820485, 4108.07692280, 4076.28205094, 4142.05128185, 4126.53846126, 4117.56410229, 4116.92307665, 4128.33333306, 4185.12820499,8.57
4130.25640998, 4129.48717921, 4131.28205101, 4104.74358947, 4127.17948691, 4108.71794844, 4099.87179453, 4059.35897395, 4111.15384588, 4127.17948691, 4116.79487152, 4133.84615357, 4133.46153819, 4192.56410243,8.57
4116.28205101, 4120.25640998, 4122.94871767, 4100.25640991, 4124.10256383, 4114.61538434, 4102.43589709, 4061.92307651, 4104.10256383, 4126.92307665, 4114.99999973, 4118.20512793, 4126.28205101, 4181.53846140,8.57
4130.64102537, 4130.51282024, 4130.51282024, 4109.74358947, 4126.15384588, 4107.17948691, 4099.23076889, 4065.25640984, 4113.07692280, 4126.28205101, 4117.94871767, 4132.69230742, 4135.25640998, 4194.48717935,8.57
4125.12820485, 4127.17948691, 4123.20512793, 4117.82051255, 4125.51282024, 4105.38461511, 4106.02564075, 4069.74358940, 4116.92307665, 4127.30769203, 4116.79487152, 4128.07692280, 4132.69230742, 4193.07692294,8.57
4117.05128178, 4120.51282024, 4120.25640998, 4118.84615357, 4122.17948691, 4115.76923050, 4110.25640998, 4071.15384581, 4121.41025614, 4128.33333306, 4118.46153819, 4121.15384588, 4126.41025614, 4190.89743576,8.57
4131.28205101, 4129.23076896, 4129.74358947, 4112.17948691, 4128.20512793, 4117.69230742, 4101.92307658, 4060.64102523, 4116.92307665, 4129.23076896, 4119.87179460, 4136.15384595, 4134.87179460, 4196.79487166,8.57
4118.20512793, 4119.74358947, 4113.84615357, 4120.89743562, 4126.15384588, 4127.94871767, 4116.53846126, 4085.25640991, 4130.89743562, 4127.43589716, 4117.82051255, 4119.48717921, 4131.66666639, 4189.48717935,8.57
4125.51282024, 4124.61538434, 4122.69230742, 4121.02564075, 4122.82051255, 4122.82051255, 4118.46153819, 4098.58974325, 4128.84615357, 4125.12820485, 4121.02564075, 4135.12820485, 4134.23076896, 4197.17948704,8.57
4123.20512793, 4123.84615357, 4127.05128178, 4106.66666639, 4122.56410229, 4104.35897408, 4101.15384581, 4069.87179453, 4098.58974325, 4126.15384588, 4118.07692280, 4130.64102537, 4131.66666639, 4188.97435884,8.57
4115.76923050, 4113.97435870, 4119.74358947, 4109.61538434, 4123.20512793, 4105.51282024, 4101.41025607, 4058.20512779, 4094.61538427, 4130.12820485, 4116.66666639, 4113.46153819, 4129.23076896, 4188.84615371,8.57
4129.74358947, 4123.20512793, 4126.66666639, 4122.69230742, 4127.56410229, 4112.30769203, 4104.10256383, 4062.56410215, 4110.25640998, 4131.92307665, 4119.23076896, 4133.84615357, 4135.64102544, 4202.05128199,8.57
4113.97435870, 4119.61538434, 4115.51282024, 4124.23076896, 4123.46153819, 4108.84615357, 4099.10256376, 4060.76923036, 4110.64102537, 4125.76923050, 4113.97435870, 4117.69230742, 4125.76923050, 4188.20512807,8.57
4119.87179460, 4123.07692280, 4122.94871767, 4116.41025614, 4123.97435870, 4103.71794844, 4093.20512786, 4052.69230728, 4096.28205094, 4124.99999973, 4114.10256383, 4121.92307665, 4130.89743562, 4190.76923063,8.57
4125.25640998, 4124.23076896, 4124.87179460, 4113.07692280, 4127.43589716, 4108.20512793, 4091.41025607, 4048.20512779, 4093.20512786, 4129.87179460, 4113.97435870, 4124.99999973, 4131.92307665, 4186.79487166,8.57
4113.58974332, 4116.66666639, 4114.74358947, 4108.58974332, 4124.61538434, 4106.15384588, 4092.17948684, 4045.64102523, 4089.74358940, 4127.56410229, 4110.12820485, 4111.28205101, 4122.82051255, 4182.69230756,8.57
4127.43589716, 4125.38461511, 4128.07692280, 4108.07692280, 4127.82051255, 4093.33333299, 4091.02564068, 4046.15384574, 4083.46153812, 4128.20512793, 4113.33333306, 4130.25640998, 4132.05128178, 4195.38461525,8.57
4117.94871767, 4121.66666639, 4121.15384588, 4120.51282024, 4127.17948691, 4095.89743555, 4093.97435863, 4057.17948677, 4100.12820478, 4131.92307665, 4114.99999973, 4116.15384588, 4127.82051255, 4183.58974345,8.57
4121.02564075, 4125.38461511, 4124.23076896, 4126.53846126, 4123.97435870, 4109.48717921, 4103.33333306, 4069.99999966, 4119.61538434, 4128.33333306, 4116.02564075, 4122.05128178, 4130.38461511, 4188.97435884,8.57
4128.84615357, 4128.84615357, 4129.99999973, 4117.94871767, 4122.69230742, 4109.61538434, 4106.66666639, 4068.33333292, 4112.43589716, 4123.20512793, 4116.41025614, 4134.10256383, 4133.84615357, 4191.79487166,8.57
4117.82051255, 4120.25640998, 4118.58974332, 4109.35897408, 4122.69230742, 4102.82051255, 4096.41025607, 4050.51282010, 4090.76923043, 4126.41025614, 4116.02564075, 4116.53846126, 4125.89743562, 4183.71794858,8.57
4131.02564075, 4130.64102537, 4130.51282024, 4106.02564075, 4128.07692280, 4099.23076889, 4086.92307658, 4041.28205087, 4080.51282017, 4130.38461511, 4118.58974332, 4135.51282031, 4134.99999973, 4198.71794858,8.57
4119.99999973, 4122.69230742, 4123.71794844, 4119.74358947, 4125.25640998, 4106.66666639, 4101.41025607, 4064.10256369, 4100.89743555, 4127.43589716, 4119.35897408, 4128.33333306, 4131.66666639, 4193.58974345,8.57
4119.87179460, 4118.97435870, 4119.87179460, 4143.20512800, 4120.51282024, 4123.71794844, 4124.23076896, 4094.61538427, 4137.30769210, 4128.46153819, 4124.61538434, 4123.20512793, 4131.53846126, 4193.20512807,8.57
4133.33333306, 4129.23076896, 4128.84615357, 4127.43589716, 4124.61538434, 4116.02564075, 4111.28205101, 4078.20512786, 4127.17948691, 4131.02564075, 4121.02564075, 4133.33333306, 4137.05128185, 4194.99999986,8.57
4118.33333306, 4119.23076896, 4120.12820485, 4097.69230735, 4124.99999973, 4096.28205094, 4089.23076889, 4046.41025600, 4088.33333299, 4129.35897408, 4110.64102537, 4115.25640998, 4129.35897408, 4187.82051269,8.57
4127.56410229, 4124.23076896, 4127.94871767, 4113.20512793, 4122.94871767, 4099.48717914, 4097.30769196, 4056.41025600, 4094.35897402, 4127.43589716, 4114.87179460, 4129.87179460, 4134.35897408, 4200.76923063,8.57
4124.48717921, 4124.48717921, 4124.99999973, 4139.35897415, 4121.79487152, 4119.61538434, 4117.30769203, 4088.71794837, 4134.87179460, 4124.61538434, 4118.84615357, 4125.38461511, 4130.25640998, 4192.56410243,8.57
4118.33333306, 4118.46153819, 4120.51282024, 4135.25640998, 4124.87179460, 4129.10256383, 4121.92307665, 4092.94871761, 4137.82051262, 4127.17948691, 4118.84615357, 4119.61538434, 4127.30769203, 4188.33333320,8.57
4128.84615357, 4125.76923050, 4124.99999973, 4128.07692280, 4128.46153819, 4123.97435870, 4115.38461511, 4072.43589709, 4110.51282024, 4131.02564075, 4119.48717921, 4131.15384588, 4133.20512793, 4195.38461525,8.57
4117.30769203, 4122.05128178, 4117.05128178, 4141.79487159, 4123.33333306, 4125.38461511, 4120.12820485, 4080.12820478, 4120.89743562, 4128.07692280, 4119.61538434, 4110.38461511, 4125.25640998, 4185.25641012,8.57
4123.33333306, 4124.99999973, 4129.23076896, 4147.69230749, 4125.89743562, 4125.25640998, 4118.84615357, 4089.61538427, 4132.82051255, 4128.46153819, 4124.10256383, 4125.51282024, 4133.20512793, 4190.64102551,8.57
4121.15384588, 4122.56410229, 4125.25640998, 4144.35897415, 4126.66666639, 4128.20512793, 4117.30769203, 4080.12820478, 4118.33333306, 4129.99999973, 4118.71794844, 4127.43589716, 4134.35897408, 4185.25641012,8.57
4119.48717921, 4123.07692280, 4118.20512793, 4146.92307672, 4120.51282024, 4129.35897408, 4124.23076896, 4084.87179453, 4121.66666639, 4126.53846126, 4115.89743562, 4115.12820485, 4127.43589716, 4185.51282038,8.57
4131.66666639, 4131.41025614, 4130.12820485, 4144.48717928, 4123.84615357, 4117.94871767, 4118.46153819, 4087.82051248, 4131.41025614, 4127.69230742, 4123.58974332, 4129.23076896, 4131.66666639, 4192.94871781,8.57
4114.61538434, 4116.02564075, 4115.64102537, 4140.64102544, 4123.07692280, 4118.20512793, 4115.25640998, 4076.79487145, 4123.46153819, 4129.74358947, 4120.64102537, 4113.58974332, 4125.64102537, 4180.25641012,8.57
4124.48717921, 4124.61538434, 4122.30769203, 4140.38461518, 4123.71794844, 4123.20512793, 4117.05128178, 4071.92307658, 4114.61538434, 4128.20512793, 4119.10256383, 4126.79487152, 4131.15384588, 4193.97435884,8.57
4124.10256383, 4128.46153819, 4124.74358947, 4149.23076903, 4124.99999973, 4133.46153819, 4129.48717921, 4098.97435863, 4136.28205108, 4126.92307665, 4123.07692280, 4130.64102537, 4131.15384588, 4194.61538448,8.57
4110.64102537, 4113.84615357, 4112.69230742, 4153.71794851, 4121.79487152, 4144.48717928, 4146.79487159, 4124.48717921, 4162.05128185, 4125.51282024, 4125.51282024, 4117.56410229, 4126.92307665, 4185.51282038,8.57
4133.20512793, 4128.84615357, 4126.28205101, 4144.74358954, 4126.92307665, 4138.58974339, 4142.43589723, 4109.74358947, 4153.58974339, 4127.56410229, 4124.99999973, 4138.84615364, 4137.56410236, 4200.12820499,8.57
4117.05128178, 4122.94871767, 4115.64102537, 4151.41025621, 4125.38461511, 4134.87179460, 4132.56410229, 4091.66666632, 4138.58974339, 4131.41025614, 4121.02564075, 4114.99999973, 4127.17948691, 4190.89743576,8.57
4119.35897408, 4124.48717921, 4125.64102537, 4161.79487159, 4125.76923050, 4130.38461511, 4126.92307665, 4087.69230735, 4132.43589716, 4130.25640998, 4124.74358947, 4122.05128178, 4129.10256383, 4194.99999986,8.57
4133.58974332, 4131.53846126, 4135.76923056, 4152.43589723, 4129.99999973, 4119.48717921, 4121.53846126, 4088.07692273, 4133.58974332, 4125.89743562, 4124.74358947, 4139.74358954, 4136.02564082, 4197.30769217,8.57
4114.48717921, 4115.89743562, 4114.48717921, 4138.97435877, 4122.69230742, 4112.94871767, 4113.33333306, 4084.23076889, 4131.28205101, 4124.23076896, 4119.35897408, 4112.94871767, 4127.94871767, 4190.38461525,8.57
4128.33333306, 4128.84615357, 4124.61538434, 4143.71794851, 4120.38461511, 4118.97435870, 4113.33333306, 4081.41025607, 4125.76923050, 4128.97435870, 4121.15384588, 4133.07692280, 4136.28205108, 4204.35897429,8.57
4117.43589716, 4124.99999973, 4120.38461511, 4159.35897415, 4121.66666639, 4137.43589723, 4130.76923050, 4091.66666632, 4134.48717921, 4130.12820485, 4121.53846126, 4124.23076896, 4129.87179460, 4188.46153833,8.57
4116.02564075, 4118.71794844, 4119.99999973, 4156.53846133, 4123.97435870, 4137.56410236, 4129.61538434, 4093.97435863, 4138.33333313, 4127.17948691, 4122.56410229, 4118.33333306, 4128.58974332, 4187.82051269,8.57
4129.74358947, 4127.69230742, 4126.79487152, 4148.97435877, 4126.92307665, 4131.79487152, 4127.94871767, 4103.97435870, 4146.53846133, 4126.15384588, 4120.25640998, 4130.89743562, 4136.28205108, 4197.69230756,8.57
4108.20512793, 4116.79487152, 4113.20512793, 4156.92307672, 4123.33333306, 4147.43589723, 4158.46153826, 4134.87179460, 4171.02564089, 4125.76923050, 4114.61538434, 4108.46153819, 4126.53846126, 4184.99999986,8.57
4121.15384588, 4124.61538434, 4125.51282024, 4152.30769210, 4124.99999973, 4144.10256390, 4157.82051262, 4124.74358947, 4159.74358954, 4127.43589716, 4117.17948691, 4128.71794844, 4131.28205101, 4195.89743576,8.57
4119.99999973, 4125.38461511, 4121.53846126, 4137.94871774, 4126.66666639, 4127.17948691, 4125.25640998, 4092.30769196, 4130.64102537, 4127.56410229, 4115.51282024, 4121.66666639, 4128.20512793, 4189.48717935,8.57
4115.38461511, 4122.05128178, 4121.02564075, 4131.66666639, 4126.79487152, 4126.41025614, 4121.02564075, 4097.05128171, 4132.56410229, 4127.17948691, 4111.41025614, 4108.07692280, 4126.15384588, 4186.02564089,8.57
4126.41025614, 4129.35897408, 4133.84615357, 4138.71794851, 4128.71794844, 4134.74358947, 4141.66666646, 4120.89743562, 4151.66666646, 4127.05128178, 4113.58974332, 4124.99999973, 4132.43589716, 4190.12820499,8.57
4113.46153819, 4121.92307665, 4120.38461511, 4173.46153833, 4123.58974332, 4157.43589723, 4162.17948697, 4134.35897408, 4172.30769217, 4127.30769203, 4117.69230742, 4114.23076896, 4123.58974332, 4178.97435884,8.57
4128.97435870, 4131.92307665, 4128.58974332, 4178.20512807, 4124.23076896, 4162.30769210, 4157.17948697, 4118.20512793, 4162.17948697, 4131.15384588, 4120.38461511, 4132.05128178, 4131.92307665, 4194.99999986,8.57
4128.20512793, 4129.99999973, 4126.92307665, 4137.05128185, 4125.12820485, 4138.07692287, 4138.46153826, 4098.58974325, 4137.82051262, 4129.61538434, 4115.89743562, 4126.66666639, 4131.79487152, 4193.84615371,8.57
4120.76923050, 4123.07692280, 4120.64102537, 4127.17948691, 4123.84615357, 4127.82051255, 4129.23076896, 4097.69230735, 4140.51282031, 4125.51282024, 4117.94871767, 4117.30769203, 4124.99999973, 4187.17948704,8.57
4131.02564075, 4132.05128178, 4129.87179460, 4151.15384595, 4128.97435870, 4141.66666646, 4139.23076903, 4105.12820485, 4154.48717928, 4128.46153819, 4121.28205101, 4139.35897415, 4133.07692280, 4195.64102551,8.57
4112.56410229, 4119.61538434, 4116.15384588, 4147.30769210, 4126.02564075, 4145.76923056, 4151.79487159, 4115.64102537, 4154.74358954, 4129.74358947, 4113.97435870, 4121.15384588, 4128.58974332, 4189.10256397,8.57
4124.99999973, 4125.64102537, 4124.61538434, 4125.89743562, 4125.12820485, 4133.20512793, 4145.25641005, 4118.07692280, 4144.10256390, 4128.33333306, 4114.35897408, 4129.48717921, 4131.53846126, 4196.15384602,8.57
4132.05128178, 4129.23076896, 4128.20512793, 4142.43589723, 4126.41025614, 4145.51282031, 4154.35897415, 4132.30769203, 4161.66666646, 4130.25640998, 4116.53846126, 4130.51282024, 4130.12820485, 4193.71794858,8.57
4114.61538434, 4117.05128178, 4116.53846126, 4162.82051262, 4122.05128178, 4158.33333313, 4166.53846133, 4142.43589723, 4181.02564089, 4130.38461511, 4116.53846126, 4116.02564075, 4128.71794844, 4193.07692294,8.57
4123.07692280, 4124.99999973, 4124.10256383, 4153.20512800, 4124.35897408, 4143.84615364, 4152.82051262, 4129.48717921, 4169.48717935, 4127.30769203, 4117.82051255, 4132.17948691, 4140.38461518, 4200.64102551,8.57
4115.76923050, 4120.25640998, 4115.76923050, 4153.58974339, 4124.35897408, 4143.71794851, 4152.30769210, 4128.07692280, 4166.02564082, 4125.89743562, 4116.79487152, 4111.41025614, 4129.48717921, 4185.89743576,8.57
4121.79487152, 4122.56410229, 4122.43589716, 4170.51282038, 4126.02564075, 4161.92307672, 4174.61538448, 4143.97435877, 4181.92307679, 4128.46153819, 4120.64102537, 4119.10256383, 4126.28205101, 4192.69230756,8.57
4123.46153819, 4126.02564075, 4126.66666639, 4166.92307672, 4128.58974332, 4162.69230749, 4177.30769217, 4147.43589723, 4191.15384602, 4127.94871767, 4118.20512793, 4130.38461511, 4130.25640998, 4191.92307679,8.57
4109.61538434, 4117.30769203, 4114.99999973, 4145.25641005, 4123.97435870, 4140.38461518, 4149.61538441, 4127.82051255, 4182.30769217, 4124.74358947, 4113.33333306, 4108.97435870, 4126.53846126, 4182.30769217,8.57
4126.66666639, 4126.92307665, 4126.79487152, 4142.43589723, 4125.12820485, 4127.30769203, 4130.64102537, 4106.92307665, 4161.53846133, 4127.30769203, 4116.92307665, 4126.41025614, 4132.17948691, 4195.51282038,8.57
4118.84615357, 4122.94871767, 4121.15384588, 4152.30769210, 4125.51282024, 4141.66666646, 4149.74358954, 4114.35897408, 4152.17948697, 4128.84615357, 4114.61538434, 4118.58974332, 4125.25640998, 4187.30769217,8.57
4116.53846126, 4121.92307665, 4122.82051255, 4149.23076903, 4123.97435870, 4148.84615364, 4164.35897415, 4130.89743562, 4154.23076903, 4127.56410229, 4114.35897408, 4117.30769203, 4128.20512793, 4188.84615371,8.57
4126.15384588, 4127.17948691, 4130.51282024, 4148.20512800, 4125.89743562, 4147.05128185, 4161.02564082, 4133.97435870, 4158.07692287, 4127.56410229, 4118.71794844, 4129.35897408, 4133.97435870, 4192.56410243,8.57
4116.28205101, 4120.51282024, 4119.61538434, 4160.89743569, 4124.74358947, 4166.02564082, 4177.56410243, 4144.74358954, 4173.71794858, 4126.66666639, 4119.23076896, 4116.53846126, 4126.28205101, 4185.64102551,8.57
4129.99999973, 4132.30769203, 4129.99999973, 4157.30769210, 4124.87179460, 4168.33333320, 4181.53846140, 4150.51282031, 4180.51282038, 4126.53846126, 4121.41025614, 4132.56410229, 4135.64102544, 4197.56410243,8.57
4124.74358947, 4126.02564075, 4125.25640998, 4144.87179467, 4122.69230742, 4151.53846133, 4160.12820492, 4134.23076896, 4166.92307672, 4126.41025614, 4118.58974332, 4123.71794844, 4131.41025614, 4188.20512807,8.57
4121.66666639, 4116.92307665, 4121.66666639, 4157.30769210, 4124.74358947, 4165.12820492, 4162.69230749, 4130.64102537, 4169.74358961, 4127.30769203, 4118.71794844, 4121.53846126, 4125.89743562, 4189.87179474,8.57
4130.64102537, 4125.89743562, 4128.33333306, 4171.92307679, 4128.46153819, 4181.02564089, 4179.99999986, 4146.92307672, 4189.35897422, 4130.51282024, 4124.87179460, 4139.48717928, 4133.71794844, 4199.48717935,8.57
4115.51282024, 4119.74358947, 4116.92307665, 4163.46153826, 4123.46153819, 4167.30769210, 4171.79487166, 4148.33333313, 4191.41025628, 4130.64102537, 4123.58974332, 4124.99999973, 4131.79487152, 4189.99999986,8.57
4127.56410229, 4124.61538434, 4125.64102537, 4150.38461518, 4126.79487152, 4154.74358954, 4156.41025621, 4141.41025621, 4180.25641012, 4128.33333306, 4121.28205101, 4140.25641005, 4139.35897415, 4200.76923063,8.57
4124.35897408, 4123.20512793, 4121.66666639, 4148.46153826, 4127.17948691, 4165.38461518, 4171.15384602, 4161.92307672, 4185.76923063, 4126.66666639, 4118.46153819, 4130.25640998, 4133.71794844, 4197.30769217,8.57
4115.12820485, 4121.66666639, 4115.89743562, 4144.99999980, 4119.99999973, 4161.53846133, 4180.89743576, 4170.76923063, 4184.23076910, 4127.17948691, 4120.51282024, 4115.89743562, 4129.61538434, 4194.10256397,8.57
4128.71794844, 4130.89743562, 4127.56410229, 4146.41025621, 4123.58974332, 4152.56410236, 4177.05128192, 4154.99999980, 4174.61538448, 4129.10256383, 4124.87179460, 4133.71794844, 4137.69230749, 4200.38461525,8.57
4115.89743562, 4118.97435870, 4119.74358947, 4159.48717928, 4124.10256383, 4171.53846140, 4188.84615371, 4162.17948697, 4183.97435884, 4128.07692280, 4122.30769203, 4113.84615357, 4124.48717921, 4187.82051269,8.57
4122.69230742, 4123.07692280, 4126.28205101, 4155.38461518, 4124.48717921, 4175.12820499, 4188.07692294, 4169.10256397, 4181.15384602, 4126.53846126, 4121.79487152, 4122.82051255, 4127.30769203, 4195.51282038,8.57
4122.56410229, 4127.17948691, 4123.97435870, 4150.25641005, 4127.17948691, 4167.17948697, 4177.56410243, 4157.05128185, 4174.99999986, 4126.02564075, 4120.51282024, 4126.92307665, 4132.82051255, 4193.07692294,8.57
4112.17948691, 4120.12820485, 4116.41025614, 4164.23076903, 4127.43589716, 4173.07692294, 4174.35897422, 4143.97435877, 4181.79487166, 4127.56410229, 4121.28205101, 4113.84615357, 4128.20512793, 4186.02564089,8.57
4127.17948691, 4126.53846126, 4128.71794844, 4159.61538441, 4128.58974332, 4170.64102551, 4163.84615364, 4131.79487152, 4171.15384602, 4130.51282024, 4121.15384588, 4129.10256383, 4132.30769203, 4192.43589730,8.57
4118.58974332, 4119.87179460, 4118.33333306, 4145.51282031, 4124.23076896, 4167.82051262, 4167.05128185, 4142.05128185, 4169.48717935, 4127.43589716, 4115.38461511, 4112.17948691, 4125.76923050, 4181.79487166,8.57
4122.56410229, 4125.38461511, 4125.64102537, 4149.48717928, 4125.12820485, 4169.61538448, 4178.84615371, 4157.43589723, 4183.97435884, 4126.66666639, 4118.84615357, 4119.48717921, 4127.69230742, 4188.71794858,8.57
4124.61538434, 4129.61538434, 4132.82051255, 4155.64102544, 4128.58974332, 4169.87179474, 4178.84615371, 4153.33333313, 4183.71794858, 4129.48717921, 4120.12820485, 4127.43589716, 4128.20512793, 4187.82051269,8.57
4116.66666639, 4119.74358947, 4121.15384588, 4164.10256390, 4124.48717921, 4182.94871781, 4194.23076910, 4173.84615371, 4198.71794858, 4128.07692280, 4118.84615357, 4112.56410229, 4125.64102537, 4183.97435884,8.57
4133.58974332, 4127.94871767, 4131.79487152, 4172.17948704, 4125.64102537, 4189.61538448, 4208.58974352, 4202.56410250, 4223.33333327, 4127.82051255, 4124.10256383, 4133.58974332, 4139.10256390, 4200.76923063,8.57
4118.07692280, 4122.43589716, 4122.05128178, 4160.76923056, 4124.23076896, 4166.79487159, 4187.05128192, 4183.71794858, 4206.28205122, 4126.92307665, 4119.35897408, 4122.94871767, 4131.15384588, 4189.87179474,8.57
4117.94871767, 4122.43589716, 4121.15384588, 4149.99999980, 4122.82051255, 4156.53846133, 4170.38461525, 4156.02564082, 4176.15384602, 4126.92307665, 4116.66666639, 4126.02564075, 4127.94871767, 4191.92307679,8.57
4132.05128178, 4129.35897408, 4130.12820485, 4160.76923056, 4125.51282024, 4178.07692294, 4182.69230756, 4157.43589723, 4175.76923063, 4130.76923050, 4120.89743562, 4137.82051262, 4135.76923056, 4198.71794858,8.57
4116.53846126, 4118.46153819, 4118.84615357, 4163.97435877, 4123.71794844, 4183.71794858, 4184.48717935, 4159.74358954, 4183.84615371, 4130.89743562, 4120.51282024, 4115.76923050, 4130.25640998, 4190.38461525,8.57
4125.38461511, 4126.79487152, 4126.66666639, 4155.51282031, 4126.02564075, 4172.05128192, 4176.66666653, 4159.61538441, 4191.15384602, 4127.82051255, 4121.15384588, 4133.33333306, 4133.58974332, 4198.33333320,8.57
4120.89743562, 4126.66666639, 4123.33333306, 4162.43589723, 4126.53846126, 4184.35897422, 4191.53846140, 4174.61538448, 4205.51282045, 4127.05128178, 4119.23076896, 4128.20512793, 4126.53846126, 4188.58974345,8.57
4118.46153819, 4121.53846126, 4124.10256383, 4167.05128185, 4126.15384588, 4196.66666653, 4203.58974352, 4178.46153833, 4200.64102551, 4129.10256383, 4119.87179460, 4121.53846126, 4129.61538434, 4190.64102551,8.57
4128.58974332, 4125.38461511, 4127.94871767, 4155.64102544, 4128.33333306, 4185.25641012, 4196.15384602, 4172.17948704, 4184.74358961, 4128.33333306, 4121.28205101, 4132.82051255, 4139.35897415, 4196.79487166,8.57
4115.38461511, 4117.69230742, 4113.07692280, 4147.17948697, 4122.69230742, 4175.64102551, 4188.20512807, 4169.23076910, 4179.23076910, 4126.79487152, 4115.64102537, 4112.17948691, 4126.02564075, 4182.56410243,8.57
4126.92307665, 4124.23076896, 4124.23076896, 4140.38461518, 4123.07692280, 4166.92307672, 4177.17948704, 4150.25641005, 4163.97435877, 4130.25640998, 4114.61538434, 4124.99999973, 4127.94871767, 4191.28205115,8.57
4123.71794844, 4123.71794844, 4125.89743562, 4148.07692287, 4126.41025614, 4168.20512807, 4183.46153833, 4153.07692287, 4173.58974345, 4129.87179460, 4116.66666639, 4121.15384588, 4127.69230742, 4186.66666653,8.57
4114.23076896, 4121.92307665, 4121.53846126, 4165.12820492, 4126.41025614, 4181.28205115, 4202.05128199, 4184.74358961, 4206.79487173, 4126.28205101, 4119.48717921, 4111.15384588, 4124.48717921, 4182.43589730,8.57
4126.28205101, 4129.48717921, 4126.79487152, 4160.25641005, 4127.69230742, 4182.43589730, 4200.38461525, 4196.53846140, 4211.15384609, 4128.07692280, 4118.33333306, 4126.41025614, 4130.51282024, 4190.89743576,8.57
4119.35897408, 4121.41025614, 4119.61538434, 4153.33333313, 4123.84615357, 4182.05128192, 4196.28205115, 4190.25641012, 4201.92307686, 4128.97435870, 4115.89743562, 4112.94871767, 4128.20512793, 4185.25641012,8.57
4128.58974332, 4130.89743562, 4133.84615357, 4163.97435877, 4124.35897408, 4190.89743576, 4201.92307686, 4183.46153833, 4197.43589730, 4127.17948691, 4121.41025614, 4127.17948691, 4136.79487159, 4195.25641012,8.57
4122.82051255, 4131.28205101, 4128.71794844, 4173.71794858, 4126.02564075, 4198.84615371, 4203.71794865, 4179.10256397, 4191.41025628, 4127.05128178, 4120.12820485, 4126.53846126, 4134.48717921, 4189.10256397,8.57
4116.41025614, 4122.43589716, 4115.64102537, 4172.82051269, 4125.25640998, 4194.35897422, 4194.35897422, 4172.94871781, 4189.35897422, 4128.33333306, 4118.58974332, 4116.66666639, 4129.10256383, 4185.64102551,8.57
4134.35897408, 4131.02564075, 4130.64102537, 4183.46153833, 4127.82051255, 4198.71794858, 4198.20512807, 4174.74358961, 4203.46153840, 4128.20512793, 4123.97435870, 4136.79487159, 4137.17948697, 4198.97435884,8.57
4115.38461511, 4117.69230742, 4119.74358947, 4196.92307679, 4123.71794844, 4219.61538455, 4218.97435891, 4188.07692294, 4215.64102558, 4126.53846126, 4122.05128178, 4118.46153819, 4128.20512793, 4186.66666653,8.57
4121.02564075, 4119.74358947, 4122.30769203, 4170.64102551, 4124.74358947, 4202.17948711, 4205.51282045, 4181.02564089, 4196.28205115, 4127.43589716, 4120.12820485, 4127.43589716, 4131.02564075, 4190.51282038,8.57
4130.64102537, 4127.56410229, 4127.94871767, 4147.17948697, 4128.58974332, 4173.84615371, 4189.23076910, 4175.89743576, 4186.02564089, 4127.43589716, 4118.84615357, 4132.56410229, 4135.64102544, 4194.23076910,8.57
4113.58974332, 4116.41025614, 4115.76923050, 4164.48717928, 4123.07692280, 4191.92307679, 4211.15384609, 4196.15384602, 4205.38461532, 4127.05128178, 4119.74358947, 4115.51282024, 4128.20512793, 4192.30769217,8.57
4125.25640998, 4124.23076896, 4124.87179460, 4165.38461518, 4124.87179460, 4202.43589737, 4214.74358968, 4190.64102551, 4199.23076910, 4127.05128178, 4120.76923050, 4136.66666646, 4132.30769203, 4200.64102551,8.57
4117.17948691, 4121.53846126, 4119.87179460, 4162.56410236, 4125.51282024, 4199.99999986, 4214.74358968, 4187.05128192, 4198.33333320, 4124.10256383, 4118.07692280, 4118.07692280, 4126.92307665, 4188.07692294,8.57
4114.99999973, 4121.53846126, 4120.89743562, 4183.07692294, 4123.84615357, 4212.17948711, 4229.99999993, 4211.41025634, 4228.58974352, 4127.05128178, 4123.97435870, 4115.64102537, 4130.64102537, 4193.46153833,8.57
4121.66666639, 4125.25640998, 4121.02564075, 4173.84615371, 4125.76923050, 4203.58974352, 4212.56410250, 4198.71794858, 4225.25641019, 4131.92307665, 4123.33333306, 4131.66666639, 4133.07692280, 4196.02564089,8.57
4113.58974332, 4117.43589716, 4112.05128178, 4149.74358954, 4123.97435870, 4180.89743576, 4188.58974345, 4173.58974345, 4199.23076910, 4128.20512793, 4116.92307665, 4113.46153819, 4122.17948691, 4185.76923063,8.57
4124.35897408, 4125.51282024, 4126.28205101, 4153.33333313, 4125.25640998, 4178.07692294, 4195.25641012, 4181.28205115, 4196.79487166, 4127.05128178, 4121.02564075, 4125.64102537, 4129.61538434, 4195.64102551,8.57
4117.94871767, 4124.35897408, 4121.92307665, 4163.46153826, 4124.99999973, 4196.02564089, 4212.94871788, 4198.46153833, 4215.89743583, 4128.07692280, 4120.12820485, 4122.69230742, 4128.97435870, 4189.48717935,8.57
4118.97435870, 4124.87179460, 4123.58974332, 4160.25641005, 4123.71794844, 4203.58974352, 4212.94871788, 4195.64102551, 4219.48717942, 4126.15384588, 4119.48717921, 4120.64102537, 4128.07692280, 4188.20512807,8.57
4128.97435870, 4128.71794844, 4132.69230742, 4162.30769210, 4126.15384588, 4199.99999986, 4210.64102558, 4192.82051269, 4204.99999993, 4127.05128178, 4122.94871767, 4127.17948691, 4131.15384588, 4188.84615371,8.57
4121.92307665, 4123.20512793, 4124.23076896, 4170.76923063, 4127.05128178, 4207.05128199, 4220.64102558, 4201.53846147, 4198.71794858, 4126.92307665, 4121.79487152, 4114.23076896, 4123.97435870, 4183.84615371,8.57
4127.94871767, 4129.35897408, 4131.28205101, 4165.76923056, 4127.17948691, 4211.53846147, 4219.74358968, 4197.43589730, 4194.87179474, 4125.38461511, 4120.12820485, 4127.94871767, 4131.28205101, 4193.46153833,8.57
4121.53846126, 4124.48717921, 4124.48717921, 4165.38461518, 4122.43589716, 4216.02564096, 4222.05128199, 4200.12820499, 4204.23076917, 4125.76923050, 4119.99999973, 4122.05128178, 4131.41025614, 4186.92307679,8.57
4122.43589716, 4124.35897408, 4121.66666639, 4173.71794858, 4123.20512793, 4216.15384609, 4233.07692301, 4216.53846147, 4220.38461532, 4129.35897408, 4124.87179460, 4121.92307665, 4130.89743562, 4191.41025628,8.57
4128.71794844, 4131.15384588, 4130.76923050, 4174.35897422, 4128.20512793, 4209.10256404, 4235.64102564, 4225.89743583, 4229.99999993, 4129.74358947, 4127.43589716, 4138.58974339, 4134.48717921, 4198.71794858,8.57
4115.64102537, 4118.71794844, 4120.25640998, 4164.87179467, 4122.82051255, 4202.69230763, 4226.15384609, 4216.92307686, 4229.61538455, 4127.30769203, 4124.23076896, 4122.56410229, 4125.89743562, 4188.33333320,8.57
4127.94871767, 4124.87179460, 4126.15384588, 4157.69230749, 4123.20512793, 4197.69230756, 4213.97435891, 4195.12820499, 4215.51282045, 4128.33333306, 4124.61538434, 4134.10256383, 4132.94871767, 4197.43589730,8.57
4125.38461511, 4126.41025614, 4126.66666639, 4166.28205108, 4126.15384588, 4206.41025634, 4221.92307686, 4199.48717935, 4213.46153840, 4127.56410229, 4124.23076896, 4130.76923050, 4131.53846126, 4193.07692294,8.57
4115.76923050, 4117.56410229, 4120.25640998, 4166.92307672, 4124.10256383, 4217.05128199, 4232.05128199, 4211.53846147, 4218.58974352, 4127.43589716, 4124.35897408, 4119.35897408, 4127.17948691, 4190.12820499,8.57
4128.97435870, 4125.51282024, 4124.61538434, 4143.46153826, 4127.43589716, 4207.69230763, 4218.97435891, 4189.10256397, 4202.30769224, 4129.23076896, 4124.35897408, 4136.28205108, 4136.02564082, 4198.20512807,8.57
4117.30769203, 4120.89743562, 4114.48717921, 4131.28205101, 4126.79487152, 4197.17948704, 4208.46153840, 4178.71794858, 4194.48717935, 4127.69230742, 4120.12820485, 4116.79487152, 4127.94871767, 4187.82051269,8.57
4122.05128178, 4124.35897408, 4121.92307665, 4151.79487159, 4126.92307665, 4212.30769224, 4228.46153840, 4215.89743583, 4221.92307686, 4128.20512793, 4125.25640998, 4122.94871767, 4131.79487152, 4196.15384602,8.57
4124.99999973, 4126.41025614, 4122.43589716, 4155.38461518, 4127.30769203, 4221.41025634, 4238.97435898, 4224.48717942, 4224.48717942, 4130.38461511, 4125.12820485, 4128.84615357, 4137.43589723, 4194.74358961,8.57
4113.84615357, 4115.64102537, 4115.38461511, 4126.41025614, 4124.61538434, 4189.10256397, 4202.05128199, 4175.89743576, 4182.17948704, 4129.61538434, 4116.41025614, 4112.17948691, 4130.38461511, 4185.76923063,8.57
4127.94871767, 4123.46153819, 4130.64102537, 4123.58974332, 4128.46153819, 4168.97435884, 4182.69230756, 4161.15384595, 4173.33333320, 4131.02564075, 4122.69230742, 4128.84615357, 4131.92307665, 4195.25641012,8.57
4117.82051255, 4120.64102537, 4122.94871767, 4149.10256390, 4126.79487152, 4198.58974345, 4217.82051275, 4199.35897422, 4211.53846147, 4131.28205101, 4128.97435870, 4115.38461511, 4125.76923050, 4185.89743576,8.57
4119.87179460, 4119.99999973, 4124.87179460, 4147.30769210, 4125.76923050, 4211.02564096, 4231.66666660, 4207.82051275, 4218.84615378, 4128.46153819, 4127.05128178, 4119.99999973, 4129.99999973, 4189.35897422,8.57
4131.15384588, 4124.35897408, 4131.15384588, 4130.89743562, 4129.10256383, 4191.66666653, 4208.58974352, 4186.28205115, 4198.46153833, 4127.94871767, 4123.33333306, 4128.58974332, 4132.82051255, 4189.48717935,8.57
4120.38461511, 4121.79487152, 4123.84615357, 4134.87179460, 4127.69230742, 4200.51282038, 4210.76923070, 4193.33333320, 4206.66666660, 4126.41025614, 4121.66666639, 4106.66666639, 4123.07692280, 4180.76923063,8.57
4129.35897408, 4131.79487152, 4135.89743569, 4138.71794851, 4129.10256383, 4217.69230763, 4224.87179481, 4205.38461532, 4214.99999993, 4128.20512793, 4123.58974332, 4127.30769203, 4132.17948691, 4195.89743576,8.57
4118.84615357, 4121.41025614, 4121.66666639, 4130.38461511, 4124.87179460, 4206.53846147, 4216.79487173, 4198.46153833, 4209.48717942, 4131.66666639, 4121.15384588, 4127.82051255, 4131.66666639, 4188.71794858,8.57
4122.17948691, 4123.33333306, 4118.58974332, 4116.28205101, 4121.53846126, 4185.76923063, 4197.69230756, 4183.20512807, 4205.38461532, 4130.76923050, 4121.15384588, 4129.99999973, 4132.56410229, 4189.87179474,8.57
4133.46153819, 4134.87179460, 4132.17948691, 4114.10256383, 4125.51282024, 4181.92307679, 4189.10256397, 4169.74358961, 4187.82051269, 4127.82051255, 4119.23076896, 4138.71794851, 4137.30769210, 4197.69230756,8.57
4112.30769203, 4115.12820485, 4115.12820485, 4130.12820485, 4123.20512793, 4193.71794858, 4199.48717935, 4174.99999986, 4182.69230756, 4125.89743562, 4116.92307665, 4115.64102537, 4126.53846126, 4188.20512807,8.57
4133.07692280, 4122.17948691, 4124.74358947, 4138.20512800, 4128.20512793, 4197.30769217, 4209.74358968, 4193.33333320, 4214.48717942, 4127.17948691, 4124.61538434, 4136.79487159, 4134.23076896, 4198.20512807,8.57
4129.87179460, 4126.53846126, 4127.05128178, 4138.20512800, 4130.51282024, 4196.15384602, 4211.66666660, 4199.10256397, 4226.53846147, 4126.53846126, 4122.43589716, 4127.69230742, 4132.69230742, 4190.12820499,8.57
4112.17948691, 4118.71794844, 4118.46153819, 4138.58974339, 4124.99999973, 4195.12820499, 4204.99999993, 4185.76923063, 4189.61538448, 4125.12820485, 4117.30769203, 4114.74358947, 4127.69230742, 4190.89743576,8.57
4127.30769203, 4126.66666639, 4123.46153819, 4148.71794851, 4126.66666639, 4193.07692294, 4203.84615378, 4188.07692294, 4183.20512807, 4125.64102537, 4122.05128178, 4136.79487159, 4135.25640998, 4199.99999986,8.57
4114.61538434, 4117.56410229, 4112.82051255, 4164.10256390, 4124.87179460, 4195.64102551, 4209.87179481, 4199.87179474, 4213.46153840, 4126.79487152, 4122.69230742, 4113.97435870, 4128.58974332, 4181.92307679,8.57
4121.79487152, 4123.84615357, 4123.58974332, 4147.05128185, 4124.74358947, 4188.46153833, 4194.61538448, 4176.66666653, 4194.99999986, 4128.71794844, 4119.87179460, 4121.28205101, 4134.74358947, 4190.89743576,8.57
4123.46153819, 4127.43589716, 4126.02564075, 4137.94871774, 4126.15384588, 4200.51282038, 4201.02564096, 4180.89743576, 4189.10256397, 4128.33333306, 4115.89743562, 4127.17948691, 4132.69230742, 4194.10256397,8.57
4111.79487152, 4117.43589716, 4118.58974332, 4165.12820492, 4124.35897408, 4218.97435891, 4229.74358968, 4221.02564096, 4231.41025634, 4128.20512793, 4117.82051255, 4115.38461511, 4125.51282024, 4188.20512807,8.57
4124.99999973, 4124.61538434, 4127.69230742, 4154.10256390, 4126.02564075, 4196.02564089, 4213.97435891, 4203.84615378, 4220.51282045, 4128.20512793, 4118.84615357, 4125.12820485, 4132.94871767, 4192.17948704,8.57
4117.82051255, 4122.82051255, 4121.66666639, 4119.99999973, 4125.76923050, 4171.41025628, 4187.56410243, 4171.28205115, 4179.48717935, 4126.41025614, 4113.20512793, 4112.56410229, 4127.56410229, 4184.74358961,8.57
4121.79487152, 4124.99999973, 4128.46153819, 4134.35897408, 4128.46153819, 4180.51282038, 4198.71794858, 4191.66666653, 4192.17948704, 4129.10256383, 4117.43589716, 4124.35897408, 4131.66666639, 4193.20512807,8.57
4122.82051255, 4122.05128178, 4126.92307665, 4149.87179467, 4128.07692280, 4195.89743576, 4212.05128199, 4203.71794865, 4216.53846147, 4130.76923050, 4117.17948691, 4124.99999973, 4132.94871767, 4188.58974345,8.57
4119.61538434, 4117.43589716, 4119.61538434, 4127.05128178, 4122.94871767, 4190.38461525, 4206.15384609, 4189.10256397, 4206.15384609, 4128.84615357, 4113.33333306, 4115.89743562, 4129.87179460, 4185.12820499,8.57
4130.89743562, 4128.33333306, 4132.94871767, 4119.35897408, 4125.51282024, 4183.71794858, 4204.99999993, 4195.76923063, 4199.48717935, 4130.38461511, 4119.61538434, 4134.87179460, 4138.07692287, 4196.66666653,8.57
4116.66666639, 4119.61538434, 4122.56410229, 4135.25640998, 4124.48717921, 4194.61538448, 4205.25641019, 4198.20512807, 4206.79487173, 4131.53846126, 4119.87179460, 4121.66666639, 4131.15384588, 4187.30769217,8.57
4122.69230742, 4123.20512793, 4123.97435870, 4134.99999973, 4123.71794844, 4198.07692294, 4193.97435884, 4174.35897422, 4198.20512807, 4130.51282024, 4119.23076896, 4130.25640998, 4133.46153819, 4193.58974345,8.57
4129.10256383, 4130.25640998, 4130.89743562, 4124.61538434, 4126.02564075, 4187.56410243, 4193.46153833, 4181.41025628, 4197.17948704, 4129.35897408, 4119.48717921, 4134.99999973, 4138.46153826, 4193.71794858,8.57
4116.41025614, 4118.58974332, 4119.10256383, 4113.97435870, 4122.69230742, 4173.97435884, 4196.66666653, 4204.23076917, 4210.64102558, 4127.30769203, 4113.97435870, 4117.17948691, 4133.97435870, 4187.69230756,8.57
4128.58974332, 4126.53846126, 4123.97435870, 4098.58974325, 4125.12820485, 4166.92307672, 4185.51282038, 4190.89743576, 4205.51282045, 4129.35897408, 4108.20512793, 4137.30769210, 4138.71794851, 4201.15384609,8.57
4119.10256383, 4124.87179460, 4118.46153819, 4098.71794837, 4125.89743562, 4180.25641012, 4189.61538448, 4178.20512807, 4194.35897422, 4129.23076896, 4106.15384588, 4124.61538434, 4129.10256383, 4192.30769217,8.57
4117.69230742, 4120.89743562, 4123.84615357, 4107.30769203, 4122.30769203, 4188.58974345, 4197.69230756, 4183.46153833, 4190.12820499, 4126.53846126, 4110.38461511, 4123.46153819, 4128.58974332, 4193.84615371,8.57
4127.56410229, 4124.74358947, 4129.87179460, 4108.20512793, 4123.46153819, 4183.33333320, 4195.38461525, 4186.79487166, 4192.05128192, 4127.69230742, 4109.35897408, 4136.53846133, 4134.10256383, 4197.94871781,8.57
4117.69230742, 4121.15384588, 4117.17948691, 4115.12820485, 4125.12820485, 4192.43589730, 4205.89743583, 4192.56410243, 4204.35897429, 4128.33333306, 4107.94871767, 4112.43589716, 4124.61538434, 4188.20512807,8.57
4124.99999973, 4129.10256383, 4127.05128178, 4114.10256383, 4128.71794844, 4192.82051269, 4204.61538455, 4188.07692294, 4202.94871788, 4127.43589716, 4110.12820485, 4123.97435870, 4130.38461511, 4194.10256397,8.57
4118.46153819, 4122.17948691, 4122.82051255, 4101.53846119, 4125.89743562, 4182.82051269, 4198.46153833, 4192.30769217, 4204.23076917, 4127.82051255, 4104.35897408, 4121.66666639, 4129.48717921, 4184.48717935,8.57
4120.89743562, 4120.12820485, 4121.79487152, 4089.61538427, 4122.94871767, 4173.71794858, 4196.15384602, 4199.35897422, 4202.69230763, 4129.99999973, 4105.12820485, 4118.84615357, 4129.35897408, 4187.94871781,8.57
4128.71794844, 4129.87179460, 4129.10256383, 4076.15384581, 4126.15384588, 4164.61538441, 4184.48717935, 4180.25641012, 4181.15384602, 4128.46153819, 4107.30769203, 4128.58974332, 4134.61538434, 4195.51282038,8.57
4111.92307665, 4121.41025614, 4118.07692280, 4083.97435863, 4126.41025614, 4182.30769217, 4198.46153833, 4188.71794858, 4195.12820499, 4124.10256383, 4102.82051255, 4112.43589716, 4127.17948691, 4182.43589730,8.57
4126.92307665, 4127.30769203, 4127.69230742, 4102.56410229, 4128.20512793, 4205.12820506, 4219.74358968, 4214.10256404, 4221.79487173, 4126.92307665, 4108.58974332, 4129.48717921, 4131.92307665, 4189.35897422,8.57
4126.15384588, 4125.64102537, 4126.28205101, 4085.64102530, 4123.97435870, 4191.92307679, 4197.30769217, 4189.99999986, 4196.41025628, 4129.61538434, 4109.87179460, 4127.94871767, 4128.33333306, 4187.94871781,8.57
4115.76923050, 4119.35897408, 4126.41025614, 4070.38461504, 4122.43589716, 4178.84615371, 4181.41025628, 4170.25641012, 4178.71794858, 4128.58974332, 4106.53846126, 4121.53846126, 4127.69230742, 4191.92307679,8.57
4129.23076896, 4126.66666639, 4136.66666646, 4099.87179453, 4127.94871767, 4199.74358961, 4216.79487173, 4203.84615378, 4216.53846147, 4128.07692280, 4110.89743562, 4137.05128185, 4136.66666646, 4197.56410243,8.57
4119.74358947, 4118.46153819, 4115.64102537, 4107.30769203, 4123.07692280, 4194.10256397, 4218.84615378, 4211.02564096, 4222.05128199, 4127.05128178, 4110.25640998, 4115.89743562, 4126.79487152, 4183.58974345,8.57
4125.89743562, 4127.56410229, 4121.41025614, 4083.84615350, 4124.35897408, 4160.76923056, 4176.53846140, 4172.30769217, 4177.43589730, 4128.20512793, 4109.10256383, 4129.23076896, 4130.89743562, 4196.02564089,8.57
4123.84615357, 4131.66666639, 4132.05128178, 4095.51282017, 4127.43589716, 4176.15384602, 4189.61538448, 4181.02564089, 4187.17948704, 4130.25640998, 4112.05128178, 4136.53846133, 4132.05128178, 4195.76923063,8.57
4114.87179460, 4120.12820485, 4120.76923050, 4103.46153819, 4119.87179460, 4194.23076910, 4211.41025634, 4203.58974352, 4216.28205122, 4129.23076896, 4111.53846126, 4123.33333306, 4127.05128178, 4188.46153833,8.57
4130.12820485, 4127.69230742, 4123.71794844, 4070.89743555, 4122.94871767, 4162.30769210, 4175.64102551, 4168.20512807, 4180.38461525, 4127.56410229, 4106.41025614, 4139.35897415, 4135.64102544, 4196.53846140,8.57
4117.05128178, 4121.92307665, 4117.94871767, 4069.87179453, 4126.79487152, 4157.56410236, 4169.10256397, 4153.33333313, 4154.10256390, 4128.71794844, 4103.71794844, 4121.41025614, 4127.82051255, 4186.28205115,8.57
4122.43589716, 4122.69230742, 4125.12820485, 4094.61538427, 4125.12820485, 4182.69230756, 4200.25641012, 4193.20512807, 4184.48717935, 4130.76923050, 4110.51282024, 4125.12820485, 4129.23076896, 4194.61538448,8.57
4129.48717921, 4127.17948691, 4125.76923050, 4081.41025607, 4124.74358947, 4173.33333320, 4195.76923063, 4203.58974352, 4194.99999986, 4129.35897408, 4108.33333306, 4131.66666639, 4134.87179460, 4198.33333320,8.57
4113.84615357, 4119.87179460, 4115.89743562, 4057.30769189, 4123.33333306, 4161.15384595, 4177.56410243, 4176.15384602, 4170.12820499, 4126.66666639, 4102.56410229, 4110.76923050, 4127.43589716, 4188.58974345,8.57
4125.51282024, 4125.51282024, 4130.51282024, 4062.17948677, 4126.53846126, 4174.23076910, 4182.56410243, 4169.23076910, 4167.69230749, 4128.58974332, 4107.82051255, 4127.69230742, 4132.43589716, 4196.28205115,8.57
4120.12820485, 4118.84615357, 4119.87179460, 4079.35897402, 4126.15384588, 4191.53846140, 4202.43589737, 4188.97435884, 4198.07692294, 4129.74358947, 4107.43589716, 4119.23076896, 4127.94871767, 4186.41025628,8.57
4121.28205101, 4122.56410229, 4116.66666639, 4079.61538427, 4125.51282024, 4188.71794858, 4208.46153840, 4198.07692294, 4208.33333327, 4128.97435870, 4106.79487152, 4120.51282024, 4129.74358947, 4187.69230756,8.57
4127.43589716, 4130.51282024, 4126.66666639, 4073.33333299, 4127.82051255, 4171.15384602, 4195.76923063, 4191.41025628, 4197.05128192, 4128.33333306, 4109.35897408, 4129.48717921, 4132.43589716, 4190.12820499,8.57
4112.17948691, 4118.84615357, 4120.89743562, 4067.43589702, 4124.48717921, 4166.28205108, 4190.12820499, 4186.79487166, 4192.05128192, 4124.99999973, 4109.35897408, 4107.82051255, 4122.30769203, 4183.33333320,8.57
4126.15384588, 4128.97435870, 4130.89743562, 4052.82051241, 4124.99999973, 4163.71794851, 4182.17948704, 4176.02564089, 4181.15384602, 4126.15384588, 4111.66666639, 4129.48717921, 4131.53846126, 4196.15384602,8.57
4125.25640998, 4128.58974332, 4122.69230742, 4053.07692266, 4122.82051255, 4166.66666646, 4181.41025628, 4178.71794858, 4184.87179474, 4128.58974332, 4111.15384588, 4130.12820485, 4129.74358947, 4185.64102551,8.57
4123.58974332, 4124.10256383, 4122.69230742, 4076.28205094, 4123.07692280, 4181.92307679, 4203.07692301, 4202.56410250, 4210.76923070, 4127.69230742, 4113.20512793, 4122.05128178, 4128.33333306, 4185.38461525,8.57
4132.17948691, 4131.15384588, 4132.05128178, 4084.87179453, 4128.58974332, 4178.07692294, 4201.66666660, 4201.53846147, 4209.10256404, 4128.71794844, 4113.33333306, 4135.76923056, 4136.02564082, 4197.17948704,8.57
4115.76923050, 4121.92307665, 4114.35897408, 4063.84615343, 4124.99999973, 4153.84615364, 4168.84615371, 4170.76923063, 4177.05128192, 4129.61538434, 4109.23076896, 4122.17948691, 4125.64102537, 4185.89743576,8.57
4128.71794844, 4129.99999973, 4123.84615357, 4044.35897395, 4126.15384588, 4141.53846133, 4155.38461518, 4149.10256390, 4154.87179467, 4129.10256383, 4110.64102537, 4132.82051255, 4130.12820485, 4194.10256397,8.57
4123.20512793, 4126.53846126, 4123.71794844, 4052.43589702, 4126.53846126, 4159.23076903, 4178.46153833, 4166.41025621, 4170.89743576, 4128.20512793, 4108.71794844, 4125.51282024, 4133.46153819, 4196.53846140,8.57
4111.92307665, 4115.64102537, 4114.48717921, 4058.33333292, 4121.02564075, 4162.17948697, 4180.89743576, 4174.35897422, 4183.33333320, 4126.66666639, 4109.23076896, 4123.58974332, 4131.79487152, 4197.30769217,8.57
4130.12820485, 4126.41025614, 4125.38461511, 4051.53846113, 4123.71794844, 4142.94871774, 4162.69230749, 4155.89743569, 4163.84615364, 4126.28205101, 4114.10256383, 4143.58974339, 4135.64102544, 4199.74358961,8.57
4115.25640998, 4119.99999973, 4118.20512793, 4063.46153805, 4123.20512793, 4151.28205108, 4171.79487166, 4164.48717928, 4162.17948697, 4127.56410229, 4110.64102537, 4113.46153819, 4127.43589716, 4185.25641012,8.57
4119.35897408, 4122.94871767, 4125.25640998, 4070.64102530, 4123.97435870, 4164.48717928, 4177.69230756, 4174.23076910, 4174.10256397, 4130.25640998, 4110.38461511, 4122.82051255, 4133.07692280, 4196.02564089,8.57
4125.89743562, 4123.97435870, 4124.99999973, 4055.12820472, 4124.35897408, 4147.94871774, 4157.69230749, 4151.79487159, 4158.46153826, 4131.15384588, 4111.15384588, 4132.17948691, 4131.53846126, 4193.46153833,8.57
4114.35897408, 4115.51282024, 4114.74358947, 4056.41025600, 4120.89743562, 4137.30769210, 4152.30769210, 4148.46153826, 4153.20512800, 4129.23076896, 4109.74358947, 4111.41025614, 4124.61538434, 4182.82051269,8.57
4122.56410229, 4124.61538434, 4126.79487152, 4056.53846113, 4124.87179460, 4139.35897415, 4155.89743569, 4157.05128185, 4161.92307672, 4128.07692280, 4110.76923050, 4124.48717921, 4133.71794844, 4191.66666653,8.57
4111.92307665, 4119.87179460, 4121.02564075, 4033.20512772, 4125.25640998, 4132.69230742, 4146.92307672, 4135.25640998, 4141.79487159, 4128.46153819, 4107.43589716, 4112.94871767, 4127.43589716, 4183.97435884,8.57
4118.33333306, 4125.51282024, 4125.25640998, 4033.58974311, 4123.97435870, 4134.87179460, 4153.33333313, 4138.46153826, 4139.10256390, 4129.99999973, 4110.76923050, 4121.02564075, 4128.97435870, 4191.15384602,8.57
4124.48717921, 4132.94871767, 4128.71794844, 4064.48717907, 4124.35897408, 4148.20512800, 4171.66666653, 4174.74358961, 4171.15384602, 4128.46153819, 4116.02564075, 4129.23076896, 4131.41025614, 4191.28205115,8.57
4112.17948691, 4122.69230742, 4121.66666639, 4067.69230728, 4122.69230742, 4137.94871774, 4155.64102544, 4163.71794851, 4159.74358954, 4127.17948691, 4113.07692280, 4109.87179460, 4124.23076896, 4183.97435884,8.57
4128.46153819, 4129.48717921, 4135.12820485, 4039.35897395, 4126.15384588, 4117.30769203, 4130.76923050, 4129.10256383, 4121.66666639, 4130.51282024, 4110.76923050, 4130.38461511, 4131.92307665, 4194.74358961,8.57
4122.17948691, 4125.64102537, 4122.82051255, 4030.89743541, 4124.87179460, 4125.76923050, 4148.20512800, 4144.35897415, 4136.79487159, 4129.74358947, 4109.10256383, 4124.48717921, 4127.82051255, 4182.94871781,8.57
4122.82051255, 4126.92307665, 4121.53846126, 4034.35897388, 4121.79487152, 4131.53846126, 4156.92307672, 4153.33333313, 4148.33333313, 4126.53846126, 4112.05128178, 4122.94871767, 4129.35897408, 4186.79487166,8.57
4131.28205101, 4132.30769203, 4133.97435870, 4022.05128157, 4122.82051255, 4121.79487152, 4134.35897408, 4121.41025614, 4123.97435870, 4127.56410229, 4109.35897408, 4136.53846133, 4133.71794844, 4195.64102551,8.57
4114.23076896, 4118.97435870, 4120.89743562, 4013.71794824, 4121.66666639, 4123.97435870, 4136.28205108, 4124.87179460, 4136.66666646, 4129.61538434, 4104.10256383, 4121.15384588, 4125.38461511, 4186.15384602,8.57
4128.33333306, 4127.94871767, 4127.69230742, 4001.28205073, 4124.35897408, 4116.28205101, 4138.58974339, 4138.46153826, 4150.89743569, 4130.51282024, 4106.92307665, 4133.71794844, 4134.23076896, 4195.64102551,8.57
4124.48717921, 4128.20512793, 4125.12820485, 3981.02564047, 4124.35897408, 4111.28205101, 4125.12820485, 4119.48717921, 4126.79487152, 4127.30769203, 4101.53846119, 4125.64102537, 4132.69230742, 4192.05128192,8.57
4115.64102537, 4121.66666639, 4122.30769203, 3973.07692252, 4121.79487152, 4114.99999973, 4118.58974332, 4108.20512793, 4113.84615357, 4126.53846126, 4097.56410222, 4124.10256383, 4130.12820485, 4193.58974345,8.57
4124.61538434, 4127.05128178, 4129.35897408, 3979.87179432, 4125.12820485, 4109.61538434, 4123.07692280, 4116.79487152, 4120.76923050, 4129.99999973, 4099.74358940, 4137.17948697, 4134.61538434, 4198.33333320,8.57
4111.28205101, 4119.74358947, 4117.05128178, 3992.56410201, 4123.07692280, 4116.92307665, 4136.15384595, 4129.87179460, 4128.07692280, 4128.58974332, 4099.35897402, 4112.43589716, 4126.92307665, 4187.82051269,8.57
4123.97435870, 4127.17948691, 4125.51282024, 3987.94871740, 4122.05128178, 4112.69230742, 4124.61538434, 4120.89743562, 4126.28205101, 4127.82051255, 4101.79487145, 4126.02564075, 4134.99999973, 4199.23076910,8.57
4123.97435870, 4125.89743562, 4125.64102537, 3981.28205073, 4122.56410229, 4094.61538427, 4107.69230742, 4109.35897408, 4124.74358947, 4127.43589716, 4100.64102530, 4125.64102537, 4134.48717921, 4192.69230756,8.57
4114.35897408, 4116.53846126, 4118.07692280, 3979.87179432, 4123.46153819, 4092.69230735, 4107.69230742, 4104.74358947, 4109.99999973, 4126.92307665, 4099.35897402, 4113.97435870, 4129.23076896, 4186.28205115,8.57
4125.38461511, 4125.76923050, 4122.82051255, 3968.58974297, 4126.41025614, 4084.74358940, 4095.38461504, 4088.46153812, 4083.07692273, 4129.10256383, 4099.23076889, 4129.61538434, 4133.84615357, 4193.97435884,8.57
4114.74358947, 4121.92307665, 4115.25640998, 3983.33333278, 4121.53846126, 4080.89743555, 4101.66666632, 4105.51282024, 4109.87179460, 4129.48717921, 4099.87179453, 4115.51282024, 4125.12820485, 4183.84615371,8.57
4121.66666639, 4124.74358947, 4127.69230742, 4001.66666611, 4122.69230742, 4084.35897402, 4113.97435870, 4116.66666639, 4128.20512793, 4129.35897408, 4103.84615357, 4125.89743562, 4128.97435870, 4190.76923063,8.57
4124.35897408, 4125.89743562, 4127.30769203, 3975.51281996, 4125.38461511, 4062.56410215, 4086.92307658, 4072.94871761, 4073.58974325, 4128.20512793, 4096.66666632, 4126.28205101, 4129.23076896, 4187.82051269,8.57
4119.10256383, 4121.02564075, 4119.35897408, 3959.74358912, 4121.28205101, 4045.76923036, 4070.25640991, 4054.61538420, 4052.17948677, 4127.17948691, 4094.48717914, 4116.02564075, 4123.20512793, 4182.17948704,8.57
4131.79487152, 4129.23076896, 4134.35897408, 3991.53846099, 4123.84615357, 4071.15384581, 4102.43589709, 4099.99999966, 4105.51282024, 4130.38461511, 4104.23076896, 4133.97435870, 4129.61538434, 4190.64102551,8.57
4116.53846126, 4120.25640998, 4120.89743562, 4012.43589695, 4121.02564075, 4097.94871761, 4126.92307665, 4130.64102537, 4139.61538441, 4130.76923050, 4103.33333306, 4115.89743562, 4122.56410229, 4180.25641012,8.57
4123.20512793, 4125.51282024, 4120.89743562, 4001.66666611, 4118.58974332, 4087.94871761, 4107.56410229, 4099.48717914, 4109.74358947, 4127.17948691, 4101.28205094, 4126.79487152, 4129.99999973, 4190.76923063,8.57
4129.87179460, 4131.15384588, 4127.17948691, 3995.51281996, 4120.38461511, 4078.84615350, 4088.84615350, 4073.07692273, 4090.76923043, 4127.56410229, 4100.64102530, 4137.56410236, 4138.07692287, 4197.43589730,8.57
4113.58974332, 4118.84615357, 4114.48717921, 3987.94871740, 4118.46153819, 4076.28205094, 4079.10256376, 4069.61538420, 4094.10256376, 4131.28205101, 4097.05128171, 4117.43589716, 4129.74358947, 4189.35897422,8.57
4132.30769203, 4130.89743562, 4124.23076896, 3977.17948663, 4122.30769203, 4065.64102523, 4065.76923036, 4058.71794830, 4079.48717914, 4132.43589716, 4098.46153812, 4134.87179460, 4135.64102544, 4196.92307679,8.57
4124.35897408, 4124.61538434, 4116.79487152, 3978.84615329, 4122.05128178, 4066.41025600, 4069.87179453, 4057.17948677, 4072.43589709, 4130.64102537, 4096.79487145, 4120.51282024, 4130.76923050, 4188.71794858,8.57
4120.25640998, 4117.82051255, 4118.58974332, 3975.38461483, 4121.53846126, 4072.94871761, 4079.74358940, 4060.89743548, 4069.87179453, 4130.64102537, 4094.99999966, 4121.02564075, 4131.66666639, 4194.74358961,8.57
4132.05128178, 4126.15384588, 4129.35897408, 3984.35897381, 4123.58974332, 4084.74358940, 4093.58974325, 4075.38461504, 4081.15384581, 4130.38461511, 4093.84615350, 4137.69230749, 4135.76923056, 4198.33333320,8.57
4113.97435870, 4119.99999973, 4119.10256383, 4006.15384567, 4118.58974332, 4091.66666632, 4105.51282024, 4100.89743555, 4114.87179460, 4127.17948691, 4093.84615350, 4114.87179460, 4124.99999973, 4184.10256397,8.57
4123.84615357, 4130.64102537, 4127.94871767, 3996.15384560, 4120.76923050, 4074.23076889, 4086.66666632, 4091.28205094, 4109.87179460, 4128.07692280, 4099.10256376, 4128.97435870, 4133.71794844, 4194.87179474,8.57
4120.51282024, 4128.46153819, 4122.94871767, 3981.92307637, 4122.94871767, 4072.30769196, 4077.56410222, 4071.02564068, 4082.94871761, 4129.10256383, 4097.17948684, 4123.97435870, 4130.64102537, 4188.84615371,8.57
4114.23076896, 4119.48717921, 4121.02564075, 3990.76923022, 4122.17948691, 4081.02564068, 4088.33333299, 4079.23076889, 4093.20512786, 4128.46153819, 4096.92307658, 4116.02564075, 4124.48717921, 4184.74358961,8.57
4126.15384588, 4126.53846126, 4129.87179460, 3990.64102509, 4124.23076896, 4068.84615343, 4082.30769196, 4087.94871761, 4111.66666639, 4129.48717921, 4100.51282017, 4128.20512793, 4131.53846126, 4190.12820499,8.57
4111.41025614, 4120.51282024, 4116.28205101, 3987.69230714, 4120.89743562, 4069.35897395, 4083.46153812, 4087.94871761, 4111.02564075, 4129.23076896, 4097.94871761, 4107.56410229, 4127.82051255, 4181.28205115,8.57
4122.69230742, 4126.02564075, 4126.53846126, 3995.38461483, 4122.94871767, 4084.99999966, 4099.87179453, 4093.46153812, 4106.92307665, 4129.35897408, 4099.61538427, 4122.82051255, 4132.05128178, 4194.48717935,8.57
4122.56410229, 4124.35897408, 4126.28205101, 3986.79487124, 4124.35897408, 4077.30769196, 4093.33333299, 4089.87179453, 4097.05128171, 4129.23076896, 4097.82051248, 4125.76923050, 4128.20512793, 4189.99999986,8.57
4113.46153819, 4120.89743562, 4120.64102537, 3978.58974304, 4121.41025614, 4066.02564061, 4077.43589709, 4077.17948684, 4084.87179453, 4128.97435870, 4096.15384581, 4117.30769203, 4128.20512793, 4183.46153833,8.57
4128.07692280, 4131.02564075, 4132.56410229, 4008.71794824, 4124.10256383, 4088.84615350, 4099.74358940, 4094.99999966, 4106.41025614, 4129.48717921, 4101.66666632, 4133.71794844, 4138.71794851, 4192.69230756,8.57
4116.66666639, 4119.61538434, 4119.23076896, 4026.15384567, 4122.43589716, 4101.02564068, 4111.02564075, 4107.05128178, 4122.69230742, 4128.20512793, 4102.94871767, 4117.43589716, 4128.33333306, 4183.20512807,8.57
4128.71794844, 4127.17948691, 4128.46153819, 3997.43589688, 4122.56410229, 4064.48717907, 4070.25640991, 4065.38461497, 4079.74358940, 4129.35897408, 4100.76923043, 4131.41025614, 4131.92307665, 4193.20512807,8.57
4127.17948691, 4128.33333306, 4128.58974332, 3983.20512765, 4123.71794844, 4049.23076882, 4058.71794830, 4049.35897395, 4058.20512779, 4129.48717921, 4094.74358940, 4130.76923050, 4133.97435870, 4190.25641012,8.57
4111.66666639, 4115.25640998, 4113.84615357, 3999.87179432, 4118.97435870, 4074.23076889, 4088.20512786, 4081.79487145, 4089.48717914, 4127.82051255, 4097.17948684, 4114.99999973, 4129.10256383, 4186.66666653,8.57
4132.94871767, 4129.61538434, 4128.58974332, 4002.05128150, 4122.43589716, 4075.51282017, 4084.74358940, 4085.76923043, 4092.69230735, 4128.46153819, 4104.87179460, 4141.15384595, 4137.43589723, 4201.28205122,8.57
4117.56410229, 4120.51282024, 4118.84615357, 4005.64102516, 4121.79487152, 4072.69230735, 4079.61538427, 4081.15384581, 4083.84615350, 4127.56410229, 4102.56410229, 4118.84615357, 4129.10256383, 4186.79487166,8.57
4118.71794844, 4119.99999973, 4122.30769203, 4018.07692259, 4121.02564075, 4082.30769196, 4089.48717914, 4083.07692273, 4086.92307658, 4127.05128178, 4104.10256383, 4118.33333306, 4128.84615357, 4194.48717935,8.57
4126.53846126, 4128.46153819, 4128.33333306, 4009.99999952, 4122.30769203, 4074.99999966, 4077.30769196, 4065.51282010, 4075.89743555, 4127.30769203, 4102.30769196, 4129.48717921, 4129.87179460, 4197.94871781,8.57
4110.25640998, 4118.07692280, 4115.76923050, 4007.30769183, 4119.48717921, 4061.15384574, 4067.30769189, 4066.66666625, 4079.87179453, 4127.82051255, 4099.48717914, 4113.20512793, 4126.66666639, 4186.15384602,8.57
4124.87179460, 4126.79487152, 4125.89743562, 4027.82051234, 4123.84615357, 4068.97435856, 4082.82051248, 4086.28205094, 4102.82051255, 4129.10256383, 4104.87179460, 4131.79487152, 4137.82051262, 4195.51282038,8.57
4116.53846126, 4121.79487152, 4117.43589716, 4044.23076882, 4122.56410229, 4090.51282017, 4101.41025607, 4089.87179453, 4104.48717921, 4127.56410229, 4105.38461511, 4114.74358947, 4123.71794844, 4182.17948704,8.57
4119.74358947, 4120.89743562, 4120.64102537, 4036.02564054, 4119.74358947, 4078.84615350, 4089.10256376, 4079.99999966, 4090.76923043, 4127.82051255, 4105.38461511, 4113.46153819, 4120.38461511, 4184.48717935,8.57
4126.79487152, 4126.15384588, 4129.74358947, 4028.07692259, 4121.79487152, 4057.82051241, 4072.30769196, 4078.46153812, 4094.99999966, 4130.89743562, 4103.33333306, 4126.41025614, 4133.20512793, 4190.76923063,8.57
4109.48717921, 4117.43589716, 4119.35897408, 4026.66666618, 4121.66666639, 4063.97435856, 4078.33333299, 4084.10256376, 4101.53846119, 4130.64102537, 4100.64102530, 4108.07692280, 4128.84615357, 4182.56410243,8.57
4125.51282024, 4128.71794844, 4131.66666639, 4011.92307644, 4125.12820485, 4063.71794830, 4078.71794837, 4082.05128171, 4086.41025607, 4129.48717921, 4104.48717921, 4128.71794844, 4132.17948691, 4193.07692294,8.57
4119.74358947, 4126.53846126, 4125.25640998, 4013.58974311, 4120.89743562, 4057.05128164, 4074.61538427, 4077.30769196, 4078.07692273, 4128.20512793, 4102.69230742, 4121.79487152, 4125.76923050, 4182.69230756,8.57
4117.43589716, 4125.25640998, 4124.23076896, 4037.30769189, 4119.23076896, 4073.20512786, 4089.23076889, 4080.51282017, 4086.28205094, 4127.05128178, 4103.97435870, 4118.33333306, 4126.28205101, 4184.10256397,8.57
4128.46153819, 4129.74358947, 4130.76923050, 4048.20512779, 4126.02564075, 4096.66666632, 4115.51282024, 4098.07692273, 4102.69230742, 4128.58974332, 4106.15384588, 4135.51282031, 4133.71794844, 4192.94871781,8.57
4116.02564075, 4117.56410229, 4115.12820485, 4037.56410215, 4121.79487152, 4081.66666632, 4102.05128171, 4092.30769196, 4100.89743555, 4127.30769203, 4102.94871767, 4119.23076896, 4126.41025614, 4185.12820499,8.57
4133.07692280, 4132.17948691, 4132.17948691, 4020.89743541, 4118.97435870, 4044.23076882, 4056.66666625, 4058.20512779, 4068.84615343, 4127.30769203, 4105.64102537, 4137.05128185, 4134.35897408, 4199.23076910,8.57
4122.82051255, 4127.94871767, 4127.30769203, 4029.10256362, 4118.97435870, 4056.02564061, 4067.69230728, 4068.07692266, 4075.89743555, 4128.33333306, 4104.61538434, 4130.38461511, 4132.17948691, 4194.35897422,8.57
4113.07692280, 4117.30769203, 4112.56410229, 4058.33333292, 4120.12820485, 4094.48717914, 4112.94871767, 4106.79487152, 4119.35897408, 4126.66666639, 4105.64102537, 4122.56410229, 4128.20512793, 4192.69230756,8.57
4131.02564075, 4130.64102537, 4124.99999973, 4077.82051248, 4125.64102537, 4109.74358947, 4124.48717921, 4118.97435870, 4133.46153819, 4126.92307665, 4111.92307665, 4140.51282031, 4134.23076896, 4198.46153833,8.57
4112.82051255, 4121.02564075, 4116.92307665, 4076.92307658, 4120.38461511, 4117.69230742, 4129.10256383, 4124.87179460, 4132.43589716, 4127.30769203, 4108.71794844, 4115.76923050, 4125.76923050, 4186.41025628,8.57
4122.56410229, 4125.51282024, 4121.41025614, 4061.66666625, 4119.35897408, 4111.15384588, 4125.64102537, 4115.38461511, 4126.53846126, 4128.33333306, 4105.76923050, 4129.87179460, 4131.41025614, 4200.64102551,8.57
4124.48717921, 4128.33333306, 4119.35897408, 4063.07692266, 4122.30769203, 4101.41025607, 4116.41025614, 4106.92307665, 4124.99999973, 4128.46153819, 4107.17948691, 4129.48717921, 4129.61538434, 4194.48717935,8.57
4110.51282024, 4121.02564075, 4115.64102537, 4070.51282017, 4121.15384588, 4100.12820478, 4117.17948691, 4114.48717921, 4124.87179460, 4128.46153819, 4109.74358947, 4108.84615357, 4122.69230742, 4184.23076910,8.57
4122.56410229, 4126.79487152, 4125.76923050, 4057.56410215, 4123.33333306, 4085.25640991, 4107.69230742, 4103.20512793, 4107.69230742, 4127.94871767, 4109.35897408, 4125.64102537, 4130.76923050, 4195.64102551,8.57
4109.87179460, 4117.43589716, 4113.07692280, 4062.17948677, 4119.99999973, 4087.56410222, 4111.15384588, 4100.38461504, 4104.35897408, 4123.97435870, 4108.46153819, 4109.48717921, 4125.89743562, 4183.84615371,8.57
4117.43589716, 4124.10256383, 4121.79487152, 4075.64102530, 4121.15384588, 4097.30769196, 4116.66666639, 4111.92307665, 4114.10256383, 4125.25640998, 4112.69230742, 4117.56410229, 4129.74358947, 4188.33333320,8.57
4123.97435870, 4126.79487152, 4126.92307665, 4063.84615343, 4123.07692280, 4075.25640991, 4092.94871761, 4096.53846119, 4104.87179460, 4130.51282024, 4107.69230742, 4124.10256383, 4129.99999973, 4190.38461525,8.57
4113.97435870, 4117.56410229, 4121.02564075, 4051.28205087, 4118.58974332, 4053.33333292, 4069.74358940, 4059.74358933, 4075.12820478, 4129.99999973, 4102.30769196, 4110.12820485, 4123.58974332, 4184.61538448,8.57
4127.05128178, 4127.30769203, 4133.58974332, 4056.41025600, 4121.15384588, 4068.46153805, 4081.66666632, 4056.28205087, 4070.51282017, 4127.43589716, 4107.30769203, 4127.17948691, 4130.38461511, 4191.15384602,8.57
4120.64102537, 4123.33333306, 4121.92307665, 4071.15384581, 4121.28205101, 4094.99999966, 4106.66666639, 4088.33333299, 4101.92307658, 4127.17948691, 4107.43589716, 4113.58974332, 4123.07692280, 4181.15384602,8.57
4128.46153819, 4127.69230742, 4126.02564075, 4075.12820478, 4119.23076896, 4087.05128171, 4101.79487145, 4093.33333299, 4106.66666639, 4127.82051255, 4108.20512793, 4122.82051255, 4129.74358947, 4188.33333320,8.57
4131.92307665, 4132.43589716, 4132.30769203, 4061.02564061, 4120.38461511, 4070.38461504, 4089.35897402, 4079.99999966, 4087.94871761, 4128.33333306, 4110.25640998, 4138.58974339, 4134.87179460, 4190.12820499,8.57
4118.84615357, 4122.69230742, 4119.74358947, 4051.92307651, 4120.25640998, 4076.66666632, 4089.23076889, 4084.99999966, 4094.74358940, 4127.43589716, 4107.17948691, 4122.56410229, 4123.97435870, 4184.35897422,8.57
4133.46153819, 4131.53846126, 4130.51282024, 4057.30769189, 4122.56410229, 4077.94871761, 4088.20512786, 4089.87179453, 4104.48717921, 4126.02564075, 4107.17948691, 4136.66666646, 4132.94871767, 4199.35897422,8.57
4119.10256383, 4124.10256383, 4120.51282024, 4053.20512779, 4121.28205101, 4071.28205094, 4089.35897402, 4088.84615350, 4099.48717914, 4125.89743562, 4104.87179460, 4126.28205101, 4132.82051255, 4191.41025628,8.57
4119.35897408, 4119.99999973, 4119.74358947, 4048.84615343, 4120.89743562, 4072.94871761, 4091.02564068, 4097.43589709, 4105.12820485, 4128.20512793, 4106.53846126, 4127.05128178, 4131.92307665, 4193.46153833,8.57
4134.48717921, 4128.20512793, 4131.66666639, 4060.64102523, 4121.28205101, 4076.28205094, 4088.20512786, 4088.97435863, 4100.51282017, 4127.82051255, 4108.46153819, 4136.41025621, 4134.61538434, 4197.17948704,8.57
4111.66666639, 4118.84615357, 4117.05128178, 4065.76923036, 4117.82051255, 4076.28205094, 4091.15384581, 4075.25640991, 4086.28205094, 4124.10256383, 4107.17948691, 4113.20512793, 4127.05128178, 4188.20512807,8.57
4118.97435870, 4126.02564075, 4122.69230742, 4066.15384574, 4122.30769203, 4081.66666632, 4101.15384581, 4097.05128171, 4104.99999973, 4127.17948691, 4114.23076896, 4129.61538434, 4133.46153819, 4202.17948711,8.57
4121.92307665, 4125.12820485, 4122.05128178, 4084.23076889, 4121.28205101, 4095.51282017, 4109.99999973, 4118.71794844, 4132.05128178, 4129.74358947, 4112.56410229, 4123.33333306, 4126.66666639, 4193.07692294,8.57
4117.17948691, 4119.74358947, 4119.35897408, 4088.33333299, 4120.25640998, 4089.99999966, 4101.28205094, 4092.82051248, 4109.87179460, 4128.84615357, 4107.69230742, 4116.41025614, 4123.46153819, 4188.71794858,8.57
4124.87179460, 4127.69230742, 4125.38461511, 4056.92307651, 4127.56410229, 4059.99999959, 4073.07692273, 4055.89743548, 4067.30769189, 4129.35897408, 4108.20512793, 4132.56410229, 4131.92307665, 4194.74358961,8.57
4111.92307665, 4120.38461511, 4116.15384588, 4042.05128164, 4122.30769203, 4049.87179446, 4064.10256369, 4063.07692266, 4073.58974325, 4128.84615357, 4108.33333306, 4110.51282024, 4122.56410229, 4180.64102551,8.57
4122.82051255, 4125.51282024, 4127.82051255, 4060.38461497, 4120.25640998, 4067.69230728, 4081.66666632, 4084.48717914, 4100.76923043, 4129.61538434, 4112.43589716, 4122.05128178, 4127.30769203, 4189.48717935,8.57
4122.17948691, 4126.53846126, 4127.05128178, 4069.23076882, 4123.97435870, 4083.07692273, 4100.25640991, 4091.53846119, 4103.20512793, 4128.84615357, 4109.99999973, 4123.33333306, 4127.82051255, 4187.69230756,8.57
4116.53846126, 4122.56410229, 4123.71794844, 4055.89743548, 4122.82051255, 4072.56410222, 4088.33333299, 4083.84615350, 4089.99999966, 4126.92307665, 4108.97435870, 4111.28205101, 4122.56410229, 4184.35897422,8.57
4128.97435870, 4128.20512793, 4134.48717921, 4048.46153805, 4123.46153819, 4060.12820472, 4063.97435856, 4067.82051241, 4086.92307658, 4127.30769203, 4111.28205101, 4127.43589716, 4129.99999973, 4191.79487166,8.57
4112.56410229, 4118.07692280, 4118.71794844, 4063.97435856, 4120.38461511, 4081.15384581, 4077.43589709, 4071.53846119, 4099.23076889, 4129.74358947, 4108.58974332, 4116.28205101, 4125.38461511, 4183.58974345,8.57
4121.15384588, 4126.41025614, 4125.89743562, 4066.66666625, 4121.53846126, 4087.05128171, 4086.79487145, 4076.28205094, 4090.38461504, 4131.15384588, 4111.02564075, 4131.79487152, 4132.30769203, 4192.94871781,8.57
4126.66666639, 4128.20512793, 4127.43589716, 4050.38461497, 4123.33333306, 4060.64102523, 4064.23076882, 4061.79487138, 4065.12820472, 4128.07692280, 4110.89743562, 4132.94871767, 4132.56410229, 4188.97435884,8.57
4118.46153819, 4118.33333306, 4113.97435870, 4045.76923036, 4119.87179460, 4053.58974318, 4055.51282010, 4052.43589702, 4057.94871754, 4126.41025614, 4108.33333306, 4119.74358947, 4125.38461511, 4186.41025628,8.57
4131.66666639, 4128.97435870, 4124.23076896, 4052.30769189, 4122.43589716, 4065.64102523, 4068.71794830, 4062.56410215, 4069.23076882, 4128.71794844, 4110.64102537, 4143.58974339, 4133.58974332, 4201.28205122,8.57
4114.61538434, 4118.84615357, 4115.25640998, 4064.87179446, 4121.15384588, 4079.87179453, 4085.12820478, 4086.41025607, 4090.51282017, 4128.71794844, 4110.51282024, 4124.48717921, 4128.84615357, 4190.76923063,8.57
4119.35897408, 4119.99999973, 4120.38461511, 4067.17948677, 4120.51282024, 4081.02564068, 4088.07692273, 4092.30769196, 4096.66666632, 4130.25640998, 4113.46153819, 4124.48717921, 4132.17948691, 4195.64102551,8.57
4127.82051255, 4126.53846126, 4127.82051255, 4051.92307651, 4121.41025614, 4068.20512779, 4073.84615350, 4072.94871761, 4078.71794837, 4131.41025614, 4112.69230742, 4134.74358947, 4133.58974332, 4196.53846140,8.57
4110.76923050, 4115.25640998, 4117.17948691, 4045.51282010, 4116.15384588, 4060.64102523, 4063.33333292, 4064.10256369, 4071.53846119, 4127.56410229, 4109.23076896, 4117.05128178, 4126.02564075, 4189.87179474,8.57
4122.05128178, 4123.97435870, 4124.35897408, 4051.28205087, 4119.74358947, 4061.92307651, 4063.58974318, 4064.48717907, 4076.15384581, 4127.17948691, 4110.51282024, 4131.79487152, 4135.64102544, 4204.23076917,8.57
4116.53846126, 4122.94871767, 4118.20512793, 4047.69230728, 4122.82051255, 4062.94871754, 4066.41025600, 4060.38461497, 4069.23076882, 4128.58974332, 4107.30769203, 4118.07692280, 4128.71794844, 4191.28205115,8.57
4118.07692280, 4124.35897408, 4123.46153819, 4046.15384574, 4121.92307665, 4062.69230728, 4068.33333292, 4054.23076882, 4055.51282010, 4127.30769203, 4109.61538434, 4118.07692280, 4124.61538434, 4187.05128192,8.57
4122.56410229, 4129.48717921, 4128.20512793, 4058.84615343, 4122.69230742, 4068.20512779, 4068.97435856, 4051.66666625, 4058.33333292, 4128.33333306, 4112.43589716, 4129.99999973, 4130.38461511, 4193.97435884,8.57
4106.92307665, 4118.58974332, 4113.07692280, 4058.46153805, 4120.89743562, 4068.97435856, 4063.58974318, 4052.69230728, 4067.94871754, 4128.46153819, 4108.58974332, 4111.41025614, 4127.69230742, 4188.07692294,8.57
4121.53846126, 4125.64102537, 4125.64102537, 4039.87179446, 4123.58974332, 4054.48717907, 4055.64102523, 4047.05128164, 4053.46153805, 4127.43589716, 4108.71794844, 4128.33333306, 4134.48717921, 4192.82051269,8.57
4118.84615357, 4123.84615357, 4124.35897408, 4040.64102523, 4121.92307665, 4054.10256369, 4069.10256369, 4055.64102523, 4054.10256369, 4127.82051255, 4109.87179460, 4120.51282024, 4127.69230742, 4183.97435884,8.57
4121.53846126, 4122.43589716, 4121.53846126, 4055.38461497, 4116.92307665, 4063.33333292, 4076.92307658, 4069.87179453, 4074.48717914, 4130.25640998, 4112.94871767, 4116.41025614, 4126.41025614, 4190.64102551,8.57
4130.89743562, 4128.20512793, 4127.69230742, 4057.43589702, 4118.33333306, 4061.53846113, 4067.43589702, 4069.35897395, 4074.99999966, 4130.89743562, 4114.23076896, 4134.10256383, 4133.97435870, 4193.84615371,8.57
4113.58974332, 4118.97435870, 4117.69230742, 4052.43589702, 4118.71794844, 4062.69230728, 4069.48717907, 4068.33333292, 4065.25640984, 4127.94871767, 4111.92307665, 4118.71794844, 4125.51282024, 4178.46153833,8.57
4132.82051255, 4130.64102537, 4131.02564075, 4045.25640984, 4121.02564075, 4060.38461497, 4063.84615343, 4056.92307651, 4053.58974318, 4127.30769203, 4116.15384588, 4136.28205108, 4133.58974332, 4196.28205115,8.57
4127.94871767, 4126.66666639, 4121.92307665, 4052.05128164, 4118.97435870, 4058.33333292, 4061.53846113, 4060.38461497, 4064.10256369, 4128.58974332, 4116.53846126, 4130.12820485, 4132.30769203, 4193.97435884,8.57
4115.25640998, 4117.56410229, 4115.51282024, 4073.33333299, 4116.79487152, 4071.02564068, 4082.43589709, 4093.20512786, 4101.92307658, 4129.99999973, 4117.05128178, 4121.02564075, 4126.02564075, 4188.20512807,8.57
4134.10256383, 4132.05128178, 4134.99999973, 4072.43589709, 4120.89743562, 4072.17948684, 4083.20512786, 4089.61538427, 4102.30769196, 4131.41025614, 4119.10256383, 4142.82051262, 4135.89743569, 4198.20512807,8.57
4118.97435870, 4121.66666639, 4119.35897408, 4053.33333292, 4118.20512793, 4056.28205087, 4058.33333292, 4047.56410215, 4059.61538420, 4128.58974332, 4111.66666639, 4118.71794844, 4130.51282024, 4185.38461525,8.57
4124.23076896, 4124.23076896, 4121.66666639, 4047.30769189, 4121.15384588, 4051.02564061, 4046.15384574, 4030.89743541, 4035.25640977, 4128.46153819, 4111.53846126, 4126.92307665, 4132.43589716, 4194.10256397,8.57
4124.61538434, 4128.07692280, 4123.33333306, 4059.61538420, 4123.33333306, 4061.15384574, 4052.56410215, 4039.99999959, 4041.79487138, 4130.89743562, 4114.10256383, 4131.66666639, 4131.28205101, 4193.20512807,8.57
4111.92307665, 4117.43589716, 4113.84615357, 4064.61538420, 4117.94871767, 4056.79487138, 4054.74358933, 4040.38461497, 4049.23076882, 4129.35897408, 4114.74358947, 4114.48717921, 4128.20512793, 4185.38461525,8.57
4129.23076896, 4126.02564075, 4125.51282024, 4062.17948677, 4121.92307665, 4048.97435856, 4060.12820472, 4056.79487138, 4067.56410215, 4127.30769203, 4117.82051255, 4132.69230742, 4137.94871774, 4197.17948704,8.57
4117.43589716, 4120.76923050, 4117.05128178, 4066.53846113, 4122.56410229, 4061.28205087, 4071.28205094, 4084.48717914, 4089.74358940, 4127.43589716, 4115.12820485, 4116.28205101, 4125.89743562, 4190.12820499,8.57
4118.58974332, 4123.46153819, 4119.74358947, 4056.79487138, 4121.92307665, 4056.41025600, 4060.38461497, 4067.43589702, 4069.48717907, 4129.61538434, 4114.35897408, 4119.61538434, 4125.64102537, 4193.20512807,8.57
4123.20512793, 4125.51282024, 4122.56410229, 4041.79487138, 4122.82051255, 4038.84615343, 4048.20512779, 4048.71794830, 4049.87179446, 4129.74358947, 4111.02564075, 4124.48717921, 4131.41025614, 4190.38461525,8.57
4111.66666639, 4115.12820485, 4116.92307665, 4048.71794830, 4120.51282024, 4048.71794830, 4058.71794830, 4066.15384574, 4067.43589702, 4127.05128178, 4110.25640998, 4107.17948691, 4124.61538434, 4184.87179474,8.57
4125.25640998, 4126.79487152, 4131.92307665, 4061.02564061, 4123.71794844, 4063.97435856, 4065.25640984, 4071.02564068, 4075.89743555, 4127.30769203, 4116.53846126, 4125.76923050, 4128.97435870, 4193.58974345,8.57
4116.28205101, 4123.58974332, 4121.66666639, 4064.99999959, 4121.41025614, 4063.07692266, 4064.23076882, 4063.58974318, 4071.79487145, 4127.30769203, 4114.99999973, 4112.94871767, 4124.10256383, 4181.66666653,8.57
4122.43589716, 4122.56410229, 4121.28205101, 4060.12820472, 4118.97435870, 4054.99999959, 4059.48717907, 4061.02564061, 4067.17948677, 4127.17948691, 4114.10256383, 4117.05128178, 4126.92307665, 4190.12820499,8.57
4133.84615357, 4128.84615357, 4129.35897408, 4053.33333292, 4120.76923050, 4057.30769189, 4055.25640984, 4051.41025600, 4058.07692266, 4128.20512793, 4113.84615357, 4133.33333306, 4129.48717921, 4195.12820499,8.57
4119.23076896, 4123.20512793, 4120.76923050, 4051.92307651, 4117.94871767, 4063.46153805, 4061.79487138, 4043.33333292, 4051.53846113, 4127.56410229, 4112.17948691, 4114.74358947, 4122.82051255, 4183.33333320,8.57
4133.33333306, 4132.17948691, 4133.58974332, 4055.51282010, 4121.92307665, 4058.46153805, 4066.28205087, 4049.10256369, 4055.38461497, 4127.17948691, 4116.41025614, 4132.05128178, 4133.58974332, 4197.94871781,8.57
4127.43589716, 4124.35897408, 4123.07692280, 4062.82051241, 4122.82051255, 4063.46153805, 4071.53846119, 4063.97435856, 4067.69230728, 4126.92307665, 4115.76923050, 4126.92307665, 4129.35897408, 4192.82051269,8.57
4124.61538434, 4120.51282024, 4116.79487152, 4064.87179446, 4119.23076896, 4071.92307658, 4077.05128171, 4070.76923043, 4074.99999966, 4126.79487152, 4114.87179460, 4123.33333306, 4126.79487152, 4191.15384602,8.57
4132.17948691, 4128.84615357, 4128.07692280, 4065.64102523, 4122.05128178, 4073.58974325, 4081.28205094, 4074.48717914, 4082.69230735, 4128.07692280, 4117.82051255, 4138.97435877, 4134.87179460, 4198.20512807,8.57
4110.64102537, 4117.05128178, 4115.89743562, 4076.41025607, 4120.64102537, 4082.43589709, 4092.43589709, 4090.89743555, 4097.82051248, 4127.17948691, 4118.20512793, 4122.56410229, 4129.99999973, 4190.51282038,8.57
4123.33333306, 4126.02564075, 4122.17948691, 4074.10256376, 4122.05128178, 4073.58974325, 4082.30769196, 4085.51282017, 4085.76923043, 4127.43589716, 4117.17948691, 4137.56410236, 4134.99999973, 4200.51282038,8.57
4124.99999973, 4126.79487152, 4121.15384588, 4061.02564061, 4119.87179460, 4058.71794830, 4062.43589702, 4063.97435856, 4063.33333292, 4129.23076896, 4111.28205101, 4127.82051255, 4129.23076896, 4192.05128192,8.57
4113.46153819, 4116.53846126, 4116.66666639, 4061.92307651, 4114.99999973, 4063.58974318, 4062.17948677, 4053.84615343, 4060.25640984, 4130.89743562, 4111.02564075, 4115.12820485, 4126.28205101, 4191.02564089,8.57
4123.20512793, 4121.79487152, 4123.58974332, 4065.38461497, 4120.51282024, 4071.53846119, 4069.48717907, 4056.66666625, 4060.89743548, 4130.38461511, 4114.10256383, 4134.61538434, 4133.58974332, 4200.51282038,8.57
4115.38461511, 4114.74358947, 4113.97435870, 4058.97435856, 4121.66666639, 4073.71794837, 4072.30769196, 4073.84615350, 4071.15384581, 4127.82051255, 4112.82051255, 4117.17948691, 4121.28205101, 4184.61538448,8.57
4123.84615357, 4121.28205101, 4124.10256383, 4051.53846113, 4121.41025614, 4063.07692266, 4060.12820472, 4069.61538420, 4070.12820478, 4129.35897408, 4115.64102537, 4126.15384588, 4126.28205101, 4190.12820499,8.57
4120.89743562, 4124.99999973, 4124.99999973, 4060.12820472, 4120.89743562, 4059.35897395, 4057.82051241, 4049.99999959, 4054.61538420, 4127.82051255, 4112.17948691, 4124.48717921, 4129.23076896, 4188.58974345,8.57
4113.46153819, 4120.25640998, 4118.84615357, 4073.46153812, 4118.20512793, 4072.56410222, 4072.56410222, 4060.76923036, 4061.41025600, 4126.02564075, 4109.10256383, 4109.10256383, 4119.99999973, 4183.71794858,8.57
4127.43589716, 4125.76923050, 4129.99999973, 4065.64102523, 4120.89743562, 4068.71794830, 4069.23076882, 4079.10256376, 4075.38461504, 4131.41025614, 4114.61538434, 4129.10256383, 4127.69230742, 4191.15384602,8.57
4118.20512793, 4118.46153819, 4122.56410229, 4057.56410215, 4120.12820485, 4058.33333292, 4065.51282010, 4083.33333299, 4082.43589709, 4131.53846126, 4113.33333306, 4116.79487152, 4125.64102537, 4180.38461525,8.57
4124.10256383, 4125.38461511, 4129.87179460, 4068.07692266, 4120.12820485, 4071.28205094, 4078.97435863, 4086.53846119, 4090.51282017, 4126.28205101, 4111.66666639, 4119.23076896, 4127.69230742, 4189.48717935,8.57
4124.99999973, 4127.69230742, 4129.61538434, 4077.56410222, 4119.99999973, 4087.94871761, 4085.64102530, 4086.02564068, 4091.15384581, 4126.41025614, 4111.92307665, 4125.64102537, 4130.12820485, 4193.58974345,8.57
4117.17948691, 4120.25640998, 4118.97435870, 4071.79487145, 4117.30769203, 4079.35897402, 4074.48717914, 4072.82051248, 4074.87179453, 4127.82051255, 4113.71794844, 4119.87179460, 4127.94871767, 4187.05128192,8.57
4133.71794844, 4132.17948691, 4131.28205101, 4051.15384574, 4120.64102537, 4061.02564061, 4060.38461497, 4057.82051241, 4056.02564061, 4129.61538434, 4115.51282024, 4136.02564082, 4134.35897408, 4192.69230756,8.57
4119.35897408, 4121.53846126, 4118.71794844, 4040.38461497, 4120.25640998, 4060.12820472, 4055.76923036, 4052.94871754, 4051.41025600, 4129.35897408, 4106.41025614, 4118.07692280, 4126.28205101, 4184.99999986,8.57
4121.28205101, 4120.38461511, 4119.99999973, 4052.43589702, 4119.48717921, 4064.10256369, 4056.02564061, 4052.05128164, 4055.51282010, 4127.30769203, 4105.25640998, 4127.17948691, 4130.12820485, 4195.89743576,8.57
4130.51282024, 4130.64102537, 4130.76923050, 4064.10256369, 4121.15384588, 4063.97435856, 4056.15384574, 4051.41025600, 4060.76923036, 4127.56410229, 4111.53846126, 4140.64102544, 4132.30769203, 4198.46153833,8.57
4114.48717921, 4120.25640998, 4119.35897408, 4061.79487138, 4120.12820485, 4063.20512779, 4054.48717907, 4053.58974318, 4060.89743548, 4128.58974332, 4109.10256383, 4118.33333306, 4123.33333306, 4190.25641012,8.57
4129.35897408, 4126.02564075, 4127.56410229, 4059.61538420, 4123.46153819, 4062.56410215, 4058.58974318, 4066.41025600, 4064.99999959, 4128.84615357, 4108.07692280, 4135.25640998, 4136.53846133, 4202.82051275,8.57
4123.33333306, 4125.51282024, 4122.69230742, 4073.46153812, 4121.92307665, 4069.61538420, 4073.84615350, 4092.17948684, 4091.15384581, 4128.46153819, 4111.02564075, 4123.58974332, 4133.97435870, 4191.66666653,8.57
4115.12820485, 4124.48717921, 4120.12820485, 4080.89743555, 4121.15384588, 4074.35897402, 4077.30769196, 4093.46153812, 4104.87179460, 4130.76923050, 4117.94871767, 4114.48717921, 4128.84615357, 4191.92307679,8.57
4122.94871767, 4126.79487152, 4125.38461511, 4074.61538427, 4124.61538434, 4069.99999966, 4069.87179453, 4071.79487145, 4086.02564068, 4131.41025614, 4116.79487152, 4125.51282024, 4133.07692280, 4198.58974345,8.57
4115.64102537, 4117.17948691, 4116.28205101, 4087.56410222, 4121.66666639, 4074.74358940, 4074.99999966, 4077.43589709, 4079.35897402, 4128.07692280, 4112.30769203, 4108.07692280, 4125.89743562, 4186.79487166,8.57
4127.05128178, 4124.74358947, 4124.10256383, 4101.66666632, 4124.48717921, 4081.66666632, 4076.79487145, 4088.71794837, 4081.79487145, 4130.12820485, 4117.30769203, 4123.20512793, 4131.41025614, 4192.56410243,8.57
4120.25640998, 4121.66666639, 4119.74358947, 4087.05128171, 4122.69230742, 4079.48717914, 4069.35897395, 4075.38461504, 4069.10256369, 4131.02564075, 4114.74358947, 4119.74358947, 4128.84615357, 4186.66666653,8.57
4120.51282024, 4119.35897408, 4123.58974332, 4070.25640991, 4118.20512793, 4070.64102530, 4062.30769189, 4063.58974318, 4057.94871754, 4126.02564075, 4111.66666639, 4114.87179460, 4124.74358947, 4188.46153833,8.57
4129.87179460, 4127.30769203, 4133.97435870, 4076.53846119, 4121.66666639, 4070.12820478, 4066.79487138, 4074.61538427, 4066.28205087, 4126.28205101, 4114.61538434, 4127.56410229, 4130.38461511, 4191.53846140,8.57
4113.84615357, 4121.41025614, 4121.92307665, 4083.97435863, 4121.53846126, 4078.46153812, 4081.79487145, 4089.23076889, 4082.94871761, 4129.99999973, 4113.97435870, 4110.25640998, 4125.64102537, 4177.17948704,8.57
4129.23076896, 4132.17948691, 4134.61538434, 4074.23076889, 4122.94871767, 4066.28205087, 4070.12820478, 4075.64102530, 4074.99999966, 4127.43589716, 4114.87179460, 4129.48717921, 4132.94871767, 4192.82051269,8.57
4129.61538434, 4129.35897408, 4128.97435870, 4068.58974318, 4121.28205101, 4055.12820472, 4054.23076882, 4060.64102523, 4059.74358933, 4123.07692280, 4111.66666639, 4129.35897408, 4130.38461511, 4192.30769217,8.57
4120.38461511, 4121.02564075, 4118.20512793, 4065.64102523, 4119.23076896, 4063.46153805, 4059.87179446, 4060.76923036, 4055.38461497, 4126.66666639, 4108.46153819, 4117.94871767, 4125.12820485, 4186.15384602,8.57
4133.84615357, 4133.20512793, 4132.82051255, 4068.58974318, 4123.20512793, 4075.76923043, 4070.89743555, 4069.74358940, 4066.28205087, 4131.15384588, 4111.79487152, 4138.84615364, 4133.07692280, 4197.43589730,8.57
4119.99999973, 4122.05128178, 4120.12820485, 4087.43589709, 4118.07692280, 4085.38461504, 4081.53846119, 4082.56410222, 4080.25640991, 4126.79487152, 4114.87179460, 4121.66666639, 4127.05128178, 4190.51282038,8.57
4125.12820485, 4121.28205101, 4121.28205101, 4087.94871761, 4117.56410229, 4068.71794830, 4068.58974318, 4065.25640984, 4054.87179446, 4127.30769203, 4114.35897408, 4126.79487152, 4130.89743562, 4195.76923063,8.57
4127.43589716, 4126.41025614, 4127.69230742, 4079.99999966, 4122.30769203, 4051.66666625, 4047.69230728, 4044.48717907, 4034.48717900, 4131.92307665, 4108.46153819, 4132.69230742, 4132.30769203, 4194.10256397,8.57
4115.51282024, 4117.94871767, 4119.74358947, 4090.38461504, 4121.28205101, 4064.48717907, 4053.20512779, 4054.61538420, 4058.33333292, 4130.51282024, 4111.41025614, 4121.28205101, 4127.05128178, 4190.89743576,8.57
4125.51282024, 4122.69230742, 4124.87179460, 4098.58974325, 4122.69230742, 4080.12820478, 4072.69230735, 4070.76923043, 4073.20512786, 4129.74358947, 4118.84615357, 4135.25640998, 4132.43589716, 4199.23076910,8.57
4116.02564075, 4119.87179460, 4119.10256383, 4091.02564068, 4119.23076896, 4077.82051248, 4079.61538427, 4076.15384581, 4071.92307658, 4131.15384588, 4109.61538434, 4115.25640998, 4124.61538434, 4189.23076910,8.57
4118.97435870, 4125.25640998, 4122.69230742, 4081.79487145, 4118.33333306, 4070.12820478, 4072.82051248, 4077.05128171, 4082.82051248, 4130.12820485, 4105.12820485, 4117.94871767, 4126.79487152, 4193.97435884,8.57
4122.69230742, 4128.20512793, 4121.53846126, 4080.64102530, 4122.43589716, 4073.20512786, 4068.20512779, 4071.41025607, 4081.53846119, 4127.43589716, 4112.05128178, 4128.20512793, 4130.25640998, 4192.05128192,8.57
4114.74358947, 4118.20512793, 4115.64102537, 4086.53846119, 4120.38461511, 4080.76923043, 4072.30769196, 4067.05128164, 4061.53846113, 4126.41025614, 4112.94871767, 4111.92307665, 4123.33333306, 4183.84615371,8.57
4128.71794844, 4125.64102537, 4130.64102537, 4096.92307658, 4121.92307665, 4082.17948684, 4078.46153812, 4076.79487145, 4060.64102523, 4127.56410229, 4113.33333306, 4128.71794844, 4131.02564075, 4195.38461525,8.57
4116.15384588, 4123.33333306, 4119.10256383, 4102.30769196, 4122.43589716, 4080.12820478, 4078.07692273, 4082.56410222, 4074.61538427, 4126.41025614, 4113.20512793, 4120.12820485, 4127.56410229, 4185.64102551,8.57
4115.12820485, 4123.58974332, 4119.10256383, 4092.30769196, 4122.43589716, 4068.33333292, 4067.43589702, 4068.71794830, 4069.48717907, 4126.92307665, 4113.07692280, 4118.58974332, 4127.30769203, 4186.28205115,8.57
4128.20512793, 4128.71794844, 4131.02564075, 4071.79487145, 4122.82051255, 4056.92307651, 4061.28205087, 4056.41025600, 4060.76923036, 4129.10256383, 4110.76923050, 4129.23076896, 4130.25640998, 4189.74358961,8.57
4116.28205101, 4119.74358947, 4119.87179460, 4067.30769189, 4116.79487152, 4068.58974318, 4067.30769189, 4062.94871754, 4068.84615343, 4127.43589716, 4107.56410229, 4108.97435870, 4120.51282024, 4181.15384602,8.57
4127.17948691, 4127.05128178, 4128.97435870, 4080.38461504, 4119.10256383, 4084.23076889, 4073.46153812, 4076.15384581, 4078.20512786, 4126.53846126, 4111.15384588, 4128.20512793, 4131.66666639, 4196.28205115,8.57
4123.46153819, 4123.07692280, 4125.89743562, 4091.79487145, 4122.43589716, 4088.71794837, 4085.12820478, 4086.02564068, 4086.02564068, 4128.97435870, 4111.02564075, 4128.33333306, 4133.71794844, 4190.25641012,8.57
4119.23076896, 4122.05128178, 4123.46153819, 4091.15384581, 4121.15384588, 4087.43589709, 4087.17948684, 4081.15384581, 4082.17948684, 4130.89743562, 4111.28205101, 4119.48717921, 4129.48717921, 4185.89743576,8.57
4131.41025614, 4131.02564075, 4132.05128178, 4083.84615350, 4122.30769203, 4078.84615350, 4070.51282017, 4071.79487145, 4073.07692273, 4129.23076896, 4112.05128178, 4134.87179460, 4134.61538434, 4196.79487166,8.57
4116.79487152, 4115.51282024, 4117.05128178, 4091.92307658, 4119.74358947, 4076.92307658, 4073.58974325, 4085.51282017, 4085.51282017, 4126.28205101, 4110.38461511, 4120.89743562, 4126.02564075, 4190.25641012,8.57
4126.15384588, 4123.33333306, 4123.07692280, 4103.71794844, 4120.64102537, 4086.66666632, 4092.69230735, 4094.74358940, 4092.56410222, 4128.33333306, 4115.25640998, 4134.74358947, 4130.51282024, 4198.07692294,8.57
4123.71794844, 4130.64102537, 4122.05128178, 4101.53846119, 4121.02564075, 4095.64102530, 4098.46153812, 4087.56410222, 4083.97435863, 4128.07692280, 4114.10256383, 4130.76923050, 4132.05128178, 4193.20512807,8.57
4113.20512793, 4122.30769203, 4114.35897408, 4093.07692273, 4119.87179460, 4086.92307658, 4081.66666632, 4081.02564068, 4080.64102530, 4126.79487152, 4111.02564075, 4117.43589716, 4128.07692280, 4190.51282038,8.57
4127.56410229, 4128.71794844, 4125.12820485, 4095.76923043, 4122.56410229, 4076.53846119, 4070.89743555, 4080.12820478, 4084.99999966, 4129.74358947, 4112.69230742, 4136.28205108, 4133.20512793, 4197.82051269,8.57
4114.35897408, 4123.46153819, 4116.41025614, 4107.94871767, 4118.33333306, 4086.15384581, 4085.64102530, 4086.92307658, 4092.05128171, 4128.58974332, 4110.25640998, 4115.76923050, 4126.92307665, 4184.87179474,8.57
4117.82051255, 4127.43589716, 4122.69230742, 4101.92307658, 4117.94871767, 4079.74358940, 4084.99999966, 4085.89743555, 4086.02564068, 4126.79487152, 4112.05128178, 4118.58974332, 4131.02564075, 4191.66666653,8.57
4126.02564075, 4128.07692280, 4128.71794844, 4094.23076889, 4122.69230742, 4068.71794830, 4075.64102530, 4084.74358940, 4083.58974325, 4128.33333306, 4112.05128178, 4127.30769203, 4128.07692280, 4192.56410243,8.57
4119.99999973, 4117.30769203, 4120.38461511, 4103.20512793, 4121.28205101, 4083.46153812, 4086.53846119, 4089.10256376, 4096.66666632, 4129.10256383, 4110.76923050, 4116.15384588, 4121.92307665, 4187.94871781,8.57
4126.79487152, 4124.99999973, 4126.02564075, 4108.20512793, 4120.76923050, 4087.94871761, 4085.38461504, 4077.94871761, 4088.97435863, 4130.64102537, 4114.61538434, 4128.46153819, 4135.38461518, 4197.17948704,8.57
4112.82051255, 4121.15384588, 4117.30769203, 4105.38461511, 4118.97435870, 4082.56410222, 4081.53846119, 4080.76923043, 4081.41025607, 4130.25640998, 4112.82051255, 4115.38461511, 4130.89743562, 4187.56410243,8.57
4119.23076896, 4122.69230742, 4124.74358947, 4104.87179460, 4119.99999973, 4089.23076889, 4098.07692273, 4104.35897408, 4096.53846119, 4128.20512793, 4114.87179460, 4121.02564075, 4127.82051255, 4191.79487166,8.57
4125.64102537, 4128.07692280, 4129.87179460, 4105.12820485, 4120.51282024, 4092.30769196, 4101.79487145, 4102.30769196, 4101.66666632, 4128.20512793, 4116.92307665, 4125.76923050, 4129.48717921, 4189.23076910,8.57
4114.74358947, 4122.17948691, 4117.82051255, 4099.61538427, 4116.92307665, 4080.89743555, 4077.82051248, 4077.69230735, 4088.33333299, 4126.41025614, 4113.58974332, 4110.38461511, 4126.79487152, 4182.43589730,8.57
4130.12820485, 4131.53846126, 4130.25640998, 4089.23076889, 4122.05128178, 4072.05128171, 4063.07692266, 4066.79487138, 4079.61538427, 4125.76923050, 4114.23076896, 4135.51282031, 4137.17948697, 4198.97435884,8.57
4119.87179460, 4124.87179460, 4123.46153819, 4082.05128171, 4121.66666639, 4075.89743555, 4071.79487145, 4071.66666632, 4081.02564068, 4127.43589716, 4111.28205101, 4124.48717921, 4129.74358947, 4189.35897422,8.57
4120.25640998, 4122.17948691, 4122.17948691, 4080.38461504, 4119.10256383, 4072.17948684, 4068.20512779, 4066.15384574, 4077.05128171, 4128.46153819, 4111.53846126, 4118.97435870, 4126.53846126, 4189.61538448,8.57
4133.71794844, 4131.15384588, 4128.46153819, 4093.71794837, 4122.69230742, 4079.23076889, 4076.02564068, 4079.61538427, 4093.97435863, 4126.15384588, 4114.35897408, 4135.51282031, 4132.94871767, 4195.89743576,8.57
4113.84615357, 4121.28205101, 4113.46153819, 4113.33333306, 4119.87179460, 4099.87179453, 4105.76923050, 4119.61538434, 4132.17948691, 4125.89743562, 4115.25640998, 4118.58974332, 4127.43589716, 4185.25641012,8.57
4121.41025614, 4126.53846126, 4125.25640998, 4107.17948691, 4121.66666639, 4090.25640991, 4095.12820478, 4109.10256383, 4120.89743562, 4130.38461511, 4117.69230742, 4132.82051255, 4136.15384595, 4198.58974345,8.57
4122.30769203, 4125.89743562, 4124.99999973, 4092.82051248, 4121.53846126, 4081.28205094, 4073.20512786, 4077.17948684, 4082.30769196, 4130.12820485, 4112.05128178, 4124.74358947, 4133.84615357, 4195.51282038,8.57
4118.58974332, 4119.61538434, 4118.46153819, 4096.92307658, 4117.94871767, 4095.76923043, 4080.89743555, 4080.89743555, 4079.99999966, 4129.10256383, 4109.23076896, 4115.25640998, 4128.33333306, 4192.05128192,8.57
4125.25640998, 4124.48717921, 4125.12820485, 4091.66666632, 4122.05128178, 4087.82051248, 4073.97435863, 4071.66666632, 4078.97435863, 4129.10256383, 4111.02564075, 4129.87179460, 4133.20512793, 4197.30769217,8.57
4109.23076896, 4122.17948691, 4116.53846126, 4081.15384581, 4122.17948691, 4067.82051241, 4057.30769189, 4054.35897395, 4066.28205087, 4126.28205101, 4108.46153819, 4111.15384588, 4126.53846126, 4187.43589730,8.57
4120.25640998, 4128.97435870, 4122.30769203, 4092.30769196, 4120.38461511, 4071.53846119, 4066.41025600, 4068.58974318, 4074.87179453, 4128.71794844, 4109.74358947, 4124.61538434, 4131.53846126, 4194.99999986,8.57
4124.23076896, 4122.17948691, 4119.61538434, 4106.66666639, 4118.33333306, 4093.84615350, 4087.69230735, 4088.71794837, 4094.87179453, 4130.64102537, 4111.41025614, 4127.17948691, 4129.10256383, 4190.51282038,8.57
4116.41025614, 4118.58974332, 4117.30769203, 4096.92307658, 4118.97435870, 4092.82051248, 4087.05128171, 4089.87179453, 4099.61538427, 4128.33333306, 4113.97435870, 4116.53846126, 4126.02564075, 4188.07692294,8.57
4124.35897408, 4131.28205101, 4127.94871767, 4078.97435863, 4122.43589716, 4067.30769189, 4064.23076882, 4078.07692273, 4088.84615350, 4130.25640998, 4112.05128178, 4127.69230742, 4134.10256383, 4192.43589730,8.57
4115.64102537, 4122.56410229, 4118.46153819, 4091.53846119, 4119.48717921, 4084.23076889, 4073.58974325, 4080.38461504, 4086.41025607, 4129.99999973, 4109.10256383, 4110.25640998, 4123.07692280, 4181.15384602,8.57
4124.10256383, 4125.89743562, 4125.12820485, 4111.79487152, 4120.64102537, 4116.66666639, 4101.28205094, 4094.10256376, 4093.07692273, 4125.51282024, 4117.17948691, 4122.69230742, 4125.38461511, 4192.69230756,8.57
4123.33333306, 4127.17948691, 4125.12820485, 4108.97435870, 4122.56410229, 4101.92307658, 4097.43589709, 4093.46153812, 4095.51282017, 4125.51282024, 4118.20512793, 4128.97435870, 4129.74358947, 4189.35897422,8.57
4116.92307665, 4122.82051255, 4120.51282024, 4097.05128171, 4121.66666639, 4074.99999966, 4075.51282017, 4080.25640991, 4084.10256376, 4126.28205101, 4112.17948691, 4114.48717921, 4124.87179460, 4181.66666653,8.57
4130.64102537, 4132.94871767, 4132.30769203, 4092.56410222, 4124.10256383, 4071.15384581, 4066.02564061, 4073.20512786, 4074.23076889, 4125.64102537, 4114.10256383, 4128.97435870, 4132.94871767, 4193.46153833,8.57
4117.56410229, 4121.53846126, 4118.71794844, 4105.38461511, 4120.12820485, 4084.48717914, 4082.17948684, 4091.28205094, 4100.12820478, 4127.56410229, 4115.25640998, 4120.25640998, 4130.38461511, 4187.05128192,8.57
4122.56410229, 4124.35897408, 4126.79487152, 4113.20512793, 4118.97435870, 4091.28205094, 4094.61538427, 4100.64102530, 4115.64102537, 4132.43589716, 4114.35897408, 4129.87179460, 4133.07692280, 4193.20512807,8.57
4126.41025614, 4130.51282024, 4134.35897408, 4101.92307658, 4121.28205101, 4085.25640991, 4084.87179453, 4084.35897402, 4102.30769196, 4131.79487152, 4109.99999973, 4133.58974332, 4133.58974332, 4194.61538448,8.57
4113.20512793, 4117.30769203, 4117.30769203, 4105.12820485, 4117.30769203, 4092.17948684, 4084.23076889, 4083.97435863, 4108.58974332, 4127.17948691, 4111.53846126, 4118.46153819, 4126.41025614, 4188.07692294,8.57
4127.94871767, 4124.23076896, 4124.10256383, 4123.33333306, 4119.10256383, 4117.17948691, 4107.82051255, 4103.97435870, 4119.35897408, 4127.69230742, 4120.64102537, 4139.35897415, 4134.61538434, 4198.07692294,8.57
4119.48717921, 4123.58974332, 4119.10256383, 4117.43589716, 4119.23076896, 4113.07692280, 4110.89743562, 4105.25640998, 4103.33333306, 4128.07692280, 4116.79487152, 4123.20512793, 4130.76923050, 4191.15384602,8.57
4120.76923050, 4125.38461511, 4122.05128178, 4102.05128171, 4119.23076896, 4087.30769196, 4090.51282017, 4093.84615350, 4095.76923043, 4127.30769203, 4114.99999973, 4121.79487152, 4132.94871767, 4195.76923063,8.57
4128.84615357, 4129.48717921, 4129.99999973, 4114.48717921, 4122.82051255, 4100.25640991, 4097.94871761, 4105.38461511, 4117.05128178, 4129.10256383, 4119.87179460, 4137.05128185, 4136.15384595, 4196.53846140,8.57
4108.84615357, 4118.33333306, 4118.58974332, 4115.51282024, 4122.30769203, 4111.66666639, 4102.17948684, 4105.12820485, 4112.05128178, 4127.82051255, 4116.15384588, 4110.51282024, 4125.51282024, 4182.43589730,8.57
4119.10256383, 4126.15384588, 4126.15384588, 4093.07692273, 4126.53846126, 4086.66666632, 4078.58974325, 4077.30769196, 4079.99999966, 4125.89743562, 4114.10256383, 4120.89743562, 4131.15384588, 4192.56410243,8.57
4118.71794844, 4125.51282024, 4122.43589716, 4103.71794844, 4125.38461511, 4090.76923043, 4083.33333299, 4079.74358940, 4088.33333299, 4127.69230742, 4114.61538434, 4122.17948691, 4127.82051255, 4188.46153833,8.57
