AF3,F7,F3,FC5,T7,P7,O1,O2,P8,T8,FC6,F4,F8,AF4,Label
4093.07692273, 4092.17948684, 4097.82051248, 4085.12820478, 4048.07692266, 4095.38461504, 4088.58974325, 4083.46153812, 4076.41025607, 4092.05128171, 4069.35897395, 4112.30769203, 4082.30769196, 4129.61538434,12.0
4082.69230735, 4083.07692273, 4088.58974325, 4079.74358940, 4036.79487131, 4070.64102530, 4067.69230728, 4075.38461504, 4072.17948684, 4088.33333299, 4068.20512779, 4103.46153819, 4073.84615350, 4130.25640998,12.0
4076.41025607, 4077.56410222, 4085.38461504, 4072.43589709, 4031.92307644, 4062.56410215, 4063.58974318, 4066.02564061, 4068.58974318, 4106.15384588, 4062.94871754, 4092.94871761, 4064.23076882, 4127.43589716,12.0
4102.17948684, 4100.51282017, 4110.76923050, 4093.07692273, 4055.12820472, 4088.20512786, 4092.94871761, 4084.61538427, 4077.94871761, 4123.97435870, 4085.51282017, 4114.35897408, 4084.35897402, 4129.23076896,12.0
4117.43589716, 4113.46153819, 4123.71794844, 4108.33333306, 4067.05128164, 4097.05128171, 4101.41025607, 4096.79487145, 4081.79487145, 4114.35897408, 4096.28205094, 4127.94871767, 4095.38461504, 4128.71794844,12.0
4098.71794837, 4093.46153812, 4099.74358940, 4087.05128171, 4045.12820472, 4078.33333299, 4078.58974325, 4085.64102530, 4077.69230735, 4102.94871767, 4073.84615350, 4102.82051255, 4081.66666632, 4126.41025614,12.0
4083.71794837, 4081.92307658, 4080.12820478, 4068.58974318, 4030.64102516, 4069.23076882, 4067.56410215, 4070.12820478, 4073.84615350, 4090.89743555, 4060.51282010, 4080.89743555, 4071.79487145, 4129.74358947,12.0
4092.05128171, 4096.92307658, 4094.87179453, 4078.07692273, 4046.41025600, 4077.43589709, 4079.87179453, 4071.41025607, 4074.48717914, 4087.17948684, 4068.84615343, 4091.41025607, 4073.97435863, 4130.12820485,12.0
4101.92307658, 4103.33333306, 4108.71794844, 4082.69230735, 4059.99999959, 4087.30769196, 4087.69230735, 4078.33333299, 4076.92307658, 4105.38461511, 4075.76923043, 4103.33333306, 4076.66666632, 4129.48717921,12.0
4103.46153819, 4096.66666632, 4103.71794844, 4076.53846119, 4054.87179446, 4091.92307658, 4086.28205094, 4074.87179453, 4074.48717914, 4108.20512793, 4075.12820478, 4100.38461504, 4074.35897402, 4130.12820485,12.0
4111.15384588, 4102.94871767, 4107.56410229, 4081.79487145, 4053.33333292, 4092.30769196, 4094.23076889, 4087.43589709, 4077.05128171, 4104.48717921, 4080.76923043, 4105.51282024, 4082.30769196, 4129.99999973,12.0
4125.51282024, 4114.87179460, 4124.35897408, 4093.20512786, 4063.46153805, 4094.10256376, 4099.61538427, 4109.23076896, 4087.56410222, 4129.61538434, 4099.74358940, 4121.79487152, 4103.07692280, 4128.84615357,12.0
4112.17948691, 4099.87179453, 4117.17948691, 4078.71794837, 4053.20512779, 4084.61538427, 4076.02564068, 4088.58974325, 4081.28205094, 4126.41025614, 4096.28205094, 4110.64102537, 4093.84615350, 4125.89743562,12.0
4089.74358940, 4079.74358940, 4095.64102530, 4054.35897395, 4034.10256362, 4072.05128171, 4057.17948677, 4055.76923036, 4067.82051241, 4081.92307658, 4069.99999966, 4086.53846119, 4070.64102530, 4127.30769203,12.0
4098.46153812, 4083.71794837, 4100.64102530, 4054.61538420, 4039.61538420, 4072.05128171, 4064.35897395, 4063.84615343, 4072.05128171, 4075.89743555, 4067.17948677, 4092.94871761, 4077.94871761, 4129.87179460,12.0
4108.07692280, 4087.82051248, 4114.35897408, 4060.12820472, 4051.53846113, 4073.97435863, 4066.92307651, 4077.43589709, 4077.56410222, 4102.30769196, 4079.10256376, 4103.71794844, 4085.51282017, 4127.82051255,12.0
4098.97435863, 4080.38461504, 4116.53846126, 4058.46153805, 4049.48717907, 4075.38461504, 4063.46153805, 4073.46153812, 4077.17948684, 4110.76923050, 4083.58974325, 4102.17948684, 4082.30769196, 4125.64102537,12.0
4096.41025607, 4078.97435863, 4119.48717921, 4059.99999959, 4047.17948677, 4080.89743555, 4071.41025607, 4078.20512786, 4080.51282017, 4104.10256383, 4085.12820478, 4105.38461511, 4086.66666632, 4127.17948691,12.0
4099.61538427, 4082.17948684, 4119.35897408, 4056.79487138, 4053.58974318, 4083.20512786, 4081.15384581, 4082.43589709, 4079.74358940, 4097.17948684, 4080.51282017, 4107.69230742, 4084.35897402, 4129.23076896,12.0
4092.17948684, 4073.97435863, 4106.15384588, 4039.99999959, 4052.69230728, 4077.30769196, 4076.66666632, 4074.74358940, 4074.87179453, 4093.84615350, 4069.74358940, 4098.20512786, 4074.23076889, 4127.56410229,12.0
4085.25640991, 4065.64102523, 4096.02564068, 4027.30769183, 4043.58974318, 4079.48717914, 4072.43589709, 4078.07692273, 4076.41025607, 4099.48717914, 4067.30769189, 4089.48717914, 4076.15384581, 4126.02564075,12.0
4085.64102530, 4071.79487145, 4099.99999966, 4026.15384567, 4037.56410215, 4079.35897402, 4069.10256369, 4079.74358940, 4077.05128171, 4101.79487145, 4070.25640991, 4089.35897402, 4081.02564068, 4128.33333306,12.0
4091.66666632, 4083.58974325, 4108.46153819, 4034.23076875, 4045.76923036, 4077.56410222, 4069.23076882, 4066.53846113, 4072.30769196, 4094.35897402, 4070.89743555, 4102.82051255, 4081.02564068, 4128.33333306,12.0
4099.35897402, 4088.07692273, 4110.89743562, 4039.23076882, 4056.92307651, 4088.33333299, 4076.53846119, 4064.23076882, 4072.43589709, 4091.79487145, 4067.17948677, 4113.97435870, 4078.97435863, 4129.35897408,12.0
4100.51282017, 4090.51282017, 4106.66666639, 4030.76923029, 4053.33333292, 4087.43589709, 4075.89743555, 4075.38461504, 4076.41025607, 4101.53846119, 4067.69230728, 4110.51282024, 4081.15384581, 4130.25640998,12.0
4099.87179453, 4094.99999966, 4106.66666639, 4022.69230721, 4046.92307651, 4070.51282017, 4070.76923043, 4078.46153812, 4080.64102530, 4108.33333306, 4076.53846119, 4111.41025614, 4090.76923043, 4128.33333306,12.0
4096.66666632, 4089.48717914, 4107.05128178, 4016.92307644, 4045.76923036, 4064.10256369, 4066.53846113, 4072.05128171, 4080.89743555, 4097.56410222, 4068.71794830, 4111.28205101, 4087.43589709, 4127.17948691,12.0
4089.48717914, 4079.61538427, 4097.17948684, 4006.92307644, 4042.69230728, 4068.20512779, 4059.99999959, 4065.76923036, 4076.28205094, 4087.05128171, 4055.76923036, 4098.07692273, 4073.58974325, 4127.17948691,12.0
4085.25640991, 4077.69230735, 4086.92307658, 4000.38461483, 4035.89743541, 4064.23076882, 4055.38461497, 4062.56410215, 4073.58974325, 4090.38461504, 4064.10256369, 4088.33333299, 4073.71794837, 4127.56410229,12.0
4090.64102530, 4085.89743555, 4095.38461504, 4006.66666618, 4042.69230728, 4066.02564061, 4070.12820478, 4076.66666632, 4079.61538427, 4110.12820485, 4078.58974325, 4093.58974325, 4087.69230735, 4127.17948691,12.0
4101.28205094, 4097.56410222, 4111.41025614, 4015.64102516, 4060.12820472, 4076.41025607, 4087.05128171, 4092.30769196, 4086.79487145, 4129.23076896, 4087.05128171, 4104.10256383, 4096.28205094, 4127.94871767,12.0
4107.82051255, 4106.92307665, 4115.12820485, 4018.33333285, 4066.66666625, 4083.84615350, 4090.12820478, 4090.38461504, 4084.99999966, 4123.58974332, 4096.41025607, 4110.89743562, 4096.92307658, 4130.12820485,12.0
4103.71794844, 4103.84615357, 4108.97435870, 4012.69230721, 4060.25640984, 4087.56410222, 4090.64102530, 4083.20512786, 4080.76923043, 4106.02564075, 4088.97435863, 4104.10256383, 4089.99999966, 4128.46153819,12.0
4095.38461504, 4094.23076889, 4100.38461504, 4002.56410201, 4052.43589702, 4075.12820478, 4079.74358940, 4072.56410222, 4079.61538427, 4094.87179453, 4067.17948677, 4087.30769196, 4074.99999966, 4126.41025614,12.0
4097.43589709, 4099.99999966, 4098.20512786, 4009.87179439, 4060.89743548, 4073.46153812, 4078.20512786, 4071.15384581, 4081.15384581, 4100.12820478, 4064.99999959, 4084.48717914, 4071.53846119, 4126.41025614,12.0
4094.23076889, 4100.76923043, 4095.38461504, 4016.92307644, 4068.71794830, 4083.71794837, 4087.17948684, 4076.66666632, 4082.30769196, 4099.74358940, 4060.89743548, 4082.56410222, 4073.71794837, 4126.02564075,12.0
4084.61538427, 4091.28205094, 4091.41025607, 4010.38461490, 4057.82051241, 4071.15384581, 4076.28205094, 4073.97435863, 4081.28205094, 4086.28205094, 4046.02564061, 4074.35897402, 4074.99999966, 4127.56410229,12.0
4089.74358940, 4097.69230735, 4099.74358940, 4015.38461490, 4051.28205087, 4055.38461497, 4059.10256369, 4068.33333292, 4079.10256376, 4092.69230735, 4055.38461497, 4081.28205094, 4080.51282017, 4127.69230742,12.0
4096.28205094, 4103.58974332, 4107.17948691, 4022.82051234, 4057.82051241, 4064.23076882, 4063.46153805, 4069.23076882, 4077.43589709, 4114.23076896, 4076.28205094, 4090.64102530, 4086.15384581, 4126.92307665,12.0
4085.38461504, 4088.97435863, 4097.69230735, 4009.99999952, 4052.94871754, 4069.10256369, 4068.20512779, 4068.71794830, 4079.87179453, 4113.46153819, 4070.38461504, 4079.99999966, 4080.25640991, 4131.53846126,12.0
4089.35897402, 4090.25640991, 4103.07692280, 4010.76923029, 4051.41025600, 4065.38461497, 4068.84615343, 4079.99999966, 4089.23076889, 4116.53846126, 4066.92307651, 4083.46153812, 4083.46153812, 4128.71794844,12.0
4113.20512793, 4112.82051255, 4128.84615357, 4034.74358926, 4068.97435856, 4076.66666632, 4080.64102530, 4102.17948684, 4098.46153812, 4147.17948697, 4090.64102530, 4109.74358947, 4108.84615357, 4123.71794844,12.0
4112.30769203, 4112.30769203, 4130.51282024, 4036.41025593, 4069.48717907, 4083.20512786, 4081.15384581, 4099.35897402, 4098.46153812, 4149.74358954, 4095.25640991, 4113.20512793, 4108.71794844, 4126.53846126,12.0
4091.02564068, 4095.76923043, 4115.38461511, 4018.97435849, 4053.71794830, 4078.20512786, 4069.35897395, 4078.71794837, 4089.48717914, 4116.92307665, 4071.92307658, 4095.89743555, 4077.94871761, 4127.69230742,12.0
4085.89743555, 4093.97435863, 4110.51282024, 4012.17948670, 4053.46153805, 4076.92307658, 4068.58974318, 4073.07692273, 4083.97435863, 4100.76923043, 4054.23076882, 4088.84615350, 4065.38461497, 4127.56410229,12.0
4093.07692273, 4098.84615350, 4103.46153819, 4011.66666618, 4062.94871754, 4082.05128171, 4078.07692273, 4082.43589709, 4086.15384581, 4104.23076896, 4053.84615343, 4092.30769196, 4075.64102530, 4127.69230742,12.0
4090.25640991, 4097.69230735, 4094.23076889, 4011.79487131, 4061.53846113, 4078.97435863, 4073.84615350, 4079.10256376, 4084.74358940, 4101.53846119, 4064.61538420, 4098.97435863, 4079.61538427, 4125.51282024,12.0
4087.17948684, 4093.58974325, 4104.61538434, 4014.23076875, 4049.87179446, 4055.51282010, 4051.41025600, 4063.46153805, 4080.38461504, 4100.51282017, 4078.97435863, 4110.51282024, 4079.35897402, 4124.74358947,12.0
4093.84615350, 4090.76923043, 4118.33333306, 4016.28205080, 4047.56410215, 4047.30769189, 4048.46153805, 4060.51282010, 4082.30769196, 4113.84615357, 4091.02564068, 4122.17948691, 4083.07692273, 4125.12820485,12.0
4097.69230735, 4091.02564068, 4114.61538434, 4021.79487131, 4056.66666625, 4070.51282017, 4069.48717907, 4073.84615350, 4086.41025607, 4124.23076896, 4105.12820485, 4130.64102537, 4089.87179453, 4125.76923050,12.0
4096.53846119, 4090.38461504, 4106.92307665, 4025.89743541, 4057.17948677, 4080.76923043, 4079.87179453, 4090.89743555, 4090.25640991, 4129.23076896, 4119.87179460, 4131.66666639, 4104.61538434, 4126.66666639,12.0
4095.25640991, 4082.94871761, 4098.97435863, 4023.97435849, 4050.51282010, 4076.28205094, 4081.02564068, 4095.76923043, 4093.97435863, 4136.15384595, 4118.33333306, 4121.66666639, 4109.48717921, 4128.97435870,12.0
4095.25640991, 4082.69230735, 4093.58974325, 4030.25640977, 4056.02564061, 4086.92307658, 4090.89743555, 4094.74358940, 4095.12820478, 4130.76923050, 4113.71794844, 4114.99999973, 4104.23076896, 4127.69230742,12.0
4093.33333299, 4087.94871761, 4093.20512786, 4042.82051241, 4059.35897395, 4086.92307658, 4088.33333299, 4099.23076889, 4097.17948684, 4123.58974332, 4115.12820485, 4116.41025614, 4107.05128178, 4125.51282024,12.0
4089.35897402, 4080.25640991, 4083.58974325, 4044.35897395, 4051.28205087, 4077.94871761, 4081.28205094, 4100.38461504, 4097.94871761, 4133.07692280, 4107.05128178, 4112.43589716, 4103.71794844, 4126.66666639,12.0
4088.33333299, 4074.48717914, 4072.30769196, 4041.02564061, 4055.64102523, 4087.30769196, 4088.33333299, 4088.71794837, 4091.02564068, 4134.74358947, 4108.46153819, 4108.84615357, 4096.15384581, 4126.02564075,12.0
4095.89743555, 4085.76923043, 4079.10256376, 4047.05128164, 4064.23076882, 4089.23076889, 4087.82051248, 4088.84615350, 4089.74358940, 4129.74358947, 4131.41025614, 4119.74358947, 4113.71794844, 4126.66666639,12.0
4106.02564075, 4095.51282017, 4090.89743555, 4056.02564061, 4067.43589702, 4082.82051248, 4089.48717914, 4105.38461511, 4099.87179453, 4142.94871774, 4141.66666646, 4128.97435870, 4127.82051255, 4126.66666639,12.0
4108.07692280, 4100.12820478, 4092.43589709, 4062.30769189, 4075.38461504, 4090.38461504, 4104.48717921, 4113.71794844, 4102.43589709, 4151.15384595, 4134.35897408, 4127.94871767, 4117.30769203, 4124.74358947,12.0
4105.38461511, 4102.43589709, 4088.97435863, 4062.43589702, 4072.94871761, 4090.51282017, 4102.43589709, 4109.35897408, 4096.53846119, 4137.17948697, 4131.79487152, 4123.07692280, 4113.07692280, 4127.05128178,12.0
4108.33333306, 4100.76923043, 4087.69230735, 4058.07692266, 4067.82051241, 4089.23076889, 4103.07692280, 4118.20512793, 4101.66666632, 4143.46153826, 4134.61538434, 4118.84615357, 4124.35897408, 4130.38461511,12.0
4111.41025614, 4101.79487145, 4089.87179453, 4059.87179446, 4081.28205094, 4103.71794844, 4125.25640998, 4141.79487159, 4113.84615357, 4174.10256397, 4139.99999980, 4118.97435870, 4134.74358947, 4130.12820485,12.0
4099.23076889, 4098.20512786, 4083.58974325, 4059.99999959, 4085.76923043, 4107.30769203, 4124.23076896, 4135.64102544, 4110.25640998, 4172.43589730, 4139.99999980, 4112.56410229, 4128.58974332, 4125.12820485,12.0
4082.17948684, 4085.64102530, 4067.43589702, 4048.97435856, 4067.69230728, 4094.35897402, 4096.28205094, 4101.02564068, 4095.51282017, 4140.64102544, 4124.61538434, 4096.15384581, 4109.74358947, 4125.38461511,12.0
4082.05128171, 4084.48717914, 4064.87179446, 4045.76923036, 4063.07692266, 4088.46153812, 4093.07692273, 4098.84615350, 4094.61538427, 4132.17948691, 4112.56410229, 4092.05128171, 4100.51282017, 4127.30769203,12.0
4099.23076889, 4099.74358940, 4084.10256376, 4062.05128164, 4080.38461504, 4095.12820478, 4115.12820485, 4130.64102537, 4105.76923050, 4154.61538441, 4121.92307665, 4106.15384588, 4112.17948691, 4123.20512793,12.0
4114.74358947, 4110.64102537, 4102.82051255, 4077.43589709, 4090.89743555, 4103.97435870, 4124.99999973, 4136.28205108, 4109.23076896, 4169.10256397, 4136.53846133, 4120.89743562, 4131.41025614, 4128.07692280,12.0
4124.61538434, 4117.43589716, 4112.82051255, 4082.94871761, 4093.07692273, 4108.71794844, 4124.87179460, 4122.94871767, 4107.30769203, 4169.61538448, 4143.84615364, 4130.89743562, 4143.46153826, 4133.58974332,12.0
4126.53846126, 4121.53846126, 4111.02564075, 4077.56410222, 4088.97435863, 4095.12820478, 4118.58974332, 4119.87179460, 4103.58974332, 4158.84615364, 4139.10256390, 4128.20512793, 4136.15384595, 4125.38461511,12.0
4121.41025614, 4115.51282024, 4102.30769196, 4065.25640984, 4080.25640991, 4079.23076889, 4110.12820485, 4123.33333306, 4104.35897408, 4148.20512800, 4127.94871767, 4116.02564075, 4123.58974332, 4126.41025614,12.0
4124.35897408, 4112.94871767, 4103.71794844, 4068.58974318, 4081.79487145, 4084.35897402, 4112.56410229, 4135.38461518, 4113.97435870, 4161.92307672, 4131.92307665, 4117.05128178, 4135.25640998, 4131.53846126,12.0
4119.48717921, 4108.58974332, 4098.97435863, 4069.74358940, 4082.56410222, 4086.53846119, 4107.43589716, 4130.76923050, 4111.41025614, 4170.64102551, 4134.48717921, 4116.92307665, 4141.79487159, 4127.56410229,12.0
4106.66666639, 4096.41025607, 4084.87179453, 4057.05128164, 4074.23076889, 4082.17948684, 4095.12820478, 4110.38461511, 4099.48717914, 4149.99999980, 4117.43589716, 4099.48717914, 4129.61538434, 4124.35897408,12.0
4113.97435870, 4099.87179453, 4091.41025607, 4059.99999959, 4078.97435863, 4098.07692273, 4103.58974332, 4115.38461511, 4103.58974332, 4139.48717928, 4109.87179460, 4096.53846119, 4133.97435870, 4127.82051255,12.0
4133.97435870, 4118.97435870, 4109.87179460, 4076.79487145, 4095.25640991, 4117.17948691, 4117.56410229, 4131.15384588, 4113.07692280, 4158.97435877, 4124.99999973, 4113.71794844, 4147.30769210, 4130.25640998,12.0
4135.76923056, 4122.94871767, 4108.20512793, 4076.15384581, 4095.12820478, 4113.97435870, 4109.74358947, 4120.25640998, 4107.56410229, 4167.43589723, 4130.89743562, 4115.51282024, 4140.89743569, 4125.76923050,12.0
4127.17948691, 4115.89743562, 4096.79487145, 4062.17948677, 4084.87179453, 4109.61538434, 4100.38461504, 4107.17948691, 4101.79487145, 4155.51282031, 4117.17948691, 4108.46153819, 4136.02564082, 4128.58974332,12.0
4127.69230742, 4116.53846126, 4095.51282017, 4059.23076882, 4081.15384581, 4112.30769203, 4100.12820478, 4113.58974332, 4106.79487152, 4148.58974339, 4106.02564075, 4108.84615357, 4141.02564082, 4128.71794844,12.0
4138.20512800, 4127.56410229, 4108.84615357, 4072.30769196, 4088.84615350, 4115.25640998, 4107.30769203, 4124.10256383, 4114.48717921, 4158.97435877, 4116.28205101, 4116.92307665, 4141.79487159, 4124.61538434,12.0
4150.51282031, 4142.05128185, 4124.23076896, 4083.84615350, 4103.71794844, 4127.82051255, 4128.20512793, 4142.17948697, 4121.79487152, 4183.84615371, 4136.66666646, 4128.58974332, 4147.05128185, 4131.92307665,12.0
4146.53846133, 4141.92307672, 4115.12820485, 4078.07692273, 4102.05128171, 4131.15384588, 4134.74358947, 4144.99999980, 4119.10256383, 4189.87179474, 4132.17948691, 4120.51282024, 4149.35897415, 4130.76923050,12.0
4129.23076896, 4126.15384588, 4096.41025607, 4067.56410215, 4086.41025607, 4111.79487152, 4112.30769203, 4119.87179460, 4110.51282024, 4166.66666646, 4113.07692280, 4099.87179453, 4136.15384595, 4123.07692280,12.0
4120.25640998, 4117.69230742, 4096.28205094, 4061.02564061, 4081.28205094, 4104.87179460, 4103.33333306, 4112.82051255, 4112.30769203, 4154.99999980, 4111.53846126, 4097.69230735, 4127.56410229, 4126.66666639,12.0
4120.89743562, 4118.20512793, 4096.92307658, 4048.58974318, 4082.30769196, 4115.38461511, 4114.99999973, 4127.94871767, 4118.07692280, 4168.84615371, 4116.53846126, 4106.02564075, 4134.35897408, 4130.25640998,12.0
4116.02564075, 4112.30769203, 4083.58974325, 4036.41025593, 4076.66666632, 4106.53846126, 4108.97435870, 4120.12820485, 4114.61538434, 4165.12820492, 4108.33333306, 4099.74358940, 4134.61538434, 4128.33333306,12.0
4106.92307665, 4109.23076896, 4076.41025607, 4034.35897388, 4076.28205094, 4093.58974325, 4096.92307658, 4107.30769203, 4109.87179460, 4145.51282031, 4101.41025607, 4089.35897402, 4123.71794844, 4127.82051255,12.0
4111.79487152, 4120.38461511, 4082.17948684, 4039.23076882, 4088.07692273, 4103.33333306, 4109.23076896, 4122.05128178, 4117.17948691, 4157.05128185, 4109.23076896, 4092.30769196, 4126.79487152, 4125.89743562,12.0
4114.99999973, 4122.30769203, 4078.58974325, 4036.41025593, 4085.76923043, 4106.28205101, 4111.41025614, 4121.66666639, 4119.35897408, 4163.46153826, 4109.35897408, 4091.66666632, 4128.97435870, 4126.92307665,12.0
4105.51282024, 4113.33333306, 4071.66666632, 4028.97435849, 4073.20512786, 4097.05128171, 4092.69230735, 4098.84615350, 4109.87179460, 4141.79487159, 4098.20512786, 4082.05128171, 4116.66666639, 4130.12820485,12.0
4111.15384588, 4121.53846126, 4083.84615350, 4034.48717900, 4083.07692273, 4102.17948684, 4096.15384581, 4105.76923050, 4113.71794844, 4148.84615364, 4108.20512793, 4089.74358940, 4121.79487152, 4126.92307665,12.0
4129.35897408, 4134.99999973, 4100.76923043, 4044.99999959, 4097.56410222, 4114.35897408, 4115.38461511, 4126.15384588, 4125.76923050, 4174.61538448, 4125.12820485, 4107.43589716, 4136.53846133, 4125.64102537,12.0
4135.25640998, 4135.25640998, 4104.23076896, 4048.33333292, 4096.79487145, 4127.82051255, 4127.56410229, 4130.25640998, 4126.15384588, 4170.64102551, 4122.05128178, 4112.43589716, 4137.82051262, 4129.48717921,12.0
4137.05128185, 4137.30769210, 4105.89743562, 4051.53846113, 4096.79487145, 4131.02564075, 4131.66666639, 4134.87179460, 4123.07692280, 4164.99999980, 4122.05128178, 4113.07692280, 4141.53846133, 4128.20512793,12.0
4136.92307672, 4141.15384595, 4108.20512793, 4053.46153805, 4097.82051248, 4113.58974332, 4121.66666639, 4138.58974339, 4124.23076896, 4172.30769217, 4126.53846126, 4111.15384588, 4141.79487159, 4126.02564075,12.0
4130.51282024, 4136.66666646, 4105.64102537, 4045.64102523, 4093.84615350, 4109.10256383, 4116.28205101, 4133.71794844, 4124.87179460, 4164.48717928, 4115.38461511, 4103.07692280, 4129.99999973, 4129.48717921,12.0
4131.66666639, 4136.66666646, 4105.76923050, 4041.92307651, 4097.30769196, 4123.84615357, 4129.10256383, 4134.61538434, 4124.99999973, 4157.69230749, 4107.17948691, 4101.41025607, 4129.61538434, 4131.15384588,12.0
4134.99999973, 4144.87179467, 4108.46153819, 4044.99999959, 4108.07692280, 4127.56410229, 4138.97435877, 4143.84615364, 4125.12820485, 4164.99999980, 4117.05128178, 4103.97435870, 4140.12820492, 4128.71794844,12.0
4127.43589716, 4141.53846133, 4105.64102537, 4041.41025600, 4112.17948691, 4123.84615357, 4137.30769210, 4150.76923056, 4126.28205101, 4161.28205108, 4119.48717921, 4098.71794837, 4138.58974339, 4128.07692280,12.0
4124.61538434, 4135.89743569, 4106.15384588, 4044.35897395, 4114.48717921, 4128.07692280, 4138.33333313, 4150.51282031, 4128.33333306, 4153.58974339, 4113.71794844, 4098.33333299, 4134.74358947, 4127.82051255,12.0
4132.94871767, 4145.12820492, 4114.23076896, 4056.15384574, 4122.56410229, 4135.12820485, 4141.41025621, 4141.92307672, 4126.66666639, 4159.48717928, 4122.69230742, 4108.84615357, 4139.61538441, 4125.89743562,12.0
4127.43589716, 4145.64102544, 4111.92307665, 4055.51282010, 4121.53846126, 4135.89743569, 4134.35897408, 4132.69230742, 4123.84615357, 4159.74358954, 4126.15384588, 4107.05128178, 4139.10256390, 4127.05128178,12.0
4118.07692280, 4139.10256390, 4109.10256383, 4054.10256369, 4111.79487152, 4125.89743562, 4123.58974332, 4135.64102544, 4127.30769203, 4160.12820492, 4120.76923050, 4102.82051255, 4139.61538441, 4127.30769203,12.0
4126.53846126, 4146.15384595, 4117.43589716, 4063.20512779, 4113.71794844, 4126.53846126, 4130.89743562, 4143.33333313, 4131.28205101, 4172.82051269, 4121.28205101, 4113.07692280, 4147.94871774, 4126.66666639,12.0
4134.10256383, 4154.48717928, 4119.74358947, 4069.10256369, 4122.69230742, 4144.23076903, 4147.82051262, 4137.17948697, 4129.48717921, 4174.87179474, 4117.94871767, 4117.43589716, 4154.35897415, 4128.84615357,12.0
4121.02564075, 4139.61538441, 4107.56410229, 4061.15384574, 4108.71794844, 4129.23076896, 4128.97435870, 4121.28205101, 4126.28205101, 4161.53846133, 4103.84615357, 4103.71794844, 4145.64102544, 4126.15384588,12.0
4103.84615357, 4120.12820485, 4097.69230735, 4053.20512779, 4089.10256376, 4092.56410222, 4090.64102530, 4114.48717921, 4126.41025614, 4151.92307672, 4096.79487145, 4090.38461504, 4126.15384588, 4125.25640998,12.0
4105.89743562, 4121.66666639, 4103.07692280, 4058.84615343, 4097.17948684, 4093.20512786, 4092.56410222, 4124.10256383, 4128.07692280, 4153.46153826, 4108.58974332, 4093.84615350, 4120.89743562, 4128.58974332,12.0
4112.56410229, 4124.74358947, 4107.17948691, 4063.97435856, 4109.23076896, 4109.99999973, 4114.74358947, 4135.51282031, 4129.99999973, 4155.89743569, 4118.20512793, 4097.30769196, 4130.38461511, 4128.71794844,12.0
4113.58974332, 4119.99999973, 4108.07692280, 4066.41025600, 4107.17948691, 4110.12820485, 4119.23076896, 4132.69230742, 4131.15384588, 4153.84615364, 4121.15384588, 4093.71794837, 4134.23076896, 4130.38461511,12.0
4118.84615357, 4126.15384588, 4116.53846126, 4076.15384581, 4116.41025614, 4119.23076896, 4126.53846126, 4129.10256383, 4133.33333306, 4155.38461518, 4129.99999973, 4100.76923043, 4132.05128178, 4130.25640998,12.0
4125.64102537, 4138.84615364, 4126.15384588, 4083.71794837, 4133.33333306, 4131.53846126, 4141.66666646, 4136.66666646, 4139.87179467, 4166.92307672, 4135.12820485, 4108.33333306, 4138.97435877, 4126.15384588,12.0
4132.82051255, 4147.82051262, 4132.17948691, 4086.92307658, 4138.58974339, 4131.66666639, 4144.87179467, 4137.94871774, 4143.20512800, 4173.84615371, 4130.64102537, 4107.69230742, 4147.43589723, 4126.15384588,12.0
4135.51282031, 4152.05128185, 4129.48717921, 4082.56410222, 4136.41025621, 4133.84615357, 4143.20512800, 4128.46153819, 4139.74358954, 4168.07692287, 4127.30769203, 4109.23076896, 4143.71794851, 4129.87179460,12.0
4130.12820485, 4146.15384595, 4119.61538434, 4074.87179453, 4131.28205101, 4128.71794844, 4138.46153826, 4125.25640998, 4140.51282031, 4168.84615371, 4126.15384588, 4111.66666639, 4140.38461518, 4132.30769203,12.0
4128.58974332, 4142.56410236, 4118.33333306, 4076.53846119, 4128.58974332, 4123.97435870, 4134.61538434, 4126.41025614, 4144.61538441, 4171.02564089, 4121.92307665, 4107.94871767, 4142.56410236, 4129.35897408,12.0
4138.07692287, 4155.89743569, 4131.66666639, 4088.58974325, 4134.99999973, 4134.10256383, 4139.48717928, 4123.33333306, 4143.97435877, 4165.51282031, 4127.82051255, 4110.38461511, 4141.79487159, 4127.17948691,12.0
4148.33333313, 4168.71794858, 4144.87179467, 4101.41025607, 4140.51282031, 4134.23076896, 4142.43589723, 4124.10256383, 4143.97435877, 4164.35897415, 4139.87179467, 4124.48717921, 4139.23076903, 4128.71794844,12.0
4150.12820492, 4168.84615371, 4152.94871774, 4104.87179460, 4138.58974339, 4122.56410229, 4142.56410236, 4133.71794844, 4150.12820492, 4172.17948704, 4144.48717928, 4135.76923056, 4142.82051262, 4127.56410229,12.0
4147.30769210, 4164.99999980, 4158.97435877, 4103.20512793, 4137.82051262, 4125.64102537, 4145.64102544, 4137.82051262, 4153.33333313, 4176.02564089, 4142.69230749, 4137.17948697, 4144.99999980, 4129.35897408,12.0
4143.97435877, 4159.99999980, 4158.46153826, 4102.94871767, 4140.76923056, 4133.20512793, 4140.12820492, 4126.41025614, 4149.87179467, 4171.41025628, 4140.89743569, 4134.23076896, 4139.48717928, 4129.74358947,12.0
4134.23076896, 4147.56410236, 4145.89743569, 4094.48717914, 4134.48717921, 4120.76923050, 4119.48717921, 4106.41025614, 4143.84615364, 4165.76923056, 4136.53846133, 4124.48717921, 4133.46153819, 4125.76923050,12.0
4122.94871767, 4138.71794851, 4133.58974332, 4080.76923043, 4122.94871767, 4109.10256383, 4104.61538434, 4093.71794837, 4141.41025621, 4159.23076903, 4123.84615357, 4113.07692280, 4132.69230742, 4129.10256383,12.0
4131.02564075, 4153.20512800, 4143.84615364, 4085.64102530, 4133.07692280, 4122.43589716, 4115.38461511, 4104.23076896, 4146.15384595, 4166.15384595, 4124.23076896, 4122.43589716, 4143.84615364, 4131.66666639,12.0
4147.30769210, 4170.64102551, 4153.46153826, 4095.89743555, 4148.84615364, 4133.97435870, 4127.17948691, 4117.69230742, 4149.23076903, 4178.84615371, 4134.48717921, 4138.46153826, 4152.30769210, 4127.94871767,12.0
4141.02564082, 4160.76923056, 4136.15384595, 4081.66666632, 4138.71794851, 4127.82051255, 4124.61538434, 4113.71794844, 4144.87179467, 4165.76923056, 4127.43589716, 4124.99999973, 4140.76923056, 4127.17948691,12.0
4128.97435870, 4147.69230749, 4126.53846126, 4072.05128171, 4131.53846126, 4132.30769203, 4131.66666639, 4111.15384588, 4143.20512800, 4146.66666646, 4118.84615357, 4113.33333306, 4131.79487152, 4128.71794844,12.0
4139.61538441, 4157.94871774, 4145.89743569, 4090.51282017, 4144.74358954, 4134.35897408, 4133.84615357, 4112.05128178, 4147.69230749, 4152.69230749, 4131.15384588, 4131.15384588, 4141.28205108, 4128.84615357,12.0
4152.69230749, 4165.76923056, 4158.46153826, 4103.71794844, 4147.56410236, 4115.12820485, 4114.61538434, 4103.20512793, 4149.74358954, 4166.66666646, 4143.20512800, 4138.71794851, 4144.74358954, 4126.53846126,12.0
4140.64102544, 4150.12820492, 4145.51282031, 4096.02564068, 4133.71794844, 4109.10256383, 4102.82051255, 4095.64102530, 4146.41025621, 4161.92307672, 4133.07692280, 4121.28205101, 4129.99999973, 4127.69230742,12.0
4124.23076896, 4137.82051262, 4133.58974332, 4093.07692273, 4128.84615357, 4121.02564075, 4111.28205101, 4100.64102530, 4145.25641005, 4154.87179467, 4120.38461511, 4116.92307665, 4120.38461511, 4131.28205101,12.0
4128.33333306, 4143.84615364, 4141.15384595, 4101.15384581, 4136.02564082, 4126.53846126, 4122.69230742, 4111.41025614, 4150.38461518, 4166.28205108, 4122.69230742, 4131.53846126, 4133.58974332, 4129.61538434,12.0
4138.84615364, 4148.07692287, 4151.02564082, 4107.17948691, 4142.05128185, 4132.82051255, 4133.33333306, 4122.82051255, 4157.30769210, 4181.53846140, 4130.64102537, 4134.87179460, 4146.79487159, 4130.51282024,12.0
4136.53846133, 4143.58974339, 4142.69230749, 4105.64102537, 4138.46153826, 4136.92307672, 4135.38461518, 4123.33333306, 4158.97435877, 4177.30769217, 4125.76923050, 4123.84615357, 4141.66666646, 4131.92307665,12.0
4127.30769203, 4141.28205108, 4127.56410229, 4096.28205094, 4127.43589716, 4126.79487152, 4127.94871767, 4116.66666639, 4155.51282031, 4161.79487159, 4113.58974332, 4117.17948691, 4135.25640998, 4130.25640998,12.0
4134.74358947, 4151.79487159, 4136.66666646, 4097.30769196, 4132.17948691, 4136.92307672, 4141.15384595, 4131.92307665, 4157.17948697, 4172.43589730, 4123.58974332, 4128.07692280, 4147.30769210, 4132.43589716,12.0
4152.69230749, 4160.38461518, 4158.97435877, 4111.02564075, 4152.17948697, 4158.07692287, 4161.02564082, 4153.46153826, 4162.56410236, 4202.30769224, 4143.84615364, 4144.10256390, 4159.99999980, 4126.41025614,12.0
4152.17948697, 4155.76923056, 4158.58974339, 4113.20512793, 4149.61538441, 4143.71794851, 4149.99999980, 4143.58974339, 4162.82051262, 4203.20512814, 4143.07692287, 4142.69230749, 4156.79487159, 4122.69230742,12.0
4140.51282031, 4148.71794851, 4149.23076903, 4109.48717921, 4132.05128178, 4121.53846126, 4128.97435870, 4125.38461511, 4157.94871774, 4181.41025628, 4132.94871767, 4133.97435870, 4147.94871774, 4128.97435870,12.0
4145.64102544, 4156.41025621, 4159.35897415, 4123.33333306, 4144.23076903, 4130.38461511, 4131.41025614, 4128.33333306, 4156.53846133, 4183.20512807, 4147.69230749, 4142.56410236, 4153.84615364, 4127.82051255,12.0
4161.53846133, 4171.02564089, 4174.48717935, 4140.76923056, 4167.82051262, 4143.58974339, 4144.35897415, 4138.97435877, 4160.12820492, 4202.82051275, 4172.43589730, 4159.35897415, 4172.43589730, 4127.17948691,12.0
4154.23076903, 4159.10256390, 4167.43589723, 4133.20512793, 4158.97435877, 4129.23076896, 4134.48717921, 4132.17948691, 4156.92307672, 4193.20512807, 4163.84615364, 4153.58974339, 4164.48717928, 4126.92307665,12.0
4141.53846133, 4151.28205108, 4159.61538441, 4125.25640998, 4149.10256390, 4125.76923050, 4126.66666639, 4121.15384588, 4152.56410236, 4175.64102551, 4145.25641005, 4145.38461518, 4142.82051262, 4128.84615357,12.0
4153.20512800, 4173.84615371, 4168.46153833, 4135.76923056, 4166.92307672, 4146.92307672, 4141.53846133, 4127.30769203, 4157.43589723, 4185.64102551, 4156.92307672, 4160.25641005, 4151.92307672, 4134.10256383,12.0
4160.25641005, 4179.74358961, 4170.25641012, 4134.48717921, 4174.10256397, 4151.28205108, 4151.02564082, 4140.64102544, 4162.94871774, 4194.61538448, 4167.43589723, 4166.15384595, 4163.97435877, 4129.48717921,12.0
4152.05128185, 4167.30769210, 4164.61538441, 4124.99999973, 4161.02564082, 4145.64102544, 4151.02564082, 4145.25641005, 4159.74358954, 4185.89743576, 4150.51282031, 4152.30769210, 4154.74358954, 4130.12820485,12.0
4152.43589723, 4173.97435884, 4167.17948697, 4131.02564075, 4155.76923056, 4147.17948697, 4147.30769210, 4139.74358954, 4154.87179467, 4181.28205115, 4144.61538441, 4149.87179467, 4154.74358954, 4132.69230742,12.0
4157.82051262, 4181.66666653, 4168.84615371, 4137.05128185, 4159.10256390, 4143.07692287, 4139.99999980, 4133.84615357, 4157.05128185, 4184.74358961, 4154.61538441, 4154.99999980, 4159.35897415, 4129.61538434,12.0
4159.10256390, 4179.74358961, 4170.25641012, 4137.17948697, 4163.33333313, 4142.17948697, 4145.38461518, 4141.79487159, 4159.35897415, 4191.79487166, 4158.33333313, 4155.12820492, 4157.69230749, 4131.66666639,12.0
4165.38461518, 4188.58974345, 4181.66666653, 4149.87179467, 4170.89743576, 4161.15384595, 4165.12820492, 4155.51282031, 4159.10256390, 4199.99999986, 4165.38461518, 4160.64102544, 4166.66666646, 4129.48717921,12.0
4159.35897415, 4182.82051269, 4175.12820499, 4158.58974339, 4166.28205108, 4156.66666646, 4152.05128185, 4143.07692287, 4155.76923056, 4187.56410243, 4160.64102544, 4155.12820492, 4160.89743569, 4127.05128178,12.0
4136.92307672, 4159.35897415, 4149.99999980, 4154.87179467, 4150.38461518, 4123.46153819, 4115.25640998, 4116.15384588, 4149.48717928, 4164.35897415, 4138.84615364, 4131.92307665, 4137.69230749, 4129.35897408,12.0
4135.38461518, 4161.15384595, 4147.56410236, 4168.58974345, 4150.12820492, 4124.23076896, 4119.35897408, 4116.66666639, 4145.76923056, 4163.33333313, 4133.33333306, 4125.38461511, 4137.82051262, 4130.38461511,12.0
4149.35897415, 4175.76923063, 4156.53846133, 4197.43589730, 4158.71794851, 4143.07692287, 4137.17948697, 4124.23076896, 4146.02564082, 4169.10256397, 4141.66666646, 4134.35897408, 4149.23076903, 4131.28205101,12.0
4147.82051262, 4171.15384602, 4148.07692287, 4212.69230763, 4158.46153826, 4136.92307672, 4129.48717921, 4120.38461511, 4147.43589723, 4164.87179467, 4136.92307672, 4131.66666639, 4145.25641005, 4130.38461511,12.0
4143.20512800, 4169.48717935, 4145.51282031, 4222.94871788, 4159.99999980, 4134.23076896, 4128.58974332, 4131.02564075, 4149.35897415, 4170.51282038, 4138.33333313, 4132.82051255, 4150.25641005, 4130.51282024,12.0
4142.69230749, 4174.35897422, 4151.28205108, 4234.87179488, 4157.94871774, 4142.30769210, 4137.05128185, 4139.74358954, 4149.99999980, 4177.56410243, 4148.71794851, 4139.23076903, 4155.51282031, 4130.12820485,12.0
4139.74358954, 4166.66666646, 4148.46153826, 4236.53846154, 4149.99999980, 4135.12820485, 4133.20512793, 4132.43589716, 4150.38461518, 4169.23076910, 4147.69230749, 4137.82051262, 4145.64102544, 4127.82051255,12.0
4151.53846133, 4167.30769210, 4153.97435877, 4244.74358975, 4157.69230749, 4138.84615364, 4143.46153826, 4148.97435877, 4156.79487159, 4177.56410243, 4155.89743569, 4150.89743569, 4156.66666646, 4128.58974332,12.0
4170.12820499, 4185.51282038, 4168.20512807, 4261.02564103, 4172.82051269, 4156.28205108, 4160.64102544, 4169.74358961, 4158.07692287, 4199.10256397, 4172.43589730, 4170.64102551, 4177.17948704, 4131.92307665,12.0
4163.58974339, 4183.20512807, 4164.23076903, 4257.56410257, 4163.46153826, 4148.33333313, 4150.12820492, 4150.76923056, 4148.33333313, 4184.74358961, 4167.69230749, 4168.33333320, 4165.51282031, 4131.02564075,12.0
4155.12820492, 4168.07692287, 4156.02564082, 4250.00000000, 4152.69230749, 4135.25640998, 4138.33333313, 4129.35897408, 4144.99999980, 4164.23076903, 4161.28205108, 4164.35897415, 4154.99999980, 4126.92307665,12.0
4162.82051262, 4171.66666653, 4156.41025621, 4261.15384616, 4160.89743569, 4134.61538434, 4136.53846133, 4134.87179460, 4148.97435877, 4176.79487166, 4170.64102551, 4168.33333320, 4167.17948697, 4128.58974332,12.0
4162.05128185, 4177.30769217, 4155.12820492, 4272.05128212, 4163.07692287, 4129.35897408, 4131.41025614, 4140.25641005, 4150.64102544, 4184.74358961, 4173.97435884, 4160.64102544, 4166.28205108, 4128.46153819,12.0
4156.79487159, 4173.71794858, 4156.41025621, 4273.46153853, 4161.66666646, 4125.64102537, 4133.71794844, 4137.56410236, 4150.25641005, 4176.79487166, 4170.64102551, 4151.53846133, 4155.38461518, 4126.15384588,12.0
4160.64102544, 4172.69230756, 4157.82051262, 4279.74358982, 4167.94871774, 4136.15384595, 4147.43589723, 4144.10256390, 4149.61538441, 4180.38461525, 4170.12820499, 4150.12820492, 4156.41025621, 4131.02564075,12.0
4165.64102544, 4177.56410243, 4159.10256390, 4293.07692315, 4175.51282038, 4149.48717928, 4159.74358954, 4159.61538441, 4151.79487159, 4194.10256397, 4173.46153833, 4153.07692287, 4165.76923056, 4130.38461511,12.0
4167.05128185, 4181.92307679, 4162.17948697, 4301.53846168, 4178.33333320, 4150.25641005, 4162.17948697, 4163.97435877, 4157.43589723, 4200.12820499, 4179.35897422, 4157.94871774, 4171.53846140, 4128.46153819,12.0
4166.79487159, 4182.30769217, 4160.25641005, 4303.71794886, 4171.66666653, 4140.38461518, 4151.41025621, 4154.23076903, 4157.43589723, 4191.41025628, 4174.61538448, 4159.10256390, 4162.82051262, 4130.76923050,12.0
4170.38461525, 4191.02564089, 4166.41025621, 4318.71794886, 4174.87179474, 4149.35897415, 4157.82051262, 4161.92307672, 4155.76923056, 4186.53846140, 4168.20512807, 4166.66666646, 4161.53846133, 4132.69230742,12.0
4177.17948704, 4201.02564096, 4175.51282038, 4336.92307714, 4183.20512807, 4164.61538441, 4172.94871781, 4170.51282038, 4157.05128185, 4188.46153833, 4169.10256397, 4174.10256397, 4169.99999986, 4132.05128178,12.0
4171.41025628, 4191.15384602, 4165.76923056, 4333.46153867, 4169.61538448, 4144.35897415, 4147.17948697, 4146.66666646, 4149.87179467, 4176.53846140, 4163.84615364, 4164.61538441, 4161.41025621, 4125.89743562,12.0
4157.94871774, 4178.33333320, 4156.02564082, 4327.30769245, 4151.41025621, 4122.56410229, 4118.58974332, 4126.15384588, 4142.17948697, 4160.12820492, 4156.79487159, 4157.05128185, 4150.64102544, 4126.28205101,12.0
4161.02564082, 4186.53846140, 4169.35897422, 4342.30769252, 4158.58974339, 4134.99999973, 4131.92307665, 4136.92307672, 4144.10256390, 4166.92307672, 4161.28205108, 4165.89743569, 4160.89743569, 4131.92307665,12.0
4177.82051269, 4201.79487173, 4186.15384602, 4362.94871816, 4173.84615371, 4153.33333313, 4153.33333313, 4152.17948697, 4149.87179467, 4189.48717935, 4174.23076910, 4176.02564089, 4172.43589730, 4132.30769203,12.0
4185.25641012, 4205.51282045, 4186.79487166, 4366.41025669, 4179.87179474, 4159.23076903, 4158.33333313, 4155.51282031, 4156.02564082, 4196.92307679, 4182.94871781, 4179.99999986, 4172.69230756, 4131.79487152,12.0
4176.79487166, 4197.17948704, 4174.74358961, 4357.05128226, 4181.41025628, 4158.84615364, 4157.94871774, 4156.15384595, 4158.07692287, 4190.76923063, 4176.92307679, 4177.43589730, 4171.28205115, 4130.25640998,12.0
4171.41025628, 4191.15384602, 4169.35897422, 4352.94871816, 4178.07692294, 4155.64102544, 4157.56410236, 4160.25641005, 4158.46153826, 4191.92307679, 4169.10256397, 4169.23076910, 4171.41025628, 4127.43589716,12.0
4167.82051262, 4185.51282038, 4170.25641012, 4348.97435919, 4170.51282038, 4157.17948697, 4157.05128185, 4160.12820492, 4156.53846133, 4187.69230756, 4164.87179467, 4157.69230749, 4165.38461518, 4126.15384588,12.0
4152.69230749, 4171.53846140, 4156.41025621, 4334.10256431, 4160.89743569, 4154.74358954, 4148.58974339, 4148.33333313, 4149.99999980, 4167.17948697, 4150.76923056, 4142.30769210, 4147.05128185, 4126.28205101,12.0
4139.87179467, 4162.30769210, 4138.97435877, 4325.00000014, 4152.17948697, 4140.12820492, 4128.71794844, 4132.94871767, 4144.61538441, 4153.97435877, 4140.76923056, 4134.23076896, 4129.74358947, 4129.61538434,12.0
4147.56410236, 4168.07692287, 4146.41025621, 4333.97435919, 4151.15384595, 4131.02564075, 4125.25640998, 4137.43589723, 4146.53846133, 4162.43589723, 4150.38461518, 4144.61538441, 4136.41025621, 4131.79487152,12.0
4168.07692287, 4178.33333320, 4171.92307679, 4351.02564124, 4159.87179467, 4143.84615364, 4145.64102544, 4158.97435877, 4153.33333313, 4178.97435884, 4166.66666646, 4166.02564082, 4157.69230749, 4127.17948691,12.0
4183.20512807, 4187.56410243, 4188.58974345, 4363.71794893, 4172.94871781, 4162.82051262, 4162.43589723, 4167.17948697, 4156.92307672, 4189.48717935, 4174.48717935, 4183.46153833, 4167.17948697, 4127.69230742,12.0
4186.02564089, 4192.43589730, 4187.69230756, 4366.02564131, 4173.33333320, 4156.02564082, 4154.35897415, 4153.33333313, 4153.33333313, 4187.43589730, 4176.41025628, 4185.76923063, 4163.33333313, 4131.28205101,12.0
4178.46153833, 4183.71794858, 4173.84615371, 4357.05128226, 4161.53846133, 4138.33333313, 4138.84615364, 4142.05128185, 4148.71794851, 4179.10256397, 4171.02564089, 4176.41025628, 4160.89743569, 4130.76923050,12.0
4179.61538448, 4181.53846140, 4171.53846140, 4357.69230790, 4164.23076903, 4152.43589723, 4154.10256390, 4154.74358954, 4153.46153826, 4186.02564089, 4170.76923063, 4178.20512807, 4168.58974345, 4130.25640998,12.0
4186.53846140, 4190.89743576, 4180.12820499, 4368.84615413, 4176.15384602, 4169.48717935, 4169.99999986, 4165.64102544, 4156.28205108, 4193.58974345, 4177.30769217, 4187.05128192, 4172.69230756, 4127.30769203,12.0
4177.56410243, 4188.20512807, 4173.71794858, 4366.02564131, 4170.12820499, 4151.53846133, 4146.53846133, 4155.64102544, 4152.82051262, 4181.66666653, 4173.84615371, 4183.58974345, 4162.69230749, 4125.12820485,12.0
4168.20512807, 4181.79487166, 4161.41025621, 4356.15384637, 4161.92307672, 4141.92307672, 4131.41025614, 4150.64102544, 4154.74358954, 4177.94871781, 4167.17948697, 4176.92307679, 4155.25641005, 4127.82051255,12.0
4174.48717935, 4186.28205115, 4162.94871774, 4357.82051303, 4170.25641012, 4163.71794851, 4153.07692287, 4164.87179467, 4159.23076903, 4192.30769217, 4170.25641012, 4176.41025628, 4161.15384595, 4129.87179460,12.0
4178.71794858, 4187.17948704, 4167.30769210, 4364.87179508, 4174.48717935, 4172.05128192, 4163.84615364, 4174.35897422, 4160.64102544, 4201.66666660, 4183.20512807, 4176.53846140, 4171.92307679, 4129.23076896,12.0
4168.20512807, 4176.92307679, 4159.48717928, 4363.58974380, 4162.43589723, 4161.02564082, 4149.74358954, 4161.92307672, 4156.15384595, 4191.02564089, 4183.97435884, 4172.56410243, 4168.07692287, 4128.97435870,12.0
4172.05128192, 4181.92307679, 4163.20512800, 4368.33333362, 4161.28205108, 4164.74358954, 4153.46153826, 4157.05128185, 4154.35897415, 4182.56410243, 4179.10256397, 4175.64102551, 4162.30769210, 4130.25640998,12.0
4197.56410243, 4201.02564096, 4185.76923063, 4390.12820541, 4181.41025628, 4179.48717935, 4177.56410243, 4176.79487166, 4164.10256390, 4201.02564096, 4195.38461525, 4191.53846140, 4177.82051269, 4130.25640998,12.0
4203.71794865, 4201.79487173, 4189.99999986, 4401.66666702, 4190.38461525, 4182.82051269, 4183.58974345, 4189.48717935, 4169.99999986, 4217.05128199, 4203.07692301, 4197.69230756, 4186.79487166, 4128.46153819,12.0
4179.87179474, 4180.51282038, 4167.17948697, 4386.02564131, 4175.25641012, 4170.12820499, 4165.38461518, 4172.94871781, 4161.28205108, 4197.17948704, 4181.66666653, 4181.02564089, 4167.05128185, 4129.23076896,12.0
4164.10256390, 4169.23076910, 4158.20512800, 4376.02564131, 4162.56410236, 4154.74358954, 4150.38461518, 4151.66666646, 4153.58974339, 4171.02564089, 4169.74358961, 4166.15384595, 4153.71794851, 4129.74358947,12.0
4179.61538448, 4186.28205115, 4179.35897422, 4396.41025669, 4171.28205115, 4158.33333313, 4157.69230749, 4158.20512800, 4158.20512800, 4179.61538448, 4184.87179474, 4174.23076910, 4170.51282038, 4127.56410229,12.0
4195.76923063, 4198.97435884, 4193.20512807, 4414.87179522, 4187.17948704, 4174.48717935, 4173.20512807, 4179.48717935, 4164.99999980, 4202.43589737, 4196.15384602, 4185.25641012, 4184.48717935, 4126.66666639,12.0
4183.71794858, 4185.25641012, 4177.05128192, 4404.87179522, 4186.79487166, 4170.76923063, 4169.87179474, 4173.84615371, 4164.10256390, 4196.79487166, 4184.61538448, 4175.38461525, 4169.99999986, 4126.92307665,12.0
4165.12820492, 4171.02564089, 4156.92307672, 4393.07692336, 4172.05128192, 4154.23076903, 4153.07692287, 4149.35897415, 4157.05128185, 4174.74358961, 4164.99999980, 4159.35897415, 4155.12820492, 4129.74358947,12.0
4172.94871781, 4177.43589730, 4163.46153826, 4406.66666702, 4173.33333320, 4161.79487159, 4158.46153826, 4156.41025621, 4157.17948697, 4175.76923063, 4164.87179467, 4164.10256390, 4164.87179467, 4132.17948691,12.0
4185.12820499, 4181.28205115, 4173.20512807, 4416.92307727, 4182.94871781, 4170.12820499, 4166.41025621, 4171.79487166, 4161.02564082, 4185.76923063, 4170.76923063, 4169.48717935, 4169.61538448, 4131.66666639,12.0
4174.10256397, 4173.97435884, 4164.87179467, 4408.84615420, 4177.05128192, 4158.46153826, 4153.71794851, 4155.64102544, 4153.20512800, 4173.07692294, 4155.38461518, 4155.38461518, 4153.71794851, 4131.28205101,12.0
4166.28205108, 4171.66666653, 4162.05128185, 4411.53846189, 4170.38461525, 4155.64102544, 4149.23076903, 4144.10256390, 4146.41025621, 4164.48717928, 4148.07692287, 4157.17948697, 4151.15384595, 4129.10256383,12.0
4167.82051262, 4169.99999986, 4166.28205108, 4421.53846189, 4171.92307679, 4162.82051262, 4152.17948697, 4151.66666646, 4152.82051262, 4175.51282038, 4159.35897415, 4169.61538448, 4160.12820492, 4126.28205101,12.0
4161.02564082, 4166.28205108, 4159.99999980, 4415.64102599, 4170.25641012, 4159.74358954, 4143.58974339, 4148.58974339, 4155.12820492, 4176.28205115, 4158.33333313, 4160.51282031, 4156.53846133, 4129.10256383,12.0
4160.64102544, 4167.56410236, 4159.10256390, 4410.12820548, 4171.28205115, 4157.69230749, 4144.10256390, 4147.82051262, 4151.53846133, 4172.30769217, 4154.74358954, 4152.69230749, 4153.97435877, 4132.17948691,12.0
4171.02564089, 4169.87179474, 4168.20512807, 4415.38461574, 4175.51282038, 4168.07692287, 4159.23076903, 4164.87179467, 4157.82051262, 4183.97435884, 4159.35897415, 4160.25641005, 4158.84615364, 4131.92307665,12.0
4170.38461525, 4169.74358961, 4166.53846133, 4412.05128240, 4176.41025628, 4169.87179474, 4164.74358954, 4174.48717935, 4165.89743569, 4192.56410243, 4161.53846133, 4158.58974339, 4157.30769210, 4130.12820485,12.0
4162.30769210, 4166.53846133, 4159.10256390, 4404.48717984, 4179.35897422, 4163.07692287, 4162.56410236, 4170.51282038, 4162.94871774, 4188.46153833, 4162.43589723, 4149.48717928, 4151.92307672, 4128.58974332,12.0
4156.66666646, 4158.84615364, 4155.25641005, 4398.07692343, 4177.05128192, 4159.74358954, 4158.71794851, 4164.61538441, 4157.17948697, 4182.43589730, 4153.33333313, 4144.35897415, 4150.12820492, 4127.82051255,12.0
4153.07692287, 4152.30769210, 4155.76923056, 4388.97435926, 4168.97435884, 4160.12820492, 4150.12820492, 4158.71794851, 4154.87179467, 4181.02564089, 4139.61538441, 4140.76923056, 4148.84615364, 4127.17948691,12.0
4152.17948697, 4148.71794851, 4158.58974339, 4381.28205156, 4165.38461518, 4158.71794851, 4141.02564082, 4153.58974339, 4150.25641005, 4178.20512807, 4136.41025621, 4141.28205108, 4145.51282031, 4127.69230742,12.0
4149.35897415, 4142.94871774, 4156.15384595, 4372.05128233, 4159.61538441, 4149.48717928, 4134.99999973, 4151.28205108, 4145.89743569, 4173.84615371, 4132.94871767, 4141.02564082, 4143.07692287, 4127.05128178,12.0
4151.79487159, 4146.66666646, 4157.82051262, 4364.87179508, 4157.94871774, 4150.76923056, 4144.23076903, 4161.15384595, 4153.71794851, 4178.97435884, 4129.87179460, 4144.87179467, 4150.51282031, 4129.35897408,12.0
4161.41025621, 4156.66666646, 4165.38461518, 4363.46153867, 4167.82051262, 4167.05128185, 4158.84615364, 4169.74358961, 4162.69230749, 4190.51282038, 4138.97435877, 4158.97435877, 4160.76923056, 4133.58974332,12.0
4162.30769210, 4155.64102544, 4160.25641005, 4357.17948739, 4169.10256397, 4173.84615371, 4159.48717928, 4163.07692287, 4156.92307672, 4189.99999986, 4140.38461518, 4162.43589723, 4157.82051262, 4131.53846126,12.0
4159.48717928, 4155.38461518, 4151.53846133, 4349.87179508, 4167.43589723, 4172.94871781, 4163.07692287, 4172.56410243, 4156.15384595, 4188.33333320, 4130.89743562, 4157.17948697, 4157.43589723, 4129.10256383,12.0
4154.74358954, 4158.07692287, 4148.58974339, 4341.92307714, 4168.97435884, 4171.79487166, 4163.07692287, 4182.56410243, 4161.53846133, 4186.28205115, 4123.84615357, 4152.43589723, 4156.02564082, 4130.64102537,12.0
4138.07692287, 4145.25641005, 4134.61538434, 4323.46153860, 4156.02564082, 4158.33333313, 4137.69230749, 4154.35897415, 4150.89743569, 4166.66666646, 4113.97435870, 4142.17948697, 4138.71794851, 4131.02564075,12.0
4131.02564075, 4136.66666646, 4129.74358947, 4315.25641040, 4147.30769210, 4140.25641005, 4118.58974332, 4129.61538434, 4141.02564082, 4157.30769210, 4114.48717921, 4137.82051262, 4133.07692280, 4128.84615357,12.0
4143.33333313, 4147.43589723, 4147.17948697, 4326.28205142, 4153.07692287, 4136.66666646, 4126.15384588, 4138.71794851, 4147.56410236, 4172.43589730, 4129.35897408, 4144.23076903, 4140.25641005, 4129.10256383,12.0
4144.61538441, 4152.30769210, 4151.02564082, 4326.92307707, 4154.48717928, 4135.25640998, 4127.30769203, 4141.66666646, 4149.61538441, 4170.38461525, 4131.53846126, 4140.38461518, 4132.69230742, 4130.89743562,12.0
4140.64102544, 4148.58974339, 4144.35897415, 4320.89743604, 4159.10256390, 4136.41025621, 4124.48717921, 4135.64102544, 4144.35897415, 4156.92307672, 4130.12820485, 4138.46153826, 4127.69230742, 4128.58974332,12.0
4154.61538441, 4163.07692287, 4160.12820492, 4331.66666681, 4171.15384602, 4152.43589723, 4141.28205108, 4149.61538441, 4149.10256390, 4168.71794858, 4148.58974339, 4159.48717928, 4144.74358954, 4127.56410229,12.0
4164.35897415, 4174.10256397, 4175.12820499, 4336.79487201, 4167.82051262, 4162.56410236, 4153.07692287, 4162.43589723, 4153.46153826, 4181.79487166, 4156.66666646, 4172.05128192, 4150.25641005, 4130.38461511,12.0
4158.84615364, 4162.43589723, 4166.79487159, 4325.25641040, 4158.71794851, 4161.02564082, 4148.71794851, 4162.82051262, 4153.20512800, 4175.89743576, 4142.94871774, 4162.05128185, 4141.66666646, 4131.41025614,12.0
4150.64102544, 4149.61538441, 4150.25641005, 4312.69230784, 4153.84615364, 4157.69230749, 4142.17948697, 4158.07692287, 4151.66666646, 4166.28205108, 4130.12820485, 4149.10256390, 4136.02564082, 4130.51282024,12.0
4141.02564082, 4143.20512800, 4136.66666646, 4303.20512835, 4145.89743569, 4159.10256390, 4142.17948697, 4157.05128185, 4148.46153826, 4158.97435877, 4119.10256383, 4138.97435877, 4127.94871767, 4128.97435870,12.0
4135.89743569, 4139.35897415, 4132.94871767, 4299.61538476, 4148.84615364, 4170.12820499, 4151.41025621, 4171.15384602, 4152.05128185, 4161.28205108, 4117.82051255, 4137.05128185, 4126.66666639, 4130.51282024,12.0
4136.92307672, 4137.94871774, 4137.94871774, 4301.66666681, 4152.82051262, 4167.30769210, 4146.02564082, 4168.97435884, 4153.46153826, 4164.35897415, 4128.20512793, 4142.82051262, 4128.07692280, 4133.33333306,12.0
4134.87179460, 4136.41025621, 4135.51282031, 4298.20512828, 4143.84615364, 4146.28205108, 4123.58974332, 4145.25641005, 4147.17948697, 4156.79487159, 4125.25640998, 4141.15384595, 4122.43589716, 4130.38461511,12.0
4131.28205101, 4137.56410236, 4126.53846126, 4290.00000007, 4140.64102544, 4141.92307672, 4119.48717921, 4138.58974339, 4142.94871774, 4151.15384595, 4113.97435870, 4130.12820485, 4115.76923050, 4127.05128178,12.0
4128.20512793, 4142.56410236, 4124.48717921, 4289.61538469, 4144.23076903, 4151.79487159, 4127.69230742, 4144.10256390, 4143.33333313, 4148.71794851, 4109.74358947, 4124.10256383, 4107.94871767, 4128.58974332,12.0
4126.15384588, 4145.51282031, 4129.48717921, 4292.30769238, 4142.82051262, 4148.71794851, 4122.94871767, 4137.30769210, 4142.94871774, 4141.53846133, 4105.64102537, 4125.64102537, 4105.89743562, 4129.48717921,12.0
4134.10256383, 4142.82051262, 4134.35897408, 4288.84615392, 4140.64102544, 4147.56410236, 4124.10256383, 4134.87179460, 4142.69230749, 4142.56410236, 4104.74358947, 4131.15384588, 4112.56410229, 4129.74358947,12.0
4145.25641005, 4143.58974339, 4139.61538441, 4284.87179495, 4142.43589723, 4154.87179467, 4134.61538434, 4145.38461518, 4146.53846133, 4151.92307672, 4112.30769203, 4137.43589723, 4113.33333306, 4131.66666639,12.0
4148.84615364, 4152.05128185, 4146.92307672, 4287.56410264, 4150.76923056, 4159.48717928, 4140.12820492, 4158.07692287, 4155.25641005, 4163.46153826, 4122.43589716, 4144.35897415, 4116.53846126, 4131.66666639,12.0
4144.87179467, 4154.99999980, 4145.38461518, 4288.33333341, 4157.69230749, 4167.30769210, 4142.17948697, 4160.25641005, 4160.76923056, 4169.61538448, 4123.97435870, 4144.35897415, 4123.84615357, 4128.84615357,12.0
4134.35897408, 4141.53846133, 4132.82051255, 4277.05128212, 4147.43589723, 4171.41025628, 4136.66666646, 4145.12820492, 4150.12820492, 4155.38461518, 4108.07692280, 4131.41025614, 4109.87179460, 4128.07692280,12.0
4134.87179460, 4137.56410236, 4134.48717921, 4273.97435905, 4143.71794851, 4168.97435884, 4133.71794844, 4144.87179467, 4144.10256390, 4149.10256390, 4102.43589709, 4131.41025614, 4104.35897408, 4132.69230742,12.0
4145.12820492, 4151.66666646, 4146.41025621, 4284.35897443, 4155.89743569, 4165.51282031, 4137.94871774, 4157.82051262, 4149.99999980, 4159.74358954, 4115.12820485, 4143.71794851, 4119.99999973, 4132.69230742,12.0
4140.25641005, 4156.28205108, 4145.38461518, 4287.56410264, 4156.92307672, 4159.35897415, 4134.61538434, 4146.15384595, 4148.58974339, 4155.12820492, 4117.30769203, 4141.15384595, 4115.64102537, 4128.58974332,12.0
4130.12820485, 4151.66666646, 4145.25641005, 4286.02564110, 4150.25641005, 4159.61538441, 4129.10256383, 4131.02564075, 4144.35897415, 4144.99999980, 4116.41025614, 4134.99999973, 4107.30769203, 4131.02564075,12.0
4132.17948691, 4149.87179467, 4150.12820492, 4288.84615392, 4150.25641005, 4162.17948697, 4132.94871767, 4142.82051262, 4149.61538441, 4152.69230749, 4126.28205101, 4139.48717928, 4121.53846126, 4131.53846126,12.0
4134.99999973, 4145.76923056, 4144.74358954, 4286.02564110, 4145.25641005, 4152.43589723, 4131.53846126, 4149.35897415, 4154.35897415, 4157.82051262, 4125.89743562, 4139.61538441, 4127.94871767, 4130.76923050,12.0
4136.53846133, 4145.25641005, 4139.87179467, 4282.43589751, 4139.74358954, 4149.74358954, 4131.15384588, 4136.79487159, 4149.99999980, 4149.23076903, 4119.35897408, 4135.25640998, 4119.74358947, 4131.79487152,12.0
4146.92307672, 4155.64102544, 4145.38461518, 4291.02564110, 4149.74358954, 4168.84615371, 4154.48717928, 4156.02564082, 4153.20512800, 4160.12820492, 4134.35897408, 4144.23076903, 4128.84615357, 4130.76923050,12.0
4149.48717928, 4157.43589723, 4143.33333313, 4296.79487187, 4156.66666646, 4168.97435884, 4164.35897415, 4186.92307679, 4163.20512800, 4178.58974345, 4144.23076903, 4150.51282031, 4139.48717928, 4130.25640998,12.0
4139.61538441, 4148.46153826, 4134.48717921, 4296.28205136, 4149.99999980, 4151.28205108, 4144.74358954, 4173.33333320, 4162.56410236, 4171.66666653, 4131.79487152, 4139.74358954, 4131.79487152, 4130.51282024,12.0
4142.56410236, 4151.02564082, 4140.76923056, 4306.41025655, 4152.69230749, 4153.97435877, 4139.99999980, 4149.87179467, 4157.30769210, 4161.15384595, 4132.82051255, 4135.89743569, 4130.64102537, 4130.12820485,12.0
4152.43589723, 4160.64102544, 4156.41025621, 4322.69230784, 4164.48717928, 4158.84615364, 4147.17948697, 4157.17948697, 4158.84615364, 4168.71794858, 4146.02564082, 4145.64102544, 4142.17948697, 4132.43589716,12.0
4151.28205108, 4161.92307672, 4163.58974339, 4333.84615406, 4166.02564082, 4149.99999980, 4139.99999980, 4162.69230749, 4161.53846133, 4173.84615371, 4144.10256390, 4151.02564082, 4146.41025621, 4133.58974332,12.0
4150.89743569, 4161.92307672, 4162.94871774, 4346.79487201, 4164.23076903, 4152.69230749, 4138.46153826, 4154.99999980, 4158.33333313, 4170.89743576, 4144.23076903, 4151.02564082, 4142.43589723, 4129.74358947,12.0
4158.07692287, 4167.05128185, 4164.99999980, 4366.41025669, 4172.82051269, 4167.30769210, 4152.82051262, 4159.87179467, 4157.69230749, 4175.12820499, 4152.30769210, 4153.33333313, 4142.43589723, 4130.51282024,12.0
4157.17948697, 4167.56410236, 4167.43589723, 4382.82051310, 4177.05128192, 4167.56410236, 4155.25641005, 4160.64102544, 4160.51282031, 4173.20512807, 4142.82051262, 4156.02564082, 4141.15384595, 4134.99999973,12.0
4156.28205108, 4167.30769210, 4163.84615364, 4395.38461567, 4173.20512807, 4163.20512800, 4150.38461518, 4154.61538441, 4158.84615364, 4161.02564082, 4133.20512793, 4159.61538441, 4139.35897415, 4133.20512793,12.0
4157.05128185, 4163.58974339, 4151.15384595, 4401.53846189, 4167.05128185, 4165.51282031, 4153.20512800, 4158.58974339, 4153.46153826, 4150.12820492, 4134.23076896, 4153.33333313, 4131.15384588, 4129.87179460,12.0
4143.97435877, 4152.82051262, 4136.66666646, 4407.56410292, 4157.43589723, 4160.25641005, 4150.64102544, 4159.87179467, 4152.69230749, 4141.15384595, 4126.79487152, 4140.25641005, 4118.84615357, 4131.53846126,12.0
4143.97435877, 4152.82051262, 4136.66666646, 4407.56410292, 4157.43589723, 4160.25641005, 4150.64102544, 4159.87179467, 4152.69230749, 4141.15384595, 4126.79487152, 4140.25641005, 4118.84615357, 4131.53846126,12.0
4139.48717928, 4154.99999980, 4141.28205108, 4428.84615420, 4160.12820492, 4157.82051262, 4152.94871774, 4162.94871774, 4157.43589723, 4149.35897415, 4129.74358947, 4147.82051262, 4129.87179460, 4131.53846126,12.0
4146.79487159, 4163.20512800, 4149.23076903, 4446.41025683, 4165.89743569, 4157.94871774, 4156.92307672, 4168.20512807, 4158.97435877, 4159.23076903, 4145.64102544, 4156.92307672, 4143.97435877, 4131.41025614,12.0
4137.17948697, 4155.64102544, 4133.97435870, 4440.76923119, 4152.43589723, 4144.99999980, 4143.71794851, 4158.71794851, 4153.46153826, 4145.64102544, 4143.07692287, 4135.76923056, 4132.69230742, 4132.30769203,12.0
4123.84615357, 4148.20512800, 4118.58974332, 4433.84615427, 4140.76923056, 4133.07692280, 4129.99999973, 4146.79487159, 4151.92307672, 4136.66666646, 4132.17948691, 4115.38461511, 4124.35897408, 4131.28205101,12.0
4126.41025614, 4156.15384595, 4124.48717921, 4442.69230811, 4151.41025621, 4141.02564082, 4134.61538434, 4151.28205108, 4155.64102544, 4146.53846133, 4138.58974339, 4123.07692280, 4129.10256383, 4132.82051255,12.0
4132.82051255, 4161.15384595, 4133.07692280, 4448.33333375, 4161.28205108, 4152.56410236, 4149.48717928, 4160.76923056, 4158.84615364, 4154.61538441, 4151.92307672, 4141.28205108, 4129.61538434, 4133.46153819,12.0
4132.17948691, 4150.38461518, 4126.28205101, 4437.05128247, 4154.35897415, 4144.74358954, 4145.12820492, 4156.28205108, 4157.43589723, 4152.82051262, 4152.17948697, 4144.99999980, 4130.38461511, 4132.05128178,12.0
4133.33333306, 4142.69230749, 4117.30769203, 4424.61538497, 4147.94871774, 4131.79487152, 4126.92307665, 4144.74358954, 4152.43589723, 4144.99999980, 4148.33333313, 4139.10256390, 4131.28205101, 4133.97435870,12.0
4143.46153826, 4151.28205108, 4122.05128178, 4422.82051317, 4151.92307672, 4137.94871774, 4131.28205101, 4146.92307672, 4153.97435877, 4144.61538441, 4153.58974339, 4142.30769210, 4128.20512793, 4132.17948691,12.0
4148.20512800, 4161.53846133, 4130.64102537, 4423.07692343, 4159.35897415, 4154.23076903, 4153.58974339, 4156.28205108, 4160.38461518, 4154.23076903, 4158.46153826, 4148.07692287, 4129.87179460, 4129.48717921,12.0
4142.82051262, 4163.07692287, 4129.87179460, 4418.20512856, 4160.64102544, 4157.43589723, 4162.30769210, 4166.92307672, 4164.23076903, 4158.84615364, 4160.76923056, 4145.64102544, 4136.02564082, 4133.97435870,12.0
4145.38461518, 4163.20512800, 4129.61538434, 4414.35897471, 4156.66666646, 4151.53846133, 4158.07692287, 4181.02564089, 4168.84615371, 4163.71794851, 4172.43589730, 4149.48717928, 4145.51282031, 4136.66666646,12.0
4162.17948697, 4168.84615371, 4140.89743569, 4414.61538497, 4158.71794851, 4151.15384595, 4161.41025621, 4187.30769217, 4173.71794858, 4178.07692294, 4186.92307679, 4167.17948697, 4161.15384595, 4133.58974332,12.0
4161.53846133, 4165.12820492, 4143.97435877, 4409.10256445, 4157.82051262, 4145.38461518, 4155.25641005, 4174.99999986, 4168.58974345, 4173.84615371, 4180.38461525, 4168.71794858, 4157.43589723, 4131.41025614,12.0
4141.79487159, 4153.97435877, 4134.48717921, 4398.71794907, 4147.43589723, 4131.15384588, 4135.89743569, 4160.25641005, 4159.10256390, 4152.17948697, 4164.99999980, 4153.58974339, 4137.82051262, 4131.92307665,12.0
4142.30769210, 4159.61538441, 4141.02564082, 4399.35897471, 4146.92307672, 4130.12820485, 4134.87179460, 4161.92307672, 4162.69230749, 4153.58974339, 4169.10256397, 4156.92307672, 4138.84615364, 4133.46153819,12.0
4152.05128185, 4168.84615371, 4151.53846133, 4398.58974394, 4156.28205108, 4138.20512800, 4144.23076903, 4161.53846133, 4165.64102544, 4160.12820492, 4174.74358961, 4163.58974339, 4146.02564082, 4133.84615357,12.0
4142.43589723, 4162.82051262, 4139.61538441, 4384.61538490, 4154.35897415, 4138.71794851, 4141.15384595, 4153.84615364, 4159.87179467, 4146.28205108, 4164.23076903, 4149.87179467, 4138.07692287, 4132.17948691,12.0
4128.97435870, 4159.74358954, 4123.46153819, 4374.35897464, 4146.66666646, 4135.64102544, 4132.56410229, 4152.17948697, 4158.46153826, 4136.66666646, 4151.79487159, 4138.58974339, 4130.25640998, 4130.76923050,12.0
4132.94871767, 4170.12820499, 4126.28205101, 4376.15384644, 4150.51282031, 4137.05128185, 4139.87179467, 4159.48717928, 4163.97435877, 4144.48717928, 4151.92307672, 4145.25641005, 4131.02564075, 4131.53846126,12.0
4144.99999980, 4176.66666653, 4135.89743569, 4378.20512849, 4162.17948697, 4148.58974339, 4157.05128185, 4168.84615371, 4170.64102551, 4156.53846133, 4160.12820492, 4154.87179467, 4137.30769210, 4131.28205101,12.0
4138.84615364, 4164.74358954, 4130.12820485, 4365.76923105, 4160.89743569, 4153.20512800, 4153.97435877, 4168.58974345, 4169.23076910, 4154.61538441, 4156.41025621, 4147.82051262, 4137.30769210, 4131.15384588,12.0
4120.64102537, 4143.97435877, 4114.23076896, 4342.82051303, 4142.43589723, 4134.99999973, 4132.82051255, 4158.46153826, 4161.66666646, 4139.61538441, 4139.87179467, 4126.28205101, 4123.97435870, 4133.07692280,12.0
4122.30769203, 4141.41025621, 4116.92307665, 4339.35897457, 4136.41025621, 4125.25640998, 4127.82051255, 4151.02564082, 4159.23076903, 4138.58974339, 4142.56410236, 4122.69230742, 4122.43589716, 4134.99999973,12.0
4139.48717928, 4156.15384595, 4137.30769210, 4354.10256431, 4152.56410236, 4137.17948697, 4141.02564082, 4156.15384595, 4164.10256390, 4153.97435877, 4162.30769210, 4139.61538441, 4138.20512800, 4134.48717921,12.0
4132.56410229, 4149.48717928, 4132.56410229, 4342.69230790, 4151.66666646, 4133.71794844, 4133.71794844, 4150.51282031, 4158.20512800, 4146.92307672, 4156.92307672, 4134.23076896, 4131.15384588, 4131.92307665,12.0
4112.43589716, 4131.79487152, 4111.53846126, 4320.00000014, 4130.12820485, 4115.89743562, 4112.43589716, 4131.92307665, 4146.79487159, 4119.61538434, 4134.99999973, 4113.97435870, 4107.94871767, 4135.64102544,12.0
4119.23076896, 4140.76923056, 4117.82051255, 4327.94871809, 4132.43589716, 4121.92307665, 4117.69230742, 4134.61538434, 4159.99999980, 4119.74358947, 4138.97435877, 4124.48717921, 4113.46153819, 4137.56410236,12.0
4128.58974332, 4151.79487159, 4127.56410229, 4333.97435919, 4142.43589723, 4132.94871767, 4130.12820485, 4143.33333313, 4179.87179474, 4131.92307665, 4151.15384595, 4137.69230749, 4125.12820485, 4129.99999973,12.0
4123.46153819, 4149.35897415, 4122.17948691, 4322.17948732, 4137.43589723, 4128.07692280, 4128.07692280, 4138.84615364, 4183.84615371, 4130.51282024, 4148.33333313, 4130.12820485, 4120.89743562, 4129.99999973,12.0
4128.58974332, 4152.94871774, 4124.99999973, 4323.33333348, 4141.02564082, 4125.76923050, 4129.10256383, 4142.43589723, 4188.07692294, 4138.07692287, 4151.02564082, 4135.76923056, 4128.07692280, 4136.66666646,12.0
4141.02564082, 4158.33333313, 4137.05128185, 4335.12820534, 4154.48717928, 4131.79487152, 4139.61538441, 4155.89743569, 4195.12820499, 4156.41025621, 4165.12820492, 4150.76923056, 4142.56410236, 4135.51282031,12.0
4145.89743569, 4159.48717928, 4142.56410236, 4337.17948739, 4155.89743569, 4144.35897415, 4151.53846133, 4161.28205108, 4192.82051269, 4163.20512800, 4168.97435884, 4149.23076903, 4143.20512800, 4133.07692280,12.0
4140.89743569, 4157.69230749, 4137.17948697, 4329.35897450, 4145.51282031, 4146.66666646, 4151.53846133, 4158.97435877, 4188.33333320, 4153.97435877, 4157.43589723, 4140.64102544, 4137.82051262, 4132.56410229,12.0
4137.30769210, 4156.28205108, 4131.41025614, 4325.89743604, 4144.74358954, 4131.41025614, 4140.89743569, 4156.15384595, 4190.38461525, 4144.10256390, 4154.23076903, 4141.02564082, 4133.97435870, 4133.33333306,12.0
4139.74358954, 4160.89743569, 4135.38461518, 4332.17948732, 4150.25641005, 4123.84615357, 4136.66666646, 4156.02564082, 4189.23076910, 4140.38461518, 4158.07692287, 4142.43589723, 4128.20512793, 4135.25640998,12.0
4145.51282031, 4168.46153833, 4140.38461518, 4339.35897457, 4153.46153826, 4132.69230742, 4141.92307672, 4160.89743569, 4187.94871781, 4143.33333313, 4155.38461518, 4141.28205108, 4127.69230742, 4133.58974332,12.0
4139.99999980, 4162.82051262, 4131.15384588, 4335.38461560, 4145.76923056, 4129.48717921, 4135.64102544, 4154.48717928, 4186.79487166, 4140.64102544, 4152.05128185, 4135.51282031, 4128.84615357, 4133.07692280,12.0
4122.17948691, 4144.61538441, 4115.89743562, 4327.17948732, 4131.28205101, 4110.76923050, 4116.41025614, 4135.76923056, 4180.89743576, 4126.66666639, 4148.07692287, 4121.79487152, 4120.38461511, 4133.84615357,12.0
4115.51282024, 4135.89743569, 4114.10256383, 4329.35897450, 4130.12820485, 4111.02564075, 4112.56410229, 4131.66666639, 4179.35897422, 4119.87179460, 4143.46153826, 4112.43589716, 4113.33333306, 4131.28205101,12.0
4122.94871767, 4143.71794851, 4123.71794844, 4334.87179508, 4135.25640998, 4122.94871767, 4122.43589716, 4141.53846133, 4186.53846140, 4127.05128178, 4141.41025621, 4115.25640998, 4119.74358947, 4129.35897408,12.0
4131.15384588, 4156.41025621, 4133.07692280, 4336.66666688, 4139.48717928, 4125.38461511, 4127.82051255, 4147.69230749, 4193.97435884, 4140.64102544, 4144.48717928, 4124.48717921, 4130.12820485, 4131.02564075,12.0
4135.38461518, 4158.97435877, 4136.92307672, 4339.23076944, 4142.69230749, 4131.28205101, 4133.46153819, 4153.71794851, 4193.07692294, 4148.97435877, 4146.15384595, 4128.71794844, 4134.10256383, 4131.41025614,12.0
4142.05128185, 4158.71794851, 4142.69230749, 4345.12820534, 4145.76923056, 4146.28205108, 4151.28205108, 4169.99999986, 4191.66666653, 4155.38461518, 4151.15384595, 4132.56410229, 4139.74358954, 4129.61538434,12.0
4141.28205108, 4153.71794851, 4145.38461518, 4342.43589765, 4143.71794851, 4139.23076903, 4152.94871774, 4175.38461525, 4192.94871781, 4156.15384595, 4157.69230749, 4134.74358947, 4138.84615364, 4129.99999973,12.0
4129.48717921, 4137.69230749, 4132.82051255, 4331.92307707, 4135.64102544, 4112.56410229, 4126.66666639, 4156.02564082, 4192.05128192, 4141.79487159, 4151.28205108, 4123.97435870, 4125.76923050, 4129.48717921,12.0
4122.17948691, 4130.51282024, 4120.25640998, 4326.79487194, 4132.94871767, 4110.25640998, 4116.92307665, 4141.66666646, 4185.89743576, 4125.25640998, 4138.33333313, 4111.41025614, 4119.74358947, 4128.84615357,12.0
4116.41025614, 4131.92307665, 4117.05128178, 4322.56410271, 4133.58974332, 4120.38461511, 4126.41025614, 4141.79487159, 4179.48717935, 4114.99999973, 4127.94871767, 4106.92307665, 4120.38461511, 4131.92307665,12.0
4106.53846126, 4125.51282024, 4114.99999973, 4314.87179501, 4129.99999973, 4111.92307665, 4115.76923050, 4134.74358947, 4177.43589730, 4106.53846126, 4121.92307665, 4103.33333306, 4110.51282024, 4132.05128178,12.0
4101.92307658, 4119.23076896, 4115.38461511, 4311.66666681, 4124.87179460, 4100.76923043, 4099.74358940, 4122.69230742, 4174.74358961, 4101.02564068, 4119.35897408, 4098.97435863, 4101.79487145, 4129.10256383,12.0
4116.02564075, 4133.84615357, 4126.15384588, 4320.25641040, 4135.64102544, 4110.25640998, 4115.38461511, 4135.25640998, 4178.71794858, 4111.79487152, 4126.02564075, 4106.28205101, 4114.23076896, 4130.12820485,12.0
4127.56410229, 4142.43589723, 4131.02564075, 4327.17948732, 4147.69230749, 4121.28205101, 4131.28205101, 4153.58974339, 4185.89743576, 4125.64102537, 4134.87179460, 4116.92307665, 4123.58974332, 4131.92307665,12.0
4116.28205101, 4127.94871767, 4119.99999973, 4317.94871809, 4138.58974339, 4119.10256383, 4122.94871767, 4142.82051262, 4184.23076910, 4121.66666639, 4124.10256383, 4111.28205101, 4115.89743562, 4129.99999973,12.0
4119.35897408, 4133.46153819, 4125.64102537, 4317.56410271, 4140.51282031, 4123.58974332, 4127.05128178, 4146.28205108, 4189.87179474, 4131.15384588, 4122.56410229, 4111.02564075, 4125.38461511, 4129.74358947,12.0
4143.07692287, 4156.53846133, 4147.05128185, 4331.66666681, 4158.07692287, 4132.17948691, 4143.33333313, 4171.28205115, 4200.25641012, 4153.33333313, 4143.46153826, 4123.20512793, 4144.23076903, 4131.28205101,12.0
4136.28205108, 4142.56410236, 4137.43589723, 4321.41025655, 4143.20512800, 4117.56410229, 4124.61538434, 4148.71794851, 4190.25641012, 4138.20512800, 4140.89743569, 4113.07692280, 4127.82051255, 4131.02564075,12.0
4117.69230742, 4119.61538434, 4121.53846126, 4303.07692322, 4119.99999973, 4100.12820478, 4098.97435863, 4117.05128178, 4180.64102551, 4116.92307665, 4127.56410229, 4101.02564068, 4111.28205101, 4133.84615357,12.0
4137.17948697, 4143.84615364, 4143.71794851, 4319.87179501, 4137.69230749, 4112.43589716, 4114.23076896, 4147.69230749, 4191.15384602, 4141.92307672, 4151.79487159, 4124.99999973, 4137.17948697, 4135.64102544,12.0
4155.12820492, 4161.53846133, 4160.76923056, 4331.79487194, 4157.94871774, 4128.46153819, 4133.84615357, 4175.38461525, 4196.66666653, 4163.71794851, 4172.69230756, 4142.17948697, 4150.89743569, 4131.92307665,12.0
4137.30769210, 4132.82051255, 4138.33333313, 4306.92307707, 4142.94871774, 4120.64102537, 4123.46153819, 4147.43589723, 4189.99999986, 4141.92307672, 4149.74358954, 4118.33333306, 4124.23076896, 4131.02564075,12.0
4120.12820485, 4113.58974332, 4118.84615357, 4290.38461546, 4130.89743562, 4110.51282024, 4112.56410229, 4129.99999973, 4185.12820499, 4121.41025614, 4129.23076896, 4098.97435863, 4107.82051255, 4132.30769203,12.0
4120.76923050, 4124.35897408, 4121.15384588, 4297.94871802, 4139.23076903, 4110.89743562, 4114.99999973, 4139.35897415, 4181.79487166, 4121.92307665, 4128.58974332, 4100.64102530, 4116.92307665, 4131.28205101,12.0
4127.17948691, 4133.46153819, 4126.66666639, 4299.87179501, 4141.02564082, 4119.10256383, 4122.30769203, 4141.41025621, 4184.23076910, 4125.38461511, 4127.43589716, 4105.64102537, 4124.99999973, 4132.43589716,12.0
4130.64102537, 4131.15384588, 4128.58974332, 4292.82051289, 4139.74358954, 4127.17948691, 4126.79487152, 4139.74358954, 4187.05128192, 4127.43589716, 4127.30769203, 4111.02564075, 4125.51282024, 4134.87179460,12.0
4126.66666639, 4127.94871767, 4124.61538434, 4286.92307700, 4139.23076903, 4114.10256383, 4114.99999973, 4137.69230749, 4183.33333320, 4125.12820485, 4127.56410229, 4111.15384588, 4123.71794844, 4132.30769203,12.0
4120.64102537, 4125.38461511, 4123.07692280, 4283.97435905, 4129.99999973, 4099.23076889, 4103.20512793, 4139.10256390, 4185.12820499, 4122.43589716, 4127.17948691, 4108.71794844, 4126.15384588, 4131.66666639,12.0
4124.74358947, 4126.28205101, 4131.79487152, 4287.30769238, 4129.23076896, 4116.02564075, 4120.76923050, 4147.69230749, 4190.25641012, 4130.51282024, 4132.30769203, 4114.35897408, 4136.41025621, 4134.87179460,12.0
4133.58974332, 4133.20512793, 4139.61538441, 4292.30769238, 4139.23076903, 4127.69230742, 4135.64102544, 4153.07692287, 4190.25641012, 4147.17948697, 4142.17948697, 4120.89743562, 4147.43589723, 4132.05128178,12.0
4132.94871767, 4133.71794844, 4136.79487159, 4288.71794879, 4134.48717921, 4105.51282024, 4116.15384588, 4145.51282031, 4189.48717935, 4149.99999980, 4143.07692287, 4117.69230742, 4146.79487159, 4128.97435870,12.0
4125.76923050, 4127.69230742, 4131.53846126, 4282.30769238, 4123.07692280, 4097.43589709, 4104.87179460, 4136.28205108, 4188.07692294, 4139.23076903, 4138.46153826, 4116.66666639, 4140.12820492, 4131.15384588,12.0
4124.87179460, 4126.41025614, 4130.12820485, 4279.48717956, 4127.82051255, 4114.99999973, 4122.69230742, 4138.58974339, 4186.15384602, 4138.58974339, 4135.76923056, 4120.76923050, 4139.48717928, 4132.94871767,12.0
4123.20512793, 4125.89743562, 4122.17948691, 4272.56410264, 4137.56410236, 4118.97435870, 4131.79487152, 4139.99999980, 4184.74358961, 4136.53846133, 4124.87179460, 4109.35897408, 4132.43589716, 4132.05128178,12.0
4113.97435870, 4122.05128178, 4108.46153819, 4263.33333334, 4138.46153826, 4113.20512793, 4123.07692280, 4135.76923056, 4183.97435884, 4123.58974332, 4109.99999973, 4090.64102530, 4120.38461511, 4129.87179460,12.0
4117.30769203, 4131.28205101, 4114.23076896, 4266.53846154, 4143.20512800, 4120.64102537, 4124.48717921, 4145.38461518, 4187.56410243, 4135.38461518, 4118.33333306, 4097.56410222, 4132.43589716, 4130.89743562,12.0
4126.66666639, 4141.53846133, 4124.61538434, 4267.82051289, 4148.46153826, 4129.48717921, 4136.15384595, 4159.99999980, 4191.66666653, 4159.87179467, 4133.58974332, 4112.43589716, 4148.33333313, 4135.76923056,12.0
4115.25640998, 4127.30769203, 4105.12820485, 4247.69230770, 4144.74358954, 4127.82051255, 4133.97435870, 4153.07692287, 4188.97435884, 4149.23076903, 4118.46153819, 4099.61538427, 4131.66666639, 4137.56410236,12.0
4107.69230742, 4116.41025614, 4095.51282017, 4234.87179488, 4140.64102544, 4119.61538434, 4119.99999973, 4140.12820492, 4186.02564089, 4133.58974332, 4107.94871767, 4092.43589709, 4122.94871767, 4134.99999973,12.0
4123.46153819, 4131.53846126, 4122.43589716, 4247.30769231, 4145.25641005, 4111.28205101, 4110.64102537, 4139.74358954, 4186.02564089, 4145.64102544, 4130.51282024, 4112.17948691, 4144.87179467, 4131.66666639,12.0
4123.46153819, 4131.53846126, 4122.43589716, 4247.30769231, 4145.25641005, 4111.28205101, 4110.64102537, 4139.74358954, 4186.02564089, 4145.64102544, 4130.51282024, 4112.17948691, 4144.87179467, 4131.66666639,12.0
4122.05128178, 4133.07692280, 4126.41025614, 4245.76923077, 4140.64102544, 4104.74358947, 4105.51282024, 4133.46153819, 4181.92307679, 4144.74358954, 4136.79487159, 4113.97435870, 4143.58974339, 4132.43589716,12.0
4100.51282017, 4113.46153819, 4104.87179460, 4223.97435891, 4123.46153819, 4101.66666632, 4101.92307658, 4121.15384588, 4176.53846140, 4123.58974332, 4118.20512793, 4096.28205094, 4120.25640998, 4133.71794844,12.0
4112.56410229, 4121.15384588, 4118.71794844, 4226.53846147, 4128.84615357, 4112.05128178, 4112.56410229, 4133.07692280, 4181.53846140, 4128.58974332, 4126.53846126, 4109.10256383, 4131.02564075, 4131.28205101,12.0
4138.33333313, 4143.33333313, 4142.82051262, 4236.79487180, 4147.43589723, 4126.15384588, 4128.84615357, 4153.58974339, 4189.99999986, 4149.10256390, 4145.38461518, 4134.48717921, 4151.41025621, 4131.15384588,12.0
4126.15384588, 4131.79487152, 4128.33333306, 4219.48717942, 4142.05128185, 4116.41025614, 4120.89743562, 4148.33333313, 4185.64102551, 4141.28205108, 4129.48717921, 4124.61538434, 4136.15384595, 4131.79487152,12.0
4099.74358940, 4106.41025614, 4101.53846119, 4193.71794858, 4121.15384588, 4091.41025607, 4094.35897402, 4125.12820485, 4172.82051269, 4116.15384588, 4100.64102530, 4098.20512786, 4111.66666639, 4130.25640998,12.0
4097.43589709, 4106.41025614, 4099.99999966, 4181.41025628, 4115.38461511, 4093.58974325, 4096.92307658, 4124.61538434, 4173.46153833, 4112.43589716, 4096.28205094, 4095.89743555, 4109.35897408, 4131.53846126,12.0
4113.84615357, 4128.07692280, 4125.89743562, 4186.28205115, 4133.97435870, 4122.43589716, 4132.69230742, 4155.12820492, 4183.33333320, 4134.99999973, 4118.33333306, 4118.58974332, 4129.48717921, 4134.23076896,12.0
4117.30769203, 4134.48717921, 4136.53846133, 4189.61538448, 4140.64102544, 4123.46153819, 4134.74358947, 4157.30769210, 4180.12820499, 4140.25641005, 4126.02564075, 4123.71794844, 4137.30769210, 4133.46153819,12.0
4110.76923050, 4123.20512793, 4124.35897408, 4180.38461525, 4126.53846126, 4102.56410229, 4109.35897408, 4129.87179460, 4171.15384602, 4118.97435870, 4109.48717921, 4104.87179460, 4122.30769203, 4132.17948691,12.0
4118.33333306, 4123.84615357, 4128.33333306, 4172.30769217, 4127.69230742, 4104.74358947, 4115.38461511, 4129.61538434, 4172.56410243, 4114.74358947, 4112.17948691, 4103.20512793, 4119.10256383, 4131.92307665,12.0
4128.71794844, 4132.69230742, 4142.69230749, 4171.28205115, 4140.89743569, 4116.53846126, 4131.79487152, 4151.28205108, 4180.12820499, 4131.53846126, 4133.20512793, 4114.74358947, 4128.58974332, 4132.69230742,12.0
4123.58974332, 4125.38461511, 4142.56410236, 4167.30769210, 4135.38461518, 4115.38461511, 4126.15384588, 4150.25641005, 4181.66666653, 4136.66666646, 4136.15384595, 4113.97435870, 4126.41025614, 4134.74358947,12.0
4122.56410229, 4118.07692280, 4146.53846133, 4163.46153826, 4129.61538434, 4119.10256383, 4126.92307665, 4141.41025621, 4180.25641012, 4133.58974332, 4134.87179460, 4116.15384588, 4123.33333306, 4135.51282031,12.0
4132.56410229, 4124.23076896, 4156.66666646, 4160.89743569, 4140.12820492, 4120.76923050, 4130.64102537, 4145.76923056, 4180.76923063, 4137.17948697, 4141.53846133, 4124.48717921, 4129.10256383, 4135.12820485,12.0
4120.51282024, 4112.56410229, 4139.87179467, 4141.41025621, 4134.35897408, 4103.20512793, 4111.15384588, 4134.23076896, 4175.25641012, 4126.66666639, 4121.28205101, 4108.07692280, 4118.07692280, 4134.48717921,12.0
4102.30769196, 4097.17948684, 4122.56410229, 4125.89743562, 4120.89743562, 4103.71794844, 4109.48717921, 4125.64102537, 4171.15384602, 4109.74358947, 4096.92307658, 4089.99999966, 4102.17948684, 4134.87179460,12.0
4115.51282024, 4113.20512793, 4140.12820492, 4131.53846126, 4129.99999973, 4122.82051255, 4130.89743562, 4144.61538441, 4179.23076910, 4124.23076896, 4114.23076896, 4107.82051255, 4115.38461511, 4133.97435870,12.0
4127.56410229, 4125.38461511, 4153.97435877, 4131.92307665, 4136.53846133, 4118.46153819, 4129.23076896, 4150.12820492, 4182.56410243, 4142.94871774, 4133.46153819, 4123.97435870, 4132.30769203, 4131.41025614,12.0
4114.48717921, 4110.51282024, 4141.92307672, 4118.46153819, 4124.23076896, 4103.84615357, 4113.71794844, 4131.79487152, 4175.38461525, 4131.28205101, 4122.30769203, 4111.53846126, 4124.99999973, 4130.76923050,12.0
4108.97435870, 4105.76923050, 4135.51282031, 4112.69230742, 4117.94871767, 4110.12820485, 4116.41025614, 4128.71794844, 4173.58974345, 4122.17948691, 4119.35897408, 4103.58974332, 4118.46153819, 4132.94871767,12.0
4123.71794844, 4120.12820485, 4147.56410236, 4121.28205101, 4129.35897408, 4120.76923050, 4127.30769203, 4142.82051262, 4178.97435884, 4137.05128185, 4143.20512800, 4118.07692280, 4128.07692280, 4135.12820485,12.0
4131.02564075, 4125.25640998, 4159.74358954, 4126.66666639, 4139.61538441, 4119.35897408, 4132.56410229, 4146.53846133, 4181.92307679, 4150.12820492, 4160.89743569, 4131.41025614, 4137.17948697, 4132.82051255,12.0
4128.07692280, 4124.61538434, 4165.51282031, 4123.58974332, 4137.56410236, 4122.56410229, 4135.25640998, 4144.87179467, 4181.41025628, 4153.20512800, 4156.15384595, 4129.23076896, 4138.84615364, 4131.02564075,12.0
4123.46153819, 4122.43589716, 4160.25641005, 4114.23076896, 4130.76923050, 4121.41025614, 4125.38461511, 4135.89743569, 4179.10256397, 4144.48717928, 4137.94871774, 4120.64102537, 4130.51282024, 4130.76923050,12.0
4115.64102537, 4116.92307665, 4148.58974339, 4105.89743562, 4125.64102537, 4112.56410229, 4117.94871767, 4124.23076896, 4176.02564089, 4126.02564075, 4120.38461511, 4116.28205101, 4118.46153819, 4133.84615357,12.0
4118.84615357, 4125.25640998, 4155.89743569, 4118.58974332, 4130.89743562, 4121.79487152, 4129.35897408, 4136.28205108, 4177.94871781, 4132.69230742, 4126.28205101, 4123.58974332, 4128.20512793, 4138.71794851,12.0
4118.46153819, 4130.51282024, 4161.66666646, 4134.10256383, 4131.92307665, 4133.46153819, 4123.97435870, 4141.15384595, 4177.17948704, 4146.28205108, 4136.92307672, 4123.07692280, 4137.56410236, 4134.74358947,12.0
4099.10256376, 4112.30769203, 4137.94871774, 4129.35897408, 4114.74358947, 4127.43589716, 4101.66666632, 4122.30769203, 4172.30769217, 4127.05128178, 4122.17948691, 4104.10256383, 4118.97435870, 4130.64102537,12.0
4096.02564068, 4102.69230742, 4129.35897408, 4131.15384588, 4111.53846126, 4136.79487159, 4110.25640998, 4126.79487152, 4174.35897422, 4117.30769203, 4112.56410229, 4099.48717914, 4110.25640998, 4132.56410229,12.0
4108.58974332, 4110.89743562, 4144.74358954, 4145.25641005, 4122.69230742, 4155.89743569, 4123.71794844, 4136.28205108, 4172.82051269, 4121.79487152, 4119.48717921, 4109.74358947, 4116.28205101, 4132.69230742,12.0
4104.48717921, 4110.89743562, 4141.15384595, 4145.51282031, 4118.84615357, 4145.76923056, 4104.99999973, 4117.43589716, 4164.35897415, 4104.99999973, 4112.30769203, 4106.66666639, 4106.79487152, 4132.69230742,12.0
4099.10256376, 4106.28205101, 4128.33333306, 4141.92307672, 4114.10256383, 4141.15384595, 4100.89743555, 4114.23076896, 4164.35897415, 4097.05128171, 4099.61538427, 4101.28205094, 4099.99999966, 4135.76923056,12.0
4108.71794844, 4111.28205101, 4135.51282031, 4150.51282031, 4128.71794844, 4162.56410236, 4124.10256383, 4135.51282031, 4174.87179474, 4112.17948691, 4102.69230742, 4107.69230742, 4108.20512793, 4137.43589723,12.0
4112.82051255, 4121.02564075, 4144.35897415, 4155.51282031, 4135.89743569, 4168.46153833, 4131.15384588, 4137.30769210, 4176.92307679, 4113.33333306, 4105.51282024, 4110.51282024, 4111.02564075, 4136.92307672,12.0
4111.53846126, 4128.71794844, 4134.61538434, 4149.48717928, 4132.43589716, 4161.79487159, 4128.71794844, 4132.30769203, 4170.38461525, 4108.97435870, 4098.46153812, 4106.15384588, 4109.61538434, 4134.35897408,12.0
4111.02564075, 4121.28205101, 4117.94871767, 4134.23076896, 4134.48717921, 4165.51282031, 4132.82051255, 4137.82051262, 4169.48717935, 4112.69230742, 4086.28205094, 4097.56410222, 4107.94871767, 4133.46153819,12.0
4104.23076896, 4109.35897408, 4111.02564075, 4117.05128178, 4127.69230742, 4161.28205108, 4126.92307665, 4141.92307672, 4174.74358961, 4110.38461511, 4081.66666632, 4087.82051248, 4106.53846126, 4136.53846133,12.0
4106.41025614, 4121.66666639, 4119.74358947, 4116.53846126, 4125.12820485, 4152.17948697, 4126.15384588, 4144.74358954, 4177.05128192, 4113.07692280, 4095.38461504, 4092.30769196, 4113.84615357, 4137.30769210,12.0
4123.33333306, 4141.66666646, 4132.82051255, 4127.94871767, 4140.89743569, 4162.17948697, 4141.28205108, 4149.87179467, 4175.38461525, 4127.30769203, 4110.38461511, 4108.33333306, 4127.82051255, 4134.87179460,12.0
4128.20512793, 4137.30769210, 4136.53846133, 4124.48717921, 4141.15384595, 4162.43589723, 4138.97435877, 4148.07692287, 4175.64102551, 4129.48717921, 4111.28205101, 4113.20512793, 4134.61538434, 4133.84615357,12.0
4118.84615357, 4125.12820485, 4135.25640998, 4108.71794844, 4128.33333306, 4144.10256390, 4123.97435870, 4139.87179467, 4173.84615371, 4117.94871767, 4107.43589716, 4108.33333306, 4129.48717921, 4136.28205108,12.0
4123.58974332, 4125.38461511, 4134.87179460, 4099.87179453, 4131.79487152, 4144.87179467, 4128.97435870, 4139.35897415, 4172.17948704, 4117.69230742, 4108.07692280, 4112.69230742, 4126.79487152, 4137.17948697,12.0
4132.56410229, 4123.46153819, 4133.20512793, 4094.35897402, 4131.66666639, 4150.38461518, 4133.07692280, 4141.79487159, 4175.76923063, 4122.69230742, 4108.71794844, 4117.69230742, 4128.07692280, 4134.35897408,12.0
4127.94871767, 4120.76923050, 4134.99999973, 4088.84615350, 4121.79487152, 4136.66666646, 4118.71794844, 4134.74358947, 4172.56410243, 4114.61538434, 4109.61538434, 4119.10256383, 4126.66666639, 4133.58974332,12.0
4127.30769203, 4131.66666639, 4138.97435877, 4087.82051248, 4130.25640998, 4136.28205108, 4120.89743562, 4128.71794844, 4165.51282031, 4109.35897408, 4110.64102537, 4122.43589716, 4125.25640998, 4133.33333306,12.0
4126.15384588, 4133.97435870, 4129.74358947, 4081.92307658, 4135.38461518, 4150.76923056, 4136.15384595, 4133.07692280, 4168.71794858, 4112.17948691, 4105.76923050, 4116.02564075, 4121.53846126, 4133.97435870,12.0
4116.92307665, 4124.74358947, 4120.89743562, 4074.35897402, 4124.74358947, 4146.28205108, 4133.58974332, 4138.58974339, 4171.92307679, 4116.15384588, 4103.46153819, 4109.99999973, 4120.76923050, 4136.66666646,12.0
4115.25640998, 4124.23076896, 4127.05128178, 4073.20512786, 4123.07692280, 4132.43589716, 4122.43589716, 4138.58974339, 4169.35897422, 4119.99999973, 4110.64102537, 4116.28205101, 4126.02564075, 4138.33333313,12.0
4119.74358947, 4129.74358947, 4131.66666639, 4071.92307658, 4127.69230742, 4135.51282031, 4124.23076896, 4140.51282031, 4172.56410243, 4123.71794844, 4118.33333306, 4120.12820485, 4128.97435870, 4136.28205108,12.0
4115.76923050, 4126.92307665, 4122.43589716, 4063.84615343, 4121.15384588, 4142.30769210, 4127.30769203, 4137.05128185, 4173.71794858, 4121.53846126, 4114.74358947, 4112.43589716, 4122.30769203, 4131.66666639,12.0
4109.23076896, 4121.53846126, 4116.28205101, 4056.79487138, 4115.51282024, 4134.10256383, 4116.28205101, 4126.92307665, 4165.89743569, 4117.43589716, 4108.84615357, 4108.58974332, 4119.61538434, 4131.15384588,12.0
4110.89743562, 4126.66666639, 4126.02564075, 4055.51282010, 4122.43589716, 4128.33333306, 4113.20512793, 4127.05128178, 4164.10256390, 4118.71794844, 4112.56410229, 4115.51282024, 4126.15384588, 4136.28205108,12.0
4110.89743562, 4131.79487152, 4134.35897408, 4052.94871754, 4123.33333306, 4132.82051255, 4118.07692280, 4131.41025614, 4167.94871774, 4122.30769203, 4116.02564075, 4114.99999973, 4127.05128178, 4137.43589723,12.0
4106.28205101, 4126.41025614, 4128.58974332, 4043.33333292, 4114.10256383, 4126.41025614, 4110.12820485, 4124.61538434, 4162.05128185, 4123.33333306, 4111.66666639, 4103.84615357, 4122.43589716, 4134.23076896,12.0
4115.89743562, 4133.71794844, 4131.79487152, 4044.87179446, 4122.94871767, 4130.12820485, 4120.38461511, 4130.64102537, 4161.41025621, 4130.25640998, 4114.74358947, 4109.48717921, 4129.61538434, 4137.30769210,12.0
4139.87179467, 4158.07692287, 4150.76923056, 4061.41025600, 4144.61538441, 4155.25641005, 4151.92307672, 4158.20512800, 4175.38461525, 4153.33333313, 4128.97435870, 4133.33333306, 4151.02564082, 4138.71794851,12.0
4138.07692287, 4156.02564082, 4143.33333313, 4053.33333292, 4139.48717928, 4151.02564082, 4150.76923056, 4158.58974339, 4176.53846140, 4154.74358954, 4124.35897408, 4126.28205101, 4151.53846133, 4132.43589716,12.0
4113.84615357, 4131.53846126, 4116.15384588, 4025.64102516, 4124.35897408, 4132.69230742, 4129.48717921, 4134.10256383, 4162.43589723, 4124.10256383, 4104.10256383, 4099.61538427, 4129.23076896, 4132.30769203,12.0
4115.76923050, 4128.84615357, 4117.05128178, 4022.30769183, 4128.58974332, 4143.46153826, 4134.61538434, 4142.94871774, 4160.25641005, 4117.43589716, 4098.97435863, 4105.25640998, 4127.56410229, 4134.99999973,12.0
4123.20512793, 4132.82051255, 4123.46153819, 4023.97435849, 4125.51282024, 4141.41025621, 4133.71794844, 4164.10256390, 4164.35897415, 4127.30769203, 4099.87179453, 4112.56410229, 4139.48717928, 4133.46153819,12.0
4112.05128178, 4127.30769203, 4112.17948691, 4009.99999952, 4115.25640998, 4119.87179460, 4116.66666639, 4157.69230749, 4160.89743569, 4118.71794844, 4095.89743555, 4100.76923043, 4134.10256383, 4133.97435870,12.0
4113.20512793, 4130.64102537, 4115.25640998, 4007.94871747, 4123.07692280, 4124.61538434, 4117.43589716, 4150.38461518, 4159.99999980, 4112.56410229, 4094.10256376, 4102.30769196, 4126.66666639, 4132.94871767,12.0
4119.87179460, 4134.99999973, 4123.20512793, 4008.33333285, 4126.15384588, 4130.89743562, 4116.15384588, 4147.43589723, 4157.17948697, 4111.79487152, 4088.33333299, 4111.41025614, 4128.97435870, 4127.94871767,12.0
4114.10256383, 4132.43589716, 4115.64102537, 3989.99999945, 4116.41025614, 4118.33333306, 4104.48717921, 4142.69230749, 4153.58974339, 4106.15384588, 4084.48717914, 4112.05128178, 4132.17948691, 4129.99999973,12.0
4127.17948691, 4146.92307672, 4129.61538434, 3988.20512765, 4128.58974332, 4126.79487152, 4118.46153819, 4156.79487159, 4165.38461518, 4125.38461511, 4100.64102530, 4131.92307665, 4148.46153826, 4135.12820485,12.0
4149.74358954, 4165.12820492, 4158.97435877, 4002.69230714, 4145.76923056, 4144.35897415, 4141.92307672, 4175.38461525, 4172.69230756, 4147.94871774, 4116.79487152, 4156.41025621, 4163.58974339, 4132.69230742,12.0
4140.64102544, 4156.41025621, 4151.15384595, 3990.12820458, 4132.56410229, 4138.71794851, 4137.43589723, 4174.61538448, 4162.82051262, 4132.05128178, 4110.38461511, 4147.56410236, 4149.99999980, 4132.05128178,12.0
4124.61538434, 4143.33333313, 4131.92307665, 3968.07692246, 4120.76923050, 4130.76923050, 4132.17948691, 4172.56410243, 4162.05128185, 4117.82051255, 4104.74358947, 4130.64102537, 4137.43589723, 4134.35897408,12.0
4131.92307665, 4151.53846133, 4144.23076903, 3971.28205073, 4137.82051262, 4143.58974339, 4150.38461518, 4180.51282038, 4174.23076910, 4131.53846126, 4113.58974332, 4135.76923056, 4148.84615364, 4133.33333306,12.0
4142.56410236, 4161.53846133, 4155.25641005, 3975.12820458, 4150.12820492, 4161.53846133, 4166.02564082, 4186.53846140, 4174.99999986, 4142.82051262, 4115.51282024, 4146.02564082, 4158.20512800, 4133.46153819,12.0
4138.84615364, 4155.25641005, 4148.84615364, 3961.41025579, 4139.35897415, 4157.43589723, 4157.69230749, 4181.15384602, 4165.64102544, 4135.51282031, 4108.20512793, 4144.74358954, 4151.41025621, 4131.79487152,12.0
4121.92307665, 4138.84615364, 4141.15384595, 3943.20512758, 4122.05128178, 4127.30769203, 4126.53846126, 4157.82051262, 4160.51282031, 4124.35897408, 4104.23076896, 4134.61538434, 4142.30769210, 4129.35897408,12.0
4105.89743562, 4124.74358947, 4130.51282024, 3929.23076854, 4112.17948691, 4106.66666639, 4104.10256383, 4141.15384595, 4160.38461518, 4119.35897408, 4103.97435870, 4119.99999973, 4136.79487159, 4132.43589716,12.0
4110.64102537, 4128.84615357, 4129.23076896, 3928.33333264, 4118.33333306, 4120.12820485, 4118.33333306, 4154.10256390, 4161.79487159, 4123.07692280, 4108.97435870, 4118.07692280, 4139.99999980, 4132.94871767,12.0
4126.66666639, 4141.28205108, 4141.15384595, 3935.89743521, 4128.20512793, 4134.87179460, 4134.61538434, 4166.15384595, 4162.17948697, 4129.23076896, 4114.23076896, 4131.28205101, 4144.23076903, 4128.46153819,12.0
4133.20512793, 4142.82051262, 4145.76923056, 3936.15384546, 4131.41025614, 4131.92307665, 4128.71794844, 4163.46153826, 4163.58974339, 4132.94871767, 4115.64102537, 4139.87179467, 4145.12820492, 4132.05128178,12.0
4127.69230742, 4136.02564082, 4136.28205108, 3928.33333264, 4124.87179460, 4123.97435870, 4118.07692280, 4158.07692287, 4162.82051262, 4133.46153819, 4116.53846126, 4137.43589723, 4147.82051262, 4136.28205108,12.0
4124.48717921, 4133.33333306, 4130.64102537, 3925.76923008, 4122.17948691, 4128.20512793, 4125.25640998, 4163.46153826, 4160.12820492, 4131.66666639, 4116.92307665, 4136.92307672, 4147.94871774, 4131.15384588,12.0
4137.05128185, 4144.74358954, 4139.23076903, 3933.97435828, 4138.84615364, 4153.58974339, 4153.20512800, 4185.89743576, 4165.38461518, 4137.82051262, 4118.20512793, 4147.56410236, 4149.23076903, 4130.64102537,12.0
4137.30769210, 4144.35897415, 4135.25640998, 3935.76923008, 4142.82051262, 4158.71794851, 4156.15384595, 4194.99999986, 4170.76923063, 4139.99999980, 4112.56410229, 4146.28205108, 4148.46153826, 4133.71794844,12.0
4112.69230742, 4119.99999973, 4112.94871767, 3922.05128136, 4116.53846126, 4127.94871767, 4122.17948691, 4176.92307679, 4162.43589723, 4126.53846126, 4098.97435863, 4126.66666639, 4137.94871774, 4131.02564075,12.0
4101.41025607, 4109.61538434, 4102.69230742, 3916.66666598, 4106.53846126, 4119.23076896, 4113.97435870, 4163.58974339, 4154.61538441, 4114.74358947, 4095.51282017, 4116.92307665, 4126.79487152, 4132.43589716,12.0
4106.53846126, 4120.76923050, 4105.38461511, 3929.87179418, 4119.74358947, 4133.07692280, 4128.97435870, 4161.92307672, 4155.64102544, 4108.71794844, 4091.53846119, 4115.38461511, 4117.82051255, 4135.12820485,12.0
4112.94871767, 4130.89743562, 4110.89743562, 3944.87179425, 4122.82051255, 4129.10256383, 4130.51282024, 4165.12820492, 4160.64102544, 4114.35897408, 4088.20512786, 4114.74358947, 4121.41025614, 4131.79487152,12.0
4127.82051255, 4140.25641005, 4129.87179460, 3955.76923015, 4125.89743562, 4133.97435870, 4141.53846133, 4181.79487166, 4169.23076910, 4141.92307672, 4112.30769203, 4126.15384588, 4146.41025621, 4131.79487152,12.0
4130.89743562, 4143.20512800, 4141.53846133, 3958.97435835, 4129.99999973, 4145.38461518, 4151.53846133, 4191.28205115, 4170.89743576, 4157.94871774, 4128.58974332, 4131.92307665, 4153.84615364, 4135.25640998,12.0
4120.51282024, 4137.94871774, 4131.41025614, 3959.74358912, 4122.56410229, 4136.15384595, 4140.38461518, 4183.71794858, 4163.20512800, 4144.23076903, 4115.12820485, 4124.99999973, 4139.99999980, 4132.82051255,12.0
4129.74358947, 4142.05128185, 4132.69230742, 3969.61538399, 4123.33333306, 4132.17948691, 4138.07692287, 4180.64102551, 4161.79487159, 4139.10256390, 4115.64102537, 4132.43589716, 4148.71794851, 4128.71794844,12.0
4142.30769210, 4144.48717928, 4138.58974339, 3976.41025586, 4126.41025614, 4137.43589723, 4135.64102544, 4172.17948704, 4162.43589723, 4143.33333313, 4127.05128178, 4141.41025621, 4157.56410236, 4131.66666639,12.0
4141.92307672, 4144.87179467, 4137.43589723, 3981.28205073, 4126.15384588, 4140.51282031, 4133.33333306, 4169.87179474, 4160.89743569, 4141.53846133, 4122.05128178, 4135.64102544, 4146.66666646, 4135.76923056,12.0
4149.87179467, 4157.69230749, 4147.82051262, 3994.74358919, 4136.53846133, 4144.35897415, 4145.51282031, 4183.46153833, 4162.94871774, 4149.23076903, 4124.61538434, 4139.87179467, 4152.30769210, 4133.58974332,12.0
4157.56410236, 4160.76923056, 4153.84615364, 4002.69230714, 4144.99999980, 4143.58974339, 4146.92307672, 4182.43589730, 4163.71794851, 4157.17948697, 4131.28205101, 4149.35897415, 4165.38461518, 4128.33333306,12.0
4145.38461518, 4144.74358954, 4137.43589723, 3994.35897381, 4135.38461518, 4134.61538434, 4131.15384588, 4165.51282031, 4157.05128185, 4145.12820492, 4118.33333306, 4136.28205108, 4148.71794851, 4129.48717921,12.0
4132.05128178, 4134.99999973, 4121.92307665, 3988.97435842, 4126.15384588, 4131.53846126, 4127.17948691, 4163.84615364, 4154.10256390, 4133.71794844, 4110.89743562, 4119.87179460, 4130.76923050, 4134.61538434,12.0
4129.61538434, 4137.17948697, 4120.89743562, 3994.10256355, 4129.87179460, 4135.51282031, 4134.23076896, 4172.82051269, 4155.51282031, 4135.25640998, 4116.28205101, 4123.46153819, 4134.61538434, 4133.46153819,12.0
4132.43589716, 4141.92307672, 4126.92307665, 4001.53846099, 4135.38461518, 4136.53846133, 4134.74358947, 4171.79487166, 4155.89743569, 4139.87179467, 4115.64102537, 4133.46153819, 4141.41025621, 4131.28205101,12.0
4139.74358954, 4146.53846133, 4136.79487159, 4006.79487131, 4135.76923056, 4135.76923056, 4132.17948691, 4169.61538448, 4157.05128185, 4144.10256390, 4116.66666639, 4136.66666646, 4145.25641005, 4133.97435870,12.0
4144.48717928, 4150.25641005, 4142.94871774, 4007.94871747, 4133.46153819, 4135.64102544, 4133.58974332, 4167.94871774, 4159.74358954, 4145.38461518, 4122.05128178, 4137.05128185, 4148.07692287, 4137.05128185,12.0
4124.35897408, 4142.43589723, 4127.56410229, 3991.41025586, 4131.41025614, 4136.28205108, 4133.20512793, 4163.07692287, 4155.12820492, 4138.58974339, 4108.84615357, 4137.69230749, 4134.99999973, 4136.28205108,12.0
4139.35897415, 4154.10256390, 4142.30769210, 3997.69230714, 4139.10256390, 4144.99999980, 4142.56410236, 4171.79487166, 4160.25641005, 4144.87179467, 4114.74358947, 4149.87179467, 4142.43589723, 4133.33333306,12.0
4132.43589716, 4153.07692287, 4134.99999973, 3988.20512765, 4136.15384595, 4139.23076903, 4132.82051255, 4165.12820492, 4161.53846133, 4139.10256390, 4114.61538434, 4148.20512800, 4140.64102544, 4134.23076896,12.0
4121.15384588, 4142.30769210, 4124.48717921, 3977.05128150, 4124.99999973, 4125.89743562, 4120.25640998, 4149.87179467, 4153.46153826, 4132.05128178, 4109.61538434, 4136.53846133, 4132.56410229, 4134.35897408,12.0
4123.20512793, 4138.07692287, 4129.23076896, 3975.51281996, 4121.41025614, 4123.07692280, 4119.23076896, 4139.87179467, 4147.17948697, 4130.25640998, 4108.84615357, 4132.17948691, 4127.69230742, 4131.79487152,12.0
4126.92307665, 4143.71794851, 4133.46153819, 3979.99999945, 4129.10256383, 4129.87179460, 4125.12820485, 4142.94871774, 4151.28205108, 4133.84615357, 4116.66666639, 4135.51282031, 4128.84615357, 4133.33333306,12.0
4130.76923050, 4150.25641005, 4130.25640998, 3985.89743535, 4136.28205108, 4139.99999980, 4130.64102537, 4154.35897415, 4155.25641005, 4142.17948697, 4124.10256383, 4136.79487159, 4134.48717921, 4134.61538434,12.0
4128.46153819, 4148.20512800, 4122.43589716, 3978.33333278, 4134.87179460, 4147.17948697, 4134.35897408, 4156.92307672, 4154.74358954, 4144.87179467, 4117.17948691, 4127.30769203, 4136.15384595, 4132.17948691,12.0
4114.61538434, 4131.92307665, 4110.51282024, 3962.69230707, 4126.15384588, 4135.64102544, 4126.79487152, 4146.53846133, 4153.20512800, 4137.69230749, 4106.79487152, 4115.64102537, 4130.25640998, 4133.46153819,12.0
4105.64102537, 4119.48717921, 4102.30769196, 3960.89743528, 4113.71794844, 4116.66666639, 4109.87179460, 4135.51282031, 4149.74358954, 4130.12820485, 4107.69230742, 4115.38461511, 4124.48717921, 4134.74358947,12.0
4110.76923050, 4129.99999973, 4107.82051255, 3968.71794810, 4115.12820485, 4119.23076896, 4106.02564075, 4135.76923056, 4147.17948697, 4134.35897408, 4114.23076896, 4126.41025614, 4130.12820485, 4133.07692280,12.0
4115.51282024, 4141.15384595, 4118.07692280, 3969.23076861, 4126.02564075, 4128.33333306, 4118.33333306, 4143.07692287, 4151.02564082, 4141.28205108, 4118.07692280, 4134.87179460, 4136.79487159, 4134.23076896,12.0
4111.79487152, 4138.58974339, 4117.82051255, 3965.38461476, 4121.66666639, 4117.94871767, 4120.25640998, 4139.35897415, 4150.51282031, 4131.53846126, 4114.23076896, 4130.12820485, 4125.89743562, 4133.46153819,12.0
4103.33333306, 4133.84615357, 4113.58974332, 3963.84615322, 4111.66666639, 4111.41025614, 4113.20512793, 4131.15384588, 4144.35897415, 4113.46153819, 4103.46153819, 4120.89743562, 4109.48717921, 4132.56410229,12.0
4109.10256383, 4143.71794851, 4123.33333306, 3969.61538399, 4122.05128178, 4129.99999973, 4125.25640998, 4141.66666646, 4151.28205108, 4119.74358947, 4111.02564075, 4128.84615357, 4118.84615357, 4136.53846133,12.0
4127.17948691, 4157.56410236, 4137.17948697, 3978.71794817, 4138.97435877, 4141.28205108, 4140.76923056, 4154.61538441, 4160.51282031, 4137.94871774, 4129.48717921, 4147.82051262, 4137.69230749, 4135.64102544,12.0
4129.23076896, 4153.84615364, 4133.46153819, 3975.12820458, 4135.51282031, 4135.12820485, 4136.79487159, 4150.25641005, 4154.87179467, 4129.87179460, 4122.43589716, 4148.58974339, 4129.23076896, 4132.05128178,12.0
4108.71794844, 4137.94871774, 4114.23076896, 3961.02564040, 4116.53846126, 4125.89743562, 4117.94871767, 4137.56410236, 4144.74358954, 4108.97435870, 4100.89743555, 4130.12820485, 4107.94871767, 4132.17948691,12.0
4093.33333299, 4126.15384588, 4099.23076889, 3951.28205066, 4104.61538434, 4114.10256383, 4101.02564068, 4124.10256383, 4142.56410236, 4109.74358947, 4096.02564068, 4117.82051255, 4101.66666632, 4132.43589716,12.0
4099.48717914, 4127.30769203, 4098.84615350, 3950.12820451, 4111.28205101, 4115.38461511, 4103.46153819, 4126.41025614, 4145.12820492, 4124.61538434, 4104.61538434, 4119.74358947, 4108.71794844, 4134.48717921,12.0
4111.79487152, 4131.15384588, 4108.46153819, 3954.61538399, 4120.89743562, 4128.07692280, 4116.66666639, 4141.79487159, 4151.28205108, 4133.84615357, 4114.87179460, 4125.25640998, 4117.82051255, 4135.51282031,12.0
4118.07692280, 4134.87179460, 4118.97435870, 3959.35897374, 4119.61538434, 4130.89743562, 4122.82051255, 4146.66666646, 4156.15384595, 4140.76923056, 4123.71794844, 4130.12820485, 4125.25640998, 4131.92307665,12.0
4121.15384588, 4137.82051262, 4122.17948691, 3960.25640963, 4118.97435870, 4129.23076896, 4123.46153819, 4142.82051262, 4152.30769210, 4142.17948697, 4125.89743562, 4134.99999973, 4128.07692280, 4133.20512793,12.0
4124.23076896, 4138.07692287, 4119.23076896, 3958.46153784, 4120.76923050, 4126.53846126, 4119.23076896, 4143.71794851, 4151.66666646, 4136.79487159, 4128.07692280, 4135.51282031, 4132.17948691, 4136.92307672,12.0
4123.58974332, 4140.38461518, 4115.89743562, 3959.23076861, 4118.07692280, 4125.76923050, 4121.28205101, 4144.99999980, 4155.89743569, 4135.51282031, 4129.99999973, 4135.38461518, 4137.94871774, 4131.53846126,12.0
4122.43589716, 4143.97435877, 4118.58974332, 3967.69230707, 4118.71794844, 4137.43589723, 4136.28205108, 4144.23076903, 4153.71794851, 4135.64102544, 4124.35897408, 4141.02564082, 4135.76923056, 4127.17948691,12.0
4119.48717921, 4141.15384595, 4114.99999973, 3976.02564047, 4117.56410229, 4137.69230749, 4133.20512793, 4137.30769210, 4143.97435877, 4120.51282024, 4113.07692280, 4139.61538441, 4125.64102537, 4133.07692280,12.0
4115.89743562, 4139.23076903, 4104.99999973, 3984.23076868, 4114.74358947, 4122.56410229, 4119.23076896, 4135.38461518, 4144.74358954, 4105.64102537, 4108.97435870, 4133.33333306, 4122.94871767, 4135.12820485,12.0
4123.84615357, 4153.20512800, 4112.69230742, 4003.33333278, 4125.76923050, 4128.33333306, 4132.05128178, 4152.69230749, 4156.92307672, 4120.38461511, 4121.92307665, 4142.30769210, 4135.51282031, 4130.76923050,12.0
4121.15384588, 4152.43589723, 4116.28205101, 4012.17948670, 4128.33333306, 4131.53846126, 4133.46153819, 4145.76923056, 4155.38461518, 4127.05128178, 4126.15384588, 4141.41025621, 4133.20512793, 4131.41025614,12.0
4104.74358947, 4134.74358947, 4101.79487145, 4004.61538413, 4114.23076896, 4114.35897408, 4108.33333306, 4116.28205101, 4143.46153826, 4106.53846126, 4116.53846126, 4125.12820485, 4115.51282024, 4136.02564082,12.0
4102.82051255, 4138.20512800, 4101.02564068, 4007.56410208, 4112.82051255, 4113.46153819, 4106.28205101, 4121.41025614, 4143.84615364, 4103.84615357, 4118.58974332, 4128.46153819, 4118.58974332, 4133.97435870,12.0
4117.30769203, 4149.35897415, 4113.84615357, 4018.84615336, 4127.43589716, 4127.69230742, 4123.58974332, 4140.64102544, 4150.64102544, 4124.99999973, 4123.71794844, 4140.64102544, 4135.76923056, 4128.84615357,12.0
4121.02564075, 4141.15384595, 4116.02564075, 4017.43589695, 4129.23076896, 4129.10256383, 4124.23076896, 4139.61538441, 4151.02564082, 4132.69230742, 4117.56410229, 4137.17948697, 4138.46153826, 4128.97435870,12.0
4123.20512793, 4141.79487159, 4122.82051255, 4017.69230721, 4126.79487152, 4134.61538434, 4129.99999973, 4148.07692287, 4155.64102544, 4137.30769210, 4127.82051255, 4143.84615364, 4144.48717928, 4131.02564075,12.0
4132.56410229, 4153.58974339, 4131.79487152, 4021.79487131, 4132.30769203, 4146.15384595, 4141.66666646, 4158.58974339, 4158.33333313, 4144.35897415, 4141.41025621, 4155.76923056, 4153.58974339, 4134.48717921,12.0
4131.02564075, 4143.84615364, 4121.41025614, 4016.66666618, 4126.92307665, 4137.05128185, 4128.84615357, 4142.82051262, 4148.46153826, 4132.56410229, 4127.69230742, 4146.79487159, 4145.25641005, 4133.46153819,12.0
4123.58974332, 4132.05128178, 4115.89743562, 4013.58974311, 4118.97435870, 4116.79487152, 4108.33333306, 4128.71794844, 4142.69230749, 4118.84615357, 4118.58974332, 4140.76923056, 4136.79487159, 4128.07692280,12.0
4119.48717921, 4132.94871767, 4121.02564075, 4012.94871747, 4119.87179460, 4112.94871767, 4107.30769203, 4129.61538434, 4144.23076903, 4113.20512793, 4121.28205101, 4142.94871774, 4133.46153819, 4130.51282024,12.0
4121.53846126, 4134.48717921, 4123.07692280, 4014.99999952, 4122.05128178, 4123.84615357, 4118.20512793, 4136.66666646, 4145.76923056, 4114.23076896, 4123.07692280, 4138.84615364, 4134.99999973, 4133.20512793,12.0
4129.87179460, 4143.46153826, 4128.33333306, 4027.05128157, 4125.51282024, 4126.66666639, 4121.92307665, 4143.46153826, 4148.20512800, 4126.53846126, 4133.71794844, 4142.05128185, 4144.23076903, 4129.10256383,12.0
4131.15384588, 4148.97435877, 4126.66666639, 4028.84615336, 4129.10256383, 4121.28205101, 4113.84615357, 4135.38461518, 4146.92307672, 4128.97435870, 4136.66666646, 4143.58974339, 4143.97435877, 4129.74358947,12.0
4123.84615357, 4138.84615364, 4116.66666639, 4014.48717900, 4125.38461511, 4120.25640998, 4107.56410229, 4125.89743562, 4144.99999980, 4119.10256383, 4122.56410229, 4132.56410229, 4133.58974332, 4132.69230742,12.0
4126.41025614, 4142.05128185, 4125.76923050, 4015.76923029, 4127.43589716, 4127.56410229, 4119.87179460, 4133.46153819, 4148.07692287, 4123.33333306, 4125.76923050, 4132.94871767, 4136.15384595, 4131.28205101,12.0
4131.02564075, 4153.97435877, 4137.94871774, 4027.82051234, 4138.20512800, 4135.12820485, 4131.41025614, 4139.35897415, 4148.97435877, 4124.23076896, 4135.12820485, 4138.07692287, 4141.15384595, 4132.43589716,12.0
4122.43589716, 4143.20512800, 4122.30769203, 4023.07692259, 4132.69230742, 4130.89743562, 4122.30769203, 4134.10256383, 4145.64102544, 4111.79487152, 4123.71794844, 4128.71794844, 4135.76923056, 4133.46153819,12.0
4123.33333306, 4133.97435870, 4110.89743562, 4017.05128157, 4121.15384588, 4124.48717921, 4116.41025614, 4135.25640998, 4148.20512800, 4117.56410229, 4119.48717921, 4125.12820485, 4135.89743569, 4130.12820485,12.0
4125.38461511, 4136.79487159, 4116.66666639, 4019.23076875, 4119.10256383, 4116.28205101, 4112.17948691, 4133.71794844, 4149.87179467, 4121.53846126, 4120.38461511, 4125.64102537, 4130.25640998, 4129.61538434,12.0
4113.07692280, 4131.15384588, 4112.69230742, 4017.82051234, 4116.79487152, 4109.87179460, 4102.82051255, 4121.15384588, 4143.20512800, 4105.25640998, 4111.15384588, 4117.69230742, 4117.43589716, 4132.30769203,12.0
4113.84615357, 4131.15384588, 4108.20512793, 4020.25640977, 4119.48717921, 4117.94871767, 4110.51282024, 4126.28205101, 4142.43589723, 4105.51282024, 4114.87179460, 4118.33333306, 4118.46153819, 4131.53846126,12.0
4126.28205101, 4142.94871774, 4119.48717921, 4027.05128157, 4124.10256383, 4125.25640998, 4124.10256383, 4142.94871774, 4147.69230749, 4123.33333306, 4127.94871767, 4122.82051255, 4127.05128178, 4129.74358947,12.0
4123.46153819, 4145.64102544, 4128.71794844, 4029.23076875, 4121.28205101, 4122.30769203, 4121.15384588, 4144.87179467, 4148.20512800, 4126.92307665, 4128.20512793, 4117.69230742, 4129.99999973, 4129.48717921,12.0
4113.97435870, 4137.30769210, 4124.10256383, 4026.53846106, 4121.28205101, 4122.56410229, 4116.28205101, 4136.41025621, 4146.53846133, 4119.87179460, 4120.12820485, 4112.82051255, 4127.43589716, 4130.89743562,12.0
4110.76923050, 4128.97435870, 4116.92307665, 4020.76923029, 4120.12820485, 4121.53846126, 4116.15384588, 4131.15384588, 4144.99999980, 4114.61538434, 4113.71794844, 4107.82051255, 4123.97435870, 4134.10256383,12.0
4117.05128178, 4130.64102537, 4118.58974332, 4024.74358926, 4119.10256383, 4123.84615357, 4125.38461511, 4142.17948697, 4146.15384595, 4119.74358947, 4117.05128178, 4109.23076896, 4127.05128178, 4134.35897408,12.0
4124.23076896, 4134.35897408, 4123.58974332, 4032.56410208, 4125.25640998, 4135.38461518, 4130.51282024, 4145.38461518, 4144.74358954, 4120.89743562, 4120.51282024, 4117.17948691, 4129.74358947, 4130.25640998,12.0
4117.43589716, 4126.53846126, 4118.07692280, 4028.71794824, 4118.33333306, 4117.56410229, 4102.17948684, 4125.38461511, 4139.61538441, 4105.51282024, 4109.99999973, 4112.82051255, 4122.43589716, 4128.97435870,12.0
4114.23076896, 4126.92307665, 4115.76923050, 4029.87179439, 4109.23076896, 4095.64102530, 4086.28205094, 4124.10256383, 4139.99999980, 4107.43589716, 4109.23076896, 4110.51282024, 4125.89743562, 4131.53846126,12.0
4128.71794844, 4140.25641005, 4124.48717921, 4044.74358933, 4122.43589716, 4118.97435870, 4116.15384588, 4147.69230749, 4146.15384595, 4128.20512793, 4124.48717921, 4125.89743562, 4140.89743569, 4129.99999973,12.0
4134.61538434, 4140.76923056, 4129.10256383, 4051.79487138, 4132.17948691, 4137.30769210, 4132.82051255, 4149.10256390, 4146.15384595, 4131.41025614, 4128.71794844, 4130.25640998, 4142.17948697, 4127.56410229,12.0
4127.94871767, 4134.10256383, 4128.07692280, 4051.28205087, 4128.07692280, 4125.89743562, 4122.05128178, 4140.76923056, 4143.20512800, 4127.30769203, 4128.58974332, 4123.07692280, 4140.12820492, 4131.79487152,12.0
4127.30769203, 4135.64102544, 4124.23076896, 4049.87179446, 4129.10256383, 4128.84615357, 4125.12820485, 4153.97435877, 4145.51282031, 4132.43589716, 4131.53846126, 4124.48717921, 4145.76923056, 4132.82051255,12.0
4130.25640998, 4137.05128185, 4121.66666639, 4047.17948677, 4128.07692280, 4138.84615364, 4131.79487152, 4160.89743569, 4145.76923056, 4130.76923050, 4122.69230742, 4126.53846126, 4146.66666646, 4131.02564075,12.0
4136.92307672, 4139.23076903, 4130.64102537, 4052.30769189, 4125.76923050, 4133.58974332, 4126.53846126, 4157.82051262, 4144.74358954, 4126.28205101, 4122.69230742, 4129.23076896, 4148.07692287, 4133.33333306,12.0
4146.15384595, 4147.05128185, 4140.25641005, 4058.46153805, 4133.84615357, 4132.43589716, 4128.97435870, 4164.99999980, 4146.92307672, 4133.07692280, 4135.89743569, 4136.15384595, 4157.43589723, 4134.35897408,12.0
4141.53846133, 4145.12820492, 4131.41025614, 4053.71794830, 4131.66666639, 4131.15384588, 4130.25640998, 4166.53846133, 4147.30769210, 4132.69230742, 4130.25640998, 4133.97435870, 4157.05128185, 4134.87179460,12.0
4119.87179460, 4130.38461511, 4113.46153819, 4044.10256369, 4113.33333306, 4116.15384588, 4113.20512793, 4148.97435877, 4141.15384595, 4113.71794844, 4111.92307665, 4118.71794844, 4141.15384595, 4134.35897408,12.0
4103.71794844, 4120.76923050, 4106.92307665, 4037.82051241, 4109.61538434, 4111.41025614, 4102.17948684, 4141.28205108, 4137.69230749, 4104.48717921, 4110.64102537, 4105.38461511, 4131.41025614, 4130.64102537,12.0
4111.41025614, 4127.17948691, 4112.56410229, 4037.69230728, 4120.89743562, 4123.71794844, 4114.61538434, 4153.33333313, 4144.61538441, 4119.35897408, 4123.33333306, 4107.56410229, 4140.76923056, 4130.76923050,12.0
4121.53846126, 4134.23076896, 4119.10256383, 4042.05128164, 4123.46153819, 4127.94871767, 4125.25640998, 4151.79487159, 4146.28205108, 4126.28205101, 4126.41025614, 4118.07692280, 4146.53846133, 4132.69230742,12.0
4116.02564075, 4134.99999973, 4120.76923050, 4043.20512779, 4120.64102537, 4126.28205101, 4125.89743562, 4142.94871774, 4141.15384595, 4116.79487152, 4120.51282024, 4122.56410229, 4137.17948697, 4131.02564075,12.0
4108.97435870, 4133.58974332, 4117.30769203, 4034.48717900, 4119.74358947, 4129.48717921, 4126.79487152, 4146.66666646, 4142.05128185, 4117.94871767, 4115.12820485, 4118.07692280, 4131.41025614, 4130.76923050,12.0
4109.61538434, 4129.61538434, 4110.25640998, 4026.92307644, 4118.58974332, 4125.38461511, 4121.92307665, 4147.94871774, 4144.87179467, 4124.61538434, 4114.48717921, 4115.25640998, 4136.41025621, 4133.33333306,12.0
4112.56410229, 4131.66666639, 4111.02564075, 4029.48717900, 4120.38461511, 4122.17948691, 4120.25640998, 4146.02564082, 4141.92307672, 4123.97435870, 4119.61538434, 4119.61538434, 4138.33333313, 4133.07692280,12.0
4112.56410229, 4132.94871767, 4116.79487152, 4031.53846106, 4121.53846126, 4128.84615357, 4125.64102537, 4151.79487159, 4139.99999980, 4127.56410229, 4125.64102537, 4125.89743562, 4138.33333313, 4131.92307665,12.0
4104.61538434, 4120.12820485, 4111.92307665, 4024.35897388, 4113.84615357, 4121.28205101, 4116.28205101, 4144.23076903, 4138.46153826, 4127.17948691, 4123.20512793, 4121.79487152, 4136.41025621, 4132.56410229,12.0
4101.15384581, 4113.58974332, 4109.87179460, 4021.92307644, 4108.33333306, 4102.43589709, 4102.69230742, 4131.41025614, 4137.56410236, 4118.71794844, 4116.02564075, 4115.76923050, 4133.07692280, 4131.66666639,12.0
4107.30769203, 4122.82051255, 4119.48717921, 4027.56410208, 4112.30769203, 4108.58974332, 4117.05128178, 4138.97435877, 4140.51282031, 4118.84615357, 4115.89743562, 4121.53846126, 4137.05128185, 4131.28205101,12.0
4114.23076896, 4129.61538434, 4124.74358947, 4032.94871747, 4120.76923050, 4135.12820485, 4143.71794851, 4153.20512800, 4141.41025621, 4124.61538434, 4123.71794844, 4131.53846126, 4145.51282031, 4132.43589716,12.0
4118.97435870, 4131.53846126, 4124.99999973, 4038.71794830, 4128.84615357, 4139.35897415, 4142.30769210, 4154.10256390, 4141.79487159, 4126.92307665, 4132.69230742, 4134.74358947, 4147.43589723, 4132.43589716,12.0
4117.82051255, 4132.69230742, 4124.48717921, 4037.43589702, 4127.82051255, 4119.74358947, 4120.25640998, 4141.66666646, 4142.43589723, 4126.28205101, 4133.58974332, 4127.94871767, 4141.02564082, 4132.43589716,12.0
4108.71794844, 4126.66666639, 4117.43589716, 4029.74358926, 4121.53846126, 4112.30769203, 4118.20512793, 4138.33333313, 4136.92307672, 4124.74358947, 4124.99999973, 4116.41025614, 4135.64102544, 4132.69230742,12.0
4106.28205101, 4121.92307665, 4113.58974332, 4028.46153798, 4124.74358947, 4119.99999973, 4130.51282024, 4147.30769210, 4132.69230742, 4124.48717921, 4114.48717921, 4113.07692280, 4133.46153819, 4131.92307665,12.0
4112.05128178, 4127.82051255, 4118.58974332, 4031.79487131, 4126.66666639, 4119.35897408, 4126.79487152, 4147.05128185, 4135.76923056, 4123.84615357, 4109.10256383, 4116.92307665, 4131.28205101, 4132.69230742,12.0
4109.87179460, 4130.25640998, 4118.20512793, 4028.97435849, 4114.61538434, 4108.97435870, 4109.35897408, 4134.48717921, 4136.28205108, 4119.99999973, 4107.56410229, 4114.61538434, 4130.25640998, 4135.25640998,12.0
4109.87179460, 4125.64102537, 4116.66666639, 4028.33333285, 4109.87179460, 4103.71794844, 4102.82051255, 4130.76923050, 4134.74358947, 4117.05128178, 4111.28205101, 4113.71794844, 4133.84615357, 4135.76923056,12.0
4125.12820485, 4130.64102537, 4122.69230742, 4036.53846106, 4123.20512793, 4108.46153819, 4116.28205101, 4145.76923056, 4139.10256390, 4127.05128178, 4124.61538434, 4123.33333306, 4148.07692287, 4133.71794844,12.0
4132.82051255, 4138.58974339, 4122.94871767, 4036.28205080, 4125.12820485, 4113.33333306, 4125.51282024, 4151.15384595, 4141.41025621, 4139.87179467, 4131.28205101, 4126.79487152, 4157.30769210, 4132.82051255,12.0
4126.28205101, 4135.12820485, 4115.76923050, 4028.07692259, 4113.84615357, 4110.38461511, 4117.05128178, 4137.43589723, 4136.41025621, 4133.71794844, 4123.20512793, 4121.92307665, 4151.53846133, 4133.58974332,12.0
4127.69230742, 4134.61538434, 4118.33333306, 4026.79487131, 4118.33333306, 4114.10256383, 4122.05128178, 4138.71794851, 4134.87179460, 4125.12820485, 4120.12820485, 4124.23076896, 4146.28205108, 4132.69230742,12.0
4137.43589723, 4144.99999980, 4126.92307665, 4032.94871747, 4129.48717921, 4126.53846126, 4141.79487159, 4162.17948697, 4141.92307672, 4138.20512800, 4129.74358947, 4130.12820485, 4151.66666646, 4131.02564075,12.0
4131.92307665, 4140.89743569, 4126.02564075, 4029.35897388, 4122.05128178, 4121.53846126, 4133.46153819, 4161.15384595, 4144.10256390, 4148.71794851, 4131.53846126, 4123.97435870, 4151.41025621, 4130.64102537,12.0
4115.51282024, 4120.51282024, 4116.53846126, 4015.12820465, 4110.76923050, 4104.74358947, 4111.15384588, 4135.64102544, 4135.38461518, 4133.33333306, 4121.41025614, 4112.05128178, 4138.20512800, 4131.92307665,12.0
4115.51282024, 4120.51282024, 4116.53846126, 4015.12820465, 4110.76923050, 4104.74358947, 4111.15384588, 4135.64102544, 4135.38461518, 4133.33333306, 4121.41025614, 4112.05128178, 4138.20512800, 4131.92307665,12.0
4109.10256383, 4108.84615357, 4105.89743562, 4009.87179439, 4111.66666639, 4100.64102530, 4112.17948691, 4129.61538434, 4129.61538434, 4118.20512793, 4113.71794844, 4109.87179460, 4129.48717921, 4134.23076896,12.0
4115.89743562, 4112.94871767, 4110.12820485, 4020.64102516, 4118.33333306, 4112.56410229, 4127.30769203, 4143.71794851, 4134.10256383, 4126.15384588, 4118.46153819, 4118.46153819, 4133.71794844, 4135.64102544,12.0
4125.25640998, 4118.71794844, 4123.71794844, 4030.51282003, 4122.43589716, 4124.10256383, 4132.94871767, 4147.05128185, 4136.02564082, 4135.12820485, 4125.89743562, 4126.15384588, 4138.46153826, 4135.89743569,12.0
4120.51282024, 4111.66666639, 4116.92307665, 4024.35897388, 4120.51282024, 4119.48717921, 4120.38461511, 4131.66666639, 4131.28205101, 4125.64102537, 4119.48717921, 4121.28205101, 4130.64102537, 4135.64102544,12.0
4110.25640998, 4106.41025614, 4101.53846119, 4018.07692259, 4117.30769203, 4109.61538434, 4108.84615357, 4121.53846126, 4131.79487152, 4119.48717921, 4113.20512793, 4114.10256383, 4124.99999973, 4132.43589716,12.0
4117.17948691, 4118.71794844, 4109.35897408, 4024.35897388, 4121.66666639, 4121.28205101, 4124.87179460, 4139.74358954, 4140.25641005, 4134.23076896, 4123.97435870, 4122.17948691, 4138.97435877, 4129.23076896,12.0
4125.38461511, 4125.25640998, 4121.92307665, 4031.28205080, 4130.12820485, 4139.23076903, 4148.84615364, 4159.48717928, 4142.43589723, 4140.51282031, 4131.28205101, 4133.07692280, 4143.71794851, 4131.79487152,12.0
4116.66666639, 4113.58974332, 4111.28205101, 4025.25640977, 4126.66666639, 4125.51282024, 4137.82051262, 4144.35897415, 4134.87179460, 4120.38461511, 4118.33333306, 4123.20512793, 4124.99999973, 4133.97435870,12.0
4103.71794844, 4104.99999973, 4095.89743555, 4012.43589695, 4108.71794844, 4103.07692280, 4115.25640998, 4125.38461511, 4130.51282024, 4106.66666639, 4104.35897408, 4107.94871767, 4112.69230742, 4131.79487152,12.0
4094.48717914, 4100.89743555, 4090.76923043, 4005.12820465, 4094.10256376, 4099.48717914, 4109.74358947, 4121.92307665, 4129.10256383, 4105.89743562, 4096.15384581, 4102.30769196, 4110.38461511, 4133.84615357,12.0
4094.61538427, 4097.43589709, 4094.10256376, 4003.07692252, 4093.97435863, 4100.64102530, 4108.58974332, 4117.94871767, 4126.66666639, 4101.79487145, 4097.30769196, 4103.20512793, 4110.89743562, 4136.92307672,12.0
4110.38461511, 4106.79487152, 4106.92307665, 4010.64102516, 4103.46153819, 4104.48717921, 4116.28205101, 4124.23076896, 4129.74358947, 4110.89743562, 4113.33333306, 4112.43589716, 4122.82051255, 4133.71794844,12.0
4123.97435870, 4123.20512793, 4118.97435870, 4024.48717900, 4113.58974332, 4108.20512793, 4123.33333306, 4134.48717921, 4131.92307665, 4125.51282024, 4124.10256383, 4121.02564075, 4130.64102537, 4131.15384588,12.0
4121.41025614, 4122.69230742, 4114.48717921, 4026.15384567, 4114.10256383, 4095.25640991, 4108.58974332, 4124.87179460, 4125.51282024, 4121.41025614, 4123.20512793, 4118.84615357, 4124.99999973, 4132.69230742,12.0
4121.53846126, 4116.79487152, 4110.76923050, 4019.87179439, 4111.02564075, 4092.69230735, 4106.15384588, 4122.56410229, 4125.25640998, 4121.53846126, 4124.10256383, 4120.51282024, 4129.23076896, 4134.74358947,12.0
4134.10256383, 4127.05128178, 4123.58974332, 4024.10256362, 4120.25640998, 4117.43589716, 4132.30769203, 4143.84615364, 4133.58974332, 4139.61538441, 4125.89743562, 4132.82051255, 4142.43589723, 4135.38461518,12.0
4137.05128185, 4133.84615357, 4128.97435870, 4027.30769183, 4131.53846126, 4124.35897408, 4139.99999980, 4145.64102544, 4135.51282031, 4143.71794851, 4118.07692280, 4133.46153819, 4139.48717928, 4134.99999973,12.0
4126.28205101, 4121.41025614, 4119.48717921, 4021.28205080, 4123.97435870, 4106.66666639, 4122.69230742, 4129.23076896, 4131.92307665, 4131.41025614, 4108.07692280, 4123.84615357, 4132.56410229, 4133.58974332,12.0
4120.64102537, 4109.99999973, 4115.51282024, 4019.61538413, 4115.51282024, 4109.48717921, 4121.15384588, 4128.84615357, 4131.79487152, 4127.30769203, 4100.64102530, 4119.48717921, 4130.51282024, 4128.58974332,12.0
4115.12820485, 4103.71794844, 4109.23076896, 4018.07692259, 4116.92307665, 4114.23076896, 4121.79487152, 4128.97435870, 4132.56410229, 4123.97435870, 4092.94871761, 4111.28205101, 4115.76923050, 4127.05128178,12.0
4099.10256376, 4092.43589709, 4094.48717914, 4010.38461490, 4106.15384588, 4094.61538427, 4104.10256383, 4114.87179460, 4128.20512793, 4112.56410229, 4087.56410222, 4100.51282017, 4099.87179453, 4129.61538434,12.0
4093.97435863, 4086.92307658, 4091.02564068, 4007.94871747, 4093.84615350, 4084.99999966, 4093.84615350, 4107.05128178, 4123.58974332, 4107.30769203, 4088.71794837, 4099.99999966, 4100.89743555, 4130.76923050,12.0
4101.28205094, 4091.02564068, 4097.43589709, 4009.23076875, 4098.07692273, 4090.76923043, 4099.99999966, 4107.94871767, 4122.69230742, 4108.20512793, 4095.38461504, 4104.48717921, 4109.74358947, 4128.46153819,12.0
4104.10256383, 4097.30769196, 4100.51282017, 4011.41025593, 4106.92307665, 4096.28205094, 4110.89743562, 4111.92307665, 4123.33333306, 4110.51282024, 4097.05128171, 4106.15384588, 4114.48717921, 4128.07692280,12.0
4106.79487152, 4101.53846119, 4103.07692280, 4013.71794824, 4112.17948691, 4105.38461511, 4116.53846126, 4120.12820485, 4126.41025614, 4112.82051255, 4090.76923043, 4106.92307665, 4115.89743562, 4130.76923050,12.0
4100.76923043, 4093.84615350, 4095.64102530, 4005.64102516, 4107.17948691, 4097.05128171, 4102.69230742, 4114.74358947, 4127.05128178, 4105.12820485, 4082.56410222, 4100.25640991, 4109.74358947, 4130.89743562,12.0
4090.12820478, 4086.66666632, 4087.17948684, 4002.05128150, 4095.89743555, 4077.30769196, 4087.17948684, 4103.97435870, 4123.58974332, 4101.02564068, 4084.74358940, 4097.56410222, 4106.53846126, 4132.17948691,12.0
