AF3,F7,F3,FC5,T7,P7,O1,O2,P8,T8,FC6,F4,F8,AF4,Label
4287.17948725, 4363.97435919, 4276.02564110, 4276.92307700, 4290.38461546, 4282.43589751, 4252.43589744, 4244.23076923, 4290.12820520, 4205.64102558, 4254.35897436, 4335.51282073, 4199.74358961, 4127.94871767,12.0
4280.25641033, 4349.48717970, 4276.02564110, 4272.30769238, 4290.51282059, 4278.71794879, 4248.97435898, 4245.25641026, 4281.92307700, 4203.58974352, 4254.35897436, 4330.00000014, 4204.48717942, 4130.89743562,12.0
4301.92307707, 4365.38461567, 4299.61538476, 4290.51282059, 4315.51282066, 4296.66666674, 4270.64102571, 4257.05128206, 4300.00000014, 4209.48717942, 4274.10256418, 4353.33333355, 4227.82051275, 4131.28205101,12.0
4282.05128212, 4344.61538483, 4275.89743597, 4265.76923077, 4283.33333341, 4272.94871802, 4243.71794872, 4243.84615385, 4285.38461546, 4185.38461525, 4256.41025641, 4329.74358989, 4206.79487173, 4127.94871767,12.0
4239.74358975, 4310.51282066, 4232.56410250, 4226.92307686, 4243.97435898, 4243.97435898, 4208.46153840, 4226.66666660, 4257.17948718, 4158.71794851, 4220.25641019, 4282.69230777, 4170.89743576, 4129.23076896,12.0
4243.07692308, 4307.82051296, 4231.02564096, 4230.25641019, 4261.79487180, 4261.79487180, 4222.69230763, 4231.79487173, 4259.87179488, 4153.97435877, 4214.10256404, 4283.33333341, 4173.20512807, 4132.69230742,12.0
4271.92307700, 4326.79487194, 4259.87179488, 4251.53846154, 4291.79487187, 4285.38461546, 4248.84615385, 4243.07692308, 4272.82051289, 4168.33333320, 4238.20512821, 4314.74358989, 4196.92307679, 4129.23076896,12.0
4279.35897443, 4342.94871816, 4273.58974366, 4252.82051282, 4291.28205136, 4283.46153853, 4253.33333334, 4253.97435898, 4285.38461546, 4184.23076910, 4256.53846154, 4324.23076937, 4209.48717942, 4126.53846126,12.0
4273.71794879, 4338.97435919, 4265.38461539, 4243.71794872, 4279.61538469, 4281.79487187, 4255.76923077, 4260.64102564, 4303.71794886, 4180.76923063, 4252.82051282, 4318.33333348, 4205.76923070, 4132.56410229,12.0
4263.07692308, 4313.58974373, 4246.66666667, 4228.97435891, 4267.69230777, 4285.00000007, 4250.51282052, 4242.82051282, 4281.15384623, 4157.17948697, 4235.76923077, 4302.94871809, 4190.12820499, 4134.10256383,12.0
4254.61538462, 4308.33333348, 4236.53846154, 4214.48717942, 4260.89743590, 4273.84615392, 4231.92307686, 4228.71794865, 4247.69230770, 4148.97435877, 4227.30769224, 4282.30769238, 4179.48717935, 4129.87179460,12.0
4261.41025641, 4320.25641040, 4243.58974359, 4221.79487173, 4267.05128212, 4267.94871802, 4229.99999993, 4241.15384616, 4265.76923077, 4161.53846133, 4236.28205129, 4286.41025648, 4187.43589730, 4130.12820485,12.0
4256.41025641, 4310.89743604, 4241.41025641, 4229.87179481, 4269.10256418, 4280.00000007, 4240.64102564, 4241.66666667, 4281.02564110, 4150.89743569, 4232.17948711, 4293.97435905, 4183.71794858, 4131.15384588,12.0
4235.38461539, 4299.61538476, 4223.33333327, 4212.56410250, 4255.00000000, 4279.48717956, 4230.25641019, 4223.33333327, 4252.69230770, 4121.28205101, 4212.94871788, 4276.92307700, 4159.61538441, 4132.94871767,12.0
4235.00000000, 4300.00000014, 4222.17948711, 4199.61538448, 4241.15384616, 4264.35897436, 4214.61538455, 4224.35897429, 4245.12820513, 4121.66666639, 4215.76923070, 4272.82051289, 4159.61538441, 4133.07692280,12.0
4255.76923077, 4311.79487194, 4248.84615385, 4218.58974352, 4251.79487180, 4266.02564103, 4227.94871788, 4240.00000000, 4265.25641026, 4145.12820492, 4240.76923077, 4300.00000014, 4186.15384602, 4131.66666639,12.0
4270.38461546, 4317.43589758, 4270.12820520, 4237.82051282, 4278.84615392, 4283.71794879, 4250.76923077, 4247.82051282, 4270.25641033, 4160.64102544, 4253.71794872, 4321.79487194, 4199.74358961, 4131.92307665,12.0
4276.79487187, 4320.00000014, 4271.66666674, 4232.82051275, 4279.23076930, 4292.43589751, 4260.51282052, 4255.00000000, 4278.20512828, 4167.05128185, 4249.10256411, 4318.20512835, 4195.12820499, 4131.28205101,12.0
4276.15384623, 4352.82051303, 4271.79487187, 4229.74358968, 4261.15384616, 4295.51282059, 4262.56410257, 4255.64102564, 4285.12820520, 4163.97435877, 4245.51282052, 4309.87179501, 4189.10256397, 4133.07692280,12.0
4258.84615385, 4358.46153867, 4268.71794879, 4231.66666660, 4271.02564110, 4298.97435905, 4264.35897436, 4249.10256411, 4278.58974366, 4157.56410236, 4244.74358975, 4306.79487194, 4189.87179474, 4132.43589716,12.0
4248.58974359, 4304.87179501, 4261.66666667, 4229.99999993, 4292.56410264, 4303.71794886, 4273.20512828, 4260.89743590, 4298.46153853, 4162.94871774, 4253.33333334, 4312.82051296, 4203.46153840, 4129.48717921,12.0
4259.87179488, 4286.41025648, 4262.05128206, 4230.89743583, 4283.46153853, 4305.25641040, 4279.35897443, 4278.58974366, 4324.48717963, 4167.05128185, 4260.89743590, 4319.61538476, 4212.56410250, 4129.48717921,12.0
4273.20512828, 4337.17948739, 4271.41025648, 4234.48717949, 4268.58974366, 4303.97435912, 4282.05128212, 4271.28205136, 4310.51282066, 4157.30769210, 4253.20512821, 4317.69230784, 4203.58974352, 4128.20512793,12.0
4255.00000000, 4329.35897450, 4251.41025641, 4220.38461532, 4253.84615385, 4287.17948725, 4258.58974359, 4236.66666667, 4260.76923077, 4124.61538434, 4223.84615378, 4295.38461546, 4178.07692294, 4128.46153819,12.0
4221.41025634, 4275.25641033, 4211.53846147, 4198.84615371, 4235.25641026, 4255.00000000, 4211.41025634, 4207.05128199, 4228.84615378, 4088.46153812, 4196.66666653, 4267.05128212, 4155.12820492, 4130.51282024,12.0
4223.20512814, 4296.28205136, 4213.20512814, 4203.97435891, 4237.69230770, 4246.02564103, 4194.74358961, 4206.66666660, 4242.56410257, 4086.79487145, 4200.76923063, 4270.64102571, 4157.82051262, 4131.02564075,12.0
4245.12820513, 4333.71794893, 4239.23076923, 4223.33333327, 4242.56410257, 4258.71794872, 4215.76923070, 4225.76923070, 4273.33333341, 4107.82051255, 4210.38461532, 4289.61538469, 4171.41025628, 4131.02564075,12.0
4239.61538462, 4308.20512835, 4230.25641019, 4218.71794865, 4236.02564103, 4259.10256411, 4223.46153840, 4234.23076923, 4276.92307700, 4108.97435870, 4195.64102551, 4283.71794879, 4167.05128185, 4131.15384588,12.0
4228.58974352, 4281.28205136, 4214.23076917, 4209.99999993, 4249.10256411, 4262.56410257, 4218.97435891, 4231.15384609, 4267.17948725, 4100.12820478, 4189.99999986, 4276.41025648, 4162.05128185, 4131.53846126,12.0
4257.05128206, 4314.10256425, 4243.58974359, 4236.92307693, 4274.10256418, 4285.12820520, 4243.97435898, 4244.23076923, 4290.12820520, 4128.33333306, 4218.46153840, 4301.15384630, 4184.87179474, 4132.69230742,12.0
4272.05128212, 4332.56410278, 4260.12820513, 4248.46153847, 4268.58974366, 4285.12820520, 4254.74358975, 4250.00000000, 4305.25641040, 4150.51282031, 4224.48717942, 4311.28205142, 4192.69230756, 4132.43589716,12.0
4239.61538462, 4304.74358989, 4227.69230763, 4220.89743583, 4237.94871795, 4260.38461539, 4224.48717942, 4225.64102558, 4278.71794879, 4111.53846126, 4191.41025628, 4283.97435905, 4165.38461518, 4131.66666639,12.0
4234.61538462, 4308.20512835, 4223.33333327, 4224.87179481, 4238.97435898, 4265.51282052, 4223.71794865, 4217.94871788, 4271.66666674, 4080.64102530, 4186.41025628, 4284.74358982, 4161.79487159, 4130.51282024,12.0
4264.74358975, 4333.33333355, 4253.20512821, 4248.46153847, 4271.02564110, 4290.89743597, 4256.79487180, 4241.66666667, 4303.20512835, 4104.35897408, 4208.97435891, 4315.12820527, 4180.12820499, 4131.02564075,12.0
4261.41025641, 4329.23076937, 4251.92307693, 4241.92307693, 4270.38461546, 4292.05128212, 4255.89743590, 4244.48717949, 4317.30769245, 4120.51282024, 4207.69230763, 4317.56410271, 4174.23076910, 4132.30769203,12.0
4238.97435898, 4316.28205142, 4232.30769224, 4236.41025641, 4244.35897436, 4274.61538469, 4229.87179481, 4224.23076917, 4295.12820520, 4102.30769196, 4194.23076910, 4299.61538476, 4161.15384595, 4131.66666639,12.0
4247.69230770, 4318.58974373, 4241.15384616, 4251.28205129, 4257.69230770, 4275.12820520, 4230.76923070, 4226.41025634, 4290.00000007, 4100.12820478, 4209.74358968, 4309.23076937, 4174.10256397, 4131.92307665,12.0
4256.02564103, 4310.51282066, 4254.61538462, 4251.92307693, 4272.94871802, 4275.64102571, 4230.89743583, 4231.79487173, 4300.25641040, 4112.94871767, 4223.58974352, 4326.02564117, 4182.69230756, 4133.07692280,12.0
4243.97435898, 4298.46153853, 4252.30769231, 4243.84615385, 4246.02564103, 4258.46153847, 4213.33333327, 4218.46153840, 4293.07692315, 4110.51282024, 4210.64102558, 4320.38461553, 4170.76923063, 4134.61538434,12.0
4242.17948718, 4300.89743604, 4245.89743590, 4241.92307693, 4228.07692301, 4250.89743590, 4207.56410250, 4214.61538455, 4284.74358982, 4100.51282017, 4197.69230756, 4310.89743604, 4165.89743569, 4132.69230742,12.0
4240.76923077, 4292.05128212, 4233.97435898, 4227.94871788, 4235.00000000, 4249.35897436, 4204.10256404, 4214.35897429, 4274.87179495, 4087.94871761, 4192.69230756, 4303.07692322, 4162.56410236, 4127.17948691,12.0
4229.61538455, 4273.71794879, 4225.64102558, 4217.17948711, 4230.12820506, 4236.28205129, 4190.12820499, 4198.46153833, 4244.35897436, 4070.25640991, 4187.43589730, 4292.94871802, 4149.48717928, 4128.97435870,12.0
4226.15384609, 4272.30769238, 4226.66666660, 4224.99999993, 4216.28205122, 4228.84615378, 4182.56410243, 4188.46153833, 4218.33333327, 4053.97435856, 4179.99999986, 4288.71794879, 4141.66666646, 4133.97435870,12.0
4234.10256411, 4281.79487187, 4235.00000000, 4233.20512814, 4227.05128199, 4246.28205129, 4196.15384602, 4200.51282038, 4228.97435891, 4060.64102523, 4184.48717935, 4297.94871802, 4154.35897415, 4130.25640998,12.0
4248.97435898, 4286.02564110, 4249.35897436, 4234.48717949, 4255.76923077, 4263.46153847, 4213.97435891, 4210.51282045, 4247.43589744, 4077.30769196, 4204.23076917, 4310.38461553, 4171.92307679, 4125.89743562,12.0
4256.41025641, 4275.89743597, 4257.17948718, 4237.43589744, 4249.23076923, 4254.10256411, 4205.51282045, 4207.56410250, 4247.43589744, 4071.15384581, 4212.05128199, 4313.58974373, 4172.82051269, 4127.69230742,12.0
4241.92307693, 4258.33333334, 4249.61538462, 4237.30769231, 4215.38461532, 4233.97435898, 4181.92307679, 4200.25641012, 4235.64102564, 4059.48717907, 4203.20512814, 4310.12820527, 4163.84615364, 4129.48717921,12.0
4218.71794865, 4240.89743590, 4228.58974352, 4215.38461532, 4203.84615378, 4227.17948711, 4176.02564089, 4194.99999986, 4216.28205122, 4052.30769189, 4185.51282038, 4289.74358982, 4146.15384595, 4126.66666639,12.0
4207.69230763, 4223.58974352, 4204.48717942, 4186.53846140, 4202.43589737, 4227.82051275, 4182.30769217, 4199.99999986, 4211.02564096, 4034.87179439, 4158.46153826, 4257.94871795, 4126.66666639, 4125.25640998,12.0
4202.30769224, 4206.79487173, 4194.35897422, 4178.33333320, 4188.20512807, 4221.41025634, 4176.66666653, 4197.43589730, 4215.89743583, 4022.05128157, 4143.46153826, 4246.41025641, 4123.97435870, 4128.97435870,12.0
4195.89743576, 4196.53846140, 4196.79487166, 4173.58974345, 4181.02564089, 4218.97435891, 4168.46153833, 4185.51282038, 4204.10256404, 4035.64102516, 4159.23076903, 4260.89743590, 4135.89743569, 4130.64102537,12.0
4194.35897422, 4188.71794858, 4194.35897422, 4154.74358954, 4189.74358961, 4226.66666660, 4175.64102551, 4192.43589730, 4202.17948711, 4048.33333292, 4179.10256397, 4270.64102571, 4142.94871774, 4130.89743562,12.0
4201.53846147, 4188.84615371, 4199.48717935, 4151.28205108, 4203.20512814, 4238.20512821, 4200.51282038, 4219.10256404, 4243.84615385, 4054.61538420, 4196.66666653, 4277.94871802, 4154.48717928, 4129.35897408,12.0
4204.10256404, 4183.84615371, 4206.41025634, 4154.61538441, 4202.94871788, 4233.07692301, 4199.23076910, 4219.35897429, 4260.51282052, 4069.61538420, 4212.69230763, 4285.76923084, 4167.69230749, 4128.46153819,12.0
4198.46153833, 4159.74358954, 4193.20512807, 4134.48717921, 4194.35897422, 4221.28205122, 4178.20512807, 4198.33333320, 4223.46153840, 4065.51282010, 4205.38461532, 4277.82051289, 4160.76923056, 4133.20512793,12.0
4204.74358968, 4151.02564082, 4191.28205115, 4128.33333306, 4202.56410250, 4242.43589744, 4202.69230763, 4215.38461532, 4237.56410257, 4054.99999959, 4198.97435884, 4274.10256418, 4157.94871774, 4133.46153819,12.0
4202.94871788, 4149.87179467, 4197.30769217, 4136.15384595, 4199.99999986, 4250.12820513, 4210.38461532, 4221.41025634, 4269.61538469, 4052.17948677, 4200.38461525, 4272.43589751, 4156.92307672, 4131.53846126,12.0
4176.15384602, 4123.20512793, 4177.30769217, 4115.89743562, 4168.46153833, 4214.48717942, 4153.71794851, 4177.17948704, 4215.51282045, 4033.58974311, 4182.56410243, 4252.56410257, 4133.97435870, 4132.05128178,12.0
4171.66666653, 4111.28205101, 4167.69230749, 4101.53846119, 4170.64102551, 4209.87179481, 4151.41025621, 4176.79487166, 4189.48717935, 4031.28205080, 4175.89743576, 4248.20512821, 4123.46153819, 4129.99999973,12.0
4197.56410243, 4128.46153819, 4190.76923063, 4120.51282024, 4201.02564096, 4244.61538462, 4209.74358968, 4226.15384609, 4253.58974359, 4065.76923036, 4197.17948704, 4267.69230777, 4141.92307672, 4131.28205101,12.0
4200.25641012, 4127.05128178, 4197.30769217, 4126.92307665, 4197.56410243, 4240.12820513, 4203.71794865, 4219.87179481, 4264.23076923, 4069.48717907, 4204.35897429, 4269.48717956, 4150.89743569, 4132.30769203,12.0
4190.25641012, 4113.46153819, 4187.82051269, 4115.38461511, 4185.12820499, 4216.79487173, 4169.23076910, 4186.41025628, 4219.35897429, 4047.56410215, 4200.89743576, 4263.33333334, 4150.25641005, 4132.56410229,12.0
4209.10256404, 4122.43589716, 4202.69230763, 4123.33333306, 4194.87179474, 4233.46153840, 4196.28205115, 4209.61538455, 4229.61538455, 4068.46153805, 4214.48717942, 4279.23076930, 4163.07692287, 4134.35897408,12.0
4238.07692308, 4139.61538441, 4228.58974352, 4149.10256390, 4211.92307686, 4258.58974359, 4228.97435891, 4235.64102564, 4255.38461539, 4091.41025607, 4224.74358968, 4299.23076930, 4173.20512807, 4134.23076896,12.0
4244.87179488, 4145.89743569, 4236.41025641, 4159.48717928, 4223.07692301, 4251.66666667, 4218.07692301, 4224.87179481, 4249.48717949, 4078.84615350, 4220.89743583, 4303.20512835, 4175.38461525, 4133.46153819,12.0
4229.35897429, 4136.28205108, 4222.56410250, 4145.76923056, 4221.28205122, 4235.25641026, 4205.12820506, 4220.38461532, 4253.46153847, 4078.84615350, 4215.25641019, 4289.61538469, 4175.25641012, 4131.02564075,12.0
4222.30769224, 4124.74358947, 4220.64102558, 4144.35897415, 4223.33333327, 4250.12820513, 4227.05128199, 4234.10256411, 4266.79487187, 4098.97435863, 4221.02564096, 4287.30769238, 4180.38461525, 4131.41025614,12.0
4227.82051275, 4120.12820485, 4235.89743590, 4155.51282031, 4231.79487173, 4259.87179488, 4234.23076923, 4236.66666667, 4263.84615385, 4100.25640991, 4231.41025634, 4300.25641040, 4186.53846140, 4133.07692280,12.0
4215.89743583, 4102.17948684, 4224.99999993, 4141.66666646, 4211.79487173, 4225.12820506, 4189.35897422, 4215.51282045, 4245.89743590, 4083.84615350, 4218.71794865, 4287.94871802, 4170.64102551, 4129.87179460,12.0
4188.71794858, 4072.82051248, 4190.51282038, 4113.07692280, 4168.97435884, 4200.38461525, 4158.84615364, 4195.51282038, 4218.84615378, 4057.94871754, 4188.71794858, 4254.35897436, 4145.25641005, 4132.05128178,12.0
4172.43589730, 4057.30769189, 4174.10256397, 4105.25640998, 4156.28205108, 4205.38461532, 4165.38461518, 4191.79487166, 4200.25641012, 4034.10256362, 4175.25641012, 4237.30769231, 4138.07692287, 4135.51282031,12.0
4170.38461525, 4056.53846113, 4180.38461525, 4111.02564075, 4171.79487166, 4205.12820506, 4168.07692287, 4196.92307679, 4201.02564096, 4038.58974318, 4180.64102551, 4238.84615385, 4143.46153826, 4132.69230742,12.0
4169.99999986, 4053.58974318, 4182.69230756, 4111.15384588, 4167.94871774, 4197.82051269, 4167.94871774, 4201.15384609, 4204.74358968, 4052.43589702, 4181.15384602, 4241.92307693, 4143.84615364, 4131.41025614,12.0
4164.48717928, 4041.28205087, 4175.64102551, 4109.87179460, 4145.76923056, 4189.35897422, 4171.02564089, 4200.64102551, 4201.15384609, 4043.46153805, 4168.71794858, 4235.51282052, 4134.87179460, 4130.76923050,12.0
4161.28205108, 4032.17948670, 4173.84615371, 4105.64102537, 4145.89743569, 4182.82051269, 4170.89743576, 4203.58974352, 4204.23076917, 4030.64102516, 4161.28205108, 4226.79487173, 4131.92307665, 4133.20512793,12.0
4156.92307672, 4024.48717900, 4171.53846140, 4093.58974325, 4155.38461518, 4180.25641012, 4162.30769210, 4192.82051269, 4192.94871781, 4021.66666618, 4158.58974339, 4220.89743583, 4129.74358947, 4137.82051262,12.0
4153.33333313, 4015.76923029, 4170.89743576, 4089.74358940, 4149.35897415, 4175.76923063, 4153.33333313, 4179.74358961, 4188.07692294, 4023.07692259, 4161.41025621, 4221.02564096, 4128.20512793, 4131.41025614,12.0
4160.64102544, 4013.46153798, 4171.28205115, 4094.61538427, 4148.33333313, 4174.48717935, 4157.69230749, 4190.64102551, 4213.84615378, 4042.82051241, 4165.76923056, 4222.69230763, 4133.46153819, 4127.82051255,12.0
4147.17948697, 3992.17948663, 4145.12820492, 4073.46153812, 4133.97435870, 4164.10256390, 4143.71794851, 4178.71794858, 4198.46153833, 4022.69230721, 4139.35897415, 4195.89743576, 4116.92307665, 4131.53846126,12.0
4113.46153819, 3959.48717887, 4111.02564075, 4044.99999959, 4093.33333299, 4142.56410236, 4114.23076896, 4149.48717928, 4153.97435877, 3976.79487124, 4104.35897408, 4159.87179467, 4088.46153812, 4130.64102537,12.0
4111.66666639, 3962.30769169, 4113.71794844, 4053.46153805, 4081.53846119, 4142.69230749, 4117.30769203, 4159.61538441, 4163.20512800, 3989.10256355, 4113.97435870, 4163.07692287, 4093.71794837, 4129.74358947,12.0
4115.76923050, 3968.20512758, 4111.28205101, 4054.74358933, 4086.41025607, 4144.48717928, 4118.20512793, 4162.82051262, 4166.66666646, 4003.58974304, 4123.46153819, 4165.25641005, 4099.48717914, 4131.41025614,12.0
4083.46153812, 3936.02564033, 4071.53846119, 4021.02564054, 4067.17948677, 4121.66666639, 4086.02564068, 4135.38461518, 4123.71794844, 3963.71794810, 4089.23076889, 4125.51282024, 4069.74358940, 4132.56410229,12.0
4060.76923036, 3912.30769162, 4049.23076882, 4004.48717900, 4049.35897395, 4103.20512793, 4072.05128171, 4134.74358947, 4120.76923050, 3934.99999931, 4061.15384574, 4098.58974325, 4051.15384574, 4130.76923050,12.0
4071.02564068, 3922.94871726, 4056.92307651, 4012.94871747, 4050.25640984, 4101.02564068, 4082.69230735, 4146.41025621, 4137.94871774, 3945.25640963, 4063.97435856, 4106.92307665, 4058.33333292, 4131.41025614,12.0
4085.89743555, 3939.87179425, 4067.94871754, 4023.33333285, 4070.38461504, 4116.92307665, 4099.74358940, 4150.51282031, 4137.17948697, 3971.28205073, 4081.15384581, 4121.79487152, 4069.35897395, 4134.23076896,12.0
4090.64102530, 3944.35897374, 4072.56410222, 4028.84615336, 4079.61538427, 4128.84615357, 4107.56410229, 4154.99999980, 4153.07692287, 3986.92307637, 4093.20512786, 4126.79487152, 4072.17948684, 4127.94871767,12.0
4075.38461504, 3931.28205059, 4059.10256369, 4019.61538413, 4058.97435856, 4105.89743562, 4082.05128171, 4136.53846133, 4148.97435877, 3957.43589681, 4076.92307658, 4106.92307665, 4055.76923036, 4126.92307665,12.0
4054.74358933, 3916.02564033, 4037.94871754, 4001.92307637, 4040.76923036, 4083.71794837, 4056.02564061, 4114.87179460, 4116.66666639, 3921.92307623, 4052.69230728, 4080.76923043, 4038.07692266, 4131.92307665,12.0
4045.25640984, 3908.20512751, 4026.41025593, 3992.17948663, 4038.58974318, 4085.76923043, 4055.76923036, 4119.23076896, 4109.61538434, 3926.15384546, 4043.71794830, 4071.28205094, 4029.99999952, 4130.89743562,12.0
4040.12820472, 3903.20512744, 4024.74358926, 3989.99999945, 4035.51282003, 4090.64102530, 4062.69230728, 4128.07692280, 4119.35897408, 3933.46153777, 4039.74358933, 4066.79487138, 4021.66666618, 4131.15384588,12.0
4038.20512779, 3904.10256334, 4020.51282003, 3988.33333278, 4032.82051234, 4100.38461504, 4077.94871761, 4124.10256383, 4104.23076896, 3912.94871726, 4032.17948670, 4055.25640984, 4014.10256362, 4130.76923050,12.0
4038.20512779, 3910.12820444, 4015.76923029, 3987.43589688, 4035.51282003, 4102.43589709, 4084.10256376, 4120.76923050, 4090.64102530, 3900.76923001, 4032.43589695, 4049.48717907, 4018.46153798, 4131.15384588,12.0
4032.56410208, 3910.12820444, 4014.61538413, 3988.07692252, 4021.66666618, 4076.28205094, 4060.89743548, 4116.53846126, 4096.15384581, 3911.92307623, 4033.07692259, 4049.99999959, 4021.79487131, 4131.28205101,12.0
4031.02564054, 3907.69230700, 4015.25640977, 3990.51281996, 4008.20512772, 4059.61538420, 4046.92307651, 4109.74358947, 4089.48717914, 3913.84615316, 4027.82051234, 4046.28205087, 4012.69230721, 4129.74358947,12.0
4036.15384567, 3907.82051213, 4017.17948670, 3990.12820458, 4019.35897388, 4065.51282010, 4054.87179446, 4108.58974332, 4076.92307658, 3905.38461462, 4029.35897388, 4051.02564061, 4013.97435849, 4132.05128178,12.0
4033.20512772, 3910.76923008, 4019.99999952, 3990.76923022, 4033.46153798, 4063.20512779, 4047.30769189, 4094.99999966, 4072.30769196, 3896.92307616, 4028.20512772, 4055.76923036, 4016.92307644, 4129.99999973,12.0
4023.84615336, 3914.35897367, 4018.07692259, 3989.61538406, 4025.76923029, 4058.33333292, 4029.99999952, 4080.12820478, 4072.05128171, 3889.61538385, 4014.87179439, 4042.17948677, 4004.99999952, 4130.38461511,12.0
4021.02564054, 3911.79487110, 4011.53846106, 3983.71794817, 4004.87179439, 4055.76923036, 4027.69230721, 4088.46153812, 4078.46153812, 3895.76923001, 4006.92307644, 4030.38461490, 4002.05128150, 4132.05128178,12.0
4023.33333285, 3906.15384546, 4008.46153798, 3980.64102509, 3999.10256355, 4043.97435856, 4025.25640977, 4093.97435863, 4079.48717914, 3900.38461462, 4008.20512772, 4030.51282003, 4011.79487131, 4126.28205101,12.0
4018.58974311, 3899.74358898, 4003.71794817, 3976.02564047, 4003.84615329, 4036.28205080, 4017.17948670, 4082.30769196, 4064.74358933, 3879.99999924, 4006.28205080, 4023.71794824, 4009.35897388, 4129.35897408,12.0
4015.51282003, 3896.66666591, 3999.48717894, 3977.30769176, 4006.92307644, 4044.23076882, 4019.74358926, 4078.71794837, 4049.74358933, 3869.87179404, 4000.51281996, 4018.20512772, 4001.41025586, 4130.64102537,12.0
4005.51282003, 3887.05128129, 3986.15384560, 3969.35897374, 3992.43589688, 4036.53846106, 4017.17948670, 4078.84615350, 4041.79487138, 3876.79487103, 3986.28205073, 4011.66666618, 3993.84615329, 4126.15384588,12.0
3978.97435842, 3864.10256327, 3962.43589681, 3944.35897374, 3966.15384553, 4007.94871747, 3992.94871740, 4061.15384574, 4027.82051234, 3855.76922994, 3965.38461476, 3986.92307637, 3976.79487124, 4129.48717921,12.0
3968.97435835, 3855.12820430, 3956.41025579, 3938.58974297, 3951.79487117, 3997.82051227, 3976.15384560, 4045.51282010, 4016.02564054, 3833.46153756, 3956.28205066, 3971.92307637, 3965.51281989, 4128.46153819,12.0
3980.76923022, 3867.82051199, 3966.15384553, 3951.15384553, 3953.97435835, 4012.05128157, 3986.41025586, 4055.38461497, 4017.56410208, 3843.46153763, 3960.38461476, 3984.87179432, 3974.87179432, 4127.05128178,12.0
3990.64102509, 3880.38461462, 3973.58974304, 3955.12820451, 3972.69230714, 4026.92307644, 4006.92307644, 4073.33333299, 4037.17948677, 3864.87179404, 3970.38461476, 4001.53846099, 3989.23076868, 4127.82051255,12.0
3978.97435842, 3871.92307609, 3967.05128143, 3951.79487117, 3979.35897381, 4021.28205080, 4004.87179439, 4071.02564068, 4053.97435856, 3868.97435814, 3967.43589681, 3994.87179432, 3982.43589688, 4128.33333306,12.0
3966.41025579, 3867.69230686, 3962.69230707, 3956.15384553, 3971.15384553, 4018.58974311, 4001.02564047, 4068.33333292, 4049.35897395, 3857.82051199, 3956.02564040, 3986.02564047, 3969.87179425, 4132.94871767,12.0
3978.07692252, 3877.82051206, 3971.02564040, 3961.79487117, 3969.61538399, 4035.12820465, 4020.12820465, 4078.97435863, 4043.71794830, 3850.64102481, 3954.23076861, 3994.74358919, 3975.64102509, 4131.15384588,12.0
3977.05128150, 3870.38461455, 3964.48717887, 3949.23076861, 3959.35897374, 4032.56410208, 4017.43589695, 4076.02564068, 4038.71794830, 3842.56410173, 3945.64102502, 3985.38461483, 3974.74358919, 4129.48717921,12.0
3952.56410194, 3846.79487096, 3938.84615322, 3929.48717880, 3941.02564040, 4000.12820458, 3982.30769176, 4055.38461497, 4015.12820465, 3833.33333243, 3927.69230700, 3955.76923015, 3954.99999938, 4128.71794844,12.0
3952.69230707, 3846.02564020, 3940.12820451, 3932.94871726, 3942.17948656, 3982.30769176, 3963.97435835, 4046.15384574, 4001.79487124, 3840.38461455, 3932.17948649, 3956.53846092, 3949.99999938, 4126.53846126,12.0
3969.35897374, 3863.07692225, 3960.76923015, 3947.82051220, 3944.99999938, 3982.94871740, 3963.07692246, 4046.92307651, 4003.20512765, 3848.46153763, 3947.94871733, 3973.71794817, 3957.30769169, 4130.51282024,12.0
3956.28205066, 3856.53846071, 3949.61538399, 3943.46153784, 3933.07692239, 3979.74358919, 3952.94871733, 4041.02564061, 3991.79487124, 3840.38461455, 3937.43589674, 3960.76923015, 3949.48717887, 4131.02564075,12.0
3944.35897374, 3844.23076840, 3938.07692239, 3934.35897367, 3938.84615322, 3986.02564047, 3958.46153784, 4044.74358933, 3990.38461483, 3840.12820430, 3931.66666598, 3951.92307630, 3951.66666605, 4129.74358947,12.0
3960.76923015, 3854.74358891, 3958.07692246, 3940.64102502, 3948.97435835, 3997.17948663, 3979.48717894, 4059.10256369, 4010.12820465, 3850.38461455, 3949.74358912, 3968.46153784, 3969.74358912, 4131.92307665,12.0
3967.30769169, 3863.71794789, 3968.84615322, 3949.74358912, 3945.76923015, 3997.69230714, 3983.58974304, 4061.92307651, 4012.30769183, 3847.94871712, 3954.48717887, 3973.58974304, 3969.61538399, 4131.28205101,12.0
3951.28205066, 3854.74358891, 3954.10256348, 3939.10256348, 3942.43589681, 3995.38461483, 3977.69230714, 4057.69230728, 4007.17948670, 3836.28205038, 3939.74358912, 3964.10256348, 3957.56410194, 4129.74358947,12.0
3941.66666605, 3845.89743507, 3941.41025579, 3923.97435828, 3928.33333264, 3990.51281996, 3973.58974304, 4057.17948677, 4009.61538413, 3828.07692218, 3926.41025572, 3952.82051220, 3948.84615322, 4128.07692280,12.0
3953.84615322, 3854.10256327, 3946.28205066, 3930.51281982, 3924.23076854, 3992.30769176, 3982.17948663, 4055.89743548, 3994.35897381, 3826.41025551, 3923.84615316, 3951.66666605, 3947.30769169, 4128.58974332,12.0
3964.48717887, 3862.17948635, 3959.74358912, 3945.38461476, 3945.89743528, 3999.99999945, 3992.05128150, 4053.84615343, 3985.51281996, 3824.48717859, 3922.94871726, 3965.12820451, 3953.97435835, 4130.76923050,12.0
3963.07692246, 3864.35897353, 3970.25640963, 3951.92307630, 3952.69230707, 3998.71794817, 3979.23076868, 4053.58974318, 4009.23076875, 3825.89743500, 3923.97435828, 3973.33333278, 3957.43589681, 4129.99999973,12.0
3953.46153784, 3859.48717866, 3962.17948656, 3946.02564040, 3928.07692239, 3982.94871740, 3950.38461476, 4032.17948670, 3997.05128150, 3825.89743500, 3923.46153777, 3960.64102502, 3946.28205066, 4127.56410229,12.0
3941.53846092, 3845.89743507, 3943.97435835, 3930.51281982, 3909.35897367, 3964.10256348, 3931.28205059, 4000.76923022, 3945.12820451, 3813.07692218, 3914.10256341, 3944.61538399, 3934.99999931, 4125.89743562,12.0
3941.02564040, 3837.94871705, 3941.79487117, 3919.61538392, 3907.17948649, 3960.76923015, 3934.48717880, 4003.33333278, 3938.46153784, 3805.38461442, 3910.25640957, 3944.87179425, 3938.84615322, 4127.69230742,12.0
3946.79487117, 3847.43589661, 3953.58974297, 3925.12820444, 3909.87179418, 3972.82051227, 3945.76923015, 4027.17948670, 3966.41025579, 3817.43589654, 3917.17948649, 3951.53846092, 3948.20512758, 4131.53846126,12.0
3951.02564040, 3862.05128122, 3961.02564040, 3937.94871726, 3920.76923008, 3979.87179432, 3955.76923015, 4036.15384567, 3977.05128150, 3829.10256320, 3922.17948649, 3955.38461476, 3953.07692246, 4131.66666639,12.0
3947.17948656, 3856.15384532, 3953.46153784, 3932.82051213, 3926.15384546, 3975.12820458, 3959.48717887, 4037.17948677, 3975.12820458, 3830.64102474, 3920.25640957, 3952.17948656, 3950.89743528, 4127.43589716,12.0
3932.56410187, 3835.64102474, 3935.38461469, 3918.58974290, 3914.10256341, 3967.05128143, 3955.89743528, 4036.92307651, 3972.69230714, 3820.38461449, 3913.58974290, 3935.25640957, 3939.99999938, 4126.66666639,12.0
3922.30769162, 3828.33333243, 3926.28205059, 3914.10256341, 3904.87179411, 3963.71794810, 3952.30769169, 4025.89743541, 3964.99999938, 3805.76922980, 3906.15384546, 3921.92307623, 3930.38461469, 4128.97435870,12.0
3929.74358905, 3842.69230686, 3937.43589674, 3920.64102495, 3914.99999931, 3963.71794810, 3951.53846092, 4014.99999952, 3956.02564040, 3804.87179390, 3908.33333264, 3929.61538392, 3932.30769162, 4126.92307665,12.0
3937.69230700, 3852.30769148, 3944.35897374, 3922.82051213, 3912.30769162, 3963.97435835, 3951.79487117, 4020.38461490, 3954.99999938, 3813.71794782, 3910.89743521, 3934.61538392, 3935.12820444, 4125.51282024,12.0
3922.82051213, 3831.28205038, 3925.38461469, 3909.10256341, 3893.07692232, 3953.20512758, 3943.33333271, 4018.84615336, 3948.33333271, 3811.66666577, 3897.94871719, 3914.61538392, 3923.07692239, 4128.58974332,12.0
3906.53846085, 3809.87179397, 3906.79487110, 3895.64102488, 3886.92307616, 3934.74358905, 3922.56410187, 3995.51281996, 3926.28205059, 3793.58974262, 3886.92307616, 3897.17948642, 3906.41025572, 4131.28205101,12.0
3913.46153777, 3820.89743500, 3916.41025572, 3896.79487103, 3884.87179411, 3933.84615316, 3916.02564033, 3989.61538406, 3917.05128136, 3786.15384518, 3893.84615309, 3906.66666598, 3910.25640957, 4129.87179460,12.0
3938.07692239, 3848.20512738, 3944.35897374, 3914.87179418, 3897.30769155, 3957.69230707, 3940.76923015, 4019.10256362, 3949.10256348, 3816.41025551, 3911.53846085, 3934.35897367, 3936.66666598, 4128.33333306,12.0
3961.92307630, 3867.56410173, 3969.10256348, 3937.82051213, 3935.12820444, 3980.51281996, 3968.20512758, 4038.84615343, 3976.66666611, 3847.05128122, 3929.23076854, 3957.69230707, 3960.12820451, 4131.02564075,12.0
3977.17948663, 3888.84615309, 3985.12820458, 3956.02564040, 3959.23076861, 3990.12820458, 3980.38461483, 4039.10256369, 3975.25640970, 3848.84615302, 3945.76923015, 3969.61538399, 3970.51281989, 4130.25640998,12.0
3993.58974304, 3911.79487110, 4002.82051227, 3973.07692252, 3964.35897374, 4007.05128157, 3998.84615329, 4051.92307651, 3987.30769176, 3866.53846071, 3964.99999938, 3985.51281996, 3982.30769176, 4126.92307665,12.0
4008.20512772, 3919.35897367, 4019.35897388, 3982.30769176, 3982.05128150, 4027.05128157, 4022.94871747, 4066.28205087, 4009.74358926, 3897.17948642, 3979.87179432, 4003.58974304, 3995.76923022, 4129.99999973,12.0
4009.48717900, 3916.41025572, 4021.79487131, 3976.79487124, 3990.76923022, 4028.07692259, 4025.64102516, 4063.46153805, 4014.35897388, 3900.38461462, 3983.46153791, 4008.58974311, 3999.61538406, 4131.92307665,12.0
4008.58974311, 3920.51281982, 4022.82051234, 3972.56410201, 3984.74358919, 4016.92307644, 4010.64102516, 4056.28205087, 4006.02564054, 3893.46153770, 3981.02564047, 4008.33333285, 3998.97435842, 4129.23076896,12.0
4012.69230721, 3931.79487110, 4028.07692259, 3981.53846099, 3989.23076868, 4015.12820465, 4008.07692259, 4056.28205087, 4008.71794824, 3893.20512744, 3978.84615329, 4009.87179439, 4000.76923022, 4127.69230742,12.0
4004.74358926, 3927.30769162, 4019.87179439, 3980.25640970, 3979.74358919, 4017.17948670, 4012.17948670, 4054.87179446, 4017.17948670, 3885.89743514, 3971.92307637, 4003.46153791, 3995.51281996, 4128.20512793,12.0
3998.84615329, 3921.53846085, 4017.17948670, 3977.94871740, 3974.61538406, 4014.99999952, 4007.94871747, 4049.74358933, 4017.17948670, 3885.64102488, 3969.23076861, 4002.56410201, 3994.23076868, 4130.38461511,12.0
4016.92307644, 3933.20512751, 4036.79487131, 3991.92307637, 4001.41025586, 4021.79487131, 4011.02564054, 4058.20512779, 4022.82051234, 3907.94871726, 3985.89743535, 4023.33333285, 4009.23076875, 4129.74358947,12.0
4032.82051234, 3943.07692246, 4050.12820472, 3998.84615329, 4017.56410208, 4033.07692259, 4027.56410208, 4073.20512786, 4040.64102523, 3929.74358905, 4007.17948670, 4040.12820472, 4022.30769183, 4129.61538434,12.0
4033.33333285, 3944.48717887, 4049.48717907, 3993.20512765, 4010.38461490, 4042.05128164, 4041.53846113, 4073.84615350, 4054.74358933, 3940.25640963, 4014.87179439, 4041.53846113, 4023.07692259, 4131.53846126,12.0
4027.69230721, 3943.58974297, 4041.79487138, 3988.33333278, 4005.76923029, 4037.43589702, 4041.02564061, 4064.74358933, 4041.66666625, 3934.23076854, 4006.53846106, 4035.89743541, 4020.76923029, 4129.48717921,12.0
4014.87179439, 3936.92307623, 4026.92307644, 3982.69230714, 4005.12820465, 4018.58974311, 4027.69230721, 4056.66666625, 4010.89743541, 3917.05128136, 3992.82051227, 4024.87179439, 4015.51282003, 4126.79487152,12.0
4008.20512772, 3926.79487110, 4020.38461490, 3979.35897381, 4001.28205073, 4015.12820465, 4015.64102516, 4049.10256369, 4003.84615329, 3914.48717880, 3987.17948663, 4015.64102516, 4007.56410208, 4127.94871767,12.0
4016.92307644, 3930.12820444, 4028.97435849, 3983.84615329, 4001.79487124, 4029.23076875, 4021.53846106, 4053.84615343, 4029.23076875, 3928.97435828, 3992.56410201, 4020.51282003, 4012.69230721, 4131.41025614,12.0
4022.43589695, 3941.15384553, 4036.28205080, 3988.20512765, 4011.66666618, 4034.99999952, 4033.97435849, 4067.94871754, 4048.33333292, 3938.84615322, 3999.74358919, 4030.64102516, 4022.82051234, 4131.28205101,12.0
4020.12820465, 3943.71794810, 4037.43589702, 3988.97435842, 4022.30769183, 4033.58974311, 4035.38461490, 4068.84615343, 4043.71794830, 3935.12820444, 4002.82051227, 4026.15384567, 4018.71794824, 4127.82051255,12.0
4026.66666618, 3943.46153784, 4041.92307651, 3989.74358919, 4022.94871747, 4041.28205087, 4034.61538413, 4068.71794830, 4047.56410215, 3940.64102502, 4010.76923029, 4021.92307644, 4020.89743541, 4128.84615357,12.0
4033.97435849, 3947.82051220, 4045.51282010, 3993.84615329, 4015.38461490, 4041.41025600, 4032.69230721, 4073.07692273, 4057.94871754, 3953.46153784, 4018.20512772, 4029.61538413, 4032.43589695, 4130.25640998,12.0
4038.71794830, 3958.33333271, 4055.38461497, 4009.61538413, 4029.35897388, 4043.33333292, 4040.76923036, 4074.87179453, 4057.43589702, 3960.64102502, 4027.05128157, 4044.10256369, 4039.61538420, 4129.99999973,12.0
4057.43589702, 3977.94871740, 4081.66666632, 4030.64102516, 4060.25640984, 4066.15384574, 4064.74358933, 4086.28205094, 4073.20512786, 3973.46153791, 4048.58974318, 4064.61538420, 4055.38461497, 4129.35897408,12.0
4060.38461497, 3976.53846099, 4082.82051248, 4025.12820465, 4056.79487138, 4069.10256369, 4060.89743548, 4084.87179453, 4081.15384581, 3978.97435842, 4046.53846113, 4063.07692266, 4057.05128164, 4130.25640998,12.0
4037.82051241, 3954.23076861, 4053.71794830, 4005.38461490, 4025.12820465, 4046.41025600, 4031.53846106, 4060.76923036, 4048.84615343, 3959.35897374, 4017.82051234, 4041.53846113, 4034.10256362, 4134.23076896,12.0
4043.33333292, 3964.74358912, 4057.69230728, 4019.74358926, 4029.10256362, 4049.35897395, 4039.99999959, 4059.74358933, 4031.28205080, 3955.89743528, 4024.87179439, 4048.33333292, 4038.71794830, 4131.28205101,12.0
4057.69230728, 3982.94871740, 4074.35897402, 4033.07692259, 4047.17948677, 4064.99999959, 4060.12820472, 4072.05128171, 4044.23076882, 3967.17948656, 4042.30769189, 4061.15384574, 4051.79487138, 4125.12820485,12.0
4033.84615336, 3956.79487117, 4049.61538420, 4007.05128157, 4026.02564054, 4047.56410215, 4036.41025593, 4060.89743548, 4037.05128164, 3951.66666605, 4014.74358926, 4034.61538413, 4024.48717900, 4128.97435870,12.0
4020.25640977, 3940.38461476, 4037.56410215, 3994.61538406, 4010.12820465, 4030.64102516, 4018.07692259, 4054.99999959, 4025.76923029, 3939.61538399, 4002.05128150, 4021.66666618, 4012.43589695, 4132.82051255,12.0
4033.58974311, 3954.61538399, 4051.79487138, 4005.51282003, 4014.61538413, 4034.74358926, 4024.61538413, 4061.79487138, 4030.38461490, 3952.56410194, 4027.05128157, 4040.25640984, 4035.12820465, 4129.99999973,12.0
4030.64102516, 3951.41025579, 4042.94871754, 4004.23076875, 4003.84615329, 4032.17948670, 4024.23076875, 4059.74358933, 4026.53846106, 3956.15384553, 4025.12820465, 4043.97435856, 4036.79487131, 4128.84615357,12.0
4021.15384567, 3941.02564040, 4033.71794824, 4002.94871740, 4000.25640970, 4021.41025593, 4014.87179439, 4050.64102523, 4013.84615336, 3943.58974297, 4005.12820465, 4040.12820472, 4025.51282003, 4129.10256383,12.0
4025.38461490, 3951.15384553, 4045.12820472, 4007.43589695, 4008.71794824, 4016.92307644, 4008.71794824, 4046.15384574, 4011.92307644, 3944.99999938, 4007.56410208, 4045.25640984, 4030.76923029, 4129.74358947,12.0
4035.12820465, 3968.46153784, 4052.82051241, 4010.76923029, 4013.84615336, 4030.51282003, 4021.92307644, 4061.28205087, 4030.64102516, 3966.41025579, 4022.05128157, 4051.53846113, 4042.05128164, 4132.69230742,12.0
4047.43589702, 3980.51281996, 4058.71794830, 4023.33333285, 4026.66666618, 4049.99999959, 4044.35897395, 4079.48717914, 4045.89743548, 3975.25640970, 4033.58974311, 4063.20512779, 4050.89743548, 4134.74358947,12.0
4046.15384574, 3976.66666611, 4058.33333292, 4026.41025593, 4033.58974311, 4042.94871754, 4042.30769189, 4071.79487145, 4033.20512772, 3962.69230707, 4031.15384567, 4068.07692266, 4048.46153805, 4132.43589716,12.0
4040.51282010, 3971.02564040, 4050.89743548, 4017.17948670, 4024.61538413, 4029.99999952, 4034.23076875, 4059.99999959, 4016.92307644, 3960.12820451, 4024.87179439, 4060.25640984, 4041.66666625, 4128.97435870,12.0
4057.69230728, 3985.76923022, 4063.46153805, 4030.89743541, 4034.99999952, 4051.28205087, 4057.05128164, 4080.12820478, 4036.15384567, 3984.74358919, 4039.23076882, 4071.66666632, 4052.56410215, 4127.94871767,12.0
4066.41025600, 3995.64102509, 4075.38461504, 4044.99999959, 4046.41025600, 4067.05128164, 4068.46153805, 4096.28205094, 4062.43589702, 3992.69230714, 4047.94871754, 4084.87179453, 4061.41025600, 4128.84615357,12.0
4046.66666625, 3986.28205073, 4061.02564061, 4029.23076875, 4032.30769183, 4047.43589702, 4049.61538420, 4077.56410222, 4046.02564061, 3970.25640963, 4034.35897388, 4073.46153812, 4049.87179446, 4130.51282024,12.0
4034.99999952, 3979.87179432, 4050.64102523, 4015.64102516, 4023.58974311, 4040.89743548, 4047.43589702, 4066.66666625, 4020.38461490, 3959.23076861, 4030.38461490, 4069.48717907, 4045.25640984, 4130.51282024,12.0
4051.15384574, 3986.28205073, 4060.89743548, 4025.51282003, 4030.12820465, 4056.53846113, 4070.76923043, 4085.12820478, 4033.07692259, 3980.12820458, 4042.43589702, 4083.58974325, 4059.48717907, 4128.07692280,12.0
4054.35897395, 3983.58974304, 4063.07692266, 4028.71794824, 4028.33333285, 4048.84615343, 4069.61538420, 4086.28205094, 4042.56410215, 3984.48717894, 4040.12820472, 4082.69230735, 4057.43589702, 4128.58974332,12.0
4032.56410208, 3962.82051220, 4045.51282010, 4008.71794824, 4009.99999952, 4021.28205080, 4035.38461490, 4058.07692266, 4013.58974311, 3953.33333271, 4017.56410208, 4058.58974318, 4034.48717900, 4130.64102537,12.0
4033.33333285, 3961.28205066, 4043.97435856, 4003.46153791, 4002.69230714, 4025.64102516, 4032.69230721, 4053.97435856, 4008.71794824, 3955.25640963, 4010.38461490, 4054.87179446, 4035.12820465, 4129.10256383,12.0
4054.74358933, 3978.33333278, 4060.89743548, 4014.48717900, 4017.94871747, 4045.64102523, 4053.46153805, 4067.82051241, 4030.12820465, 3977.05128150, 4025.38461490, 4076.92307658, 4051.28205087, 4129.23076896,12.0
4057.05128164, 3979.35897381, 4066.53846113, 4013.46153798, 4023.20512772, 4037.94871754, 4043.97435856, 4056.28205087, 4012.69230721, 3963.71794810, 4036.15384567, 4089.10256376, 4050.76923036, 4132.94871767,12.0
4050.64102523, 3980.76923022, 4066.79487138, 4011.79487131, 4019.35897388, 4030.25640977, 4034.61538413, 4047.56410215, 3990.76923022, 3957.56410194, 4033.84615336, 4088.33333299, 4048.46153805, 4130.89743562,12.0
4052.05128164, 3982.94871740, 4064.87179446, 4012.30769183, 4019.74358926, 4038.97435856, 4049.74358933, 4064.74358933, 4013.33333285, 3964.87179425, 4022.82051234, 4082.30769196, 4048.07692266, 4127.17948691,12.0
4038.20512779, 3962.69230707, 4046.79487138, 3997.17948663, 4006.66666618, 4031.41025593, 4041.79487138, 4063.46153805, 4021.53846106, 3944.48717887, 4001.66666611, 4066.02564061, 4030.64102516, 4129.74358947,12.0
4030.76923029, 3957.56410194, 4040.64102523, 3991.53846099, 4002.17948663, 4021.53846106, 4026.92307644, 4044.61538420, 3993.71794817, 3935.12820444, 3995.76923022, 4063.07692266, 4025.25640977, 4131.15384588,12.0
4044.48717907, 3978.58974304, 4053.33333292, 4006.92307644, 4023.71794824, 4032.43589695, 4041.79487138, 4047.69230728, 3985.51281996, 3950.38461476, 4012.30769183, 4080.51282017, 4039.35897395, 4127.69230742,12.0
4044.48717907, 3978.58974304, 4053.33333292, 4006.92307644, 4023.71794824, 4032.43589695, 4041.79487138, 4047.69230728, 3985.51281996, 3950.38461476, 4012.30769183, 4080.51282017, 4039.35897395, 4127.69230742,12.0
4046.02564061, 3979.10256355, 4053.07692266, 4010.38461490, 4026.02564054, 4040.76923036, 4046.66666625, 4060.25640984, 4010.89743541, 3951.02564040, 4019.87179439, 4087.43589709, 4043.84615343, 4128.71794844,12.0
4032.94871747, 3965.25640963, 4039.23076882, 4000.12820458, 4005.25640977, 4036.53846106, 4037.05128164, 4057.94871754, 4028.97435849, 3949.23076861, 4016.15384567, 4076.92307658, 4041.79487138, 4133.20512793,12.0
4022.56410208, 3959.74358912, 4026.92307644, 3992.43589688, 4002.82051227, 4033.71794824, 4037.43589702, 4046.15384574, 4017.30769183, 3950.89743528, 4008.71794824, 4062.82051241, 4033.84615336, 4132.94871767,12.0
4025.38461490, 3963.84615322, 4028.07692259, 3992.94871740, 4017.69230721, 4035.89743541, 4038.84615343, 4042.43589702, 4006.28205080, 3946.02564040, 4007.17948670, 4060.25640984, 4028.71794824, 4129.23076896,12.0
4042.56410215, 3985.25640970, 4051.41025600, 4011.15384567, 4031.15384567, 4045.51282010, 4048.58974318, 4053.20512779, 4026.15384567, 3962.43589681, 4029.35897388, 4083.71794837, 4050.76923036, 4128.33333306,12.0
4051.15384574, 3992.82051227, 4062.56410215, 4021.53846106, 4032.56410208, 4048.20512779, 4059.48717907, 4056.92307651, 4044.48717907, 3985.12820458, 4045.25640984, 4097.05128171, 4066.92307651, 4128.71794844,12.0
4037.17948677, 3966.92307630, 4041.41025600, 4006.02564054, 4015.89743541, 4031.02564054, 4042.17948677, 4041.79487138, 4024.87179439, 3970.38461476, 4025.38461490, 4071.28205094, 4044.10256369, 4128.97435870,12.0
4032.43589695, 3958.58974297, 4037.43589702, 4001.53846099, 4006.15384567, 4023.71794824, 4031.28205080, 4042.82051241, 4017.30769183, 3956.79487117, 4018.71794824, 4063.71794830, 4034.74358926, 4127.94871767,12.0
4046.15384574, 3974.61538406, 4056.92307651, 4013.46153798, 4012.56410208, 4038.58974318, 4049.74358933, 4058.46153805, 4043.07692266, 3975.89743535, 4041.66666625, 4086.92307658, 4059.23076882, 4129.35897408,12.0
4040.89743548, 3967.82051220, 4048.84615343, 4003.97435842, 4011.66666618, 4033.07692259, 4039.48717907, 4042.82051241, 4031.53846106, 3978.07692252, 4037.05128164, 4079.48717914, 4056.15384574, 4134.87179460,12.0
4024.61538413, 3953.07692246, 4028.84615336, 3989.74358919, 4002.69230714, 4010.38461490, 4011.92307644, 4022.30769183, 4004.74358926, 3953.07692246, 4017.05128157, 4057.30769189, 4030.89743541, 4134.99999973,12.0
4028.71794824, 3964.10256348, 4038.58974318, 3999.61538406, 4006.02564054, 4026.92307644, 4036.79487131, 4033.07692259, 4016.41025593, 3947.94871733, 4022.43589695, 4064.99999959, 4034.48717900, 4128.58974332,12.0
4034.74358926, 3968.97435835, 4045.89743548, 4003.33333278, 4012.43589695, 4047.94871754, 4058.97435856, 4039.10256369, 4020.38461490, 3955.64102502, 4018.58974311, 4066.53846113, 4043.97435856, 4126.92307665,12.0
4022.69230721, 3952.69230707, 4027.05128157, 3989.99999945, 3999.23076868, 4018.84615336, 4026.66666618, 4030.51282003, 4008.71794824, 3951.79487117, 3997.17948663, 4045.76923036, 4033.46153798, 4129.74358947,12.0
4029.61538413, 3963.46153784, 4031.79487131, 3999.10256355, 4008.84615336, 4017.94871747, 4034.61538413, 4042.05128164, 4026.02564054, 3963.71794810, 4006.66666618, 4054.61538420, 4038.84615343, 4129.23076896,12.0
4055.64102523, 3993.20512765, 4059.48717907, 4020.51282003, 4044.35897395, 4062.94871754, 4081.41025607, 4062.30769189, 4046.28205087, 3980.76923022, 4029.74358926, 4081.41025607, 4059.74358933, 4127.82051255,12.0
4050.38461497, 3989.99999945, 4055.25640984, 4015.89743541, 4039.48717907, 4058.07692266, 4064.35897395, 4063.84615343, 4051.02564061, 3971.92307637, 4021.28205080, 4078.20512786, 4056.02564061, 4130.76923050,12.0
4023.58974311, 3968.71794810, 4033.07692259, 4001.53846099, 4009.48717900, 4022.17948670, 4020.76923029, 4052.69230728, 4046.79487138, 3957.05128143, 4007.94871747, 4058.46153805, 4038.20512779, 4132.30769203,12.0
4016.02564054, 3967.05128143, 4032.05128157, 3999.99999945, 4004.10256362, 4022.56410208, 4018.97435849, 4034.99999952, 4016.15384567, 3957.30769169, 4011.79487131, 4049.10256369, 4031.92307644, 4129.23076896,12.0
4023.46153798, 3973.20512765, 4038.33333292, 4000.12820458, 4007.05128157, 4027.56410208, 4023.71794824, 4027.69230721, 3999.10256355, 3960.12820451, 4013.84615336, 4048.97435856, 4030.51282003, 4128.46153819,12.0
4031.79487131, 3976.66666611, 4044.35897395, 4006.15384567, 4011.02564054, 4027.69230721, 4025.51282003, 4041.79487138, 4024.10256362, 3960.25640963, 4016.28205080, 4055.51282010, 4034.48717900, 4130.76923050,12.0
4036.02564054, 3980.76923022, 4053.07692266, 4017.30769183, 4026.92307644, 4039.74358933, 4039.74358933, 4052.17948677, 4032.43589695, 3960.51281989, 4023.71794824, 4065.64102523, 4042.43589702, 4130.25640998,12.0
4033.20512772, 3979.23076868, 4052.94871754, 4015.89743541, 4030.25640977, 4033.97435849, 4041.79487138, 4047.17948677, 4017.05128157, 3964.10256348, 4026.02564054, 4070.64102530, 4042.69230728, 4130.64102537,12.0
4034.23076875, 3978.07692252, 4051.92307651, 4012.69230721, 4021.66666618, 4022.05128157, 4039.48717907, 4047.69230728, 4017.30769183, 3972.17948663, 4026.15384567, 4070.76923043, 4040.89743548, 4131.28205101,12.0
4043.46153805, 3983.07692252, 4057.82051241, 4018.71794824, 4023.84615336, 4036.53846106, 4050.25640984, 4054.61538420, 4024.99999952, 3979.35897381, 4030.76923029, 4070.89743555, 4047.94871754, 4130.38461511,12.0
4042.82051241, 3979.87179432, 4055.38461497, 4017.82051234, 4021.92307644, 4045.51282010, 4052.69230728, 4056.66666625, 4025.64102516, 3977.56410201, 4028.07692259, 4066.15384574, 4050.12820472, 4129.74358947,12.0
4025.64102516, 3964.99999938, 4037.56410215, 4002.43589688, 4009.61538413, 4022.94871747, 4033.58974311, 4046.66666625, 4014.74358926, 3963.20512758, 4012.43589695, 4050.64102523, 4033.58974311, 4128.33333306,12.0
4009.35897388, 3955.76923015, 4023.84615336, 3989.61538406, 3997.82051227, 4003.71794817, 4011.92307644, 4031.15384567, 3993.97435842, 3947.30769169, 4000.89743535, 4034.61538413, 4016.53846106, 4128.97435870,12.0
4009.35897388, 3961.66666605, 4022.17948670, 3993.84615329, 3995.25640970, 4008.20512772, 4010.12820465, 4026.92307644, 3985.51281996, 3943.58974297, 4003.84615329, 4031.79487131, 4018.33333285, 4130.38461511,12.0
4017.82051234, 3971.53846099, 4025.38461490, 4007.05128157, 4006.15384567, 4015.89743541, 4016.15384567, 4028.71794824, 3991.15384560, 3945.89743528, 4010.51282003, 4040.25640984, 4027.69230721, 4128.07692280,12.0
4027.94871747, 3981.41025586, 4038.33333292, 4016.15384567, 4025.38461490, 4019.74358926, 4020.64102516, 4030.64102516, 3997.94871740, 3953.97435835, 4019.10256362, 4053.84615343, 4032.17948670, 4128.07692280,12.0
4052.05128164, 4000.12820458, 4066.41025600, 4030.76923029, 4042.56410215, 4036.28205080, 4045.25640984, 4053.20512779, 4021.53846106, 3983.84615329, 4043.46153805, 4078.33333299, 4048.58974318, 4132.43589716,12.0
4078.46153812, 4025.51282003, 4093.20512786, 4058.58974318, 4056.66666625, 4057.17948677, 4072.82051248, 4076.92307658, 4046.66666625, 4012.05128157, 4069.74358940, 4104.61538434, 4071.41025607, 4132.17948691,12.0
4078.71794837, 4034.48717900, 4096.28205094, 4069.87179453, 4066.02564061, 4061.02564061, 4071.15384581, 4068.20512779, 4038.46153805, 4015.38461490, 4072.17948684, 4110.64102537, 4071.15384581, 4129.23076896,12.0
4069.61538420, 4029.23076875, 4093.97435863, 4060.51282010, 4068.46153805, 4064.10256369, 4075.64102530, 4067.56410215, 4037.17948677, 4020.64102516, 4069.23076882, 4108.58974332, 4066.92307651, 4130.51282024,12.0
4077.05128171, 4033.71794824, 4101.02564068, 4058.58974318, 4074.35897402, 4072.94871761, 4097.56410222, 4090.38461504, 4067.30769189, 4028.97435849, 4073.84615350, 4115.64102537, 4079.87179453, 4132.05128178,12.0
4082.30769196, 4042.82051241, 4099.10256376, 4061.53846113, 4082.94871761, 4072.69230735, 4096.28205094, 4094.74358940, 4072.05128171, 4022.05128157, 4075.51282017, 4116.53846126, 4082.30769196, 4132.05128178,12.0
4076.15384581, 4043.20512779, 4093.07692273, 4059.10256369, 4081.53846119, 4069.87179453, 4085.38461504, 4087.05128171, 4053.20512779, 4017.82051234, 4073.33333299, 4106.79487152, 4072.17948684, 4131.79487152,12.0
4072.69230735, 4039.48717907, 4093.07692273, 4057.17948677, 4071.28205094, 4071.41025607, 4086.66666632, 4085.12820478, 4055.12820472, 4020.76923029, 4069.87179453, 4102.43589709, 4074.48717914, 4130.51282024,12.0
4078.97435863, 4042.30769189, 4097.17948684, 4060.25640984, 4074.61538427, 4078.97435863, 4091.66666632, 4086.66666632, 4068.07692266, 4025.51282003, 4070.38461504, 4105.76923050, 4083.46153812, 4130.25640998,12.0
4088.20512786, 4045.89743548, 4101.28205094, 4062.43589702, 4088.71794837, 4084.61538427, 4094.74358940, 4088.84615350, 4070.76923043, 4034.61538413, 4077.69230735, 4106.41025614, 4086.53846119, 4132.30769203,12.0
4084.99999966, 4042.69230728, 4102.69230742, 4059.87179446, 4081.15384581, 4072.17948684, 4083.58974325, 4078.97435863, 4063.58974318, 4032.17948670, 4082.05128171, 4103.46153819, 4086.15384581, 4132.05128178,12.0
4077.56410222, 4038.33333292, 4103.33333306, 4056.66666625, 4062.30769189, 4059.48717907, 4067.56410215, 4067.05128164, 4054.99999959, 4029.61538413, 4080.51282017, 4105.25640998, 4085.38461504, 4128.46153819,12.0
4079.48717914, 4035.12820465, 4102.05128171, 4050.76923036, 4064.61538420, 4070.64102530, 4073.84615350, 4073.84615350, 4056.41025600, 4039.10256369, 4076.53846119, 4109.10256383, 4083.20512786, 4127.17948691,12.0
4075.25640991, 4025.76923029, 4088.71794837, 4038.58974318, 4071.28205094, 4073.71794837, 4080.76923043, 4074.87179453, 4053.97435856, 4028.58974311, 4066.15384574, 4100.89743555, 4077.94871761, 4129.74358947,12.0
4064.87179446, 4017.30769183, 4073.20512786, 4030.89743541, 4062.43589702, 4058.20512779, 4071.66666632, 4066.15384574, 4047.94871754, 4008.20512772, 4057.30769189, 4087.17948684, 4074.99999966, 4131.53846126,12.0
4068.84615343, 4022.05128157, 4079.23076889, 4036.15384567, 4064.10256369, 4069.61538420, 4081.79487145, 4076.53846119, 4062.69230728, 4020.64102516, 4060.64102523, 4089.74358940, 4080.12820478, 4131.02564075,12.0
4077.56410222, 4031.02564054, 4094.23076889, 4043.20512779, 4078.84615350, 4092.05128171, 4104.35897408, 4091.79487145, 4076.53846119, 4040.25640984, 4068.20512779, 4096.41025607, 4085.12820478, 4131.15384588,12.0
4080.12820478, 4036.28205080, 4101.28205094, 4046.53846113, 4083.58974325, 4081.79487145, 4100.25640991, 4092.69230735, 4076.79487145, 4040.51282010, 4076.66666632, 4098.71794837, 4090.76923043, 4130.25640998,12.0
4083.84615350, 4039.23076882, 4100.89743555, 4049.10256369, 4076.02564068, 4063.58974318, 4081.28205094, 4089.61538427, 4075.51282017, 4035.12820465, 4076.92307658, 4101.02564068, 4090.89743555, 4129.74358947,12.0
4092.82051248, 4045.12820472, 4105.64102537, 4052.30769189, 4074.23076889, 4074.87179453, 4086.15384581, 4089.23076889, 4063.20512779, 4032.43589695, 4073.46153812, 4100.51282017, 4087.30769196, 4131.02564075,12.0
4096.66666632, 4048.58974318, 4113.20512793, 4051.02564061, 4080.38461504, 4087.30769196, 4097.56410222, 4086.92307658, 4051.15384574, 4034.61538413, 4079.35897402, 4097.05128171, 4089.48717914, 4129.87179460,12.0
4082.69230735, 4037.05128164, 4100.51282017, 4040.25640984, 4069.99999966, 4064.61538420, 4074.35897402, 4076.15384581, 4049.74358933, 4026.53846106, 4075.76923043, 4091.02564068, 4083.84615350, 4129.74358947,12.0
4072.56410222, 4034.48717900, 4092.30769196, 4041.15384574, 4059.48717907, 4048.71794830, 4058.07692266, 4079.35897402, 4062.82051241, 4027.17948670, 4069.61538420, 4093.97435863, 4081.15384581, 4132.17948691,12.0
4080.64102530, 4047.94871754, 4103.97435870, 4052.94871754, 4065.89743548, 4057.82051241, 4073.58974325, 4091.66666632, 4071.41025607, 4046.53846113, 4080.12820478, 4100.64102530, 4091.28205094, 4131.79487152,12.0
4077.69230735, 4044.23076882, 4099.48717914, 4047.05128164, 4062.69230728, 4053.07692266, 4071.02564068, 4076.92307658, 4054.35897395, 4042.05128164, 4079.48717914, 4091.92307658, 4090.51282017, 4131.79487152,12.0
4063.46153805, 4030.64102516, 4081.15384581, 4033.33333285, 4047.69230728, 4044.74358933, 4061.02564061, 4069.35897395, 4047.56410215, 4025.64102516, 4062.05128164, 4081.28205094, 4080.12820478, 4131.02564075,12.0
4066.79487138, 4035.38461490, 4080.38461504, 4036.79487131, 4048.97435856, 4055.64102523, 4078.58974325, 4099.10256376, 4074.99999966, 4037.17948677, 4060.64102523, 4085.76923043, 4083.97435863, 4128.33333306,12.0
4077.94871761, 4045.25640984, 4090.51282017, 4042.94871754, 4062.94871754, 4071.28205094, 4096.53846119, 4111.28205101, 4087.82051248, 4046.41025600, 4072.82051248, 4093.46153812, 4092.17948684, 4130.38461511,12.0
4079.74358940, 4045.64102523, 4093.58974325, 4038.71794830, 4071.28205094, 4078.46153812, 4104.10256383, 4093.07692273, 4068.07692266, 4031.41025593, 4072.69230735, 4097.82051248, 4089.74358940, 4130.51282024,12.0
4075.89743555, 4039.35897395, 4090.12820478, 4032.56410208, 4070.12820478, 4071.28205094, 4099.87179453, 4085.12820478, 4059.74358933, 4025.51282003, 4063.33333292, 4098.58974325, 4085.51282017, 4129.48717921,12.0
4067.43589702, 4030.12820465, 4081.02564068, 4027.05128157, 4051.79487138, 4051.92307651, 4077.69230735, 4086.28205094, 4059.61538420, 4022.56410208, 4057.05128164, 4087.17948684, 4078.58974325, 4131.66666639,12.0
4068.58974318, 4035.89743541, 4084.61538427, 4030.12820465, 4044.74358933, 4056.41025600, 4081.92307658, 4089.74358940, 4064.10256369, 4019.23076875, 4060.76923036, 4082.43589709, 4076.41025607, 4130.51282024,12.0
4080.76923043, 4052.30769189, 4101.15384581, 4043.33333292, 4063.46153805, 4068.07692266, 4098.20512786, 4092.56410222, 4083.33333299, 4034.23076875, 4070.51282017, 4094.35897402, 4086.15384581, 4130.64102537,12.0
4082.30769196, 4055.51282010, 4109.61538434, 4051.92307651, 4066.79487138, 4053.71794830, 4079.10256376, 4082.94871761, 4082.30769196, 4047.69230728, 4074.74358940, 4103.46153819, 4095.89743555, 4131.15384588,12.0
4083.46153812, 4056.15384574, 4112.17948691, 4053.71794830, 4057.82051241, 4049.35897395, 4072.43589709, 4082.05128171, 4066.79487138, 4046.28205087, 4080.38461504, 4107.69230742, 4102.69230742, 4130.38461511,12.0
4096.28205094, 4065.76923036, 4115.12820485, 4058.84615343, 4066.79487138, 4064.35897395, 4100.12820478, 4100.89743555, 4072.56410222, 4046.02564061, 4092.17948684, 4114.48717921, 4109.74358947, 4132.82051255,12.0
4091.02564068, 4060.51282010, 4107.05128178, 4058.71794830, 4065.25640984, 4057.05128164, 4094.74358940, 4098.20512786, 4078.07692273, 4048.33333292, 4091.02564068, 4109.10256383, 4107.43589716, 4130.76923050,12.0
4072.56410222, 4041.79487138, 4091.02564068, 4047.17948677, 4046.15384574, 4041.02564061, 4066.53846113, 4074.87179453, 4056.79487138, 4032.30769183, 4077.17948684, 4094.61538427, 4096.53846119, 4126.79487152,12.0
4079.74358940, 4046.66666625, 4095.76923043, 4051.02564061, 4056.53846113, 4058.46153805, 4081.66666632, 4079.23076889, 4046.28205087, 4023.20512772, 4081.66666632, 4100.25640991, 4098.97435863, 4129.87179460,12.0
4093.84615350, 4061.15384574, 4105.76923050, 4063.84615343, 4074.35897402, 4074.87179453, 4103.20512793, 4092.17948684, 4055.64102523, 4032.69230721, 4088.58974325, 4109.87179460, 4103.20512793, 4132.30769203,12.0
4086.53846119, 4054.35897395, 4095.51282017, 4055.64102523, 4059.23076882, 4056.79487138, 4086.02564068, 4083.33333299, 4056.79487138, 4035.12820465, 4073.84615350, 4096.28205094, 4094.35897402, 4130.12820485,12.0
4079.35897402, 4045.12820472, 4086.02564068, 4041.02564061, 4046.15384574, 4044.61538420, 4076.15384581, 4077.69230735, 4055.64102523, 4029.61538413, 4066.15384574, 4083.97435863, 4089.61538427, 4130.25640998,12.0
4078.07692273, 4040.25640984, 4082.17948684, 4032.94871747, 4042.43589702, 4047.69230728, 4082.56410222, 4079.48717914, 4050.76923036, 4022.82051234, 4065.89743548, 4086.92307658, 4087.43589709, 4130.51282024,12.0
4067.30769189, 4029.48717900, 4070.12820478, 4024.10256362, 4027.30769183, 4036.66666618, 4069.99999966, 4068.07692266, 4037.69230728, 4009.87179439, 4050.64102523, 4078.97435863, 4074.99999966, 4129.87179460,12.0
4061.79487138, 4029.74358926, 4064.99999959, 4024.87179439, 4020.76923029, 4024.10256362, 4056.79487138, 4061.79487138, 4039.61538420, 4005.64102516, 4048.46153805, 4071.79487145, 4072.94871761, 4131.53846126,12.0
4064.74358933, 4040.25640984, 4075.12820478, 4033.84615336, 4030.76923029, 4029.61538413, 4061.66666625, 4071.79487145, 4057.82051241, 4026.02564054, 4070.12820478, 4084.10256376, 4086.66666632, 4131.28205101,12.0
4060.76923036, 4037.94871754, 4074.87179453, 4029.99999952, 4037.56410215, 4038.07692266, 4066.66666625, 4073.33333299, 4061.92307651, 4039.99999959, 4078.07692273, 4088.07692273, 4089.87179453, 4130.89743562,12.0
4056.41025600, 4037.17948677, 4069.61538420, 4027.43589695, 4041.15384574, 4043.20512779, 4070.38461504, 4072.30769196, 4061.92307651, 4035.64102516, 4073.20512786, 4082.56410222, 4084.35897402, 4130.51282024,12.0
4063.20512779, 4053.46153805, 4081.53846119, 4043.97435856, 4051.53846113, 4047.56410215, 4078.71794837, 4075.64102530, 4066.28205087, 4036.28205080, 4078.97435863, 4091.15384581, 4088.46153812, 4128.33333306,12.0
4066.53846113, 4059.35897395, 4090.12820478, 4052.56410215, 4055.38461497, 4046.92307651, 4078.07692273, 4070.76923043, 4052.94871754, 4039.87179446, 4081.15384581, 4096.28205094, 4093.46153812, 4129.74358947,12.0
4052.94871754, 4042.94871754, 4075.76923043, 4037.94871754, 4039.99999959, 4039.99999959, 4066.92307651, 4061.28205087, 4036.41025593, 4028.33333285, 4063.46153805, 4075.76923043, 4082.05128171, 4131.15384588,12.0
4048.33333292, 4037.43589702, 4065.12820472, 4029.87179439, 4031.41025593, 4035.64102516, 4063.20512779, 4064.99999959, 4046.92307651, 4010.38461490, 4052.05128164, 4064.48717907, 4072.56410222, 4129.35897408,12.0
4057.56410215, 4043.97435856, 4070.76923043, 4032.56410208, 4036.15384567, 4036.15384567, 4065.38461497, 4072.17948684, 4062.05128164, 4010.25640977, 4059.74358933, 4075.12820478, 4075.25640991, 4127.43589716,12.0
4051.79487138, 4036.53846106, 4067.82051241, 4023.58974311, 4022.69230721, 4035.76923029, 4061.15384574, 4065.76923036, 4051.41025600, 4013.33333285, 4060.51282010, 4073.84615350, 4071.53846119, 4127.69230742,12.0
4043.58974318, 4031.28205080, 4065.51282010, 4017.69230721, 4017.56410208, 4034.74358926, 4058.71794830, 4067.69230728, 4047.43589702, 4012.30769183, 4057.56410215, 4067.17948677, 4070.25640991, 4127.82051255,12.0
4045.25640984, 4032.43589695, 4068.71794830, 4022.43589695, 4036.92307651, 4030.89743541, 4059.61538420, 4077.05128171, 4057.30769189, 4015.12820465, 4059.23076882, 4066.02564061, 4077.30769196, 4128.07692280,12.0
4040.38461497, 4024.74358926, 4058.58974318, 4017.82051234, 4036.28205080, 4027.30769183, 4057.43589702, 4071.15384581, 4051.53846113, 4015.38461490, 4052.30769189, 4060.76923036, 4073.46153812, 4130.25640998,12.0
4030.38461490, 4024.35897388, 4048.71794830, 4011.79487131, 4023.46153798, 4030.12820465, 4060.51282010, 4061.28205087, 4037.69230728, 4008.71794824, 4043.84615343, 4057.56410215, 4061.79487138, 4130.38461511,12.0
4028.58974311, 4035.25640977, 4054.35897395, 4014.61538413, 4031.02564054, 4030.12820465, 4063.97435856, 4066.66666625, 4039.35897395, 4008.84615336, 4051.02564061, 4065.64102523, 4063.71794830, 4129.10256383,12.0
4025.89743541, 4027.56410208, 4053.07692266, 4008.84615336, 4029.35897388, 4022.43589695, 4052.05128164, 4066.66666625, 4040.12820472, 4009.87179439, 4051.15384574, 4061.28205087, 4062.17948677, 4130.51282024,12.0
4024.23076875, 4019.23076875, 4047.43589702, 4002.43589688, 4014.48717900, 4027.69230721, 4049.74358933, 4057.17948677, 4025.89743541, 3994.61538406, 4037.30769189, 4048.71794830, 4052.30769189, 4130.76923050,12.0
4040.38461497, 4042.69230728, 4065.64102523, 4019.35897388, 4024.48717900, 4049.87179446, 4072.69230735, 4071.15384581, 4029.99999952, 3994.87179432, 4046.79487138, 4066.53846113, 4063.33333292, 4129.35897408,12.0
4046.53846113, 4054.48717907, 4076.53846119, 4028.71794824, 4033.84615336, 4050.25640984, 4074.74358940, 4080.76923043, 4041.15384574, 4007.30769183, 4055.64102523, 4080.76923043, 4071.92307658, 4129.48717921,12.0
4035.25640977, 4038.46153805, 4062.17948677, 4014.99999952, 4021.02564054, 4029.87179439, 4051.79487138, 4067.69230728, 4039.87179446, 4000.38461483, 4036.41025593, 4066.79487138, 4056.41025600, 4129.10256383,12.0
4030.64102516, 4032.82051234, 4055.89743548, 4012.17948670, 4014.48717900, 4020.12820465, 4041.28205087, 4057.94871754, 4040.51282010, 3993.33333278, 4031.66666618, 4060.89743548, 4052.69230728, 4128.33333306,12.0
4029.23076875, 4036.92307651, 4059.99999959, 4019.35897388, 4012.82051234, 4018.97435849, 4038.97435856, 4052.43589702, 4035.76923029, 4003.58974304, 4050.25640984, 4068.58974318, 4064.23076882, 4130.89743562,12.0
4021.79487131, 4031.15384567, 4056.15384574, 4017.43589695, 4007.30769183, 4015.25640977, 4035.38461490, 4045.51282010, 4025.25640977, 4008.07692259, 4050.64102523, 4068.84615343, 4064.35897395, 4128.20512793,12.0
4021.79487131, 4031.15384567, 4056.15384574, 4017.43589695, 4007.30769183, 4015.25640977, 4035.38461490, 4045.51282010, 4025.25640977, 4008.07692259, 4050.64102523, 4068.84615343, 4064.35897395, 4128.20512793,12.0
4032.56410208, 4038.33333292, 4062.56410215, 4025.76923029, 4014.23076875, 4024.10256362, 4050.12820472, 4055.76923036, 4043.71794830, 4009.23076875, 4050.51282010, 4077.94871761, 4070.89743555, 4122.30769203,12.0
4051.53846113, 4057.94871754, 4077.69230735, 4041.92307651, 4031.53846106, 4041.92307651, 4077.05128171, 4068.33333292, 4062.94871754, 4016.79487131, 4067.17948677, 4092.94871761, 4085.12820478, 4123.97435870,12.0
4041.02564061, 4053.46153805, 4068.71794830, 4035.38461490, 4029.99999952, 4041.79487138, 4077.17948684, 4056.02564061, 4035.38461490, 4010.12820465, 4054.87179446, 4076.53846119, 4069.74358940, 4129.74358947,12.0
4031.02564054, 4044.35897395, 4057.69230728, 4025.64102516, 4021.28205080, 4028.46153798, 4059.48717907, 4048.97435856, 4019.35897388, 4002.94871740, 4035.64102516, 4057.05128164, 4052.69230728, 4131.41025614,12.0
4044.48717907, 4055.76923036, 4069.87179453, 4037.30769189, 4031.02564054, 4028.58974311, 4062.30769189, 4058.84615343, 4033.46153798, 4011.92307644, 4049.99999959, 4064.10256369, 4067.30769189, 4128.71794844,12.0
4056.28205087, 4071.02564068, 4085.89743555, 4051.79487138, 4049.23076882, 4042.30769189, 4083.58974325, 4070.12820478, 4042.05128164, 4022.05128157, 4063.71794830, 4076.79487145, 4083.33333299, 4128.33333306,12.0
4053.46153805, 4072.43589709, 4085.51282017, 4054.23076882, 4053.46153805, 4045.12820472, 4086.15384581, 4076.92307658, 4049.35897395, 4023.71794824, 4056.41025600, 4079.74358940, 4078.97435863, 4130.12820485,12.0
4053.46153805, 4072.43589709, 4085.51282017, 4054.23076882, 4053.46153805, 4045.12820472, 4086.15384581, 4076.92307658, 4049.35897395, 4023.71794824, 4056.41025600, 4079.74358940, 4078.97435863, 4130.12820485,12.0
4046.28205087, 4065.12820472, 4074.99999966, 4050.51282010, 4040.64102523, 4030.25640977, 4063.07692266, 4071.53846119, 4049.99999959, 4014.61538413, 4048.07692266, 4074.99999966, 4068.71794830, 4129.10256383,12.0
4042.94871754, 4058.46153805, 4071.28205094, 4044.74358933, 4024.61538413, 4014.10256362, 4037.94871754, 4050.25640984, 4020.51282003, 3997.82051227, 4041.41025600, 4068.33333292, 4061.79487138, 4129.74358947,12.0
4039.87179446, 4052.43589702, 4073.46153812, 4039.48717907, 4019.61538413, 4006.53846106, 4026.41025593, 4038.84615343, 4001.92307637, 3990.89743535, 4037.43589702, 4066.28205087, 4059.61538420, 4132.69230742,12.0
4044.10256369, 4056.79487138, 4078.84615350, 4043.58974318, 4030.25640977, 4011.66666618, 4041.15384574, 4057.56410215, 4030.51282003, 4003.97435842, 4046.41025600, 4076.66666632, 4067.05128164, 4131.92307665,12.0
4050.64102523, 4063.46153805, 4083.33333299, 4052.69230728, 4037.43589702, 4025.51282003, 4062.05128164, 4068.71794830, 4039.74358933, 4013.33333285, 4055.25640984, 4086.02564068, 4072.82051248, 4130.64102537,12.0
4052.30769189, 4062.56410215, 4084.35897402, 4057.56410215, 4035.51282003, 4032.82051234, 4063.97435856, 4059.48717907, 4023.20512772, 4011.28205080, 4058.46153805, 4089.35897402, 4071.15384581, 4132.56410229,12.0
4053.58974318, 4063.58974318, 4082.94871761, 4059.87179446, 4046.28205087, 4031.66666618, 4067.43589702, 4065.25640984, 4035.25640977, 4011.79487131, 4065.51282010, 4094.10256376, 4075.76923043, 4130.89743562,12.0
4052.94871754, 4067.30769189, 4080.89743555, 4059.35897395, 4055.12820472, 4033.33333285, 4080.51282017, 4078.97435863, 4059.87179446, 4017.17948670, 4066.79487138, 4093.46153812, 4081.53846119, 4127.56410229,12.0
4040.25640984, 4059.61538420, 4071.41025607, 4052.94871754, 4038.97435856, 4033.20512772, 4073.84615350, 4070.38461504, 4057.43589702, 4014.10256362, 4055.25640984, 4080.51282017, 4072.82051248, 4127.94871767,12.0
4023.46153798, 4043.46153805, 4051.66666625, 4043.71794830, 4025.76923029, 4028.07692259, 4054.48717907, 4056.92307651, 4038.20512779, 4001.02564047, 4040.64102523, 4065.89743548, 4058.97435856, 4131.41025614,12.0
4015.89743541, 4035.64102516, 4038.20512779, 4035.25640977, 4030.25640977, 4016.92307644, 4045.76923036, 4055.64102523, 4024.35897388, 3987.69230714, 4032.30769183, 4058.07692266, 4051.28205087, 4131.79487152,12.0
4016.79487131, 4039.48717907, 4041.41025600, 4035.38461490, 4031.41025593, 4011.41025593, 4046.15384574, 4055.89743548, 4023.20512772, 3986.92307637, 4034.87179439, 4059.35897395, 4050.12820472, 4127.69230742,12.0
4030.25640977, 4051.66666625, 4054.87179446, 4045.25640984, 4035.38461490, 4026.41025593, 4057.94871754, 4061.53846113, 4036.15384567, 4003.33333278, 4047.56410215, 4073.97435863, 4058.33333292, 4129.48717921,12.0
4052.05128164, 4065.38461497, 4072.05128171, 4055.89743548, 4055.38461497, 4044.74358933, 4074.74358940, 4072.69230735, 4047.82051241, 4020.25640977, 4064.61538420, 4094.61538427, 4074.61538427, 4134.48717921,12.0
4073.07692273, 4083.33333299, 4097.17948684, 4073.33333299, 4072.82051248, 4048.20512779, 4086.79487145, 4087.43589709, 4070.51282017, 4041.41025600, 4084.23076889, 4111.79487152, 4093.46153812, 4131.92307665,12.0
4092.56410222, 4109.74358947, 4122.94871767, 4100.12820478, 4082.82051248, 4056.02564061, 4101.79487145, 4106.41025614, 4106.66666639, 4071.92307658, 4105.51282024, 4130.64102537, 4114.10256383, 4127.05128178,12.0
4104.23076896, 4122.82051255, 4134.61538434, 4114.99999973, 4098.33333299, 4079.35897402, 4119.99999973, 4117.17948691, 4117.43589716, 4092.43589709, 4120.38461511, 4151.53846133, 4129.35897408, 4128.97435870,12.0
4102.69230742, 4115.51282024, 4130.12820485, 4108.33333306, 4105.12820485, 4089.61538427, 4125.76923050, 4110.25640998, 4103.20512793, 4083.58974325, 4116.79487152, 4154.99999980, 4125.51282024, 4130.64102537,12.0
4098.84615350, 4114.35897408, 4124.61538434, 4101.92307658, 4096.92307658, 4081.79487145, 4121.66666639, 4101.79487145, 4104.74358947, 4070.64102530, 4106.66666639, 4147.17948697, 4118.71794844, 4128.71794844,12.0
4100.64102530, 4122.43589716, 4124.61538434, 4104.10256383, 4093.58974325, 4077.17948684, 4118.33333306, 4104.35897408, 4120.38461511, 4080.89743555, 4108.58974332, 4148.58974339, 4124.48717921, 4128.33333306,12.0
4104.48717921, 4121.66666639, 4128.71794844, 4103.84615357, 4102.30769196, 4081.79487145, 4116.92307665, 4108.46153819, 4119.35897408, 4095.12820478, 4118.20512793, 4157.69230749, 4129.74358947, 4129.48717921,12.0
4109.74358947, 4121.15384588, 4132.94871767, 4102.69230742, 4105.51282024, 4086.02564068, 4119.99999973, 4106.41025614, 4112.56410229, 4096.66666632, 4124.35897408, 4164.35897415, 4127.69230742, 4131.79487152,12.0
4112.05128178, 4124.10256383, 4136.92307672, 4107.30769203, 4106.79487152, 4085.89743555, 4123.97435870, 4105.64102537, 4115.64102537, 4093.46153812, 4124.87179460, 4167.69230749, 4126.15384588, 4133.07692280,12.0
4111.92307665, 4121.79487152, 4139.87179467, 4107.30769203, 4109.10256383, 4083.07692273, 4126.02564075, 4110.51282024, 4120.89743562, 4093.46153812, 4125.12820485, 4168.46153833, 4128.58974332, 4130.12820485,12.0
4118.07692280, 4121.02564075, 4139.35897415, 4103.46153819, 4104.35897408, 4081.66666632, 4128.71794844, 4112.17948691, 4123.84615357, 4097.05128171, 4129.74358947, 4167.94871774, 4131.02564075, 4130.12820485,12.0
4124.10256383, 4123.07692280, 4138.07692287, 4105.51282024, 4108.33333306, 4089.10256376, 4134.23076896, 4108.84615357, 4121.79487152, 4102.94871767, 4130.38461511, 4166.79487159, 4132.82051255, 4132.43589716,12.0
4120.25640998, 4120.89743562, 4138.97435877, 4108.84615357, 4120.89743562, 4098.58974325, 4138.46153826, 4112.94871767, 4128.97435870, 4105.12820485, 4124.87179460, 4167.43589723, 4132.94871767, 4130.89743562,12.0
4107.43589716, 4111.79487152, 4130.76923050, 4100.76923043, 4114.48717921, 4086.92307658, 4125.12820485, 4110.76923050, 4134.87179460, 4101.15384581, 4123.07692280, 4163.84615364, 4129.35897408, 4131.15384588,12.0
4096.79487145, 4100.89743555, 4116.66666639, 4086.41025607, 4092.94871761, 4068.84615343, 4108.33333306, 4090.89743555, 4114.74358947, 4097.94871761, 4121.66666639, 4150.25641005, 4123.46153819, 4132.94871767,12.0
4102.56410229, 4103.97435870, 4121.28205101, 4089.87179453, 4092.82051248, 4079.61538427, 4114.48717921, 4085.76923043, 4101.28205094, 4092.82051248, 4120.38461511, 4148.58974339, 4124.99999973, 4130.25640998,12.0
4113.20512793, 4114.23076896, 4134.10256383, 4104.48717921, 4103.07692280, 4093.46153812, 4121.28205101, 4100.51282017, 4116.53846126, 4084.74358940, 4122.56410229, 4164.99999980, 4133.97435870, 4130.51282024,12.0
4108.71794844, 4112.43589716, 4129.74358947, 4105.38461511, 4101.28205094, 4081.66666632, 4110.64102537, 4101.92307658, 4114.48717921, 4078.20512786, 4119.10256383, 4167.82051262, 4130.64102537, 4134.10256383,12.0
4101.41025607, 4108.20512793, 4122.82051255, 4099.23076889, 4098.58974325, 4072.43589709, 4105.38461511, 4094.10256376, 4095.64102530, 4076.92307658, 4115.38461511, 4155.51282031, 4119.99999973, 4131.53846126,12.0
4104.35897408, 4112.82051255, 4125.76923050, 4102.05128171, 4100.25640991, 4075.64102530, 4111.79487152, 4102.05128171, 4105.76923050, 4078.84615350, 4121.92307665, 4154.99999980, 4121.41025614, 4128.97435870,12.0
4101.15384581, 4110.12820485, 4122.30769203, 4101.53846119, 4096.66666632, 4067.56410215, 4110.89743562, 4110.25640998, 4115.64102537, 4080.12820478, 4121.41025614, 4155.89743569, 4122.05128178, 4130.76923050,12.0
4100.38461504, 4109.87179460, 4119.35897408, 4100.89743555, 4096.79487145, 4064.74358933, 4108.84615357, 4109.23076896, 4107.82051255, 4084.35897402, 4118.07692280, 4151.79487159, 4122.94871767, 4131.41025614,12.0
4112.30769203, 4120.51282024, 4127.43589716, 4108.46153819, 4109.35897408, 4081.66666632, 4113.46153819, 4112.17948691, 4110.76923050, 4093.84615350, 4123.46153819, 4158.20512800, 4132.69230742, 4131.15384588,12.0
4107.05128178, 4117.69230742, 4125.51282024, 4103.07692280, 4103.58974332, 4084.35897402, 4112.30769203, 4113.46153819, 4107.30769203, 4092.30769196, 4116.15384588, 4158.58974339, 4128.46153819, 4131.15384588,12.0
4084.74358940, 4101.66666632, 4107.30769203, 4087.69230735, 4083.46153812, 4070.64102530, 4101.28205094, 4107.17948691, 4096.66666632, 4074.87179453, 4096.02564068, 4141.53846133, 4110.51282024, 4129.99999973,12.0
4081.53846119, 4099.48717914, 4093.97435863, 4081.15384581, 4085.38461504, 4079.35897402, 4105.25640998, 4105.25640998, 4099.10256376, 4068.71794830, 4084.87179453, 4131.41025614, 4108.07692280, 4130.38461511,12.0
4095.76923043, 4116.66666639, 4104.48717921, 4087.05128171, 4099.10256376, 4106.02564075, 4131.15384588, 4112.82051255, 4111.41025614, 4084.23076889, 4089.74358940, 4143.33333313, 4121.79487152, 4131.79487152,12.0
4094.23076889, 4120.38461511, 4116.28205101, 4091.92307658, 4095.76923043, 4098.84615350, 4125.25640998, 4107.30769203, 4106.15384588, 4086.92307658, 4091.66666632, 4145.64102544, 4117.56410229, 4129.87179460,12.0
4074.74358940, 4101.41025607, 4098.71794837, 4083.07692273, 4083.20512786, 4064.48717907, 4083.58974325, 4090.12820478, 4086.15384581, 4060.89743548, 4073.84615350, 4124.61538434, 4092.82051248, 4128.33333306,12.0
4068.46153805, 4094.48717914, 4081.02564068, 4074.35897402, 4084.61538427, 4055.64102523, 4072.82051248, 4085.25640991, 4084.23076889, 4052.05128164, 4064.74358933, 4114.99999973, 4086.53846119, 4129.48717921,12.0
4080.12820478, 4105.51282024, 4092.30769196, 4078.84615350, 4089.23076889, 4071.41025607, 4096.41025607, 4089.99999966, 4097.56410222, 4076.41025607, 4079.23076889, 4124.74358947, 4101.02564068, 4128.33333306,12.0
4091.92307658, 4115.25640998, 4104.61538434, 4089.10256376, 4092.17948684, 4082.69230735, 4109.61538434, 4094.10256376, 4106.28205101, 4089.74358940, 4086.79487145, 4133.46153819, 4105.89743562, 4127.43589716,12.0
4094.23076889, 4119.87179460, 4102.94871767, 4095.51282017, 4094.99999966, 4085.12820478, 4108.33333306, 4095.89743555, 4106.79487152, 4079.61538427, 4081.02564068, 4133.84615357, 4103.58974332, 4128.20512793,12.0
4090.89743555, 4116.79487152, 4107.94871767, 4095.89743555, 4094.74358940, 4081.41025607, 4108.71794844, 4097.43589709, 4106.02564075, 4080.76923043, 4085.12820478, 4135.76923056, 4111.15384588, 4129.23076896,12.0
4096.41025607, 4116.92307665, 4121.79487152, 4100.76923043, 4098.33333299, 4080.76923043, 4119.10256383, 4108.07692280, 4110.89743562, 4095.76923043, 4099.48717914, 4148.84615364, 4122.05128178, 4129.10256383,12.0
4102.43589709, 4124.23076896, 4126.28205101, 4107.43589716, 4098.20512786, 4084.35897402, 4126.02564075, 4115.12820485, 4120.12820485, 4091.79487145, 4103.33333306, 4157.30769210, 4123.33333306, 4128.46153819,12.0
4090.38461504, 4116.15384588, 4112.82051255, 4098.46153812, 4089.61538427, 4078.07692273, 4113.07692280, 4103.71794844, 4113.97435870, 4072.05128171, 4089.48717914, 4143.84615364, 4110.12820485, 4128.33333306,12.0
4089.48717914, 4114.35897408, 4114.23076896, 4100.51282017, 4094.87179453, 4076.53846119, 4111.02564075, 4101.92307658, 4107.17948691, 4075.89743555, 4090.25640991, 4141.41025621, 4110.38461511, 4128.71794844,12.0
4109.35897408, 4134.48717921, 4134.99999973, 4125.76923050, 4110.76923050, 4082.17948684, 4122.94871767, 4109.99999973, 4119.35897408, 4095.64102530, 4113.07692280, 4164.61538441, 4131.28205101, 4129.23076896,12.0
4103.97435870, 4128.20512793, 4125.51282024, 4123.20512793, 4102.05128171, 4071.15384581, 4112.56410229, 4098.07692273, 4114.35897408, 4088.84615350, 4106.79487152, 4160.25641005, 4127.30769203, 4128.97435870,12.0
4080.51282017, 4101.92307658, 4094.87179453, 4096.15384581, 4077.30769196, 4056.02564061, 4094.10256376, 4085.25640991, 4092.69230735, 4068.07692266, 4076.79487145, 4131.53846126, 4102.82051255, 4129.87179460,12.0
4087.94871761, 4111.02564075, 4097.94871761, 4103.58974332, 4081.79487145, 4069.48717907, 4109.23076896, 4097.94871761, 4099.87179453, 4073.33333299, 4081.79487145, 4134.61538434, 4105.76923050, 4131.28205101,12.0
4102.69230742, 4128.20512793, 4111.66666639, 4120.12820485, 4099.61538427, 4083.07692273, 4123.84615357, 4105.89743562, 4116.79487152, 4088.84615350, 4099.61538427, 4147.94871774, 4118.33333306, 4130.12820485,12.0
4092.30769196, 4113.58974332, 4097.94871761, 4104.74358947, 4094.35897402, 4069.23076882, 4106.79487152, 4096.66666632, 4108.33333306, 4081.66666632, 4087.05128171, 4131.53846126, 4108.84615357, 4128.20512793,12.0
4089.87179453, 4109.99999973, 4094.87179453, 4098.46153812, 4090.76923043, 4081.28205094, 4128.46153819, 4111.53846126, 4110.76923050, 4078.46153812, 4082.94871761, 4126.92307665, 4107.05128178, 4128.20512793,12.0
4110.76923050, 4134.10256383, 4113.07692280, 4119.23076896, 4111.92307665, 4118.71794844, 4177.69230756, 4140.12820492, 4145.51282031, 4101.79487145, 4101.79487145, 4150.12820492, 4122.30769203, 4131.41025614,12.0
4105.51282024, 4134.23076896, 4107.69230742, 4120.25640998, 4109.87179460, 4098.07692273, 4140.51282031, 4118.07692280, 4137.43589723, 4100.64102530, 4095.89743555, 4141.15384595, 4114.48717921, 4129.48717921,12.0
4062.56410215, 4095.89743555, 4071.66666632, 4088.46153812, 4065.64102523, 4030.76923029, 4049.61538420, 4060.89743548, 4068.20512779, 4054.87179446, 4063.46153805, 4094.74358940, 4079.61538427, 4127.43589716,12.0
4046.28205087, 4082.17948684, 4057.69230728, 4077.43589709, 4050.76923036, 4021.15384567, 4041.92307651, 4052.69230728, 4039.99999959, 4031.02564054, 4053.20512779, 4079.87179453, 4067.69230728, 4130.64102537,12.0
4068.97435856, 4106.66666639, 4078.07692273, 4095.12820478, 4074.99999966, 4058.07692266, 4086.53846119, 4082.05128171, 4076.15384581, 4055.64102523, 4067.17948677, 4102.69230742, 4087.56410222, 4129.35897408,12.0
4071.02564068, 4109.87179460, 4080.12820478, 4094.99999966, 4076.02564068, 4056.28205087, 4084.48717914, 4080.25640991, 4087.43589709, 4066.79487138, 4064.74358933, 4108.07692280, 4089.35897402, 4129.10256383,12.0
4056.28205087, 4093.71794837, 4067.17948677, 4082.30769196, 4066.66666625, 4041.92307651, 4071.28205094, 4067.94871754, 4071.41025607, 4054.10256369, 4058.07692266, 4103.97435870, 4081.79487145, 4132.17948691,12.0
4055.64102523, 4089.35897402, 4066.15384574, 4081.41025607, 4071.66666632, 4049.48717907, 4079.35897402, 4071.15384581, 4071.41025607, 4053.20512779, 4062.43589702, 4107.69230742, 4087.56410222, 4130.25640998,12.0
4056.92307651, 4089.74358940, 4070.38461504, 4086.41025607, 4068.07692266, 4053.33333292, 4084.99999966, 4072.43589709, 4079.61538427, 4059.23076882, 4064.10256369, 4104.35897408, 4090.25640991, 4129.35897408,12.0
4052.05128164, 4083.97435863, 4071.66666632, 4084.35897402, 4053.33333292, 4040.12820472, 4069.35897395, 4060.38461497, 4072.56410222, 4054.74358933, 4062.56410215, 4098.20512786, 4083.46153812, 4130.64102537,12.0
4055.38461497, 4082.30769196, 4076.28205094, 4081.02564068, 4055.64102523, 4039.74358933, 4066.41025600, 4055.76923036, 4063.07692266, 4043.46153805, 4059.48717907, 4102.94871767, 4078.33333299, 4130.12820485,12.0
4078.20512786, 4097.69230735, 4092.82051248, 4092.69230735, 4081.41025607, 4076.15384581, 4111.28205101, 4088.97435863, 4108.46153819, 4066.92307651, 4072.94871761, 4124.99999973, 4097.43589709, 4128.07692280,12.0
4085.64102530, 4101.02564068, 4096.79487145, 4100.76923043, 4086.41025607, 4081.53846119, 4114.87179460, 4098.97435863, 4139.87179467, 4095.25640991, 4091.41025607, 4132.69230742, 4114.23076896, 4126.66666639,12.0
4067.43589702, 4084.61538427, 4080.25640991, 4091.92307658, 4065.38461497, 4049.74358933, 4065.64102523, 4052.94871754, 4080.51282017, 4064.61538420, 4080.76923043, 4108.58974332, 4097.05128171, 4128.07692280,12.0
4050.25640984, 4071.92307658, 4063.20512779, 4077.30769196, 4047.69230728, 4040.12820472, 4051.53846113, 4023.71794824, 4033.58974311, 4022.43589695, 4054.35897395, 4081.53846119, 4072.94871761, 4127.69230742,12.0
4047.94871754, 4073.97435863, 4062.56410215, 4074.74358940, 4043.84615343, 4042.43589702, 4059.87179446, 4041.92307651, 4062.94871754, 4030.38461490, 4057.17948677, 4080.38461504, 4080.64102530, 4127.30769203,12.0
4051.28205087, 4077.94871761, 4067.30769189, 4075.12820478, 4046.15384574, 4029.87179439, 4045.76923036, 4050.25640984, 4079.87179453, 4043.97435856, 4072.56410222, 4084.74358940, 4093.20512786, 4129.61538434,12.0
4049.87179446, 4073.33333299, 4064.35897395, 4072.69230735, 4046.66666625, 4027.82051234, 4044.35897395, 4040.38461497, 4064.61538420, 4035.76923029, 4064.87179446, 4078.71794837, 4085.76923043, 4129.35897408,12.0
4058.33333292, 4082.56410222, 4076.66666632, 4088.84615350, 4057.43589702, 4047.30769189, 4070.25640991, 4055.12820472, 4081.02564068, 4049.99999959, 4067.43589702, 4092.69230735, 4093.84615350, 4130.89743562,12.0
4067.69230728, 4096.41025607, 4087.56410222, 4104.23076896, 4070.89743555, 4049.74358933, 4075.64102530, 4068.33333292, 4096.53846119, 4065.89743548, 4084.87179453, 4108.20512793, 4106.66666639, 4130.12820485,12.0
4055.76923036, 4084.35897402, 4069.48717907, 4089.10256376, 4065.64102523, 4036.28205080, 4057.69230728, 4054.35897395, 4079.10256376, 4051.79487138, 4077.69230735, 4089.61538427, 4092.56410222, 4126.79487152,12.0
4047.82051241, 4072.56410222, 4057.05128164, 4075.38461504, 4049.99999959, 4036.15384567, 4055.64102523, 4053.33333292, 4078.20512786, 4045.25640984, 4063.33333292, 4077.94871761, 4080.38461504, 4129.35897408,12.0
4064.48717907, 4090.25640991, 4073.33333299, 4089.99999966, 4059.87179446, 4054.99999959, 4080.51282017, 4076.92307658, 4107.94871767, 4058.84615343, 4070.89743555, 4096.15384581, 4090.89743555, 4129.35897408,12.0
4063.97435856, 4088.46153812, 4071.28205094, 4091.41025607, 4066.79487138, 4053.97435856, 4081.53846119, 4067.69230728, 4094.35897402, 4052.30769189, 4066.15384574, 4089.74358940, 4083.58974325, 4127.56410229,12.0
4032.94871747, 4054.48717907, 4041.15384574, 4067.05128164, 4036.92307651, 4029.74358926, 4056.28205087, 4038.97435856, 4043.20512779, 4025.64102516, 4039.61538420, 4055.89743548, 4058.07692266, 4129.23076896,12.0
4024.87179439, 4055.38461497, 4038.20512779, 4063.97435856, 4028.71794824, 4035.25640977, 4060.12820472, 4052.05128164, 4055.89743548, 4023.58974311, 4036.92307651, 4054.74358933, 4062.30769189, 4131.53846126,12.0
4035.89743541, 4076.79487145, 4051.41025600, 4076.02564068, 4046.41025600, 4043.71794830, 4057.94871754, 4057.82051241, 4083.97435863, 4033.97435849, 4050.64102523, 4071.92307658, 4073.84615350, 4130.89743562,12.0
4035.76923029, 4079.48717914, 4054.23076882, 4077.69230735, 4051.15384574, 4031.02564054, 4042.43589702, 4037.05128164, 4059.74358933, 4041.15384574, 4056.41025600, 4074.48717914, 4070.25640991, 4127.05128178,12.0
4046.28205087, 4087.56410222, 4071.02564068, 4084.74358940, 4054.48717907, 4032.56410208, 4062.82051241, 4049.10256369, 4055.12820472, 4057.17948677, 4071.66666632, 4090.25640991, 4081.66666632, 4127.82051255,12.0
4068.58974318, 4103.71794844, 4097.69230735, 4101.15384581, 4069.99999966, 4044.99999959, 4084.10256376, 4074.61538427, 4083.97435863, 4065.12820472, 4091.15384581, 4121.15384588, 4103.07692280, 4129.87179460,12.0
4068.97435856, 4099.10256376, 4099.10256376, 4103.07692280, 4071.53846119, 4047.17948677, 4073.84615350, 4067.56410215, 4082.94871761, 4056.28205087, 4086.15384581, 4124.23076896, 4100.51282017, 4127.82051255,12.0
4059.35897395, 4089.74358940, 4085.25640991, 4099.48717914, 4064.87179446, 4053.84615343, 4074.23076889, 4057.94871754, 4073.97435863, 4058.58974318, 4076.15384581, 4110.76923050, 4091.28205094, 4129.23076896,12.0
4060.89743548, 4096.53846119, 4087.05128171, 4105.51282024, 4076.41025607, 4062.69230728, 4088.33333299, 4066.53846113, 4087.43589709, 4065.25640984, 4081.02564068, 4109.74358947, 4094.61538427, 4129.87179460,12.0
4055.38461497, 4095.64102530, 4088.07692273, 4103.71794844, 4069.87179453, 4054.87179446, 4076.15384581, 4060.64102523, 4084.87179453, 4050.12820472, 4075.51282017, 4104.87179460, 4086.66666632, 4129.87179460,12.0
4038.20512779, 4079.10256376, 4073.20512786, 4095.12820478, 4046.28205087, 4041.53846113, 4052.43589702, 4041.41025600, 4059.10256369, 4029.23076875, 4056.02564061, 4088.71794837, 4068.20512779, 4131.41025614,12.0
4043.71794830, 4080.89743555, 4074.87179453, 4104.74358947, 4063.46153805, 4046.66666625, 4066.15384574, 4055.76923036, 4072.17948684, 4039.99999959, 4060.25640984, 4093.46153812, 4077.30769196, 4129.87179460,12.0
4060.76923036, 4098.71794837, 4090.89743555, 4118.58974332, 4094.10256376, 4056.41025600, 4081.15384581, 4078.71794837, 4102.82051255, 4070.64102530, 4078.33333299, 4106.79487152, 4100.38461504, 4132.30769203,12.0
4055.89743548, 4098.33333299, 4086.79487145, 4113.71794844, 4089.87179453, 4059.10256369, 4074.99999966, 4073.97435863, 4086.02564068, 4074.99999966, 4072.43589709, 4098.07692273, 4092.43589709, 4134.74358947,12.0
4053.71794830, 4096.02564068, 4077.17948684, 4109.23076896, 4089.48717914, 4079.48717914, 4098.46153812, 4082.43589709, 4074.48717914, 4060.76923036, 4064.10256369, 4092.17948684, 4077.30769196, 4132.05128178,12.0
4054.35897395, 4091.92307658, 4070.89743555, 4103.33333306, 4084.87179453, 4083.33333299, 4104.48717921, 4089.10256376, 4083.33333299, 4057.94871754, 4063.71794830, 4087.82051248, 4076.15384581, 4128.84615357,12.0
4034.74358926, 4071.53846119, 4053.71794830, 4087.43589709, 4048.46153805, 4041.02564061, 4052.05128164, 4057.17948677, 4059.61538420, 4051.02564061, 4050.51282010, 4069.10256369, 4066.15384574, 4125.38461511,12.0
4027.05128157, 4066.66666625, 4047.30769189, 4087.82051248, 4042.30769189, 4026.92307644, 4037.69230728, 4046.79487138, 4042.17948677, 4036.15384567, 4040.89743548, 4064.48717907, 4060.12820472, 4129.10256383,12.0
4043.58974318, 4082.17948684, 4059.10256369, 4102.94871767, 4074.23076889, 4058.84615343, 4079.23076889, 4072.82051248, 4067.69230728, 4039.48717907, 4054.99999959, 4079.99999966, 4074.99999966, 4131.02564075,12.0
4051.53846113, 4086.92307658, 4066.79487138, 4108.58974332, 4083.84615350, 4067.05128164, 4087.30769196, 4075.12820478, 4081.79487145, 4055.38461497, 4069.61538420, 4086.53846119, 4084.48717914, 4128.58974332,12.0
4053.71794830, 4089.23076889, 4073.46153812, 4111.41025614, 4074.23076889, 4060.64102523, 4082.05128171, 4069.48717907, 4079.74358940, 4061.28205087, 4072.69230735, 4084.87179453, 4085.76923043, 4131.53846126,12.0
4065.12820472, 4104.23076896, 4085.38461504, 4119.61538434, 4076.53846119, 4072.30769196, 4093.58974325, 4074.74358940, 4085.51282017, 4062.69230728, 4080.25640991, 4092.69230735, 4093.84615350, 4132.82051255,12.0
4071.92307658, 4112.69230742, 4090.12820478, 4123.58974332, 4082.17948684, 4065.89743548, 4079.35897402, 4069.87179453, 4086.15384581, 4071.53846119, 4087.30769196, 4104.48717921, 4098.58974325, 4131.92307665,12.0
4076.92307658, 4114.74358947, 4100.76923043, 4132.30769203, 4091.41025607, 4051.53846113, 4063.84615343, 4074.35897402, 4093.97435863, 4086.02564068, 4097.82051248, 4119.35897408, 4104.74358947, 4129.35897408,12.0
4103.20512793, 4135.89743569, 4133.20512793, 4161.41025621, 4118.84615357, 4073.20512786, 4089.99999966, 4098.20512786, 4112.30769203, 4113.07692280, 4127.69230742, 4151.66666646, 4130.76923050, 4127.56410229,12.0
4128.97435870, 4161.41025621, 4154.74358954, 4181.79487166, 4141.41025621, 4100.89743555, 4123.07692280, 4114.23076896, 4123.07692280, 4136.15384595, 4151.28205108, 4176.79487166, 4149.10256390, 4130.51282024,12.0
4128.20512793, 4161.02564082, 4154.87179467, 4173.71794858, 4142.43589723, 4104.99999973, 4130.76923050, 4115.89743562, 4129.99999973, 4131.02564075, 4145.89743569, 4172.05128192, 4144.99999980, 4131.92307665,12.0
4126.79487152, 4154.23076903, 4162.30769210, 4169.48717935, 4138.58974339, 4110.12820485, 4137.43589723, 4117.82051255, 4141.92307672, 4127.94871767, 4142.69230749, 4169.87179474, 4148.58974339, 4130.51282024,12.0
4139.87179467, 4166.66666646, 4175.12820499, 4179.87179474, 4145.64102544, 4124.61538434, 4151.15384595, 4122.94871767, 4151.53846133, 4143.07692287, 4156.66666646, 4184.23076910, 4161.53846133, 4129.99999973,12.0
4143.58974339, 4174.48717935, 4176.28205115, 4178.58974345, 4156.02564082, 4129.23076896, 4157.17948697, 4126.28205101, 4155.89743569, 4148.20512800, 4160.51282031, 4188.84615371, 4164.87179467, 4132.05128178,12.0
4140.64102544, 4169.61538448, 4175.64102551, 4167.05128185, 4159.10256390, 4129.48717921, 4161.15384595, 4133.20512793, 4171.41025628, 4146.28205108, 4154.10256390, 4183.07692294, 4163.33333313, 4132.69230742,12.0
4142.43589723, 4168.33333320, 4175.89743576, 4163.07692287, 4155.64102544, 4134.10256383, 4163.71794851, 4138.58974339, 4185.25641012, 4151.41025621, 4151.02564082, 4179.10256397, 4163.46153826, 4129.48717921,12.0
4140.12820492, 4167.56410236, 4171.53846140, 4166.92307672, 4152.94871774, 4133.58974332, 4157.82051262, 4131.79487152, 4175.25641012, 4147.17948697, 4149.35897415, 4175.76923063, 4160.51282031, 4130.12820485,12.0
4143.84615364, 4173.97435884, 4178.20512807, 4178.20512807, 4161.15384595, 4131.02564075, 4151.02564082, 4120.38461511, 4164.35897415, 4141.92307672, 4156.41025621, 4184.87179474, 4160.89743569, 4132.69230742,12.0
4147.69230749, 4173.58974345, 4177.30769217, 4176.66666653, 4156.53846133, 4124.35897408, 4139.23076903, 4111.28205101, 4159.99999980, 4145.25641005, 4158.71794851, 4187.05128192, 4157.05128185, 4129.99999973,12.0
4134.74358947, 4153.71794851, 4154.35897415, 4158.46153826, 4138.97435877, 4111.02564075, 4123.71794844, 4107.05128178, 4150.64102544, 4136.53846133, 4147.30769210, 4164.23076903, 4149.61538441, 4130.38461511,12.0
4136.92307672, 4153.46153826, 4154.48717928, 4158.71794851, 4143.07692287, 4114.35897408, 4133.58974332, 4119.99999973, 4162.43589723, 4138.20512800, 4154.10256390, 4161.41025621, 4160.76923056, 4133.71794844,12.0
4155.25641005, 4172.17948704, 4178.07692294, 4173.33333320, 4159.74358954, 4135.38461518, 4153.71794851, 4134.23076896, 4183.07692294, 4159.48717928, 4177.69230756, 4183.46153833, 4174.99999986, 4130.64102537,12.0
4148.20512800, 4166.79487159, 4176.53846140, 4168.84615371, 4158.58974339, 4136.41025621, 4150.76923056, 4131.02564075, 4173.07692294, 4163.71794851, 4176.66666653, 4181.92307679, 4167.17948697, 4127.56410229,12.0
4127.05128178, 4150.25641005, 4157.56410236, 4155.12820492, 4148.71794851, 4120.38461511, 4143.07692287, 4126.53846126, 4157.69230749, 4146.66666646, 4153.33333313, 4157.05128185, 4153.71794851, 4130.25640998,12.0
4126.41025614, 4150.51282031, 4155.89743569, 4153.71794851, 4149.74358954, 4119.35897408, 4143.46153826, 4131.53846126, 4158.33333313, 4131.02564075, 4143.20512800, 4148.71794851, 4148.46153826, 4133.84615357,12.0
4133.84615357, 4152.94871774, 4163.20512800, 4160.89743569, 4148.33333313, 4126.28205101, 4138.33333313, 4129.87179460, 4156.92307672, 4129.61538434, 4149.61538441, 4156.15384595, 4146.28205108, 4132.43589716,12.0
4147.69230749, 4165.25641005, 4178.97435884, 4175.25641012, 4158.58974339, 4150.25641005, 4166.28205108, 4144.99999980, 4175.51282038, 4147.30769210, 4164.61538441, 4168.20512807, 4157.43589723, 4129.87179460,12.0
4160.51282031, 4179.61538448, 4192.17948704, 4181.02564089, 4176.28205115, 4175.12820499, 4200.12820499, 4171.28205115, 4205.89743583, 4165.38461518, 4171.15384602, 4172.17948704, 4167.56410236, 4131.28205101,12.0
4139.74358954, 4159.74358954, 4168.20512807, 4157.43589723, 4153.84615364, 4142.56410236, 4153.71794851, 4148.33333313, 4183.97435884, 4149.10256390, 4148.33333313, 4147.56410236, 4147.69230749, 4132.05128178,12.0
4111.02564075, 4132.94871767, 4133.97435870, 4134.35897408, 4117.17948691, 4090.51282017, 4088.71794837, 4104.61538434, 4133.84615357, 4122.30769203, 4123.84615357, 4117.30769203, 4125.38461511, 4129.10256383,12.0
4117.94871767, 4137.05128185, 4136.92307672, 4137.94871774, 4125.64102537, 4096.15384581, 4099.99999966, 4110.89743562, 4136.92307672, 4124.61538434, 4130.38461511, 4113.97435870, 4130.25640998, 4126.53846126,12.0
4129.48717921, 4151.02564082, 4150.76923056, 4138.71794851, 4147.05128185, 4119.23076896, 4129.10256383, 4131.28205101, 4161.79487159, 4133.71794844, 4141.92307672, 4118.97435870, 4135.89743569, 4127.17948691,12.0
4121.15384588, 4150.12820492, 4143.97435877, 4126.02564075, 4140.64102544, 4112.56410229, 4119.74358947, 4121.02564075, 4144.87179467, 4133.20512793, 4134.87179460, 4114.61538434, 4132.30769203, 4129.61538434,12.0
4128.84615357, 4155.38461518, 4148.07692287, 4136.41025621, 4144.48717928, 4123.84615357, 4136.02564082, 4136.92307672, 4154.48717928, 4147.05128185, 4145.89743569, 4127.43589716, 4146.28205108, 4129.23076896,12.0
4137.82051262, 4160.64102544, 4157.30769210, 4147.94871774, 4154.48717928, 4141.15384595, 4163.20512800, 4166.28205108, 4200.12820499, 4161.02564082, 4161.41025621, 4133.84615357, 4155.51282031, 4128.71794844,12.0
4109.48717921, 4137.43589723, 4130.38461511, 4124.10256383, 4131.15384588, 4118.20512793, 4131.15384588, 4131.92307665, 4166.92307672, 4131.15384588, 4133.58974332, 4101.53846119, 4132.05128178, 4130.25640998,12.0
4100.64102530, 4128.84615357, 4113.97435870, 4112.43589716, 4125.51282024, 4118.07692280, 4121.15384588, 4107.30769203, 4116.41025614, 4104.48717921, 4112.69230742, 4092.17948684, 4122.17948691, 4128.46153819,12.0
4133.07692280, 4150.76923056, 4141.15384595, 4133.71794844, 4155.12820492, 4150.12820492, 4165.12820492, 4140.38461518, 4156.15384595, 4128.07692280, 4136.28205108, 4122.69230742, 4145.38461518, 4125.89743562,12.0
4138.71794851, 4150.89743569, 4151.66666646, 4135.38461518, 4149.35897415, 4139.87179467, 4160.51282031, 4141.28205108, 4176.15384602, 4142.69230749, 4146.02564082, 4127.69230742, 4150.89743569, 4127.82051255,12.0
4112.69230742, 4127.82051255, 4129.61538434, 4113.20512793, 4111.92307665, 4101.92307658, 4107.17948691, 4103.07692280, 4123.71794844, 4114.61538434, 4128.58974332, 4108.33333306, 4132.94871767, 4129.35897408,12.0
4110.64102537, 4130.38461511, 4127.30769203, 4111.15384588, 4111.41025614, 4103.33333306, 4104.61538434, 4103.20512793, 4113.84615357, 4102.17948684, 4127.82051255, 4111.41025614, 4132.17948691, 4128.20512793,12.0
4126.79487152, 4146.53846133, 4143.58974339, 4125.64102537, 4132.56410229, 4117.82051255, 4127.43589716, 4125.76923050, 4145.89743569, 4125.38461511, 4139.74358954, 4121.41025614, 4145.25641005, 4128.46153819,12.0
4132.69230742, 4150.38461518, 4149.23076903, 4131.92307665, 4136.28205108, 4115.12820485, 4127.94871767, 4125.64102537, 4147.56410236, 4139.35897415, 4147.05128185, 4122.94871767, 4154.35897415, 4129.10256383,12.0
4136.02564082, 4154.48717928, 4154.99999980, 4132.69230742, 4138.07692287, 4122.30769203, 4136.41025621, 4123.33333306, 4143.33333313, 4139.48717928, 4153.97435877, 4132.69230742, 4158.58974339, 4128.97435870,12.0
4137.43589723, 4155.76923056, 4160.51282031, 4134.74358947, 4141.79487159, 4129.48717921, 4145.12820492, 4130.51282024, 4159.35897415, 4143.58974339, 4153.07692287, 4140.64102544, 4151.79487159, 4129.87179460,12.0
4137.82051262, 4157.17948697, 4157.30769210, 4140.76923056, 4150.38461518, 4132.82051255, 4147.43589723, 4142.30769210, 4178.97435884, 4145.38461518, 4147.17948697, 4138.71794851, 4144.87179467, 4128.97435870,12.0
4129.48717921, 4152.56410236, 4142.56410236, 4139.74358954, 4154.87179467, 4127.30769203, 4138.58974339, 4131.53846126, 4166.15384595, 4134.23076896, 4137.17948697, 4128.97435870, 4138.33333313, 4127.56410229,12.0
4116.28205101, 4136.92307672, 4129.48717921, 4128.97435870, 4141.53846133, 4115.38461511, 4119.74358947, 4102.94871767, 4125.38461511, 4117.30769203, 4123.20512793, 4115.64102537, 4129.10256383, 4128.71794844,12.0
4125.64102537, 4139.23076903, 4141.66666646, 4133.33333306, 4143.58974339, 4124.74358947, 4127.56410229, 4112.56410229, 4132.30769203, 4126.66666639, 4131.28205101, 4123.84615357, 4138.33333313, 4128.97435870,12.0
4135.38461518, 4147.82051262, 4152.43589723, 4139.23076903, 4146.15384595, 4127.82051255, 4131.66666639, 4126.92307665, 4165.25641005, 4145.12820492, 4149.74358954, 4135.76923056, 4151.79487159, 4128.84615357,12.0
4120.38461511, 4132.05128178, 4134.10256383, 4123.20512793, 4122.56410229, 4103.20512793, 4106.79487152, 4101.79487145, 4142.43589723, 4130.64102537, 4138.07692287, 4120.64102537, 4136.15384595, 4128.97435870,12.0
4111.66666639, 4117.43589716, 4119.35897408, 4110.64102537, 4110.38461511, 4092.56410222, 4101.53846119, 4087.05128171, 4110.51282024, 4110.76923050, 4116.28205101, 4105.51282024, 4119.61538434, 4126.41025614,12.0
4123.71794844, 4128.97435870, 4129.99999973, 4118.58974332, 4119.99999973, 4109.61538434, 4119.74358947, 4105.89743562, 4129.23076896, 4122.82051255, 4121.66666639, 4112.94871767, 4127.82051255, 4125.25640998,12.0
4127.82051255, 4134.99999973, 4137.43589723, 4121.79487152, 4113.07692280, 4115.25640998, 4123.71794844, 4119.10256383, 4151.41025621, 4137.30769210, 4134.23076896, 4116.41025614, 4134.48717921, 4129.61538434,12.0
4118.84615357, 4130.76923050, 4131.02564075, 4115.51282024, 4107.82051255, 4113.97435870, 4124.87179460, 4117.82051255, 4147.82051262, 4129.61538434, 4133.46153819, 4109.35897408, 4130.89743562, 4132.69230742,12.0
4108.20512793, 4128.84615357, 4121.41025614, 4113.46153819, 4116.79487152, 4116.28205101, 4121.28205101, 4109.99999973, 4133.07692280, 4114.87179460, 4125.38461511, 4101.79487145, 4123.07692280, 4130.64102537,12.0
4104.87179460, 4126.79487152, 4118.07692280, 4114.23076896, 4115.25640998, 4106.92307665, 4105.51282024, 4099.61538427, 4122.94871767, 4107.94871767, 4121.92307665, 4094.87179453, 4118.46153819, 4129.35897408,12.0
4110.89743562, 4123.97435870, 4115.89743562, 4115.76923050, 4111.79487152, 4102.05128171, 4102.17948684, 4096.92307658, 4123.58974332, 4106.53846126, 4119.61538434, 4091.66666632, 4120.38461511, 4130.51282024,12.0
4106.53846126, 4119.99999973, 4100.38461504, 4111.02564075, 4114.35897408, 4108.71794844, 4111.41025614, 4096.41025607, 4120.25640998, 4097.69230735, 4109.35897408, 4082.43589709, 4115.25640998, 4131.79487152,12.0
4107.82051255, 4129.99999973, 4103.58974332, 4114.35897408, 4129.10256383, 4120.64102537, 4123.97435870, 4099.48717914, 4120.38461511, 4101.79487145, 4118.07692280, 4084.74358940, 4117.05128178, 4130.12820485,12.0
4122.69230742, 4144.74358954, 4128.71794844, 4131.66666639, 4139.87179467, 4118.71794844, 4120.38461511, 4101.41025607, 4126.41025614, 4122.82051255, 4139.23076903, 4103.07692280, 4131.92307665, 4128.07692280,12.0
4108.84615357, 4128.71794844, 4116.53846126, 4122.82051255, 4112.17948691, 4087.56410222, 4081.92307658, 4081.02564068, 4100.38461504, 4107.56410229, 4123.33333306, 4085.76923043, 4120.89743562, 4130.64102537,12.0
4082.43589709, 4101.15384581, 4081.92307658, 4096.66666632, 4080.38461504, 4065.64102523, 4058.84615343, 4063.71794830, 4074.99999966, 4076.92307658, 4093.58974325, 4050.38461497, 4096.66666632, 4131.41025614,12.0
4100.38461504, 4113.07692280, 4100.12820478, 4104.74358947, 4100.64102530, 4088.58974325, 4087.56410222, 4082.43589709, 4105.51282024, 4099.35897402, 4112.30769203, 4071.15384581, 4113.46153819, 4129.10256383,12.0
4127.56410229, 4139.74358954, 4138.20512800, 4130.89743562, 4134.74358947, 4115.12820485, 4114.48717921, 4101.66666632, 4130.64102537, 4126.53846126, 4141.41025621, 4110.38461511, 4139.48717928, 4129.48717921,12.0
4117.17948691, 4133.71794844, 4131.92307665, 4132.30769203, 4121.28205101, 4104.87179460, 4108.07692280, 4094.48717914, 4113.33333306, 4111.41025614, 4132.94871767, 4104.87179460, 4131.53846126, 4131.15384588,12.0
4108.20512793, 4120.12820485, 4118.46153819, 4120.51282024, 4102.05128171, 4093.58974325, 4103.71794844, 4091.28205094, 4115.38461511, 4105.12820485, 4122.30769203, 4092.05128171, 4121.53846126, 4131.41025614,12.0
4122.82051255, 4130.64102537, 4128.20512793, 4119.48717921, 4116.41025614, 4111.79487152, 4124.23076896, 4101.53846119, 4129.87179460, 4110.51282024, 4124.48717921, 4101.41025607, 4125.12820485, 4129.23076896,12.0
4126.28205101, 4139.99999980, 4130.12820485, 4123.33333306, 4130.64102537, 4125.76923050, 4138.71794851, 4100.89743555, 4115.51282024, 4098.20512786, 4119.61538434, 4103.97435870, 4121.15384588, 4129.74358947,12.0
4106.41025614, 4123.84615357, 4109.61538434, 4116.28205101, 4115.51282024, 4109.61538434, 4116.28205101, 4089.61538427, 4098.97435863, 4085.25640991, 4102.17948684, 4082.69230735, 4108.84615357, 4134.87179460,12.0
4090.76923043, 4112.69230742, 4096.41025607, 4105.76923050, 4098.58974325, 4088.46153812, 4094.10256376, 4088.46153812, 4110.64102537, 4082.69230735, 4088.71794837, 4061.79487138, 4100.38461504, 4130.51282024,12.0
4087.82051248, 4121.15384588, 4097.94871761, 4102.94871767, 4096.53846119, 4084.35897402, 4095.12820478, 4090.12820478, 4120.38461511, 4081.92307658, 4089.99999966, 4060.25640984, 4096.92307658, 4126.15384588,12.0
4088.71794837, 4124.74358947, 4098.20512786, 4104.87179460, 4105.64102537, 4081.66666632, 4095.76923043, 4079.99999966, 4103.58974332, 4086.79487145, 4098.71794837, 4065.76923036, 4101.28205094, 4132.94871767,12.0
4092.17948684, 4123.71794844, 4097.69230735, 4109.61538434, 4121.02564075, 4078.97435863, 4096.41025607, 4079.87179453, 4091.15384581, 4091.79487145, 4102.05128171, 4064.35897395, 4108.97435870, 4133.58974332,12.0
4087.30769196, 4123.58974332, 4092.56410222, 4111.15384588, 4119.99999973, 4087.43589709, 4103.33333306, 4091.28205094, 4105.38461511, 4089.23076889, 4098.58974325, 4058.71794830, 4108.97435870, 4128.58974332,12.0
4069.61538420, 4117.30769203, 4077.82051248, 4099.99999966, 4102.05128171, 4088.20512786, 4095.64102530, 4084.48717914, 4113.33333306, 4083.46153812, 4094.48717914, 4045.38461497, 4099.10256376, 4129.61538434,12.0
4069.10256369, 4118.20512793, 4072.17948684, 4094.74358940, 4095.76923043, 4086.02564068, 4091.28205094, 4078.20512786, 4107.17948691, 4080.38461504, 4094.48717914, 4037.30769189, 4096.28205094, 4133.71794844,12.0
4096.28205094, 4136.66666646, 4091.66666632, 4112.30769203, 4109.48717921, 4107.69230742, 4121.02564075, 4101.41025607, 4123.33333306, 4094.48717914, 4107.94871767, 4055.64102523, 4108.97435870, 4134.74358947,12.0
4105.76923050, 4144.10256390, 4106.66666639, 4122.30769203, 4112.56410229, 4117.17948691, 4131.41025614, 4109.87179460, 4138.97435877, 4102.94871767, 4116.66666639, 4067.82051241, 4111.02564075, 4131.66666639,12.0
4087.43589709, 4128.20512793, 4096.92307658, 4110.25640998, 4100.89743555, 4092.17948684, 4098.84615350, 4084.10256376, 4118.71794844, 4087.56410222, 4106.15384588, 4055.64102523, 4096.02564068, 4133.07692280,12.0
4077.17948684, 4113.33333306, 4086.92307658, 4096.79487145, 4094.35897402, 4074.87179453, 4077.43589709, 4068.58974318, 4096.66666632, 4077.56410222, 4095.89743555, 4048.84615343, 4088.84615350, 4134.35897408,12.0
4077.43589709, 4106.79487152, 4086.28205094, 4090.38461504, 4084.99999966, 4075.38461504, 4085.51282017, 4074.48717914, 4099.61538427, 4079.23076889, 4094.48717914, 4051.02564061, 4091.28205094, 4130.64102537,12.0
4075.25640991, 4102.56410229, 4085.38461504, 4089.87179453, 4072.94871761, 4069.87179453, 4091.41025607, 4080.64102530, 4109.48717921, 4077.94871761, 4088.97435863, 4049.87179446, 4089.99999966, 4132.17948691,12.0
4078.71794837, 4109.48717921, 4090.25640991, 4093.97435863, 4080.25640991, 4070.64102530, 4091.92307658, 4080.51282017, 4109.99999973, 4075.25640991, 4086.79487145, 4054.10256369, 4089.48717914, 4131.79487152,12.0
4084.48717914, 4123.20512793, 4098.71794837, 4099.35897402, 4097.43589709, 4089.35897402, 4107.43589716, 4084.74358940, 4111.15384588, 4081.28205094, 4098.33333299, 4063.84615343, 4096.79487145, 4129.10256383,12.0
4087.30769196, 4125.64102537, 4101.92307658, 4106.92307665, 4099.48717914, 4099.87179453, 4122.17948691, 4096.79487145, 4125.76923050, 4092.05128171, 4113.58974332, 4072.82051248, 4107.30769203, 4128.97435870,12.0
4088.97435863, 4119.87179460, 4100.51282017, 4111.92307665, 4094.61538427, 4091.41025607, 4110.38461511, 4094.99999966, 4130.12820485, 4090.76923043, 4113.58974332, 4073.71794837, 4106.41025614, 4128.20512793,12.0
4084.74358940, 4123.20512793, 4097.05128171, 4110.76923050, 4093.84615350, 4081.28205094, 4088.84615350, 4075.51282017, 4105.89743562, 4071.02564068, 4099.74358940, 4065.51282010, 4095.89743555, 4131.79487152,12.0
4089.23076889, 4138.33333313, 4107.69230742, 4121.79487152, 4104.87179460, 4083.20512786, 4095.76923043, 4074.61538427, 4093.46153812, 4075.64102530, 4107.94871767, 4072.05128171, 4103.84615357, 4133.71794844,12.0
4108.58974332, 4148.84615364, 4129.61538434, 4138.07692287, 4127.17948691, 4088.46153812, 4117.30769203, 4101.53846119, 4126.79487152, 4112.82051255, 4130.64102537, 4088.46153812, 4124.10256383, 4130.38461511,12.0
4113.71794844, 4145.38461518, 4128.84615357, 4128.46153819, 4122.56410229, 4090.12820478, 4113.84615357, 4104.35897408, 4149.87179467, 4117.05128178, 4124.61538434, 4084.87179453, 4122.05128178, 4129.87179460,12.0
4102.05128171, 4132.82051255, 4113.71794844, 4111.28205101, 4094.61538427, 4093.33333299, 4095.89743555, 4073.20512786, 4121.79487152, 4094.35897402, 4106.41025614, 4074.35897402, 4110.38461511, 4130.76923050,12.0
4098.58974325, 4123.33333306, 4114.61538434, 4113.46153819, 4085.25640991, 4086.92307658, 4085.76923043, 4058.97435856, 4094.61538427, 4094.74358940, 4108.71794844, 4079.87179453, 4113.20512793, 4131.53846126,12.0
4105.51282024, 4127.43589716, 4124.10256383, 4126.02564075, 4095.51282017, 4090.51282017, 4102.30769196, 4076.92307658, 4104.87179460, 4103.84615357, 4116.15384588, 4092.17948684, 4119.61538434, 4129.87179460,12.0
4108.71794844, 4133.84615357, 4120.89743562, 4129.23076896, 4104.35897408, 4113.07692280, 4125.89743562, 4088.97435863, 4121.66666639, 4093.46153812, 4113.07692280, 4093.84615350, 4114.74358947, 4127.43589716,12.0
4094.99999966, 4117.82051255, 4100.51282017, 4114.74358947, 4091.66666632, 4097.94871761, 4102.43589709, 4072.82051248, 4106.41025614, 4069.61538420, 4100.76923043, 4074.48717914, 4099.48717914, 4129.10256383,12.0
4076.41025607, 4098.58974325, 4083.20512786, 4099.74358940, 4073.97435863, 4065.12820472, 4071.66666632, 4061.79487138, 4088.07692273, 4055.51282010, 4087.17948684, 4056.15384574, 4091.41025607, 4132.56410229,12.0
4075.64102530, 4107.05128178, 4084.61538427, 4102.05128171, 4078.71794837, 4078.46153812, 4089.99999966, 4074.23076889, 4097.69230735, 4062.94871754, 4087.82051248, 4060.89743548, 4096.28205094, 4133.58974332,12.0
4077.69230735, 4111.53846126, 4081.41025607, 4103.97435870, 4083.46153812, 4093.97435863, 4098.84615350, 4075.64102530, 4101.53846119, 4068.33333292, 4091.15384581, 4061.41025600, 4093.07692273, 4131.92307665,12.0
4065.25640984, 4096.15384581, 4064.61538420, 4093.97435863, 4067.94871754, 4070.89743555, 4069.10256369, 4056.41025600, 4086.79487145, 4057.56410215, 4080.38461504, 4045.76923036, 4080.12820478, 4130.38461511,12.0
4066.02564061, 4095.89743555, 4068.71794830, 4093.46153812, 4067.30769189, 4066.15384574, 4072.94871761, 4058.46153805, 4093.20512786, 4063.84615343, 4082.30769196, 4045.25640984, 4085.12820478, 4129.23076896,12.0
4087.30769196, 4116.92307665, 4088.07692273, 4104.10256383, 4095.51282017, 4094.35897402, 4109.23076896, 4079.10256376, 4118.58974332, 4086.92307658, 4101.79487145, 4064.99999959, 4104.87179460, 4130.12820485,12.0
4102.05128171, 4132.94871767, 4099.48717914, 4115.25640998, 4111.41025614, 4099.10256376, 4114.23076896, 4081.41025607, 4123.58974332, 4096.92307658, 4112.94871767, 4078.71794837, 4113.46153819, 4132.43589716,12.0
4109.23076896, 4136.41025621, 4113.20512793, 4127.05128178, 4109.23076896, 4088.97435863, 4106.02564075, 4079.35897402, 4123.84615357, 4108.71794844, 4120.25640998, 4085.89743555, 4115.76923050, 4131.41025614,12.0
4120.76923050, 4143.97435877, 4126.79487152, 4136.79487159, 4114.23076896, 4107.17948691, 4127.69230742, 4092.94871761, 4137.94871774, 4127.94871767, 4134.61538434, 4099.74358940, 4124.61538434, 4130.89743562,12.0
4136.66666646, 4162.56410236, 4141.15384595, 4150.12820492, 4137.69230749, 4139.74358954, 4159.74358954, 4108.46153819, 4154.61538441, 4139.23076903, 4149.99999980, 4122.17948691, 4141.15384595, 4133.46153819,12.0
4149.61538441, 4176.92307679, 4159.23076903, 4163.84615364, 4156.92307672, 4146.28205108, 4165.38461518, 4116.28205101, 4172.43589730, 4151.15384595, 4161.28205108, 4139.87179467, 4158.07692287, 4132.56410229,12.0
4151.15384595, 4173.58974345, 4163.20512800, 4166.02564082, 4157.43589723, 4131.79487152, 4151.02564082, 4114.35897408, 4180.12820499, 4165.51282031, 4163.33333313, 4139.99999980, 4165.51282031, 4129.87179460,12.0
4147.56410236, 4169.61538448, 4157.05128185, 4162.43589723, 4155.64102544, 4128.33333306, 4145.76923056, 4108.46153819, 4172.05128192, 4165.76923056, 4158.97435877, 4136.28205108, 4162.69230749, 4129.23076896,12.0
4152.43589723, 4176.53846140, 4161.66666646, 4163.46153826, 4153.58974339, 4138.84615364, 4157.05128185, 4115.25640998, 4174.35897422, 4161.79487159, 4162.94871774, 4144.10256390, 4161.66666646, 4129.35897408,12.0
4163.84615364, 4181.15384602, 4172.82051269, 4165.76923056, 4158.20512800, 4155.64102544, 4171.79487166, 4127.69230742, 4185.38461525, 4169.61538448, 4172.56410243, 4152.05128185, 4169.99999986, 4130.12820485,12.0
4164.99999980, 4180.64102551, 4170.89743576, 4163.07692287, 4167.69230749, 4160.38461518, 4171.92307679, 4122.69230742, 4174.99999986, 4174.23076910, 4171.28205115, 4145.12820492, 4172.94871781, 4130.12820485,12.0
4161.79487159, 4182.56410243, 4166.53846133, 4160.25641005, 4169.74358961, 4151.41025621, 4167.94871774, 4122.05128178, 4177.43589730, 4176.66666653, 4166.53846133, 4141.02564082, 4170.64102551, 4130.64102537,12.0
4169.48717935, 4185.51282038, 4171.79487166, 4166.41025621, 4169.48717935, 4149.87179467, 4179.99999986, 4138.07692287, 4202.56410250, 4180.64102551, 4166.28205108, 4147.82051262, 4175.25641012, 4131.02564075,12.0
4180.12820499, 4189.10256397, 4180.89743576, 4176.15384602, 4170.76923063, 4158.71794851, 4195.51282038, 4138.58974339, 4196.79487166, 4177.30769217, 4169.87179474, 4149.48717928, 4178.58974345, 4129.74358947,12.0
4174.23076910, 4186.66666653, 4179.35897422, 4170.12820499, 4164.87179467, 4161.02564082, 4188.33333320, 4118.46153819, 4162.56410236, 4163.33333313, 4172.17948704, 4143.97435877, 4169.61538448, 4128.58974332,12.0
4167.43589723, 4182.82051269, 4172.69230756, 4161.15384595, 4167.05128185, 4161.53846133, 4180.38461525, 4117.69230742, 4159.87179467, 4158.58974339, 4168.71794858, 4142.05128185, 4165.64102544, 4127.43589716,12.0
4174.99999986, 4190.12820499, 4178.84615371, 4169.87179474, 4184.10256397, 4166.66666646, 4191.53846140, 4135.25640998, 4180.12820499, 4170.51282038, 4171.66666653, 4146.66666646, 4178.58974345, 4126.66666639,12.0
4166.92307672, 4186.02564089, 4172.17948704, 4167.56410236, 4174.48717935, 4149.48717928, 4174.61538448, 4126.66666639, 4167.82051262, 4169.48717935, 4171.53846140, 4139.99999980, 4174.74358961, 4127.05128178,12.0
4149.23076903, 4167.94871774, 4155.51282031, 4149.74358954, 4152.05128185, 4121.28205101, 4131.28205101, 4107.69230742, 4149.48717928, 4162.30769210, 4158.71794851, 4127.30769203, 4155.89743569, 4128.71794844,12.0
4165.12820492, 4177.17948704, 4171.53846140, 4158.46153826, 4160.89743569, 4125.12820485, 4132.05128178, 4122.43589716, 4165.51282031, 4183.33333320, 4164.10256390, 4140.89743569, 4166.41025621, 4131.66666639,12.0
4193.71794858, 4202.82051275, 4202.30769224, 4185.12820499, 4178.58974345, 4144.48717928, 4167.82051262, 4142.82051262, 4184.23076910, 4207.43589737, 4186.02564089, 4170.25641012, 4190.76923063, 4129.99999973,12.0
4189.74358961, 4194.74358961, 4198.84615371, 4182.17948704, 4174.87179474, 4144.99999980, 4170.89743576, 4131.41025614, 4175.25641012, 4187.05128192, 4184.99999986, 4172.17948704, 4182.43589730, 4128.97435870,12.0
4176.92307679, 4176.92307679, 4182.56410243, 4166.41025621, 4166.53846133, 4150.25641005, 4163.07692287, 4127.43589716, 4177.69230756, 4163.97435877, 4174.74358961, 4160.38461518, 4171.15384602, 4131.41025614,12.0
4189.99999986, 4190.38461525, 4194.23076910, 4176.79487166, 4178.33333320, 4172.82051269, 4189.87179474, 4151.28205108, 4200.12820499, 4179.99999986, 4183.97435884, 4169.10256397, 4188.33333320, 4127.17948691,12.0
4210.51282045, 4210.38461532, 4212.82051275, 4189.87179474, 4202.94871788, 4176.79487166, 4212.94871788, 4163.71794851, 4210.25641019, 4198.33333320, 4193.20512807, 4180.25641012, 4197.82051269, 4126.41025614,12.0
4205.51282045, 4206.02564096, 4207.17948711, 4184.48717935, 4208.46153840, 4165.51282031, 4198.71794858, 4151.79487159, 4200.89743576, 4189.23076910, 4184.87179474, 4172.43589730, 4182.30769217, 4132.30769203,12.0
4180.76923063, 4186.15384602, 4185.25641012, 4173.07692294, 4184.99999986, 4159.99999980, 4178.20512807, 4134.23076896, 4178.33333320, 4162.94871774, 4168.20512807, 4155.89743569, 4167.94871774, 4130.89743562,12.0
4164.99999980, 4172.43589730, 4166.92307672, 4161.41025621, 4165.38461518, 4152.82051262, 4170.64102551, 4122.82051255, 4162.56410236, 4146.53846133, 4155.89743569, 4142.43589723, 4162.05128185, 4128.84615357,12.0
4151.41025621, 4158.71794851, 4147.69230749, 4147.05128185, 4152.94871774, 4129.99999973, 4148.46153826, 4114.23076896, 4161.41025621, 4148.07692287, 4146.41025621, 4126.28205101, 4151.02564082, 4129.48717921,12.0
4137.43589723, 4148.71794851, 4131.92307665, 4138.33333313, 4138.97435877, 4115.12820485, 4128.20512793, 4111.15384588, 4165.51282031, 4153.58974339, 4138.58974339, 4113.33333306, 4144.99999980, 4130.25640998,12.0
4142.56410236, 4155.51282031, 4137.17948697, 4143.58974339, 4138.84615364, 4129.48717921, 4144.87179467, 4118.71794844, 4171.02564089, 4159.23076903, 4143.84615364, 4118.46153819, 4153.84615364, 4129.87179460,12.0
4154.35897415, 4165.76923056, 4146.79487159, 4152.05128185, 4148.58974339, 4140.25641005, 4164.74358954, 4125.89743562, 4169.23076910, 4165.25641005, 4155.25641005, 4127.56410229, 4156.66666646, 4127.69230742,12.0
4155.64102544, 4167.56410236, 4148.33333313, 4149.87179467, 4157.69230749, 4136.79487159, 4164.10256390, 4130.76923050, 4171.15384602, 4172.82051269, 4159.61538441, 4127.94871767, 4156.41025621, 4129.35897408,12.0
4158.20512800, 4166.41025621, 4157.30769210, 4148.84615364, 4173.58974345, 4148.58974339, 4168.20512807, 4134.99999973, 4194.23076910, 4182.30769217, 4166.15384595, 4132.17948691, 4168.71794858, 4132.17948691,12.0
4167.56410236, 4171.15384602, 4168.58974345, 4163.58974339, 4182.30769217, 4168.07692287, 4185.89743576, 4138.07692287, 4204.61538455, 4189.99999986, 4177.82051269, 4145.38461518, 4180.38461525, 4131.15384588,12.0
4167.43589723, 4172.17948704, 4164.23076903, 4168.84615371, 4164.87179467, 4159.61538441, 4185.51282038, 4135.64102544, 4176.79487166, 4182.17948704, 4175.51282038, 4144.35897415, 4173.97435884, 4130.38461511,12.0
4156.92307672, 4161.02564082, 4154.87179467, 4151.92307672, 4151.28205108, 4134.10256383, 4153.84615364, 4119.99999973, 4152.69230749, 4158.46153826, 4160.12820492, 4127.43589716, 4158.84615364, 4130.76923050,12.0
4154.10256390, 4157.82051262, 4160.25641005, 4148.71794851, 4160.76923056, 4123.71794844, 4129.48717921, 4105.76923050, 4156.15384595, 4144.35897415, 4155.51282031, 4123.71794844, 4153.71794851, 4130.38461511,12.0
4166.02564082, 4173.07692294, 4175.64102551, 4164.74358954, 4166.92307672, 4129.61538434, 4142.69230749, 4116.92307665, 4167.94871774, 4159.99999980, 4167.82051262, 4140.25641005, 4163.58974339, 4129.35897408,12.0
4176.92307679, 4179.10256397, 4182.82051269, 4169.87179474, 4155.51282031, 4139.99999980, 4162.43589723, 4135.25640998, 4169.74358961, 4178.84615371, 4177.56410243, 4154.23076903, 4173.46153833, 4131.66666639,12.0
4182.69230756, 4176.28205115, 4185.64102551, 4169.74358961, 4160.38461518, 4150.51282031, 4166.41025621, 4137.05128185, 4167.69230749, 4174.99999986, 4179.87179474, 4161.53846133, 4176.53846140, 4132.82051255,12.0
4197.69230756, 4194.35897422, 4202.94871788, 4185.89743576, 4190.51282038, 4158.71794851, 4172.94871781, 4139.23076903, 4176.41025628, 4176.92307679, 4190.38461525, 4173.33333320, 4184.61538448, 4130.12820485,12.0
4196.66666653, 4197.30769217, 4203.58974352, 4187.56410243, 4187.94871781, 4151.53846133, 4165.51282031, 4139.48717928, 4174.23076910, 4174.23076910, 4186.02564089, 4163.20512800, 4180.89743576, 4130.38461511,12.0
4173.71794858, 4171.41025628, 4176.53846140, 4167.43589723, 4158.07692287, 4137.94871774, 4151.92307672, 4139.48717928, 4172.56410243, 4163.97435877, 4163.71794851, 4134.48717921, 4163.58974339, 4133.20512793,12.0
4170.25641012, 4165.89743569, 4165.25641005, 4162.43589723, 4153.84615364, 4142.56410236, 4167.43589723, 4148.33333313, 4190.89743576, 4177.43589730, 4157.94871774, 4126.92307665, 4160.12820492, 4130.25640998,12.0
4175.38461525, 4169.35897422, 4163.97435877, 4164.48717928, 4158.97435877, 4148.58974339, 4177.94871781, 4138.33333313, 4177.56410243, 4168.20512807, 4151.28205108, 4122.56410229, 4153.20512800, 4127.56410229,12.0
4156.02564082, 4155.76923056, 4144.87179467, 4150.38461518, 4144.61538441, 4131.41025614, 4151.02564082, 4117.43589716, 4139.35897415, 4131.15384588, 4133.71794844, 4101.15384581, 4135.51282031, 4133.33333306,12.0
4134.23076896, 4144.99999980, 4127.82051255, 4142.30769210, 4130.25640998, 4112.30769203, 4129.35897408, 4120.12820485, 4139.48717928, 4129.99999973, 4133.07692280, 4083.58974325, 4134.74358947, 4135.76923056,12.0
4131.53846126, 4140.25641005, 4123.20512793, 4143.07692287, 4133.71794844, 4121.02564075, 4141.92307672, 4133.71794844, 4156.66666646, 4149.10256390, 4138.20512800, 4077.17948684, 4139.99999980, 4129.10256383,12.0
4134.10256383, 4134.10256383, 4120.51282024, 4138.71794851, 4142.82051262, 4141.41025621, 4155.89743569, 4137.94871774, 4152.69230749, 4151.02564082, 4134.61538434, 4078.71794837, 4137.30769210, 4126.41025614,12.0
4145.25641005, 4140.64102544, 4130.25640998, 4144.87179467, 4148.46153826, 4145.76923056, 4152.30769210, 4142.82051262, 4149.35897415, 4158.58974339, 4147.17948697, 4093.07692273, 4147.69230749, 4131.41025614,12.0
4168.20512807, 4160.64102544, 4152.69230749, 4163.97435877, 4153.07692287, 4150.76923056, 4157.43589723, 4153.46153826, 4159.35897415, 4173.58974345, 4168.84615371, 4113.33333306, 4167.94871774, 4132.43589716,12.0
4170.38461525, 4162.94871774, 4156.02564082, 4168.71794858, 4155.25641005, 4159.23076903, 4166.79487159, 4150.64102544, 4153.84615364, 4168.58974345, 4165.12820492, 4115.25640998, 4164.48717928, 4130.64102537,12.0
4147.69230749, 4144.23076903, 4138.97435877, 4155.89743569, 4148.33333313, 4145.38461518, 4150.25641005, 4133.46153819, 4130.25640998, 4152.56410236, 4143.20512800, 4098.20512786, 4145.38461518, 4131.15384588,12.0
4146.15384595, 4142.82051262, 4140.38461518, 4153.97435877, 4143.20512800, 4137.82051262, 4140.25641005, 4136.79487159, 4133.20512793, 4144.99999980, 4141.02564082, 4098.20512786, 4149.74358954, 4129.87179460,12.0
4169.99999986, 4169.87179474, 4159.48717928, 4168.58974345, 4155.51282031, 4158.84615364, 4161.15384595, 4157.17948697, 4154.74358954, 4152.17948697, 4161.53846133, 4123.97435870, 4169.48717935, 4130.38461511,12.0
4168.97435884, 4177.69230756, 4154.48717928, 4167.43589723, 4160.51282031, 4154.10256390, 4157.43589723, 4146.02564082, 4136.02564082, 4147.05128185, 4159.48717928, 4127.69230742, 4161.66666646, 4129.48717921,12.0
4150.89743569, 4159.74358954, 4140.38461518, 4152.94871774, 4149.48717928, 4128.58974332, 4131.92307665, 4125.25640998, 4102.30769196, 4126.41025614, 4140.76923056, 4111.41025614, 4143.07692287, 4126.92307665,12.0
4157.30769210, 4165.64102544, 4152.17948697, 4156.53846133, 4149.99999980, 4144.87179467, 4146.92307672, 4144.99999980, 4118.07692280, 4133.58974332, 4150.38461518, 4121.41025614, 4153.84615364, 4130.12820485,12.0
4157.30769210, 4169.74358961, 4150.64102544, 4157.82051262, 4147.69230749, 4159.35897415, 4160.12820492, 4161.92307672, 4145.38461518, 4151.02564082, 4160.12820492, 4124.99999973, 4160.51282031, 4133.46153819,12.0
4129.87179460, 4138.97435877, 4118.58974332, 4136.28205108, 4123.97435870, 4131.92307665, 4129.10256383, 4136.28205108, 4127.56410229, 4137.05128185, 4138.84615364, 4092.30769196, 4140.38461518, 4130.89743562,12.0
4124.87179460, 4132.56410229, 4114.48717921, 4134.48717921, 4122.43589716, 4126.66666639, 4125.38461511, 4121.02564075, 4113.71794844, 4127.82051255, 4133.07692280, 4081.53846119, 4137.05128185, 4127.94871767,12.0
4136.66666646, 4152.82051262, 4132.56410229, 4150.64102544, 4141.02564082, 4139.23076903, 4144.35897415, 4131.92307665, 4125.25640998, 4142.30769210, 4146.02564082, 4098.46153812, 4148.33333313, 4129.74358947,12.0
4126.79487152, 4146.02564082, 4120.89743562, 4143.20512800, 4128.71794844, 4124.10256383, 4133.33333306, 4135.64102544, 4124.99999973, 4145.51282031, 4138.71794851, 4096.66666632, 4142.43589723, 4131.15384588,12.0
