AF3,F7,F3,FC5,T7,P7,O1,O2,P8,T8,FC6,F4,F8,AF4,Label
4158.46153826, 4159.87179467, 4153.20512800, 4124.99999973, 4152.94871774, 4152.30769210, 4158.07692287, 4143.33333313, 4158.33333313, 4162.30769210, 4139.99999980, 4172.17948704, 4167.05128185, 4133.46153819,10.0
4153.20512800, 4150.25641005, 4144.23076903, 4124.87179460, 4138.84615364, 4149.74358954, 4155.51282031, 4139.35897415, 4154.99999980, 4148.07692287, 4125.64102537, 4164.48717928, 4169.99999986, 4129.87179460,10.0
4150.25641005, 4147.30769210, 4139.74358954, 4123.84615357, 4143.58974339, 4147.05128185, 4160.25641005, 4152.69230749, 4157.69230749, 4144.87179467, 4120.12820485, 4158.84615364, 4173.46153833, 4128.46153819,10.0
4144.99999980, 4147.43589723, 4138.97435877, 4123.71794844, 4143.07692287, 4146.79487159, 4158.97435877, 4153.71794851, 4159.87179467, 4147.56410236, 4124.99999973, 4159.74358954, 4172.56410243, 4133.07692280,10.0
4142.94871774, 4143.97435877, 4138.84615364, 4126.79487152, 4136.79487159, 4145.64102544, 4146.02564082, 4129.23076896, 4148.33333313, 4142.30769210, 4116.53846126, 4157.30769210, 4161.92307672, 4133.58974332,10.0
4147.56410236, 4140.64102544, 4139.61538441, 4132.56410229, 4143.07692287, 4140.89743569, 4140.76923056, 4121.15384588, 4136.41025621, 4143.33333313, 4107.56410229, 4154.74358954, 4151.79487159, 4129.74358947,10.0
4144.61538441, 4135.89743569, 4132.56410229, 4124.99999973, 4118.71794844, 4129.35897408, 4135.64102544, 4129.74358947, 4131.15384588, 4134.23076896, 4105.38461511, 4151.53846133, 4143.46153826, 4131.02564075,10.0
4143.20512800, 4135.89743569, 4132.30769203, 4119.99999973, 4101.79487145, 4124.10256383, 4128.46153819, 4124.10256383, 4129.74358947, 4122.05128178, 4103.33333306, 4152.17948697, 4145.51282031, 4132.43589716,10.0
4147.94871774, 4140.38461518, 4140.89743569, 4129.35897408, 4131.53846126, 4129.48717921, 4130.38461511, 4116.53846126, 4132.43589716, 4129.48717921, 4107.17948691, 4153.71794851, 4156.66666646, 4130.38461511,10.0
4151.53846133, 4150.25641005, 4145.64102544, 4139.74358954, 4148.33333313, 4135.38461518, 4138.33333313, 4125.51282024, 4138.20512800, 4140.38461518, 4120.38461511, 4158.58974339, 4166.79487159, 4127.17948691,10.0
4158.71794851, 4159.61538441, 4151.28205108, 4144.23076903, 4130.89743562, 4137.94871774, 4139.23076903, 4127.82051255, 4136.66666646, 4142.17948697, 4126.15384588, 4169.74358961, 4167.82051262, 4129.35897408,10.0
4167.05128185, 4161.41025621, 4160.76923056, 4147.56410236, 4134.10256383, 4138.20512800, 4144.35897415, 4129.10256383, 4141.15384595, 4153.33333313, 4128.46153819, 4175.12820499, 4168.84615371, 4132.94871767,10.0
4171.02564089, 4167.30769210, 4165.38461518, 4151.28205108, 4160.51282031, 4147.43589723, 4161.28205108, 4141.66666646, 4158.46153826, 4160.64102544, 4142.94871774, 4176.15384602, 4181.41025628, 4131.66666639,10.0
4177.82051269, 4180.76923063, 4167.69230749, 4152.94871774, 4176.53846140, 4167.30769210, 4174.10256397, 4153.33333313, 4171.79487166, 4157.69230749, 4155.12820492, 4183.58974345, 4193.58974345, 4128.84615357,10.0
4180.51282038, 4184.48717935, 4168.46153833, 4138.46153826, 4179.87179474, 4176.41025628, 4176.28205115, 4157.30769210, 4174.99999986, 4171.53846140, 4150.25641005, 4182.94871781, 4191.41025628, 4130.12820485,10.0
4166.66666646, 4172.82051269, 4156.53846133, 4109.61538434, 4167.30769210, 4167.82051262, 4173.07692294, 4155.51282031, 4170.76923063, 4181.15384602, 4140.76923056, 4166.92307672, 4176.41025628, 4133.71794844,10.0
4155.25641005, 4166.53846133, 4149.48717928, 4098.07692273, 4159.23076903, 4162.05128185, 4175.76923063, 4156.92307672, 4173.20512807, 4173.84615371, 4138.84615364, 4160.12820492, 4169.23076910, 4132.43589716,10.0
4155.89743569, 4164.74358954, 4153.46153826, 4097.17948684, 4156.15384595, 4160.64102544, 4170.64102551, 4152.17948697, 4171.41025628, 4167.56410236, 4131.02564075, 4160.12820492, 4170.12820499, 4130.64102537,10.0
4152.17948697, 4155.64102544, 4149.99999980, 4087.43589709, 4149.74358954, 4150.12820492, 4152.17948697, 4135.38461518, 4148.33333313, 4150.38461518, 4118.71794844, 4153.84615364, 4165.89743569, 4134.61538434,10.0
4154.35897415, 4152.43589723, 4155.38461518, 4089.99999966, 4158.58974339, 4147.43589723, 4158.20512800, 4141.02564082, 4139.87179467, 4139.23076903, 4129.61538434, 4161.92307672, 4165.51282031, 4137.69230749,10.0
4162.17948697, 4156.92307672, 4161.92307672, 4097.05128171, 4169.74358961, 4152.17948697, 4168.07692287, 4159.61538441, 4153.97435877, 4148.71794851, 4137.05128185, 4169.35897422, 4159.23076903, 4135.51282031,10.0
4157.30769210, 4153.46153826, 4150.51282031, 4090.25640991, 4168.84615371, 4144.23076903, 4143.33333313, 4144.35897415, 4147.69230749, 4152.82051262, 4121.79487152, 4156.15384595, 4147.17948697, 4131.28205101,10.0
4148.84615364, 4141.66666646, 4140.25641005, 4086.15384581, 4154.87179467, 4133.84615357, 4124.23076896, 4121.53846126, 4131.28205101, 4151.28205108, 4116.28205101, 4148.46153826, 4148.07692287, 4132.43589716,10.0
4150.64102544, 4142.17948697, 4141.66666646, 4091.02564068, 4138.46153826, 4134.23076896, 4135.25640998, 4131.28205101, 4135.25640998, 4154.61538441, 4119.99999973, 4150.12820492, 4147.17948697, 4137.56410236,10.0
4148.46153826, 4153.71794851, 4142.17948697, 4092.43589709, 4134.99999973, 4138.71794851, 4139.87179467, 4143.58974339, 4139.35897415, 4141.02564082, 4117.82051255, 4146.53846133, 4137.43589723, 4133.07692280,10.0
4141.28205108, 4153.58974339, 4141.02564082, 4087.05128171, 4144.23076903, 4142.17948697, 4142.30769210, 4146.92307672, 4142.43589723, 4127.05128178, 4117.17948691, 4143.84615364, 4136.15384595, 4128.58974332,10.0
4150.25641005, 4154.48717928, 4144.87179467, 4089.48717914, 4161.28205108, 4146.79487159, 4159.74358954, 4157.69230749, 4157.30769210, 4146.15384595, 4121.28205101, 4151.53846133, 4149.74358954, 4135.38461518,10.0
4149.48717928, 4153.46153826, 4137.17948697, 4094.10256376, 4154.10256390, 4137.69230749, 4150.51282031, 4153.84615364, 4153.97435877, 4156.41025621, 4115.12820485, 4150.64102544, 4147.43589723, 4136.79487159,10.0
4137.05128185, 4142.17948697, 4130.12820485, 4093.97435863, 4147.05128185, 4136.92307672, 4141.66666646, 4145.64102544, 4139.99999980, 4137.56410236, 4107.82051255, 4144.35897415, 4131.92307665, 4133.46153819,10.0
4140.89743569, 4138.33333313, 4131.02564075, 4089.99999966, 4154.99999980, 4151.79487159, 4158.97435877, 4147.94871774, 4136.92307672, 4120.76923050, 4102.94871767, 4139.61538441, 4123.33333306, 4131.66666639,10.0
4138.07692287, 4141.15384595, 4123.84615357, 4084.35897402, 4146.66666646, 4142.30769210, 4145.38461518, 4143.84615364, 4131.66666639, 4119.10256383, 4097.69230735, 4133.71794844, 4121.41025614, 4132.17948691,10.0
4133.97435870, 4147.69230749, 4129.99999973, 4095.25640991, 4142.17948697, 4126.92307665, 4126.41025614, 4160.12820492, 4146.66666646, 4136.28205108, 4113.71794844, 4149.23076903, 4137.43589723, 4134.87179460,10.0
4137.17948697, 4148.97435877, 4137.56410236, 4107.56410229, 4156.02564082, 4129.23076896, 4133.20512793, 4169.48717935, 4159.87179467, 4146.15384595, 4119.99999973, 4155.64102544, 4138.46153826, 4131.41025614,10.0
4124.99999973, 4137.17948697, 4118.58974332, 4092.05128171, 4152.94871774, 4126.66666639, 4121.53846126, 4129.74358947, 4125.12820485, 4122.05128178, 4090.89743555, 4130.76923050, 4114.23076896, 4131.28205101,10.0
4110.51282024, 4124.87179460, 4102.05128171, 4071.41025607, 4125.76923050, 4121.92307665, 4105.76923050, 4102.56410229, 4094.23076889, 4090.25640991, 4066.92307651, 4119.23076896, 4099.23076889, 4137.05128185,10.0
4121.02564075, 4129.10256383, 4114.23076896, 4075.76923043, 4126.79487152, 4132.82051255, 4128.71794844, 4130.12820485, 4111.79487152, 4089.61538427, 4074.23076889, 4131.28205101, 4100.64102530, 4136.02564082,10.0
4135.89743569, 4139.87179467, 4128.20512793, 4089.35897402, 4141.02564082, 4143.84615364, 4150.38461518, 4152.94871774, 4130.25640998, 4110.89743562, 4095.12820478, 4140.64102544, 4110.38461511, 4133.20512793,10.0
4135.89743569, 4139.87179467, 4128.20512793, 4089.35897402, 4141.02564082, 4143.84615364, 4150.38461518, 4152.94871774, 4130.25640998, 4110.89743562, 4095.12820478, 4140.64102544, 4110.38461511, 4133.20512793,10.0
4135.76923056, 4141.28205108, 4126.66666639, 4092.69230735, 4136.66666646, 4145.64102544, 4144.35897415, 4140.64102544, 4123.58974332, 4123.58974332, 4104.74358947, 4143.58974339, 4116.79487152, 4132.82051255,10.0
4135.12820485, 4145.76923056, 4127.30769203, 4093.46153812, 4149.61538441, 4148.07692287, 4148.84615364, 4146.66666646, 4129.87179460, 4124.87179460, 4105.89743562, 4149.87179467, 4114.74358947, 4133.20512793,10.0
4135.38461518, 4147.43589723, 4130.89743562, 4097.17948684, 4159.61538441, 4145.12820492, 4159.23076903, 4172.17948704, 4150.89743569, 4122.69230742, 4105.25640998, 4151.66666646, 4108.97435870, 4134.48717921,10.0
4130.38461511, 4138.71794851, 4128.07692280, 4096.66666632, 4147.30769210, 4137.82051262, 4150.25641005, 4163.97435877, 4149.10256390, 4123.84615357, 4104.74358947, 4147.82051262, 4112.17948691, 4134.23076896,10.0
4120.38461511, 4125.51282024, 4116.28205101, 4086.53846119, 4136.02564082, 4128.71794844, 4129.48717921, 4137.30769210, 4130.89743562, 4128.33333306, 4095.89743555, 4137.56410236, 4109.61538434, 4133.33333306,10.0
4123.33333306, 4127.94871767, 4116.15384588, 4087.94871761, 4131.66666639, 4124.48717921, 4126.79487152, 4146.15384595, 4138.33333313, 4136.15384595, 4093.07692273, 4137.05128185, 4101.15384581, 4134.23076896,10.0
4139.99999980, 4146.41025621, 4133.97435870, 4106.92307665, 4131.92307665, 4131.79487152, 4142.82051262, 4166.41025621, 4158.07692287, 4143.71794851, 4112.94871767, 4157.05128185, 4107.94871767, 4136.41025621,10.0
4138.20512800, 4146.53846133, 4137.17948697, 4109.99999973, 4130.76923050, 4135.89743569, 4144.99999980, 4151.66666646, 4146.66666646, 4132.69230742, 4122.17948691, 4163.71794851, 4111.02564075, 4134.23076896,10.0
4128.71794844, 4141.66666646, 4129.87179460, 4103.07692280, 4129.61538434, 4127.56410229, 4136.28205108, 4137.30769210, 4131.92307665, 4120.38461511, 4110.64102537, 4154.10256390, 4107.56410229, 4132.94871767,10.0
4134.61538434, 4151.41025621, 4134.48717921, 4107.69230742, 4136.02564082, 4122.94871767, 4137.69230749, 4144.74358954, 4137.82051262, 4126.28205101, 4107.69230742, 4154.87179467, 4114.35897408, 4136.15384595,10.0
4144.74358954, 4155.76923056, 4141.79487159, 4111.79487152, 4149.87179467, 4133.84615357, 4143.20512800, 4149.10256390, 4139.10256390, 4133.20512793, 4117.05128178, 4162.69230749, 4119.35897408, 4132.56410229,10.0
4140.64102544, 4142.94871774, 4135.25640998, 4102.17948684, 4159.35897415, 4141.28205108, 4138.58974339, 4147.17948697, 4135.25640998, 4131.28205101, 4115.64102537, 4157.56410236, 4104.10256383, 4129.99999973,10.0
4133.84615357, 4139.87179467, 4128.58974332, 4099.99999966, 4150.25641005, 4141.79487159, 4142.17948697, 4150.12820492, 4141.53846133, 4124.10256383, 4104.99999973, 4146.41025621, 4095.25640991, 4134.10256383,10.0
4144.61538441, 4162.30769210, 4137.94871774, 4118.46153819, 4134.23076896, 4148.07692287, 4159.48717928, 4157.56410236, 4145.51282031, 4122.56410229, 4112.30769203, 4154.61538441, 4116.92307665, 4133.97435870,10.0
4154.10256390, 4169.87179474, 4148.33333313, 4126.66666639, 4142.56410236, 4145.89743569, 4147.69230749, 4143.33333313, 4127.17948691, 4120.25640998, 4123.71794844, 4168.71794858, 4130.89743562, 4132.82051255,10.0
4141.28205108, 4145.12820492, 4141.92307672, 4107.30769203, 4157.82051262, 4129.10256383, 4115.51282024, 4113.71794844, 4101.66666632, 4108.97435870, 4110.51282024, 4160.38461518, 4115.64102537, 4132.69230742,10.0
4132.43589716, 4134.23076896, 4138.07692287, 4096.15384581, 4150.38461518, 4130.12820485, 4122.17948691, 4114.87179460, 4104.61538434, 4106.28205101, 4100.64102530, 4152.56410236, 4111.15384588, 4131.66666639,10.0
4144.23076903, 4158.58974339, 4155.12820492, 4112.05128178, 4147.30769210, 4143.71794851, 4147.69230749, 4137.43589723, 4130.51282024, 4130.89743562, 4121.79487152, 4170.25641012, 4122.56410229, 4132.30769203,10.0
4144.87179467, 4162.43589723, 4165.64102544, 4114.61538434, 4156.02564082, 4139.74358954, 4142.94871774, 4140.12820492, 4140.25641005, 4148.07692287, 4141.53846133, 4185.25641012, 4123.20512793, 4133.84615357,10.0
4135.89743569, 4140.64102544, 4161.28205108, 4108.07692280, 4146.15384595, 4135.25640998, 4137.43589723, 4136.41025621, 4134.23076896, 4131.53846126, 4150.25641005, 4185.51282038, 4128.84615357, 4133.46153819,10.0
4145.25641005, 4148.20512800, 4164.87179467, 4127.30769203, 4128.71794844, 4145.76923056, 4150.64102544, 4144.99999980, 4142.05128185, 4137.17948697, 4167.56410236, 4192.56410243, 4140.51282031, 4132.82051255,10.0
4153.97435877, 4161.41025621, 4168.97435884, 4141.02564082, 4130.76923050, 4147.17948697, 4153.97435877, 4148.07692287, 4155.12820492, 4168.33333320, 4176.66666653, 4196.15384602, 4138.20512800, 4133.33333306,10.0
4149.87179467, 4154.99999980, 4166.28205108, 4136.92307672, 4146.92307672, 4142.17948697, 4151.79487159, 4145.25641005, 4155.12820492, 4174.35897422, 4169.74358961, 4190.25641012, 4134.74358947, 4133.46153819,10.0
4147.94871774, 4153.46153826, 4164.99999980, 4142.05128185, 4153.84615364, 4146.92307672, 4156.15384595, 4147.43589723, 4149.10256390, 4151.92307672, 4163.58974339, 4185.89743576, 4128.71794844, 4130.38461511,10.0
4145.38461518, 4152.82051262, 4158.58974339, 4146.02564082, 4139.74358954, 4144.48717928, 4152.94871774, 4146.92307672, 4139.61538441, 4120.25640998, 4151.28205108, 4176.53846140, 4115.64102537, 4128.07692280,10.0
4130.25640998, 4132.94871767, 4137.82051262, 4126.79487152, 4129.35897408, 4127.69230742, 4138.84615364, 4141.53846133, 4125.64102537, 4111.15384588, 4129.61538434, 4154.61538441, 4114.10256383, 4130.64102537,10.0
4127.17948691, 4126.15384588, 4125.38461511, 4118.07692280, 4139.99999980, 4133.07692280, 4142.43589723, 4152.43589723, 4136.79487159, 4141.53846133, 4125.76923050, 4146.79487159, 4121.02564075, 4133.07692280,10.0
4142.30769210, 4142.82051262, 4133.20512793, 4131.41025614, 4147.17948697, 4157.30769210, 4164.99999980, 4168.84615371, 4166.15384595, 4171.79487166, 4143.07692287, 4160.76923056, 4127.94871767, 4135.64102544,10.0
4137.94871774, 4138.71794851, 4134.48717921, 4128.84615357, 4134.48717921, 4148.58974339, 4154.35897415, 4145.76923056, 4150.25641005, 4145.76923056, 4140.12820492, 4156.53846133, 4124.99999973, 4134.99999973,10.0
4122.05128178, 4127.05128178, 4123.58974332, 4117.69230742, 4109.48717921, 4120.64102537, 4119.10256383, 4111.28205101, 4107.94871767, 4106.66666639, 4120.64102537, 4139.99999980, 4108.20512793, 4131.15384588,10.0
4129.74358947, 4137.05128185, 4123.71794844, 4125.25640998, 4106.53846126, 4117.56410229, 4115.76923050, 4115.51282024, 4109.87179460, 4120.51282024, 4126.41025614, 4146.02564082, 4107.17948691, 4130.76923050,10.0
4139.35897415, 4140.89743569, 4129.48717921, 4134.10256383, 4125.64102537, 4124.74358947, 4129.10256383, 4133.58974332, 4134.87179460, 4143.07692287, 4142.56410236, 4157.82051262, 4122.94871767, 4132.56410229,10.0
4125.76923050, 4124.48717921, 4123.97435870, 4124.87179460, 4118.46153819, 4121.02564075, 4124.74358947, 4136.28205108, 4132.43589716, 4138.20512800, 4134.99999973, 4151.66666646, 4116.53846126, 4132.82051255,10.0
4119.35897408, 4122.56410229, 4122.05128178, 4118.20512793, 4110.76923050, 4117.82051255, 4120.76923050, 4136.15384595, 4128.71794844, 4133.07692280, 4127.05128178, 4143.46153826, 4103.07692280, 4132.43589716,10.0
4122.17948691, 4132.56410229, 4123.71794844, 4120.12820485, 4117.82051255, 4119.87179460, 4123.46153819, 4137.05128185, 4133.58974332, 4129.61538434, 4136.02564082, 4143.20512800, 4107.94871767, 4136.92307672,10.0
4115.89743562, 4126.66666639, 4121.92307665, 4122.43589716, 4115.25640998, 4125.25640998, 4127.82051255, 4140.12820492, 4132.94871767, 4128.46153819, 4139.99999980, 4147.05128185, 4111.66666639, 4137.56410236,10.0
4115.12820485, 4121.53846126, 4126.92307665, 4126.41025614, 4114.87179460, 4131.28205101, 4139.61538441, 4151.28205108, 4139.48717928, 4143.20512800, 4135.64102544, 4152.05128185, 4111.92307665, 4129.48717921,10.0
4124.74358947, 4129.23076896, 4134.23076896, 4129.23076896, 4116.41025614, 4128.20512793, 4139.35897415, 4150.76923056, 4146.15384595, 4143.07692287, 4139.74358954, 4152.17948697, 4129.48717921, 4131.02564075,10.0
4123.71794844, 4130.51282024, 4127.82051255, 4128.84615357, 4103.71794844, 4119.35897408, 4124.10256383, 4134.35897408, 4131.79487152, 4128.20512793, 4140.51282031, 4147.30769210, 4136.79487159, 4135.64102544,10.0
4114.48717921, 4123.71794844, 4118.46153819, 4128.97435870, 4107.05128178, 4119.61538434, 4127.05128178, 4130.12820485, 4118.33333306, 4136.92307672, 4129.35897408, 4140.64102544, 4119.99999973, 4131.92307665,10.0
4112.30769203, 4121.66666639, 4118.84615357, 4132.17948691, 4131.28205101, 4125.64102537, 4139.61538441, 4139.87179467, 4129.48717921, 4140.89743569, 4122.69230742, 4136.79487159, 4118.58974332, 4130.64102537,10.0
4110.64102537, 4123.84615357, 4114.99999973, 4129.61538434, 4123.33333306, 4124.35897408, 4135.89743569, 4141.92307672, 4136.92307672, 4127.94871767, 4123.20512793, 4134.74358947, 4124.23076896, 4130.89743562,10.0
4113.71794844, 4129.10256383, 4113.84615357, 4127.82051255, 4108.97435870, 4126.92307665, 4137.56410236, 4142.82051262, 4137.82051262, 4138.07692287, 4122.56410229, 4136.15384595, 4115.12820485, 4133.46153819,10.0
4118.33333306, 4128.58974332, 4116.15384588, 4131.28205101, 4108.07692280, 4126.53846126, 4137.82051262, 4141.79487159, 4135.25640998, 4136.92307672, 4119.35897408, 4134.74358947, 4116.66666639, 4136.41025621,10.0
4119.61538434, 4125.89743562, 4115.51282024, 4134.48717921, 4111.53846126, 4123.20512793, 4131.79487152, 4134.99999973, 4127.17948691, 4120.38461511, 4122.17948691, 4131.15384588, 4128.84615357, 4133.97435870,10.0
4128.97435870, 4138.58974339, 4120.89743562, 4137.56410236, 4134.61538434, 4135.76923056, 4143.20512800, 4137.05128185, 4124.99999973, 4137.05128185, 4124.61538434, 4136.02564082, 4127.56410229, 4132.43589716,10.0
4133.71794844, 4143.58974339, 4124.61538434, 4135.51282031, 4132.56410229, 4137.56410236, 4143.97435877, 4137.94871774, 4124.35897408, 4144.99999980, 4115.89743562, 4134.10256383, 4120.64102537, 4132.69230742,10.0
4119.99999973, 4124.99999973, 4115.76923050, 4114.87179460, 4094.61538427, 4115.38461511, 4117.69230742, 4127.82051255, 4125.51282024, 4124.35897408, 4106.41025614, 4120.89743562, 4118.97435870, 4133.33333306,10.0
4116.92307665, 4124.35897408, 4111.28205101, 4094.74358940, 4100.12820478, 4111.79487152, 4117.56410229, 4127.43589716, 4135.76923056, 4132.05128178, 4111.02564075, 4119.23076896, 4119.23076896, 4132.56410229,10.0
4134.99999973, 4144.48717928, 4125.38461511, 4093.20512786, 4143.46153826, 4134.74358947, 4149.23076903, 4136.79487159, 4143.71794851, 4158.84615364, 4126.66666639, 4135.64102544, 4129.35897408, 4131.28205101,10.0
4148.84615364, 4147.43589723, 4140.89743569, 4093.07692273, 4143.84615364, 4142.56410236, 4156.92307672, 4140.38461518, 4138.07692287, 4159.48717928, 4137.43589723, 4150.12820492, 4139.35897415, 4134.74358947,10.0
4156.79487159, 4147.56410236, 4146.66666646, 4090.89743555, 4127.43589716, 4141.79487159, 4153.33333313, 4146.41025621, 4143.84615364, 4144.23076903, 4140.89743569, 4157.17948697, 4142.82051262, 4135.51282031,10.0
4159.48717928, 4154.87179467, 4141.53846133, 4093.71794837, 4139.48717928, 4148.84615364, 4163.07692287, 4146.66666646, 4153.20512800, 4140.12820492, 4139.10256390, 4157.69230749, 4144.74358954, 4133.46153819,10.0
4158.71794851, 4157.56410236, 4137.82051262, 4100.38461504, 4152.17948697, 4155.89743569, 4171.66666653, 4149.10256390, 4154.87179467, 4159.87179467, 4141.53846133, 4156.02564082, 4143.07692287, 4133.58974332,10.0
4162.43589723, 4157.82051262, 4145.64102544, 4105.89743562, 4155.64102544, 4162.82051262, 4178.07692294, 4166.92307672, 4166.41025621, 4176.41025628, 4148.07692287, 4158.97435877, 4141.53846133, 4133.58974332,10.0
4157.82051262, 4152.17948697, 4143.20512800, 4106.28205101, 4156.02564082, 4156.66666646, 4169.61538448, 4156.79487159, 4158.84615364, 4153.84615364, 4138.84615364, 4153.58974339, 4136.41025621, 4134.48717921,10.0
4150.38461518, 4146.02564082, 4134.87179460, 4103.33333306, 4151.41025621, 4144.10256390, 4149.23076903, 4121.79487152, 4131.92307665, 4138.97435877, 4131.15384588, 4144.61538441, 4132.56410229, 4133.20512793,10.0
4160.51282031, 4153.20512800, 4144.35897415, 4105.76923050, 4150.76923056, 4147.30769210, 4152.05128185, 4124.48717921, 4134.35897408, 4154.74358954, 4144.87179467, 4152.82051262, 4140.89743569, 4133.97435870,10.0
4176.02564089, 4167.30769210, 4161.66666646, 4123.07692280, 4160.38461518, 4161.53846133, 4177.43589730, 4153.33333313, 4159.10256390, 4158.71794851, 4159.10256390, 4172.17948704, 4151.66666646, 4135.76923056,10.0
4170.64102551, 4165.89743569, 4160.12820492, 4128.71794844, 4144.48717928, 4158.84615364, 4174.87179474, 4153.71794851, 4161.79487159, 4154.48717928, 4159.61538441, 4175.38461525, 4152.17948697, 4130.64102537,10.0
4154.99999980, 4152.05128185, 4148.07692287, 4112.43589716, 4106.66666639, 4134.74358947, 4143.33333313, 4137.94871774, 4148.20512800, 4156.66666646, 4152.17948697, 4161.02564082, 4147.30769210, 4130.64102537,10.0
4153.46153826, 4147.69230749, 4145.76923056, 4109.10256383, 4116.79487152, 4130.64102537, 4142.82051262, 4139.23076903, 4142.82051262, 4150.25641005, 4146.53846133, 4157.56410236, 4140.12820492, 4135.76923056,10.0
4157.05128185, 4153.46153826, 4149.74358954, 4124.61538434, 4163.71794851, 4147.17948697, 4167.56410236, 4146.92307672, 4142.30769210, 4138.71794851, 4147.17948697, 4166.41025621, 4135.89743569, 4133.84615357,10.0
4150.25641005, 4152.69230749, 4146.92307672, 4126.66666639, 4168.58974345, 4144.10256390, 4164.87179467, 4146.41025621, 4141.28205108, 4138.07692287, 4145.89743569, 4163.33333313, 4139.35897415, 4130.76923050,10.0
4141.15384595, 4142.69230749, 4133.71794844, 4113.97435870, 4136.02564082, 4129.74358947, 4143.33333313, 4139.99999980, 4138.71794851, 4139.61538441, 4131.53846126, 4147.69230749, 4128.58974332, 4133.33333306,10.0
4132.30769203, 4135.89743569, 4120.64102537, 4106.28205101, 4118.33333306, 4128.84615357, 4135.51282031, 4134.99999973, 4136.66666646, 4131.02564075, 4115.12820485, 4138.20512800, 4114.23076896, 4136.02564082,10.0
4125.51282024, 4138.33333313, 4121.02564075, 4106.02564075, 4129.10256383, 4133.58974332, 4138.84615364, 4134.87179460, 4137.17948697, 4122.56410229, 4115.89743562, 4139.99999980, 4120.89743562, 4132.30769203,10.0
4126.02564075, 4140.89743569, 4125.89743562, 4110.51282024, 4143.33333313, 4135.51282031, 4143.07692287, 4136.41025621, 4135.76923056, 4121.41025614, 4117.82051255, 4140.38461518, 4123.84615357, 4131.92307665,10.0
4124.61538434, 4131.02564075, 4116.15384588, 4107.43589716, 4124.61538434, 4131.66666639, 4137.56410236, 4130.64102537, 4127.82051255, 4108.58974332, 4106.41025614, 4128.20512793, 4113.58974332, 4136.92307672,10.0
4118.07692280, 4121.28205101, 4105.12820485, 4098.20512786, 4091.92307658, 4121.53846126, 4128.33333306, 4125.89743562, 4121.53846126, 4095.89743555, 4100.38461504, 4117.82051255, 4114.48717921, 4132.43589716,10.0
4116.15384588, 4126.92307665, 4111.41025614, 4101.92307658, 4096.28205094, 4118.71794844, 4133.33333306, 4132.82051255, 4129.48717921, 4112.05128178, 4108.71794844, 4125.64102537, 4124.48717921, 4126.66666639,10.0
4120.76923050, 4132.30769203, 4118.46153819, 4109.23076896, 4125.38461511, 4127.56410229, 4141.15384595, 4132.82051255, 4138.33333313, 4127.43589716, 4111.15384588, 4132.43589716, 4121.15384588, 4131.53846126,10.0
4120.51282024, 4125.38461511, 4112.17948691, 4105.25640998, 4139.10256390, 4129.48717921, 4134.61538434, 4122.30769203, 4136.53846133, 4125.51282024, 4106.02564075, 4124.61538434, 4115.25640998, 4133.97435870,10.0
4116.92307665, 4123.84615357, 4105.38461511, 4102.30769196, 4133.58974332, 4126.28205101, 4129.87179460, 4123.33333306, 4138.84615364, 4128.71794844, 4109.35897408, 4120.64102537, 4113.58974332, 4131.28205101,10.0
4118.33333306, 4134.23076896, 4108.71794844, 4108.71794844, 4122.17948691, 4128.33333306, 4134.48717921, 4126.41025614, 4138.97435877, 4114.87179460, 4109.48717921, 4125.38461511, 4105.25640998, 4132.17948691,10.0
4125.64102537, 4140.89743569, 4113.97435870, 4114.23076896, 4127.43589716, 4133.58974332, 4136.15384595, 4120.64102537, 4129.74358947, 4096.41025607, 4105.89743562, 4130.38461511, 4109.61538434, 4135.38461518,10.0
4132.94871767, 4140.25641005, 4119.35897408, 4119.99999973, 4131.41025614, 4136.28205108, 4138.46153826, 4121.28205101, 4131.92307665, 4123.20512793, 4112.43589716, 4136.28205108, 4120.51282024, 4133.97435870,10.0
4131.79487152, 4144.87179467, 4127.94871767, 4130.64102537, 4128.84615357, 4139.48717928, 4146.41025621, 4129.61538434, 4142.17948697, 4148.20512800, 4122.05128178, 4141.79487159, 4113.84615357, 4131.15384588,10.0
4124.87179460, 4148.97435877, 4128.58974332, 4134.48717921, 4136.41025621, 4136.53846133, 4141.92307672, 4128.71794844, 4134.87179460, 4114.10256383, 4119.48717921, 4140.38461518, 4103.97435870, 4134.61538434,10.0
4119.99999973, 4145.38461518, 4119.48717921, 4127.69230742, 4130.25640998, 4118.97435870, 4123.58974332, 4122.43589716, 4126.41025614, 4091.66666632, 4108.46153819, 4132.30769203, 4102.82051255, 4138.46153826,10.0
4123.07692280, 4140.12820492, 4117.82051255, 4118.07692280, 4121.92307665, 4111.92307665, 4118.58974332, 4124.35897408, 4134.61538434, 4117.56410229, 4104.99999973, 4126.79487152, 4106.02564075, 4133.84615357,10.0
4131.66666639, 4134.74358947, 4124.74358947, 4117.69230742, 4136.66666646, 4125.25640998, 4130.25640998, 4127.56410229, 4140.51282031, 4135.38461518, 4113.07692280, 4129.35897408, 4112.94871767, 4128.46153819,10.0
4132.69230742, 4134.23076896, 4126.28205101, 4123.58974332, 4132.94871767, 4124.48717921, 4129.61538434, 4123.46153819, 4132.17948691, 4123.07692280, 4122.30769203, 4134.74358947, 4117.05128178, 4131.53846126,10.0
4125.89743562, 4139.61538441, 4124.23076896, 4122.17948691, 4105.12820485, 4112.30769203, 4122.05128178, 4120.89743562, 4124.99999973, 4108.46153819, 4119.99999973, 4136.41025621, 4119.35897408, 4136.15384595,10.0
4125.12820485, 4137.17948697, 4126.28205101, 4117.94871767, 4111.02564075, 4114.23076896, 4125.76923050, 4124.74358947, 4126.66666639, 4113.58974332, 4117.30769203, 4132.05128178, 4126.66666639, 4133.20512793,10.0
4125.76923050, 4125.89743562, 4123.46153819, 4118.33333306, 4132.43589716, 4118.46153819, 4124.87179460, 4123.46153819, 4125.89743562, 4127.17948691, 4117.56410229, 4125.38461511, 4122.56410229, 4129.74358947,10.0
4122.17948691, 4127.94871767, 4118.07692280, 4119.48717921, 4130.38461511, 4117.43589716, 4124.87179460, 4117.17948691, 4122.43589716, 4127.69230742, 4115.76923050, 4125.64102537, 4116.15384588, 4132.30769203,10.0
4127.82051255, 4143.07692287, 4121.28205101, 4124.74358947, 4132.69230742, 4128.46153819, 4141.02564082, 4126.66666639, 4131.79487152, 4115.76923050, 4116.41025614, 4129.87179460, 4123.97435870, 4133.20512793,10.0
4131.02564075, 4146.28205108, 4123.07692280, 4130.64102537, 4133.07692280, 4137.82051262, 4150.64102544, 4136.28205108, 4138.58974339, 4108.84615357, 4114.23076896, 4126.79487152, 4119.61538434, 4134.61538434,10.0
4120.76923050, 4139.10256390, 4116.66666639, 4127.05128178, 4109.74358947, 4127.56410229, 4137.17948697, 4120.25640998, 4121.79487152, 4113.97435870, 4105.12820485, 4119.35897408, 4102.82051255, 4136.15384595,10.0
4116.92307665, 4136.28205108, 4112.43589716, 4121.66666639, 4105.51282024, 4117.30769203, 4122.94871767, 4102.30769196, 4110.38461511, 4119.48717921, 4102.05128171, 4115.25640998, 4099.99999966, 4132.30769203,10.0
4122.30769203, 4137.17948697, 4115.89743562, 4127.43589716, 4136.15384595, 4122.94871767, 4121.79487152, 4109.23076896, 4122.43589716, 4114.48717921, 4107.69230742, 4115.25640998, 4108.97435870, 4134.10256383,10.0
4124.61538434, 4136.79487159, 4115.25640998, 4132.82051255, 4133.97435870, 4125.51282024, 4121.41025614, 4118.58974332, 4127.43589716, 4101.79487145, 4105.51282024, 4113.58974332, 4117.43589716, 4138.46153826,10.0
4131.28205101, 4140.64102544, 4114.48717921, 4133.71794844, 4114.48717921, 4121.66666639, 4124.23076896, 4118.20512793, 4123.07692280, 4107.17948691, 4105.51282024, 4113.07692280, 4122.94871767, 4137.56410236,10.0
4135.38461518, 4141.66666646, 4116.02564075, 4138.46153826, 4130.89743562, 4121.92307665, 4127.56410229, 4112.82051255, 4126.41025614, 4116.28205101, 4109.99999973, 4112.56410229, 4118.07692280, 4137.43589723,10.0
4123.97435870, 4132.43589716, 4112.43589716, 4145.89743569, 4129.99999973, 4121.15384588, 4123.20512793, 4104.23076896, 4121.79487152, 4109.87179460, 4107.82051255, 4108.07692280, 4109.48717921, 4135.12820485,10.0
4115.38461511, 4122.56410229, 4110.76923050, 4152.82051262, 4106.41025614, 4117.30769203, 4122.05128178, 4105.64102537, 4112.30769203, 4104.87179460, 4107.43589716, 4106.53846126, 4108.46153819, 4133.20512793,10.0
4119.10256383, 4124.10256383, 4112.56410229, 4158.46153826, 4120.89743562, 4117.56410229, 4125.51282024, 4111.92307665, 4116.15384588, 4099.74358940, 4106.15384588, 4110.76923050, 4108.71794844, 4134.23076896,10.0
4125.76923050, 4137.56410236, 4117.94871767, 4162.94871774, 4128.97435870, 4120.25640998, 4127.05128178, 4107.17948691, 4120.25640998, 4093.07692273, 4108.97435870, 4121.92307665, 4114.48717921, 4134.48717921,10.0
4123.84615357, 4138.07692287, 4118.97435870, 4163.33333313, 4100.64102530, 4116.66666639, 4120.25640998, 4094.23076889, 4108.71794844, 4098.97435863, 4112.82051255, 4125.51282024, 4115.12820485, 4133.97435870,10.0
4117.82051255, 4127.56410229, 4116.53846126, 4164.35897415, 4105.76923050, 4117.30769203, 4119.10256383, 4096.15384581, 4107.56410229, 4109.35897408, 4108.20512793, 4117.94871767, 4105.64102537, 4132.69230742,10.0
4118.33333306, 4129.23076896, 4115.76923050, 4170.12820499, 4132.56410229, 4119.99999973, 4128.97435870, 4110.64102537, 4125.76923050, 4110.89743562, 4108.84615357, 4116.41025614, 4105.51282024, 4133.71794844,10.0
4111.28205101, 4128.58974332, 4109.10256383, 4165.89743569, 4126.66666639, 4112.56410229, 4126.02564075, 4103.84615357, 4121.15384588, 4103.58974332, 4104.74358947, 4113.33333306, 4104.48717921, 4133.84615357,10.0
4105.76923050, 4127.05128178, 4105.25640998, 4161.28205108, 4107.05128178, 4112.30769203, 4116.15384588, 4092.17948684, 4107.05128178, 4097.82051248, 4095.51282017, 4109.10256383, 4099.99999966, 4132.56410229,10.0
4120.12820485, 4137.56410236, 4118.46153819, 4174.61538448, 4102.05128171, 4123.07692280, 4122.94871767, 4106.15384588, 4121.53846126, 4102.05128171, 4110.76923050, 4121.15384588, 4114.10256383, 4134.87179460,10.0
4120.38461511, 4129.10256383, 4121.28205101, 4177.05128192, 4106.41025614, 4117.82051255, 4123.84615357, 4114.87179460, 4129.35897408, 4107.56410229, 4121.15384588, 4125.89743562, 4117.43589716, 4135.64102544,10.0
4099.99999966, 4107.05128178, 4101.92307658, 4158.33333313, 4113.33333306, 4101.66666632, 4107.43589716, 4097.69230735, 4109.99999973, 4102.17948684, 4099.99999966, 4109.99999973, 4095.38461504, 4131.79487152,10.0
4099.48717914, 4116.02564075, 4098.33333299, 4157.82051262, 4118.20512793, 4107.56410229, 4109.99999973, 4094.99999966, 4105.89743562, 4102.69230742, 4096.41025607, 4110.25640998, 4094.35897402, 4131.92307665,10.0
4110.25640998, 4130.38461511, 4109.10256383, 4170.64102551, 4109.74358947, 4120.51282024, 4127.30769203, 4112.43589716, 4122.30769203, 4116.66666639, 4112.69230742, 4123.20512793, 4108.07692280, 4133.97435870,10.0
4111.28205101, 4129.10256383, 4113.07692280, 4173.20512807, 4093.58974325, 4116.15384588, 4130.76923050, 4118.33333306, 4126.02564075, 4112.94871767, 4112.56410229, 4123.20512793, 4108.46153819, 4132.82051255,10.0
4109.87179460, 4134.99999973, 4113.46153819, 4171.15384602, 4091.66666632, 4107.69230742, 4124.35897408, 4106.28205101, 4114.61538434, 4088.58974325, 4110.64102537, 4119.99999973, 4111.28205101, 4132.43589716,10.0
4101.02564068, 4121.02564075, 4103.07692280, 4157.94871774, 4106.66666639, 4103.07692280, 4108.97435870, 4088.58974325, 4104.35897408, 4087.17948684, 4109.99999973, 4112.17948691, 4107.43589716, 4135.38461518,10.0
4088.58974325, 4094.61538427, 4089.87179453, 4145.38461518, 4113.58974332, 4102.05128171, 4093.58974325, 4086.02564068, 4106.15384588, 4110.51282024, 4096.92307658, 4097.43589709, 4089.10256376, 4136.02564082,10.0
4087.82051248, 4102.43589709, 4092.94871761, 4154.48717928, 4104.35897408, 4104.48717921, 4097.82051248, 4096.92307658, 4108.84615357, 4114.61538434, 4092.17948684, 4091.28205094, 4088.97435863, 4134.99999973,10.0
4089.48717914, 4115.64102537, 4100.51282017, 4166.02564082, 4092.94871761, 4105.12820485, 4109.87179460, 4100.38461504, 4102.43589709, 4090.76923043, 4097.56410222, 4094.10256376, 4107.94871767, 4132.94871767,10.0
4101.79487145, 4120.38461511, 4112.82051255, 4175.89743576, 4110.89743562, 4111.66666639, 4121.15384588, 4104.23076896, 4107.82051255, 4090.25640991, 4112.94871767, 4108.07692280, 4121.15384588, 4129.48717921,10.0
4127.43589716, 4137.05128185, 4133.20512793, 4192.05128192, 4139.99999980, 4126.66666639, 4134.23076896, 4116.15384588, 4122.56410229, 4121.41025614, 4130.89743562, 4126.53846126, 4123.33333306, 4131.66666639,10.0
4134.99999973, 4142.82051262, 4138.07692287, 4193.46153833, 4130.25640998, 4133.46153819, 4138.20512800, 4122.05128178, 4126.28205101, 4136.79487159, 4129.99999973, 4130.38461511, 4115.89743562, 4134.23076896,10.0
4132.94871767, 4136.41025621, 4136.15384595, 4174.35897422, 4116.15384588, 4135.89743569, 4147.69230749, 4128.58974332, 4133.20512793, 4140.38461518, 4129.23076896, 4131.02564075, 4114.74358947, 4129.48717921,10.0
4147.30769210, 4149.99999980, 4147.05128185, 4161.79487159, 4129.99999973, 4140.38461518, 4158.97435877, 4134.48717921, 4145.12820492, 4141.28205108, 4142.43589723, 4143.33333313, 4127.56410229, 4129.23076896,10.0
4159.23076903, 4157.94871774, 4155.64102544, 4154.35897415, 4137.56410236, 4133.46153819, 4145.51282031, 4126.02564075, 4138.71794851, 4127.82051255, 4144.74358954, 4148.84615364, 4133.97435870, 4133.07692280,10.0
4154.48717928, 4144.61538441, 4157.30769210, 4144.61538441, 4147.17948697, 4131.15384588, 4138.07692287, 4126.79487152, 4134.74358947, 4128.84615357, 4139.61538441, 4146.28205108, 4127.82051255, 4132.56410229,10.0
4153.71794851, 4144.10256390, 4159.23076903, 4144.99999980, 4164.74358954, 4143.58974339, 4159.74358954, 4143.46153826, 4151.53846133, 4154.99999980, 4144.48717928, 4148.97435877, 4131.28205101, 4132.56410229,10.0
4153.07692287, 4148.84615364, 4149.74358954, 4146.02564082, 4152.30769210, 4143.07692287, 4163.33333313, 4133.20512793, 4148.07692287, 4156.92307672, 4143.84615364, 4146.41025621, 4138.84615364, 4133.46153819,10.0
4141.41025621, 4142.69230749, 4135.38461518, 4138.84615364, 4132.69230742, 4132.82051255, 4143.07692287, 4108.71794844, 4117.05128178, 4129.74358947, 4136.28205108, 4134.87179460, 4132.94871767, 4133.33333306,10.0
4139.10256390, 4138.07692287, 4137.82051262, 4138.58974339, 4143.33333313, 4137.30769210, 4140.64102544, 4114.23076896, 4111.15384588, 4117.82051255, 4137.43589723, 4130.76923050, 4125.51282024, 4134.74358947,10.0
4144.23076903, 4135.12820485, 4143.58974339, 4144.74358954, 4144.35897415, 4143.58974339, 4142.94871774, 4126.53846126, 4132.69230742, 4127.05128178, 4137.30769210, 4133.46153819, 4120.64102537, 4134.61538434,10.0
4149.35897415, 4141.02564082, 4146.66666646, 4150.25641005, 4130.38461511, 4140.12820492, 4137.82051262, 4125.89743562, 4143.07692287, 4145.64102544, 4136.53846133, 4138.20512800, 4119.99999973, 4132.56410229,10.0
4163.71794851, 4157.05128185, 4156.66666646, 4156.66666646, 4141.53846133, 4139.35897415, 4140.12820492, 4127.43589716, 4141.53846133, 4155.64102544, 4142.30769210, 4143.71794851, 4131.53846126, 4132.56410229,10.0
4168.84615371, 4155.25641005, 4160.38461518, 4156.28205108, 4155.51282031, 4139.35897415, 4139.35897415, 4127.56410229, 4138.71794851, 4142.17948697, 4140.12820492, 4140.89743569, 4137.17948697, 4133.33333306,10.0
4161.92307672, 4144.35897415, 4154.74358954, 4155.12820492, 4150.89743569, 4141.53846133, 4139.99999980, 4125.12820485, 4135.25640998, 4130.76923050, 4139.23076903, 4139.61538441, 4133.97435870, 4132.69230742,10.0
4167.94871774, 4154.87179467, 4161.79487159, 4166.15384595, 4159.48717928, 4149.99999980, 4154.10256390, 4134.23076896, 4141.15384595, 4139.87179467, 4152.82051262, 4150.89743569, 4142.17948697, 4132.94871767,10.0
4170.51282038, 4159.87179467, 4165.64102544, 4166.15384595, 4164.61538441, 4147.56410236, 4153.97435877, 4138.58974339, 4139.87179467, 4147.17948697, 4147.69230749, 4149.10256390, 4142.94871774, 4134.99999973,10.0
4154.35897415, 4143.97435877, 4150.12820492, 4148.46153826, 4132.43589716, 4136.02564082, 4137.82051262, 4123.58974332, 4125.25640998, 4141.28205108, 4126.41025614, 4134.10256383, 4123.97435870, 4132.69230742,10.0
4148.71794851, 4145.76923056, 4143.97435877, 4148.46153826, 4127.82051255, 4140.51282031, 4141.53846133, 4121.02564075, 4122.94871767, 4130.12820485, 4137.30769210, 4136.53846133, 4122.05128178, 4129.74358947,10.0
4145.12820492, 4149.99999980, 4142.30769210, 4149.74358954, 4156.41025621, 4142.30769210, 4143.07692287, 4127.30769203, 4127.69230742, 4122.05128178, 4141.92307672, 4134.61538434, 4125.64102537, 4133.46153819,10.0
4127.56410229, 4128.84615357, 4123.97435870, 4131.66666639, 4137.05128185, 4124.23076896, 4125.12820485, 4115.51282024, 4120.51282024, 4119.99999973, 4101.66666632, 4112.94871767, 4106.92307665, 4134.23076896,10.0
4129.23076896, 4128.71794844, 4121.53846126, 4132.05128178, 4115.25640998, 4122.30769203, 4127.30769203, 4109.99999973, 4119.10256383, 4124.10256383, 4086.02564068, 4113.58974332, 4105.12820485, 4132.69230742,10.0
4147.30769210, 4152.43589723, 4139.35897415, 4151.66666646, 4147.43589723, 4132.05128178, 4142.05128185, 4121.79487152, 4124.61538434, 4131.79487152, 4108.58974332, 4129.61538434, 4128.46153819, 4136.28205108,10.0
4151.92307672, 4154.87179467, 4147.17948697, 4157.05128185, 4157.17948697, 4122.30769203, 4139.35897415, 4121.15384588, 4121.28205101, 4136.53846133, 4111.41025614, 4131.15384588, 4136.92307672, 4138.58974339,10.0
4151.92307672, 4148.97435877, 4151.79487159, 4154.10256390, 4127.82051255, 4120.25640998, 4137.30769210, 4113.20512793, 4120.38461511, 4141.28205108, 4105.38461511, 4136.92307672, 4128.71794844, 4134.74358947,10.0
4148.33333313, 4144.48717928, 4154.99999980, 4150.38461518, 4133.46153819, 4133.97435870, 4142.94871774, 4114.61538434, 4123.97435870, 4139.61538441, 4108.97435870, 4143.07692287, 4118.97435870, 4130.38461511,10.0
4137.82051262, 4130.89743562, 4148.33333313, 4145.12820492, 4148.97435877, 4137.17948697, 4139.99999980, 4114.74358947, 4121.02564075, 4128.84615357, 4102.94871767, 4132.43589716, 4109.74358947, 4130.76923050,10.0
4141.02564082, 4134.10256383, 4146.66666646, 4152.30769210, 4123.46153819, 4134.87179460, 4137.69230749, 4116.41025614, 4120.38461511, 4117.82051255, 4099.23076889, 4131.92307665, 4115.25640998, 4131.79487152,10.0
4153.58974339, 4147.30769210, 4151.15384595, 4160.38461518, 4113.20512793, 4133.71794844, 4142.43589723, 4121.53846126, 4121.66666639, 4110.38461511, 4106.66666639, 4142.69230749, 4130.89743562, 4130.64102537,10.0
4152.30769210, 4139.10256390, 4148.07692287, 4152.17948697, 4133.84615357, 4126.41025614, 4142.94871774, 4122.05128178, 4121.92307665, 4117.17948691, 4103.71794844, 4138.58974339, 4129.23076896, 4132.56410229,10.0
4141.02564082, 4127.94871767, 4138.97435877, 4144.99999980, 4134.23076896, 4128.58974332, 4143.46153826, 4121.53846126, 4123.46153819, 4129.23076896, 4093.20512786, 4128.84615357, 4113.46153819, 4134.74358947,10.0
4130.25640998, 4128.07692280, 4130.12820485, 4140.64102544, 4129.10256383, 4134.10256383, 4147.82051262, 4115.76923050, 4116.53846126, 4121.79487152, 4087.56410222, 4121.15384588, 4109.48717921, 4133.20512793,10.0
4132.17948691, 4136.53846133, 4127.82051255, 4139.99999980, 4144.61538441, 4129.87179460, 4147.05128185, 4112.94871767, 4109.87179460, 4112.17948691, 4094.74358940, 4119.35897408, 4124.99999973, 4130.12820485,10.0
4145.12820492, 4145.38461518, 4132.17948691, 4146.15384595, 4145.12820492, 4129.23076896, 4141.02564082, 4119.74358947, 4117.94871767, 4129.48717921, 4108.33333306, 4123.20512793, 4138.71794851, 4131.41025614,10.0
4140.64102544, 4136.28205108, 4126.41025614, 4143.84615364, 4131.53846126, 4130.89743562, 4132.56410229, 4119.23076896, 4123.71794844, 4139.61538441, 4107.30769203, 4114.10256383, 4135.25640998, 4134.74358947,10.0
4119.10256383, 4118.20512793, 4110.12820485, 4132.43589716, 4130.25640998, 4119.74358947, 4119.87179460, 4105.51282024, 4111.66666639, 4125.25640998, 4091.79487145, 4095.64102530, 4124.74358947, 4132.69230742,10.0
4108.84615357, 4113.58974332, 4097.17948684, 4122.82051255, 4118.07692280, 4103.97435870, 4103.97435870, 4094.23076889, 4092.05128171, 4110.76923050, 4078.07692273, 4086.41025607, 4110.89743562, 4131.66666639,10.0
4120.76923050, 4122.56410229, 4104.23076896, 4128.20512793, 4110.89743562, 4106.92307665, 4104.61538434, 4094.87179453, 4091.92307658, 4103.84615357, 4083.71794837, 4095.38461504, 4106.28205101, 4136.79487159,10.0
4141.79487159, 4134.61538434, 4127.30769203, 4147.82051262, 4126.15384588, 4121.41025614, 4126.28205101, 4109.48717921, 4112.56410229, 4111.79487152, 4104.35897408, 4118.97435870, 4125.38461511, 4136.66666646,10.0
4153.58974339, 4142.94871774, 4139.10256390, 4158.07692287, 4128.33333306, 4122.82051255, 4142.05128185, 4128.20512793, 4128.58974332, 4126.28205101, 4111.66666639, 4134.35897408, 4140.12820492, 4132.43589716,10.0
4148.20512800, 4137.43589723, 4131.66666639, 4148.07692287, 4116.53846126, 4116.53846126, 4137.30769210, 4123.71794844, 4124.10256383, 4129.23076896, 4104.61538434, 4125.89743562, 4120.89743562, 4132.56410229,10.0
4136.02564082, 4125.12820485, 4120.89743562, 4137.17948697, 4121.53846126, 4119.61538434, 4123.97435870, 4105.25640998, 4113.07692280, 4123.33333306, 4102.94871767, 4112.69230742, 4103.20512793, 4131.79487152,10.0
4133.46153819, 4126.92307665, 4119.23076896, 4139.35897415, 4127.05128178, 4121.92307665, 4119.99999973, 4099.87179453, 4106.53846126, 4104.10256383, 4102.69230742, 4109.99999973, 4114.35897408, 4130.76923050,10.0
4142.56410236, 4143.58974339, 4128.33333306, 4143.58974339, 4113.71794844, 4121.79487152, 4136.79487159, 4108.07692280, 4104.87179460, 4088.71794837, 4101.28205094, 4116.02564075, 4124.48717921, 4130.51282024,10.0
4148.58974339, 4147.82051262, 4134.87179460, 4142.82051262, 4120.51282024, 4128.07692280, 4148.84615364, 4111.15384588, 4108.84615357, 4108.07692280, 4099.87179453, 4124.74358947, 4116.79487152, 4129.10256383,10.0
4135.89743569, 4130.51282024, 4128.07692280, 4136.41025621, 4143.20512800, 4119.74358947, 4129.35897408, 4105.51282024, 4108.97435870, 4132.05128178, 4096.28205094, 4119.99999973, 4112.17948691, 4130.25640998,10.0
4121.53846126, 4119.87179460, 4121.15384588, 4129.10256383, 4135.25640998, 4101.41025607, 4105.38461511, 4102.30769196, 4106.79487152, 4127.94871767, 4099.23076889, 4112.17948691, 4118.71794844, 4132.94871767,10.0
4124.35897408, 4121.92307665, 4124.87179460, 4129.99999973, 4114.10256383, 4101.28205094, 4105.38461511, 4103.71794844, 4106.15384588, 4111.28205101, 4105.12820485, 4117.30769203, 4121.02564075, 4132.69230742,10.0
4130.38461511, 4125.12820485, 4132.94871767, 4134.61538434, 4121.41025614, 4108.20512793, 4111.79487152, 4103.71794844, 4105.89743562, 4105.25640998, 4107.69230742, 4124.61538434, 4122.05128178, 4129.99999973,10.0
4133.84615357, 4132.56410229, 4140.89743569, 4142.94871774, 4123.84615357, 4109.48717921, 4113.07692280, 4099.61538427, 4113.33333306, 4120.38461511, 4119.48717921, 4133.07692280, 4134.23076896, 4130.25640998,10.0
4137.82051262, 4137.56410236, 4142.82051262, 4150.12820492, 4116.41025614, 4113.33333306, 4122.05128178, 4100.76923043, 4120.64102537, 4135.76923056, 4129.61538434, 4137.82051262, 4131.15384588, 4133.71794844,10.0
4138.58974339, 4136.02564082, 4139.61538441, 4154.48717928, 4135.51282031, 4123.33333306, 4135.76923056, 4113.46153819, 4124.48717921, 4133.58974332, 4120.76923050, 4131.53846126, 4112.30769203, 4134.74358947,10.0
4136.02564082, 4130.76923050, 4131.79487152, 4151.02564082, 4128.58974332, 4125.38461511, 4140.64102544, 4116.02564075, 4123.97435870, 4119.61538434, 4109.74358947, 4125.38461511, 4116.15384588, 4133.71794844,10.0
4133.07692280, 4124.48717921, 4123.07692280, 4140.89743569, 4100.64102530, 4120.64102537, 4136.53846133, 4109.35897408, 4119.87179460, 4108.97435870, 4107.69230742, 4126.02564075, 4132.69230742, 4132.05128178,10.0
4141.79487159, 4132.56410229, 4131.92307665, 4155.76923056, 4122.82051255, 4127.69230742, 4141.15384595, 4115.12820485, 4123.07692280, 4117.82051255, 4114.48717921, 4131.92307665, 4135.12820485, 4132.94871767,10.0
4162.94871774, 4156.41025621, 4152.30769210, 4194.35897422, 4163.58974339, 4142.17948697, 4164.35897415, 4132.82051255, 4137.94871774, 4140.51282031, 4130.12820485, 4141.66666646, 4141.15384595, 4133.71794844,10.0
4161.92307672, 4163.07692287, 4147.94871774, 4205.51282045, 4160.89743569, 4141.28205108, 4172.56410243, 4132.56410229, 4144.74358954, 4140.38461518, 4128.20512793, 4133.71794844, 4144.10256390, 4129.74358947,10.0
4140.25641005, 4150.38461518, 4126.53846126, 4188.71794858, 4149.35897415, 4134.99999973, 4156.28205108, 4118.20512793, 4133.46153819, 4119.10256383, 4105.64102537, 4111.53846126, 4123.84615357, 4131.66666639,10.0
4139.61538441, 4148.33333313, 4122.56410229, 4186.53846140, 4157.17948697, 4132.17948691, 4142.17948697, 4112.30769203, 4122.43589716, 4120.89743562, 4100.89743555, 4111.66666639, 4115.51282024, 4136.66666646,10.0
4155.64102544, 4155.25641005, 4136.92307672, 4197.17948704, 4151.92307672, 4125.76923050, 4140.12820492, 4108.58974332, 4119.61538434, 4137.69230749, 4120.12820485, 4128.97435870, 4133.97435870, 4133.84615357,10.0
4159.74358954, 4153.97435877, 4144.87179467, 4197.56410243, 4136.15384595, 4126.79487152, 4137.17948697, 4102.82051255, 4120.76923050, 4133.84615357, 4127.05128178, 4132.30769203, 4138.46153826, 4132.17948691,10.0
4151.02564082, 4144.10256390, 4138.58974339, 4191.02564089, 4126.15384588, 4131.66666639, 4131.15384588, 4102.56410229, 4122.69230742, 4118.46153819, 4117.17948691, 4125.25640998, 4122.17948691, 4136.28205108,10.0
4143.46153826, 4139.99999980, 4132.94871767, 4190.25641012, 4119.10256383, 4125.25640998, 4131.66666639, 4105.51282024, 4120.89743562, 4123.33333306, 4114.87179460, 4126.41025614, 4112.30769203, 4135.64102544,10.0
4149.87179467, 4150.25641005, 4141.79487159, 4202.56410250, 4127.69230742, 4127.69230742, 4140.64102544, 4114.74358947, 4121.92307665, 4144.23076903, 4128.84615357, 4138.97435877, 4123.07692280, 4130.89743562,10.0
4159.87179467, 4153.46153826, 4154.61538441, 4209.99999993, 4145.51282031, 4134.35897408, 4145.64102544, 4124.61538434, 4127.17948691, 4139.35897415, 4141.79487159, 4149.61538441, 4139.35897415, 4132.69230742,10.0
4151.66666646, 4137.56410236, 4150.89743569, 4194.35897422, 4147.05128185, 4122.94871767, 4137.30769210, 4114.87179460, 4126.41025614, 4121.28205101, 4135.64102544, 4145.12820492, 4139.87179467, 4137.43589723,10.0
4147.05128185, 4142.43589723, 4144.23076903, 4190.64102551, 4138.46153826, 4121.53846126, 4133.07692280, 4104.35897408, 4121.66666639, 4135.51282031, 4128.46153819, 4138.33333313, 4128.97435870, 4132.69230742,10.0
4158.46153826, 4164.23076903, 4153.97435877, 4208.97435891, 4142.43589723, 4136.92307672, 4144.48717928, 4118.71794844, 4127.56410229, 4158.84615364, 4139.35897415, 4145.64102544, 4129.87179460, 4127.17948691,10.0
4149.74358954, 4148.71794851, 4153.84615364, 4204.23076917, 4134.99999973, 4131.02564075, 4145.25641005, 4122.05128178, 4129.23076896, 4145.64102544, 4139.35897415, 4141.92307672, 4130.25640998, 4131.79487152,10.0
4130.12820485, 4123.97435870, 4131.79487152, 4187.94871781, 4118.58974332, 4116.92307665, 4133.58974332, 4103.20512793, 4116.66666639, 4118.20512793, 4116.28205101, 4118.71794844, 4116.53846126, 4136.15384595,10.0
4133.46153819, 4134.99999973, 4123.33333306, 4192.43589730, 4139.35897415, 4125.89743562, 4134.10256383, 4106.92307665, 4116.28205101, 4116.92307665, 4101.28205094, 4109.48717921, 4113.46153819, 4134.35897408,10.0
4139.23076903, 4146.79487159, 4133.07692280, 4195.12820499, 4150.51282031, 4133.46153819, 4136.79487159, 4121.28205101, 4126.41025614, 4123.84615357, 4099.48717914, 4114.48717921, 4119.74358947, 4130.12820485,10.0
4136.53846133, 4144.61538441, 4135.64102544, 4195.64102551, 4124.99999973, 4126.41025614, 4131.02564075, 4114.10256383, 4127.43589716, 4128.84615357, 4102.69230742, 4115.76923050, 4122.05128178, 4130.12820485,10.0
4138.33333313, 4152.30769210, 4130.38461511, 4196.79487166, 4131.53846126, 4131.79487152, 4132.94871767, 4107.94871767, 4124.61538434, 4132.56410229, 4112.82051255, 4119.48717921, 4127.05128178, 4133.58974332,10.0
4142.69230749, 4156.53846133, 4129.74358947, 4174.35897422, 4163.58974339, 4143.84615364, 4148.07692287, 4119.48717921, 4130.76923050, 4136.41025621, 4120.12820485, 4123.46153819, 4129.10256383, 4132.17948691,10.0
4143.84615364, 4148.07692287, 4130.51282024, 4146.79487159, 4160.12820492, 4143.97435877, 4158.46153826, 4132.94871767, 4143.97435877, 4151.53846133, 4119.99999973, 4120.89743562, 4123.84615357, 4132.43589716,10.0
4145.64102544, 4150.12820492, 4129.35897408, 4144.35897415, 4143.46153826, 4146.15384595, 4161.66666646, 4135.25640998, 4149.61538441, 4164.87179467, 4121.41025614, 4122.05128178, 4128.97435870, 4136.66666646,10.0
4156.15384595, 4162.43589723, 4136.15384595, 4153.58974339, 4163.58974339, 4158.46153826, 4168.71794858, 4137.17948697, 4150.12820492, 4168.58974345, 4125.25640998, 4128.33333306, 4142.30769210, 4138.20512800,10.0
4169.99999986, 4163.84615364, 4145.76923056, 4159.48717928, 4179.99999986, 4160.89743569, 4175.76923063, 4140.25641005, 4153.46153826, 4162.05128185, 4128.33333306, 4132.30769203, 4145.64102544, 4135.12820485,10.0
4170.76923063, 4159.23076903, 4148.58974339, 4158.71794851, 4162.69230749, 4154.10256390, 4174.87179474, 4139.61538441, 4153.97435877, 4149.61538441, 4131.41025614, 4136.92307672, 4143.97435877, 4131.66666639,10.0
4170.25641012, 4163.71794851, 4154.23076903, 4158.71794851, 4153.20512800, 4158.46153826, 4170.51282038, 4140.51282031, 4153.71794851, 4157.82051262, 4138.20512800, 4145.89743569, 4149.35897415, 4131.41025614,10.0
4174.61538448, 4159.48717928, 4158.20512800, 4161.28205108, 4151.92307672, 4158.71794851, 4168.71794858, 4139.48717928, 4155.76923056, 4171.02564089, 4139.23076903, 4147.17948697, 4151.53846133, 4130.38461511,10.0
4171.53846140, 4143.97435877, 4153.58974339, 4156.66666646, 4152.82051262, 4147.82051262, 4168.71794858, 4139.10256390, 4156.28205108, 4166.53846133, 4133.71794844, 4143.58974339, 4147.30769210, 4128.33333306,10.0
4170.76923063, 4148.58974339, 4156.92307672, 4156.02564082, 4166.02564082, 4147.30769210, 4166.15384595, 4138.07692287, 4149.61538441, 4161.79487159, 4137.69230749, 4150.89743569, 4152.43589723, 4131.15384588,10.0
4173.71794858, 4158.84615364, 4163.20512800, 4159.74358954, 4167.69230749, 4147.69230749, 4155.64102544, 4131.92307665, 4137.94871774, 4152.69230749, 4138.71794851, 4153.97435877, 4151.53846133, 4134.10256383,10.0
4162.05128185, 4148.20512800, 4153.84615364, 4154.23076903, 4142.82051262, 4139.35897415, 4144.87179467, 4123.20512793, 4126.15384588, 4131.02564075, 4122.43589716, 4140.12820492, 4132.43589716, 4133.46153819,10.0
4159.23076903, 4147.69230749, 4154.10256390, 4160.64102544, 4143.84615364, 4143.33333313, 4148.33333313, 4119.87179460, 4129.99999973, 4137.30769210, 4120.51282024, 4143.07692287, 4127.30769203, 4131.53846126,10.0
4175.89743576, 4165.76923056, 4168.97435884, 4178.97435884, 4168.07692287, 4153.33333313, 4158.07692287, 4123.97435870, 4148.97435877, 4164.35897415, 4139.10256390, 4163.07692287, 4141.66666646, 4129.61538434,10.0
4176.53846140, 4168.20512807, 4169.48717935, 4181.66666653, 4171.02564089, 4149.10256390, 4159.35897415, 4131.28205101, 4154.99999980, 4175.38461525, 4145.76923056, 4163.71794851, 4151.28205108, 4131.41025614,10.0
4159.23076903, 4154.48717928, 4156.02564082, 4172.05128192, 4167.17948697, 4143.07692287, 4151.53846133, 4131.92307665, 4144.48717928, 4166.41025621, 4136.92307672, 4149.48717928, 4146.92307672, 4132.94871767,10.0
4162.17948697, 4153.46153826, 4155.38461518, 4170.76923063, 4159.87179467, 4152.17948697, 4161.15384595, 4134.48717921, 4146.41025621, 4157.69230749, 4138.33333313, 4151.79487159, 4146.79487159, 4131.79487152,10.0
4178.07692294, 4158.58974339, 4165.76923056, 4174.48717935, 4159.87179467, 4164.10256390, 4183.46153833, 4148.58974339, 4161.28205108, 4165.51282031, 4146.02564082, 4161.15384595, 4152.43589723, 4133.58974332,10.0
4166.79487159, 4146.02564082, 4154.61538441, 4168.46153833, 4176.28205115, 4155.64102544, 4172.82051269, 4145.38461518, 4155.64102544, 4164.87179467, 4137.94871774, 4146.28205108, 4138.97435877, 4134.48717921,10.0
4145.76923056, 4132.17948691, 4131.53846126, 4156.92307672, 4170.64102551, 4138.58974339, 4144.87179467, 4127.56410229, 4136.53846133, 4143.97435877, 4121.53846126, 4123.84615357, 4112.69230742, 4131.28205101,10.0
4149.10256390, 4136.28205108, 4133.71794844, 4154.61538441, 4144.99999980, 4138.58974339, 4148.46153826, 4127.69230742, 4136.02564082, 4136.41025621, 4120.38461511, 4124.48717921, 4109.87179460, 4130.76923050,10.0
4160.12820492, 4147.82051262, 4148.07692287, 4163.20512800, 4134.23076896, 4144.61538441, 4159.48717928, 4131.15384588, 4140.64102544, 4143.71794851, 4128.07692280, 4134.10256383, 4123.46153819, 4131.66666639,10.0
4159.23076903, 4145.89743569, 4146.79487159, 4164.23076903, 4144.48717928, 4145.51282031, 4152.30769210, 4123.71794844, 4137.30769210, 4148.97435877, 4128.58974332, 4135.25640998, 4124.74358947, 4131.28205101,10.0
4153.71794851, 4137.30769210, 4141.28205108, 4157.82051262, 4161.66666646, 4146.02564082, 4151.53846133, 4124.23076896, 4135.89743569, 4155.12820492, 4126.41025614, 4134.35897408, 4115.64102537, 4131.02564075,10.0
4154.10256390, 4137.82051262, 4146.28205108, 4159.74358954, 4163.97435877, 4142.94871774, 4151.53846133, 4126.92307665, 4138.84615364, 4156.66666646, 4123.58974332, 4137.05128185, 4115.38461511, 4131.79487152,10.0
4159.87179467, 4144.23076903, 4152.69230749, 4163.84615364, 4142.56410236, 4139.35897415, 4138.33333313, 4121.92307665, 4139.10256390, 4153.58974339, 4122.05128178, 4140.64102544, 4125.12820485, 4132.43589716,10.0
4163.46153826, 4149.48717928, 4154.23076903, 4165.12820492, 4140.25641005, 4140.64102544, 4135.25640998, 4118.71794844, 4131.66666639, 4143.97435877, 4125.51282024, 4144.23076903, 4127.94871767, 4132.17948691,10.0
4161.79487159, 4151.41025621, 4152.30769210, 4169.23076910, 4148.07692287, 4142.56410236, 4146.02564082, 4116.41025614, 4123.84615357, 4126.66666639, 4127.94871767, 4146.92307672, 4125.89743562, 4131.92307665,10.0
4166.15384595, 4152.94871774, 4155.89743569, 4175.38461525, 4147.05128185, 4147.17948697, 4153.97435877, 4122.43589716, 4132.30769203, 4145.25641005, 4132.94871767, 4153.07692287, 4134.99999973, 4132.69230742,10.0
4176.66666653, 4155.76923056, 4169.99999986, 4181.28205115, 4167.94871774, 4153.33333313, 4156.53846133, 4135.38461518, 4151.15384595, 4178.46153833, 4147.56410236, 4165.12820492, 4145.51282031, 4135.76923056,10.0
4177.56410243, 4158.58974339, 4180.25641012, 4183.71794858, 4182.56410243, 4152.82051262, 4159.23076903, 4138.07692287, 4152.56410236, 4166.15384595, 4156.79487159, 4172.30769217, 4143.07692287, 4134.48717921,10.0
4169.48717935, 4153.97435877, 4171.53846140, 4179.74358961, 4156.15384595, 4147.69230749, 4156.41025621, 4131.79487152, 4138.20512800, 4140.12820492, 4145.51282031, 4164.35897415, 4136.02564082, 4128.71794844,10.0
4168.20512807, 4154.99999980, 4163.97435877, 4182.05128192, 4148.97435877, 4144.61538441, 4153.84615364, 4133.07692280, 4141.66666646, 4152.17948697, 4138.58974339, 4156.53846133, 4134.87179460, 4130.51282024,10.0
4171.92307679, 4161.28205108, 4169.61538448, 4188.71794858, 4158.71794851, 4146.41025621, 4159.35897415, 4135.89743569, 4156.92307672, 4169.23076910, 4148.46153826, 4157.05128185, 4143.84615364, 4132.17948691,10.0
4167.82051262, 4156.02564082, 4166.79487159, 4179.61538448, 4133.97435870, 4153.07692287, 4171.79487166, 4138.71794851, 4156.15384595, 4156.92307672, 4152.69230749, 4154.35897415, 4152.17948697, 4128.84615357,10.0
4167.82051262, 4153.97435877, 4160.64102544, 4174.87179474, 4145.51282031, 4162.82051262, 4186.79487166, 4157.82051262, 4160.12820492, 4158.46153826, 4152.30769210, 4153.58974339, 4146.79487159, 4130.38461511,10.0
4178.46153833, 4158.33333313, 4167.05128185, 4185.76923063, 4196.02564089, 4166.02564082, 4184.99999986, 4165.12820492, 4176.66666653, 4180.89743576, 4158.33333313, 4159.87179467, 4143.71794851, 4133.97435870,10.0
4172.82051269, 4152.05128185, 4160.38461518, 4179.61538448, 4179.61538448, 4152.94871774, 4160.89743569, 4133.07692280, 4158.07692287, 4171.66666653, 4146.66666646, 4147.82051262, 4133.71794844, 4132.43589716,10.0
4152.94871774, 4138.46153826, 4136.66666646, 4162.82051262, 4136.66666646, 4137.69230749, 4137.69230749, 4100.51282017, 4119.61538434, 4138.07692287, 4124.74358947, 4121.92307665, 4113.46153819, 4130.51282024,10.0
4152.82051262, 4139.61538441, 4131.28205101, 4167.30769210, 4141.02564082, 4138.46153826, 4130.25640998, 4104.61538434, 4115.38461511, 4132.17948691, 4124.87179460, 4119.74358947, 4115.25640998, 4136.92307672,10.0
4164.74358954, 4150.25641005, 4145.64102544, 4177.30769217, 4154.10256390, 4141.02564082, 4134.35897408, 4119.61538434, 4125.89743562, 4139.35897415, 4133.07692280, 4131.92307665, 4131.92307665, 4139.61538441,10.0
4158.84615364, 4145.38461518, 4145.51282031, 4169.48717935, 4138.84615364, 4136.15384595, 4137.82051262, 4121.28205101, 4122.82051255, 4128.84615357, 4127.82051255, 4129.99999973, 4131.02564075, 4132.82051255,10.0
4142.05128185, 4129.10256383, 4130.89743562, 4157.94871774, 4120.51282024, 4133.71794844, 4137.56410236, 4119.23076896, 4118.84615357, 4117.43589716, 4118.84615357, 4121.28205101, 4118.46153819, 4132.43589716,10.0
4142.30769210, 4132.17948691, 4133.20512793, 4161.28205108, 4134.23076896, 4141.02564082, 4143.33333313, 4121.79487152, 4123.71794844, 4122.05128178, 4124.74358947, 4126.41025614, 4124.10256383, 4135.89743569,10.0
4155.25641005, 4150.25641005, 4149.10256390, 4170.38461525, 4167.82051262, 4150.12820492, 4153.97435877, 4126.41025614, 4133.33333306, 4142.43589723, 4140.12820492, 4138.33333313, 4138.84615364, 4136.53846133,10.0
4157.17948697, 4149.74358954, 4149.61538441, 4169.48717935, 4163.97435877, 4143.84615364, 4155.25641005, 4125.64102537, 4139.35897415, 4154.23076903, 4139.99999980, 4138.33333313, 4133.97435870, 4135.51282031,10.0
4154.23076903, 4147.69230749, 4144.23076903, 4167.94871774, 4135.51282031, 4134.10256383, 4158.33333313, 4125.51282024, 4141.02564082, 4147.69230749, 4127.82051255, 4135.89743569, 4121.02564075, 4132.17948691,10.0
4154.87179467, 4149.61538441, 4146.92307672, 4168.84615371, 4136.92307672, 4142.30769210, 4160.64102544, 4126.28205101, 4139.48717928, 4139.74358954, 4124.48717921, 4136.79487159, 4125.12820485, 4132.82051255,10.0
4152.05128185, 4142.05128185, 4143.33333313, 4164.48717928, 4157.94871774, 4154.23076903, 4153.71794851, 4124.10256383, 4134.23076896, 4129.87179460, 4125.38461511, 4132.30769203, 4135.12820485, 4136.28205108,10.0
4147.94871774, 4141.41025621, 4135.64102544, 4163.20512800, 4166.28205108, 4153.07692287, 4153.20512800, 4118.84615357, 4128.58974332, 4131.66666639, 4123.46153819, 4127.82051255, 4132.94871767, 4132.94871767,10.0
4139.23076903, 4141.02564082, 4129.10256383, 4161.15384595, 4142.82051262, 4141.28205108, 4141.92307672, 4102.69230742, 4116.28205101, 4137.82051262, 4112.94871767, 4123.20512793, 4119.48717921, 4129.61538434,10.0
4129.35897408, 4128.46153819, 4125.76923050, 4156.15384595, 4111.28205101, 4130.25640998, 4118.33333306, 4093.58974325, 4107.43589716, 4124.87179460, 4100.64102530, 4117.43589716, 4106.53846126, 4132.94871767,10.0
4137.30769210, 4128.33333306, 4138.07692287, 4165.25641005, 4133.84615357, 4134.99999973, 4124.48717921, 4108.46153819, 4117.82051255, 4121.92307665, 4111.92307665, 4123.58974332, 4115.89743562, 4136.28205108,10.0
4146.79487159, 4140.89743569, 4149.61538441, 4177.69230756, 4164.10256390, 4144.99999980, 4143.71794851, 4116.41025614, 4127.30769203, 4139.61538441, 4125.64102537, 4131.79487152, 4129.23076896, 4135.25640998,10.0
4139.23076903, 4138.71794851, 4141.92307672, 4172.69230756, 4142.05128185, 4137.69230749, 4136.79487159, 4103.07692280, 4118.20512793, 4132.56410229, 4118.07692280, 4126.02564075, 4119.74358947, 4133.33333306,10.0
4140.25641005, 4141.79487159, 4142.17948697, 4172.05128192, 4136.79487159, 4130.64102537, 4132.82051255, 4107.69230742, 4117.56410229, 4116.66666639, 4128.07692280, 4130.51282024, 4124.23076896, 4135.25640998,10.0
4144.10256390, 4147.56410236, 4146.53846133, 4172.05128192, 4155.76923056, 4135.12820485, 4140.51282031, 4120.25640998, 4125.25640998, 4127.56410229, 4142.69230749, 4134.35897408, 4134.10256383, 4135.64102544,10.0
4130.76923050, 4133.84615357, 4131.53846126, 4159.99999980, 4139.48717928, 4133.20512793, 4136.53846133, 4112.05128178, 4118.97435870, 4135.38461518, 4124.74358947, 4115.89743562, 4116.02564075, 4132.56410229,10.0
4132.94871767, 4133.07692280, 4126.15384588, 4161.02564082, 4125.12820485, 4138.07692287, 4146.53846133, 4115.76923050, 4124.87179460, 4140.64102544, 4121.66666639, 4113.71794844, 4108.97435870, 4132.69230742,10.0
4144.74358954, 4143.71794851, 4133.33333306, 4167.69230749, 4142.69230749, 4148.58974339, 4162.56410236, 4125.89743562, 4134.35897408, 4144.10256390, 4134.87179460, 4125.76923050, 4122.30769203, 4136.41025621,10.0
4139.23076903, 4140.76923056, 4131.92307665, 4171.92307679, 4144.87179467, 4143.58974339, 4152.43589723, 4114.23076896, 4126.15384588, 4132.43589716, 4129.99999973, 4125.25640998, 4129.23076896, 4136.66666646,10.0
4137.94871774, 4143.97435877, 4137.56410236, 4192.43589730, 4132.43589716, 4138.97435877, 4147.30769210, 4112.17948691, 4128.84615357, 4143.84615364, 4136.92307672, 4133.07692280, 4136.92307672, 4130.12820485,10.0
4148.46153826, 4154.87179467, 4149.99999980, 4213.71794865, 4143.97435877, 4144.61538441, 4157.69230749, 4129.99999973, 4144.87179467, 4161.66666646, 4155.89743569, 4147.94871774, 4150.38461518, 4132.05128178,10.0
4147.56410236, 4143.97435877, 4148.07692287, 4208.46153840, 4159.48717928, 4143.20512800, 4150.12820492, 4123.97435870, 4140.38461518, 4142.56410236, 4149.10256390, 4145.25641005, 4146.41025621, 4136.15384595,10.0
4135.25640998, 4130.76923050, 4140.25641005, 4198.20512807, 4154.87179467, 4136.28205108, 4129.61538434, 4101.02564068, 4122.82051255, 4132.82051255, 4134.74358947, 4136.02564082, 4130.12820485, 4130.25640998,10.0
4130.89743562, 4139.23076903, 4142.30769210, 4204.10256404, 4132.17948691, 4135.12820485, 4124.10256383, 4099.48717914, 4120.89743562, 4152.94871774, 4137.17948697, 4135.76923056, 4130.51282024, 4129.74358947,10.0
4136.28205108, 4148.20512800, 4147.94871774, 4213.07692301, 4118.07692280, 4140.38461518, 4132.43589716, 4111.02564075, 4125.89743562, 4153.07692287, 4143.84615364, 4141.02564082, 4140.25641005, 4136.28205108,10.0
4138.97435877, 4145.25641005, 4148.20512800, 4217.30769224, 4138.71794851, 4146.92307672, 4142.82051262, 4118.46153819, 4129.35897408, 4139.74358954, 4142.56410236, 4139.99999980, 4138.46153826, 4135.76923056,10.0
4131.02564075, 4136.92307672, 4136.53846133, 4210.51282045, 4160.12820492, 4145.89743569, 4143.20512800, 4117.56410229, 4127.17948691, 4131.53846126, 4130.76923050, 4124.74358947, 4125.64102537, 4130.25640998,10.0
4122.69230742, 4135.51282031, 4123.58974332, 4201.79487173, 4149.99999980, 4140.12820492, 4135.89743569, 4110.64102537, 4118.97435870, 4119.35897408, 4119.74358947, 4111.41025614, 4115.76923050, 4131.02564075,10.0
4192.17948704, 4173.84615371, 4182.82051269, 4182.94871781, 4201.92307686, 4179.10256397, 4182.94871781, 4158.46153826, 4174.87179474, 4191.41025628, 4176.92307679, 4178.71794858, 4173.84615371, 4130.76923050,10.0
4176.66666653, 4160.38461518, 4170.89743576, 4174.35897422, 4170.12820499, 4155.64102544, 4154.87179467, 4131.15384588, 4153.58974339, 4163.46153826, 4168.07692287, 4164.99999980, 4163.07692287, 4134.74358947,10.0
4169.35897422, 4162.05128185, 4163.97435877, 4172.69230756, 4166.66666646, 4147.17948697, 4143.84615364, 4117.56410229, 4145.64102544, 4149.87179467, 4154.10256390, 4152.94871774, 4151.53846133, 4136.41025621,10.0
4179.23076910, 4171.28205115, 4166.92307672, 4179.99999986, 4186.02564089, 4162.82051262, 4157.82051262, 4129.99999973, 4151.66666646, 4168.07692287, 4149.87179467, 4156.15384595, 4142.69230749, 4132.05128178,10.0
4177.30769217, 4164.61538441, 4163.46153826, 4175.25641012, 4158.33333313, 4165.12820492, 4158.33333313, 4131.66666639, 4142.30769210, 4162.82051262, 4149.99999980, 4154.48717928, 4138.71794851, 4128.97435870,10.0
4169.87179474, 4164.87179467, 4160.64102544, 4170.25641012, 4125.25640998, 4152.94871774, 4158.46153826, 4129.87179460, 4133.84615357, 4146.66666646, 4151.15384595, 4151.15384595, 4148.46153826, 4132.56410229,10.0
4176.92307679, 4176.02564089, 4168.33333320, 4179.87179474, 4164.61538441, 4154.23076903, 4172.30769217, 4138.33333313, 4145.12820492, 4163.07692287, 4154.61538441, 4157.05128185, 4167.05128185, 4134.10256383,10.0
4176.79487166, 4170.12820499, 4168.71794858, 4185.12820499, 4206.66666660, 4160.89743569, 4172.43589730, 4142.43589723, 4155.76923056, 4173.07692294, 4155.51282031, 4157.56410236, 4162.69230749, 4131.92307665,10.0
4169.48717935, 4164.99999980, 4161.66666646, 4180.76923063, 4181.53846140, 4158.46153826, 4170.38461525, 4143.97435877, 4156.53846133, 4162.17948697, 4154.61538441, 4153.46153826, 4146.28205108, 4131.53846126,10.0
4169.48717935, 4164.99999980, 4161.66666646, 4180.76923063, 4181.53846140, 4158.46153826, 4170.38461525, 4143.97435877, 4156.53846133, 4162.17948697, 4154.61538441, 4153.46153826, 4146.28205108, 4131.53846126,10.0
4173.20512807, 4170.76923063, 4160.51282031, 4180.51282038, 4160.12820492, 4156.92307672, 4178.58974345, 4143.97435877, 4152.43589723, 4157.17948697, 4152.05128185, 4154.10256390, 4150.64102544, 4134.23076896,10.0
4175.25641012, 4164.10256390, 4163.20512800, 4180.89743576, 4185.12820499, 4158.46153826, 4173.46153833, 4138.71794851, 4150.25641005, 4157.82051262, 4148.71794851, 4151.79487159, 4154.23076903, 4133.71794844,10.0
4167.17948697, 4151.66666646, 4159.61538441, 4174.74358961, 4182.56410243, 4153.07692287, 4153.33333313, 4134.23076896, 4151.79487159, 4162.05128185, 4147.56410236, 4149.99999980, 4140.12820492, 4130.12820485,10.0
4170.89743576, 4158.20512800, 4161.53846133, 4175.38461525, 4147.82051262, 4152.30769210, 4151.41025621, 4135.12820485, 4148.46153826, 4166.92307672, 4153.71794851, 4157.30769210, 4144.48717928, 4135.51282031,10.0
4183.84615371, 4170.76923063, 4173.58974345, 4180.12820499, 4151.53846133, 4159.35897415, 4162.17948697, 4133.46153819, 4144.23076903, 4166.28205108, 4159.87179467, 4163.84615364, 4153.07692287, 4139.87179467,10.0
4178.46153833, 4163.97435877, 4171.53846140, 4169.23076910, 4166.28205108, 4148.58974339, 4147.82051262, 4120.51282024, 4136.41025621, 4151.15384595, 4155.25641005, 4158.46153826, 4135.38461518, 4134.87179460,10.0
4169.99999986, 4157.56410236, 4162.43589723, 4162.94871774, 4168.84615371, 4141.66666646, 4137.43589723, 4113.84615357, 4131.15384588, 4152.17948697, 4152.94871774, 4157.17948697, 4133.20512793, 4132.94871767,10.0
4173.71794858, 4161.41025621, 4163.33333313, 4171.02564089, 4180.38461525, 4154.74358954, 4150.38461518, 4121.79487152, 4141.79487159, 4172.69230756, 4156.66666646, 4162.69230749, 4147.69230749, 4134.48717921,10.0
4177.56410243, 4163.71794851, 4168.71794858, 4173.97435884, 4175.12820499, 4158.71794851, 4154.48717928, 4125.25640998, 4152.30769210, 4168.97435884, 4159.10256390, 4161.15384595, 4150.76923056, 4134.10256383,10.0
4186.28205115, 4173.84615371, 4178.46153833, 4178.97435884, 4161.92307672, 4156.79487159, 4155.51282031, 4131.41025614, 4155.25641005, 4166.92307672, 4169.99999986, 4166.53846133, 4163.20512800, 4133.07692280,10.0
4195.12820499, 4185.51282038, 4183.46153833, 4187.43589730, 4166.92307672, 4160.64102544, 4162.94871774, 4137.94871774, 4159.35897415, 4184.61538448, 4179.99999986, 4176.28205115, 4173.33333320, 4133.33333306,10.0
4186.02564089, 4176.66666653, 4172.05128192, 4177.56410243, 4177.05128192, 4156.28205108, 4159.35897415, 4127.43589716, 4158.20512800, 4183.07692294, 4172.30769217, 4169.10256397, 4160.51282031, 4133.33333306,10.0
4169.74358961, 4161.02564082, 4160.76923056, 4161.92307672, 4173.46153833, 4152.43589723, 4153.07692287, 4124.48717921, 4153.71794851, 4169.61538448, 4165.51282031, 4159.61538441, 4155.89743569, 4133.20512793,10.0
4163.58974339, 4157.43589723, 4160.51282031, 4160.64102544, 4169.35897422, 4156.66666646, 4158.58974339, 4138.58974339, 4156.66666646, 4174.61538448, 4167.43589723, 4160.64102544, 4167.17948697, 4134.35897408,10.0
4158.46153826, 4152.05128185, 4150.89743569, 4154.10256390, 4166.66666646, 4150.12820492, 4154.48717928, 4132.43589716, 4151.53846133, 4171.02564089, 4156.66666646, 4150.12820492, 4156.41025621, 4133.97435870,10.0
4154.74358954, 4148.20512800, 4139.74358954, 4147.30769210, 4149.48717928, 4140.25641005, 4148.46153826, 4119.23076896, 4141.92307672, 4158.07692287, 4145.89743569, 4135.89743569, 4141.79487159, 4134.48717921,10.0
4156.53846133, 4154.35897415, 4143.58974339, 4156.15384595, 4144.35897415, 4147.56410236, 4155.12820492, 4131.66666639, 4150.51282031, 4165.76923056, 4151.15384595, 4140.25641005, 4149.74358954, 4135.76923056,10.0
4154.10256390, 4156.66666646, 4148.58974339, 4160.12820492, 4164.10256390, 4153.33333313, 4155.51282031, 4138.33333313, 4154.87179467, 4169.99999986, 4153.71794851, 4144.48717928, 4152.05128185, 4133.97435870,10.0
4159.48717928, 4163.20512800, 4153.07692287, 4160.12820492, 4180.51282038, 4150.25641005, 4152.30769210, 4128.97435870, 4149.48717928, 4168.20512807, 4154.23076903, 4146.02564082, 4147.43589723, 4134.10256383,10.0
4172.30769217, 4168.71794858, 4157.30769210, 4166.92307672, 4166.66666646, 4150.25641005, 4155.12820492, 4130.38461511, 4155.51282031, 4165.38461518, 4155.89743569, 4150.38461518, 4149.35897415, 4134.99999973,10.0
4164.23076903, 4162.30769210, 4152.30769210, 4168.20512807, 4152.94871774, 4154.35897415, 4156.02564082, 4132.56410229, 4159.10256390, 4155.12820492, 4154.23076903, 4145.76923056, 4152.94871774, 4131.79487152,10.0
4152.05128185, 4158.07692287, 4151.02564082, 4164.48717928, 4172.69230756, 4157.17948697, 4156.53846133, 4128.58974332, 4152.43589723, 4160.76923056, 4156.41025621, 4141.92307672, 4150.25641005, 4131.15384588,10.0
4158.84615364, 4159.48717928, 4159.23076903, 4164.87179467, 4180.38461525, 4154.10256390, 4160.76923056, 4138.07692287, 4160.89743569, 4173.84615371, 4159.74358954, 4151.53846133, 4145.89743569, 4132.43589716,10.0
4165.38461518, 4162.30769210, 4161.92307672, 4167.17948697, 4157.30769210, 4149.74358954, 4158.33333313, 4146.15384595, 4172.05128192, 4173.33333320, 4160.25641005, 4158.33333313, 4152.43589723, 4132.05128178,10.0
4160.64102544, 4163.07692287, 4153.84615364, 4167.05128185, 4149.87179467, 4147.69230749, 4150.76923056, 4127.56410229, 4155.51282031, 4171.79487166, 4152.17948697, 4150.12820492, 4154.99999980, 4132.05128178,10.0
4152.56410236, 4153.33333313, 4144.23076903, 4157.82051262, 4159.61538441, 4150.25641005, 4151.41025621, 4115.38461511, 4135.38461518, 4157.30769210, 4134.87179460, 4136.92307672, 4140.76923056, 4132.30769203,10.0
4148.33333313, 4145.64102544, 4142.69230749, 4149.61538441, 4156.28205108, 4155.38461518, 4151.02564082, 4124.99999973, 4134.99999973, 4134.35897408, 4129.48717921, 4129.61538434, 4129.35897408, 4134.35897408,10.0
4147.94871774, 4153.46153826, 4144.48717928, 4156.53846133, 4157.82051262, 4155.64102544, 4140.89743569, 4126.79487152, 4137.43589723, 4139.48717928, 4137.17948697, 4129.23076896, 4133.07692280, 4136.15384595,10.0
4146.41025621, 4158.46153826, 4138.84615364, 4160.38461518, 4169.35897422, 4149.35897415, 4132.94871767, 4116.53846126, 4133.07692280, 4144.35897415, 4134.35897408, 4127.30769203, 4135.51282031, 4133.46153819,10.0
4143.97435877, 4147.94871774, 4133.84615357, 4147.30769210, 4152.05128185, 4139.74358954, 4134.61538434, 4115.38461511, 4133.71794844, 4132.82051255, 4128.84615357, 4123.58974332, 4134.10256383, 4130.76923050,10.0
4146.15384595, 4143.20512800, 4138.20512800, 4145.76923056, 4128.46153819, 4138.20512800, 4137.17948697, 4118.84615357, 4135.64102544, 4142.94871774, 4135.64102544, 4126.15384588, 4134.74358947, 4133.58974332,10.0
4147.69230749, 4149.48717928, 4138.58974339, 4157.05128185, 4148.07692287, 4142.56410236, 4136.15384595, 4119.99999973, 4134.48717921, 4152.82051262, 4139.61538441, 4130.76923050, 4134.48717921, 4135.76923056,10.0
4140.64102544, 4146.15384595, 4129.48717921, 4152.69230749, 4160.38461518, 4140.89743569, 4136.15384595, 4130.51282024, 4138.33333313, 4136.92307672, 4137.30769210, 4126.41025614, 4135.51282031, 4131.28205101,10.0
4138.97435877, 4139.23076903, 4126.15384588, 4147.56410236, 4138.71794851, 4137.56410236, 4137.43589723, 4133.71794844, 4142.82051262, 4132.30769203, 4138.07692287, 4121.92307665, 4136.92307672, 4130.64102537,10.0
4148.46153826, 4146.66666646, 4134.99999973, 4155.89743569, 4138.20512800, 4141.92307672, 4142.69230749, 4120.76923050, 4140.51282031, 4149.99999980, 4142.56410236, 4132.30769203, 4142.05128185, 4135.64102544,10.0
4156.28205108, 4153.84615364, 4143.97435877, 4157.43589723, 4157.17948697, 4146.15384595, 4152.05128185, 4121.15384588, 4137.82051262, 4155.12820492, 4148.07692287, 4143.71794851, 4150.76923056, 4131.66666639,10.0
4153.71794851, 4145.51282031, 4143.07692287, 4147.17948697, 4157.43589723, 4143.97435877, 4153.46153826, 4135.76923056, 4142.94871774, 4142.94871774, 4142.43589723, 4138.46153826, 4144.99999980, 4128.07692280,10.0
4141.66666646, 4132.05128178, 4126.79487152, 4135.12820485, 4151.53846133, 4141.02564082, 4139.35897415, 4128.97435870, 4138.58974339, 4134.10256383, 4125.25640998, 4119.74358947, 4123.84615357, 4132.43589716,10.0
4129.87179460, 4130.89743562, 4111.79487152, 4128.46153819, 4143.71794851, 4138.58974339, 4131.92307665, 4111.92307665, 4120.89743562, 4129.74358947, 4113.84615357, 4107.05128178, 4117.56410229, 4133.07692280,10.0
4130.38461511, 4144.74358954, 4120.76923050, 4139.99999980, 4135.89743569, 4147.17948697, 4150.51282031, 4119.61538434, 4123.84615357, 4137.82051262, 4119.10256383, 4114.87179460, 4126.66666639, 4131.41025614,10.0
4134.61538434, 4146.41025621, 4134.48717921, 4151.41025621, 4149.61538441, 4153.84615364, 4157.30769210, 4129.23076896, 4136.79487159, 4144.35897415, 4123.97435870, 4122.05128178, 4122.30769203, 4130.38461511,10.0
4132.17948691, 4135.25640998, 4135.38461518, 4142.69230749, 4157.43589723, 4138.84615364, 4131.92307665, 4122.69230742, 4127.43589716, 4128.33333306, 4119.87179460, 4117.69230742, 4122.56410229, 4130.64102537,10.0
4136.28205108, 4140.76923056, 4141.41025621, 4144.10256390, 4150.51282031, 4127.69230742, 4120.38461511, 4116.79487152, 4121.66666639, 4125.38461511, 4128.58974332, 4127.30769203, 4138.71794851, 4131.41025614,10.0
4143.58974339, 4149.99999980, 4150.12820492, 4156.79487159, 4159.23076903, 4137.69230749, 4136.66666646, 4121.02564075, 4136.15384595, 4153.58974339, 4146.15384595, 4144.48717928, 4143.58974339, 4130.51282024,10.0
4143.58974339, 4149.99999980, 4150.12820492, 4156.79487159, 4159.23076903, 4137.69230749, 4136.66666646, 4121.02564075, 4136.15384595, 4153.58974339, 4146.15384595, 4144.48717928, 4143.58974339, 4130.51282024,10.0
4136.53846133, 4142.56410236, 4143.33333313, 4155.51282031, 4154.61538441, 4144.99999980, 4143.33333313, 4132.30769203, 4143.07692287, 4168.20512807, 4146.66666646, 4138.46153826, 4139.35897415, 4129.23076896,10.0
4127.05128178, 4140.51282031, 4136.28205108, 4151.41025621, 4127.43589716, 4143.46153826, 4136.15384595, 4134.23076896, 4138.58974339, 4144.99999980, 4133.97435870, 4124.87179460, 4138.97435877, 4131.15384588,10.0
4135.12820485, 4149.23076903, 4141.92307672, 4158.33333313, 4133.71794844, 4147.94871774, 4146.41025621, 4129.48717921, 4136.02564082, 4122.94871767, 4134.61538434, 4129.99999973, 4138.07692287, 4135.51282031,10.0
4144.23076903, 4149.35897415, 4142.43589723, 4158.07692287, 4164.74358954, 4149.61538441, 4158.20512800, 4134.61538434, 4137.30769210, 4134.48717921, 4139.35897415, 4135.38461518, 4135.25640998, 4136.92307672,10.0
4136.92307672, 4136.41025621, 4130.89743562, 4145.12820492, 4152.69230749, 4137.69230749, 4142.05128185, 4141.02564082, 4140.76923056, 4152.94871774, 4130.64102537, 4123.33333306, 4137.30769210, 4134.48717921,10.0
4131.02564075, 4128.84615357, 4124.61538434, 4143.97435877, 4128.46153819, 4131.41025614, 4121.41025614, 4130.64102537, 4133.46153819, 4143.58974339, 4122.43589716, 4114.23076896, 4137.56410236, 4132.69230742,10.0
4136.02564082, 4139.61538441, 4129.35897408, 4151.53846133, 4132.69230742, 4140.89743569, 4130.38461511, 4119.10256383, 4118.07692280, 4120.76923050, 4123.46153819, 4119.35897408, 4133.46153819, 4131.66666639,10.0
4138.20512800, 4149.48717928, 4132.05128178, 4151.79487159, 4141.41025621, 4146.92307672, 4151.15384595, 4125.89743562, 4121.53846126, 4118.33333306, 4123.07692280, 4120.89743562, 4131.66666639, 4131.15384588,10.0
4136.66666646, 4143.07692287, 4130.25640998, 4151.79487159, 4145.76923056, 4145.89743569, 4154.99999980, 4136.79487159, 4131.92307665, 4122.30769203, 4119.35897408, 4117.94871767, 4133.20512793, 4134.10256383,10.0
4141.66666646, 4138.58974339, 4134.23076896, 4157.43589723, 4157.43589723, 4154.10256390, 4157.94871774, 4137.05128185, 4134.10256383, 4131.79487152, 4123.97435870, 4125.25640998, 4137.94871774, 4135.38461518,10.0
4143.58974339, 4145.51282031, 4134.35897408, 4157.94871774, 4160.38461518, 4156.02564082, 4156.79487159, 4129.10256383, 4138.33333313, 4145.12820492, 4126.79487152, 4126.92307665, 4138.20512800, 4132.69230742,10.0
4136.02564082, 4145.89743569, 4123.97435870, 4147.82051262, 4145.89743569, 4144.61538441, 4142.56410236, 4123.84615357, 4133.97435870, 4128.33333306, 4120.89743562, 4114.23076896, 4138.71794851, 4133.46153819,10.0
4136.28205108, 4141.79487159, 4126.92307665, 4146.92307672, 4149.61538441, 4148.84615364, 4140.76923056, 4126.15384588, 4127.43589716, 4119.23076896, 4125.12820485, 4115.51282024, 4143.46153826, 4136.02564082,10.0
4149.35897415, 4151.79487159, 4147.82051262, 4161.15384595, 4170.89743576, 4161.66666646, 4151.53846133, 4128.33333306, 4142.43589723, 4150.38461518, 4142.94871774, 4137.82051262, 4150.12820492, 4137.43589723,10.0
4156.79487159, 4158.97435877, 4158.84615364, 4167.30769210, 4172.17948704, 4157.43589723, 4156.28205108, 4134.61538434, 4161.66666646, 4174.74358961, 4155.89743569, 4153.71794851, 4157.56410236, 4135.89743569,10.0
4152.30769210, 4154.35897415, 4152.17948697, 4157.69230749, 4146.15384595, 4148.97435877, 4153.58974339, 4138.71794851, 4157.56410236, 4162.56410236, 4152.69230749, 4150.76923056, 4157.05128185, 4135.38461518,10.0
4152.43589723, 4157.69230749, 4147.30769210, 4151.66666646, 4128.33333306, 4155.64102544, 4158.97435877, 4135.38461518, 4148.07692287, 4144.87179467, 4152.17948697, 4143.71794851, 4159.87179467, 4135.38461518,10.0
4156.66666646, 4162.17948697, 4151.28205108, 4155.89743569, 4159.61538441, 4170.76923063, 4170.51282038, 4135.89743569, 4155.38461518, 4150.51282031, 4161.02564082, 4144.99999980, 4170.64102551, 4133.33333306,10.0
4154.35897415, 4153.84615364, 4155.64102544, 4158.97435877, 4191.02564089, 4176.41025628, 4174.10256397, 4140.64102544, 4161.02564082, 4167.30769210, 4159.87179467, 4146.66666646, 4161.28205108, 4133.20512793,10.0
4156.41025621, 4153.58974339, 4156.92307672, 4159.99999980, 4179.74358961, 4170.89743576, 4170.12820499, 4144.10256390, 4156.02564082, 4175.25641012, 4151.79487159, 4142.69230749, 4139.61538441, 4133.97435870,10.0
4165.51282031, 4163.33333313, 4151.66666646, 4159.87179467, 4171.66666653, 4167.30769210, 4172.43589730, 4149.23076903, 4158.46153826, 4172.30769217, 4153.84615364, 4138.97435877, 4146.66666646, 4134.10256383,10.0
4162.56410236, 4156.79487159, 4141.41025621, 4153.33333313, 4163.84615364, 4168.46153833, 4176.02564089, 4152.30769210, 4170.76923063, 4163.20512800, 4154.87179467, 4134.87179460, 4163.46153826, 4132.69230742,10.0
4150.51282031, 4147.56410236, 4136.41025621, 4148.07692287, 4134.23076896, 4161.53846133, 4162.82051262, 4145.76923056, 4169.61538448, 4153.97435877, 4148.97435877, 4130.51282024, 4157.17948697, 4131.79487152,10.0
4154.87179467, 4163.07692287, 4144.61538441, 4157.43589723, 4150.38461518, 4156.92307672, 4152.56410236, 4141.28205108, 4158.97435877, 4158.71794851, 4156.02564082, 4139.35897415, 4156.02564082, 4133.97435870,10.0
4163.97435877, 4170.38461525, 4149.99999980, 4162.82051262, 4190.76923063, 4160.89743569, 4156.28205108, 4138.46153826, 4159.10256390, 4170.76923063, 4160.76923056, 4148.58974339, 4161.92307672, 4133.71794844,10.0
4155.38461518, 4142.94871774, 4137.82051262, 4146.41025621, 4174.61538448, 4157.30769210, 4158.46153826, 4132.94871767, 4157.94871774, 4159.48717928, 4144.74358954, 4135.89743569, 4150.51282031, 4132.43589716,10.0
4143.97435877, 4123.20512793, 4126.28205101, 4135.51282031, 4153.58974339, 4148.58974339, 4152.69230749, 4135.64102544, 4152.43589723, 4145.51282031, 4133.07692280, 4121.92307665, 4141.66666646, 4133.46153819,10.0
4147.30769210, 4138.20512800, 4127.94871767, 4146.92307672, 4151.02564082, 4152.56410236, 4154.35897415, 4136.02564082, 4153.97435877, 4154.10256390, 4139.74358954, 4124.23076896, 4149.35897415, 4134.99999973,10.0
4152.43589723, 4151.15384595, 4131.02564075, 4157.94871774, 4139.23076903, 4160.64102544, 4162.69230749, 4132.94871767, 4153.58974339, 4156.92307672, 4141.41025621, 4126.53846126, 4152.17948697, 4137.82051262,10.0
4144.87179467, 4140.76923056, 4127.30769203, 4152.82051262, 4154.48717928, 4153.07692287, 4155.51282031, 4131.92307665, 4144.99999980, 4143.33333313, 4128.71794844, 4120.89743562, 4141.28205108, 4136.79487159,10.0
4136.28205108, 4129.99999973, 4119.61538434, 4140.64102544, 4165.76923056, 4138.58974339, 4136.92307672, 4125.12820485, 4136.15384595, 4132.82051255, 4121.92307665, 4116.28205101, 4130.89743562, 4132.17948691,10.0
4139.61538441, 4133.07692280, 4122.82051255, 4142.43589723, 4135.25640998, 4135.76923056, 4135.76923056, 4125.12820485, 4135.89743569, 4132.43589716, 4130.76923050, 4121.41025614, 4134.48717921, 4132.43589716,10.0
4150.64102544, 4145.76923056, 4139.35897415, 4158.97435877, 4134.35897408, 4143.97435877, 4148.84615364, 4137.17948697, 4143.84615364, 4142.94871774, 4144.61538441, 4131.15384588, 4147.30769210, 4132.94871767,10.0
4148.46153826, 4141.79487159, 4136.92307672, 4156.41025621, 4147.17948697, 4144.23076903, 4144.74358954, 4133.20512793, 4143.46153826, 4143.33333313, 4136.28205108, 4126.79487152, 4144.99999980, 4130.25640998,10.0
4136.92307672, 4128.71794844, 4120.25640998, 4139.87179467, 4125.64102537, 4136.92307672, 4136.28205108, 4123.71794844, 4136.66666646, 4129.99999973, 4118.97435870, 4116.66666639, 4132.17948691, 4131.28205101,10.0
4137.94871774, 4135.25640998, 4127.69230742, 4140.76923056, 4124.87179460, 4131.41025614, 4141.02564082, 4133.71794844, 4138.07692287, 4133.71794844, 4127.17948691, 4123.46153819, 4131.79487152, 4131.79487152,10.0
4141.02564082, 4141.41025621, 4138.58974339, 4144.61538441, 4142.94871774, 4129.35897408, 4141.15384595, 4135.76923056, 4140.76923056, 4145.25641005, 4137.94871774, 4131.15384588, 4139.23076903, 4129.87179460,10.0
4133.84615357, 4129.99999973, 4128.97435870, 4136.53846133, 4136.92307672, 4137.56410236, 4134.61538434, 4118.07692280, 4134.99999973, 4131.79487152, 4125.76923050, 4123.33333306, 4133.84615357, 4130.12820485,10.0
4137.94871774, 4129.48717921, 4131.41025614, 4140.76923056, 4138.97435877, 4150.76923056, 4136.15384595, 4118.46153819, 4137.94871774, 4123.46153819, 4121.15384588, 4125.12820485, 4130.89743562, 4134.10256383,10.0
4142.82051262, 4140.64102544, 4139.87179467, 4147.82051262, 4157.94871774, 4149.48717928, 4130.64102537, 4128.84615357, 4143.97435877, 4132.30769203, 4130.76923050, 4131.92307665, 4141.92307672, 4134.23076896,10.0
4121.41025614, 4128.46153819, 4118.20512793, 4129.87179460, 4148.20512800, 4129.23076896, 4106.02564075, 4115.76923050, 4125.89743562, 4120.89743562, 4116.79487152, 4113.58974332, 4135.25640998, 4129.35897408,10.0
4113.20512793, 4113.33333306, 4101.53846119, 4116.66666639, 4114.87179460, 4123.20512793, 4105.64102537, 4105.76923050, 4109.48717921, 4111.28205101, 4103.97435870, 4098.97435863, 4129.23076896, 4129.87179460,10.0
4134.87179460, 4128.71794844, 4118.33333306, 4129.48717921, 4107.82051255, 4134.48717921, 4129.61538434, 4120.12820485, 4121.28205101, 4127.82051255, 4121.66666639, 4114.10256383, 4146.28205108, 4132.43589716,10.0
4139.87179467, 4143.84615364, 4129.35897408, 4139.10256390, 4135.38461518, 4135.12820485, 4131.53846126, 4124.99999973, 4131.53846126, 4132.56410229, 4130.64102537, 4122.56410229, 4148.33333313, 4131.28205101,10.0
4126.66666639, 4135.76923056, 4122.05128178, 4134.87179460, 4146.41025621, 4127.94871767, 4119.99999973, 4114.87179460, 4126.79487152, 4120.12820485, 4122.30769203, 4110.25640998, 4129.87179460, 4130.51282024,10.0
4127.94871767, 4134.74358947, 4122.82051255, 4137.43589723, 4127.69230742, 4134.23076896, 4126.79487152, 4119.48717921, 4132.17948691, 4125.76923050, 4127.17948691, 4110.89743562, 4131.53846126, 4132.43589716,10.0
4135.64102544, 4144.23076903, 4132.82051255, 4143.20512800, 4131.15384588, 4146.41025621, 4135.38461518, 4127.82051255, 4141.02564082, 4142.30769210, 4139.48717928, 4124.61538434, 4146.41025621, 4133.58974332,10.0
4137.05128185, 4141.66666646, 4139.23076903, 4141.66666646, 4149.35897415, 4142.56410236, 4139.23076903, 4128.97435870, 4141.53846133, 4141.02564082, 4138.97435877, 4128.97435870, 4145.64102544, 4131.92307665,10.0
4136.92307672, 4135.25640998, 4138.46153826, 4139.87179467, 4142.56410236, 4132.69230742, 4136.41025621, 4126.66666639, 4138.20512800, 4124.74358947, 4132.05128178, 4124.23076896, 4141.41025621, 4133.33333306,10.0
4128.58974332, 4133.20512793, 4126.15384588, 4133.33333306, 4128.46153819, 4127.05128178, 4111.02564075, 4109.23076896, 4121.66666639, 4108.97435870, 4123.84615357, 4112.82051255, 4133.84615357, 4136.41025621,10.0
4119.61538434, 4130.76923050, 4117.05128178, 4125.12820485, 4118.20512793, 4125.64102537, 4098.33333299, 4098.33333299, 4111.92307665, 4113.97435870, 4117.82051255, 4106.53846126, 4127.05128178, 4134.23076896,10.0
4125.64102537, 4127.56410229, 4126.41025614, 4128.84615357, 4110.89743562, 4121.02564075, 4111.92307665, 4111.92307665, 4122.30769203, 4129.99999973, 4126.79487152, 4116.66666639, 4137.69230749, 4130.25640998,10.0
4137.82051262, 4130.12820485, 4141.53846133, 4136.92307672, 4126.02564075, 4116.15384588, 4118.97435870, 4120.51282024, 4126.79487152, 4133.20512793, 4138.84615364, 4127.56410229, 4145.38461518, 4130.64102537,10.0
4138.58974339, 4134.23076896, 4143.07692287, 4135.64102544, 4144.48717928, 4123.71794844, 4119.10256383, 4118.07692280, 4127.17948691, 4132.56410229, 4136.15384595, 4123.46153819, 4137.17948697, 4133.71794844,10.0
4126.15384588, 4123.20512793, 4126.66666639, 4123.46153819, 4133.20512793, 4128.33333306, 4123.07692280, 4125.51282024, 4137.69230749, 4132.43589716, 4124.99999973, 4114.35897408, 4129.99999973, 4136.53846133,10.0
4112.69230742, 4110.12820485, 4108.46153819, 4112.82051255, 4111.02564075, 4124.48717921, 4127.43589716, 4134.35897408, 4142.05128185, 4129.61538434, 4120.12820485, 4107.17948691, 4131.92307665, 4134.48717921,10.0
4111.79487152, 4118.58974332, 4110.76923050, 4114.35897408, 4105.38461511, 4125.64102537, 4129.48717921, 4133.97435870, 4139.99999980, 4136.28205108, 4123.46153819, 4103.46153819, 4133.33333306, 4132.69230742,10.0
4117.94871767, 4125.38461511, 4118.46153819, 4116.28205101, 4113.33333306, 4124.10256383, 4125.89743562, 4131.41025614, 4140.25641005, 4135.12820485, 4123.33333306, 4106.53846126, 4128.58974332, 4133.97435870,10.0
4117.43589716, 4117.43589716, 4113.33333306, 4111.41025614, 4132.43589716, 4121.66666639, 4126.15384588, 4127.94871767, 4137.82051262, 4117.30769203, 4119.23076896, 4107.94871767, 4124.87179460, 4133.46153819,10.0
4116.28205101, 4119.61538434, 4109.48717921, 4112.17948691, 4138.46153826, 4129.35897408, 4139.35897415, 4128.07692280, 4139.48717928, 4116.28205101, 4115.64102537, 4104.87179460, 4119.87179460, 4134.48717921,10.0
4118.71794844, 4121.92307665, 4108.46153819, 4111.79487152, 4117.30769203, 4128.20512793, 4131.92307665, 4123.33333306, 4135.76923056, 4126.15384588, 4111.15384588, 4102.30769196, 4114.10256383, 4132.43589716,10.0
4121.15384588, 4121.02564075, 4109.99999973, 4109.87179460, 4114.35897408, 4117.94871767, 4107.94871767, 4112.30769203, 4121.66666639, 4122.30769203, 4113.71794844, 4105.76923050, 4118.71794844, 4131.79487152,10.0
4127.05128178, 4133.46153819, 4120.51282024, 4118.20512793, 4128.46153819, 4124.87179460, 4109.74358947, 4110.25640998, 4117.30769203, 4117.30769203, 4122.69230742, 4113.33333306, 4122.17948691, 4135.76923056,10.0
4134.61538434, 4142.43589723, 4130.76923050, 4128.20512793, 4118.33333306, 4130.76923050, 4121.79487152, 4118.07692280, 4122.30769203, 4113.84615357, 4124.23076896, 4120.12820485, 4119.61538434, 4135.89743569,10.0
4138.07692287, 4144.99999980, 4135.38461518, 4136.53846133, 4123.97435870, 4126.53846126, 4124.35897408, 4126.15384588, 4124.74358947, 4111.53846126, 4124.87179460, 4127.30769203, 4128.33333306, 4135.12820485,10.0
4132.82051255, 4145.76923056, 4136.15384595, 4140.51282031, 4157.69230749, 4125.64102537, 4120.89743562, 4123.58974332, 4123.46153819, 4121.79487152, 4131.92307665, 4128.97435870, 4132.82051255, 4136.15384595,10.0
4125.25640998, 4132.94871767, 4123.97435870, 4129.10256383, 4147.05128185, 4124.87179460, 4116.28205101, 4112.94871767, 4121.41025614, 4127.43589716, 4127.17948691, 4119.48717921, 4115.25640998, 4135.76923056,10.0
4127.82051255, 4127.56410229, 4113.07692280, 4123.58974332, 4116.41025614, 4131.79487152, 4128.46153819, 4118.97435870, 4127.56410229, 4126.28205101, 4121.41025614, 4111.92307665, 4117.43589716, 4132.43589716,10.0
4128.97435870, 4133.97435870, 4111.79487152, 4128.20512793, 4126.28205101, 4137.05128185, 4136.28205108, 4135.64102544, 4136.02564082, 4123.20512793, 4125.89743562, 4112.56410229, 4136.79487159, 4132.30769203,10.0
4116.92307665, 4124.99999973, 4104.48717921, 4117.69230742, 4125.12820485, 4124.99999973, 4123.84615357, 4131.53846126, 4130.12820485, 4111.28205101, 4118.58974332, 4107.94871767, 4127.05128178, 4135.51282031,10.0
4112.43589716, 4119.10256383, 4099.23076889, 4109.74358947, 4119.10256383, 4126.79487152, 4126.53846126, 4119.10256383, 4121.79487152, 4111.79487152, 4111.02564075, 4102.94871767, 4111.66666639, 4133.84615357,10.0
4116.92307665, 4121.92307665, 4102.69230742, 4116.92307665, 4142.82051262, 4139.87179467, 4141.02564082, 4120.38461511, 4123.33333306, 4127.56410229, 4119.48717921, 4105.38461511, 4112.69230742, 4130.76923050,10.0
4111.66666639, 4112.56410229, 4099.23076889, 4112.69230742, 4135.25640998, 4125.89743562, 4124.74358947, 4115.38461511, 4122.17948691, 4123.97435870, 4117.82051255, 4102.43589709, 4113.46153819, 4131.02564075,10.0
4105.89743562, 4111.92307665, 4096.02564068, 4107.43589716, 4097.30769196, 4111.02564075, 4104.35897408, 4104.35897408, 4118.46153819, 4111.02564075, 4104.99999973, 4097.17948684, 4112.94871767, 4131.79487152,10.0
4113.33333306, 4126.53846126, 4106.02564075, 4119.48717921, 4101.92307658, 4124.35897408, 4114.87179460, 4111.41025614, 4121.02564075, 4116.15384588, 4111.79487152, 4105.51282024, 4120.51282024, 4131.79487152,10.0
4123.33333306, 4128.20512793, 4115.38461511, 4124.61538434, 4134.99999973, 4135.51282031, 4125.12820485, 4122.17948691, 4124.61538434, 4125.38461511, 4127.56410229, 4115.64102537, 4135.38461518, 4131.66666639,10.0
4123.97435870, 4123.20512793, 4114.87179460, 4116.66666639, 4126.41025614, 4129.74358947, 4116.02564075, 4116.66666639, 4126.79487152, 4133.71794844, 4125.51282024, 4115.25640998, 4133.46153819, 4133.58974332,10.0
4113.58974332, 4123.58974332, 4105.64102537, 4113.33333306, 4092.82051248, 4122.43589716, 4102.05128171, 4106.15384588, 4122.05128178, 4135.38461518, 4115.38461511, 4107.82051255, 4114.61538434, 4133.07692280,10.0
4112.17948691, 4119.10256383, 4100.64102530, 4117.17948691, 4103.33333306, 4124.10256383, 4107.69230742, 4112.43589716, 4120.38461511, 4122.17948691, 4122.30769203, 4105.25640998, 4116.28205101, 4128.84615357,10.0
4133.33333306, 4126.41025614, 4119.10256383, 4128.33333306, 4149.61538441, 4139.23076903, 4137.82051262, 4136.41025621, 4141.53846133, 4132.82051255, 4147.05128185, 4122.69230742, 4143.58974339, 4129.23076896,10.0
4140.51282031, 4139.35897415, 4130.12820485, 4128.97435870, 4152.30769210, 4141.53846133, 4148.58974339, 4143.07692287, 4155.25641005, 4158.71794851, 4149.23076903, 4133.84615357, 4145.25641005, 4134.10256383,10.0
4120.64102537, 4127.69230742, 4108.58974332, 4112.30769203, 4119.35897408, 4123.33333306, 4129.48717921, 4127.05128178, 4140.51282031, 4148.20512800, 4126.28205101, 4113.07692280, 4127.30769203, 4134.48717921,10.0
4109.61538434, 4115.25640998, 4090.25640991, 4107.17948691, 4121.02564075, 4116.53846126, 4116.53846126, 4115.64102537, 4124.10256383, 4118.71794844, 4118.71794844, 4094.48717914, 4127.17948691, 4133.07692280,10.0
4112.05128178, 4121.79487152, 4096.53846119, 4111.41025614, 4117.82051255, 4119.10256383, 4115.64102537, 4110.38461511, 4116.79487152, 4109.87179460, 4119.35897408, 4098.84615350, 4125.12820485, 4132.69230742,10.0
4108.84615357, 4124.99999973, 4102.17948684, 4111.41025614, 4083.46153812, 4117.43589716, 4115.64102537, 4107.43589716, 4112.56410229, 4107.17948691, 4109.48717921, 4102.17948684, 4116.79487152, 4132.56410229,10.0
4107.17948691, 4121.02564075, 4103.07692280, 4116.28205101, 4094.99999966, 4115.89743562, 4122.17948691, 4115.89743562, 4119.74358947, 4109.74358947, 4109.87179460, 4103.20512793, 4126.41025614, 4134.10256383,10.0
4112.82051255, 4124.61538434, 4107.56410229, 4119.23076896, 4143.33333313, 4119.61538434, 4126.92307665, 4126.02564075, 4132.17948691, 4132.82051255, 4123.33333306, 4109.10256383, 4137.69230749, 4133.71794844,10.0
4115.25640998, 4126.41025614, 4106.79487152, 4113.84615357, 4140.76923056, 4126.92307665, 4119.23076896, 4121.79487152, 4134.61538434, 4147.43589723, 4129.99999973, 4107.17948691, 4133.20512793, 4132.94871767,10.0
4120.25640998, 4130.38461511, 4110.89743562, 4118.33333306, 4107.05128178, 4135.51282031, 4124.35897408, 4126.92307665, 4145.51282031, 4139.23076903, 4138.97435877, 4112.17948691, 4137.94871774, 4132.94871767,10.0
4129.48717921, 4140.76923056, 4126.15384588, 4130.38461511, 4115.12820485, 4144.35897415, 4141.53846133, 4142.82051262, 4163.20512800, 4140.12820492, 4149.61538441, 4127.56410229, 4151.28205108, 4132.30769203,10.0
4127.56410229, 4137.69230749, 4127.56410229, 4128.84615357, 4147.56410236, 4140.12820492, 4130.51282024, 4132.05128178, 4153.46153826, 4149.99999980, 4144.48717928, 4127.43589716, 4146.53846133, 4133.20512793,10.0
4120.64102537, 4128.97435870, 4118.33333306, 4121.53846126, 4154.74358954, 4130.89743562, 4115.25640998, 4112.56410229, 4137.05128185, 4150.25641005, 4142.82051262, 4117.43589716, 4138.46153826, 4132.69230742,10.0
4136.66666646, 4145.76923056, 4129.74358947, 4131.41025614, 4143.20512800, 4144.35897415, 4144.99999980, 4131.02564075, 4154.23076903, 4155.25641005, 4158.07692287, 4126.92307665, 4151.66666646, 4132.05128178,10.0
4148.20512800, 4160.25641005, 4139.35897415, 4140.25641005, 4132.82051255, 4157.43589723, 4163.97435877, 4147.94871774, 4163.46153826, 4159.35897415, 4156.79487159, 4131.79487152, 4158.20512800, 4131.79487152,10.0
4125.51282024, 4137.82051262, 4120.64102537, 4126.41025614, 4130.38461511, 4140.51282031, 4131.02564075, 4123.07692280, 4137.82051262, 4142.30769210, 4133.58974332, 4108.58974332, 4139.74358954, 4131.41025614,10.0
4109.35897408, 4115.64102537, 4108.20512793, 4111.53846126, 4134.23076896, 4127.56410229, 4114.35897408, 4109.74358947, 4130.38461511, 4129.87179460, 4122.82051255, 4094.99999966, 4124.74358947, 4132.69230742,10.0
4117.05128178, 4120.51282024, 4111.92307665, 4109.87179460, 4141.66666646, 4138.97435877, 4129.35897408, 4125.25640998, 4137.82051262, 4128.58974332, 4124.35897408, 4101.79487145, 4121.53846126, 4132.43589716,10.0
4119.48717921, 4127.69230742, 4108.97435870, 4107.17948691, 4145.12820492, 4141.66666646, 4131.02564075, 4126.28205101, 4129.87179460, 4118.84615357, 4122.56410229, 4101.53846119, 4123.46153819, 4131.28205101,10.0
4115.38461511, 4128.33333306, 4105.89743562, 4106.28205101, 4127.17948691, 4132.69230742, 4129.10256383, 4122.82051255, 4130.12820485, 4124.74358947, 4122.17948691, 4100.64102530, 4126.53846126, 4130.76923050,10.0
4122.30769203, 4134.99999973, 4116.92307665, 4115.89743562, 4116.53846126, 4133.97435870, 4137.30769210, 4131.02564075, 4140.89743569, 4142.05128185, 4122.94871767, 4110.25640998, 4124.61538434, 4132.30769203,10.0
4130.89743562, 4138.46153826, 4126.79487152, 4121.41025614, 4131.66666639, 4146.02564082, 4138.84615364, 4128.58974332, 4137.56410236, 4137.05128185, 4124.61538434, 4115.25640998, 4120.64102537, 4134.87179460,10.0
4132.69230742, 4133.07692280, 4128.58974332, 4121.28205101, 4143.71794851, 4152.30769210, 4132.56410229, 4119.61538434, 4136.15384595, 4131.41025614, 4132.69230742, 4115.89743562, 4127.05128178, 4135.51282031,10.0
4132.69230742, 4134.61538434, 4132.30769203, 4125.64102537, 4144.87179467, 4138.97435877, 4123.33333306, 4121.28205101, 4146.79487159, 4139.87179467, 4142.82051262, 4121.92307665, 4139.10256390, 4136.53846133,10.0
4132.69230742, 4134.61538434, 4132.30769203, 4125.64102537, 4144.87179467, 4138.97435877, 4123.33333306, 4121.28205101, 4146.79487159, 4139.87179467, 4142.82051262, 4121.92307665, 4139.10256390, 4136.53846133,10.0
4127.17948691, 4133.84615357, 4127.69230742, 4123.20512793, 4146.41025621, 4129.87179460, 4111.02564075, 4115.76923050, 4141.41025621, 4134.48717921, 4140.38461518, 4119.61538434, 4139.99999980, 4135.89743569,10.0
4118.84615357, 4126.02564075, 4115.76923050, 4115.38461511, 4137.69230749, 4131.28205101, 4104.48717921, 4098.84615350, 4118.20512793, 4115.89743562, 4129.35897408, 4107.05128178, 4135.51282031, 4130.51282024,10.0
4122.43589716, 4128.07692280, 4116.79487152, 4118.33333306, 4120.76923050, 4124.74358947, 4112.17948691, 4098.58974325, 4110.64102537, 4114.87179460, 4130.89743562, 4101.66666632, 4134.35897408, 4129.48717921,10.0
4135.64102544, 4135.89743569, 4127.56410229, 4127.94871767, 4127.56410229, 4127.05128178, 4125.38461511, 4116.92307665, 4127.17948691, 4133.20512793, 4139.48717928, 4109.61538434, 4138.20512800, 4133.33333306,10.0
4133.58974332, 4130.12820485, 4121.92307665, 4123.84615357, 4146.28205108, 4135.64102544, 4125.51282024, 4124.23076896, 4131.41025614, 4142.43589723, 4129.48717921, 4113.07692280, 4136.41025621, 4132.56410229,10.0
4124.10256383, 4124.48717921, 4111.28205101, 4116.66666639, 4140.89743569, 4132.05128178, 4124.48717921, 4124.35897408, 4125.89743562, 4134.48717921, 4122.17948691, 4107.69230742, 4129.35897408, 4130.38461511,10.0
4126.66666639, 4130.25640998, 4116.66666639, 4119.74358947, 4130.89743562, 4135.12820485, 4138.84615364, 4128.46153819, 4137.69230749, 4136.15384595, 4138.84615364, 4107.17948691, 4135.76923056, 4131.53846126,10.0
4128.07692280, 4128.97435870, 4117.30769203, 4121.02564075, 4134.23076896, 4140.76923056, 4143.33333313, 4129.61538434, 4144.10256390, 4134.74358947, 4142.69230749, 4109.87179460, 4142.94871774, 4134.87179460,10.0
4121.02564075, 4124.99999973, 4108.58974332, 4114.48717921, 4127.69230742, 4131.41025614, 4131.66666639, 4129.48717921, 4134.87179460, 4107.94871767, 4123.33333306, 4104.35897408, 4128.84615357, 4133.84615357,10.0
4117.05128178, 4126.02564075, 4108.97435870, 4111.66666639, 4124.35897408, 4131.41025614, 4132.56410229, 4127.82051255, 4133.71794844, 4105.38461511, 4117.30769203, 4097.43589709, 4113.07692280, 4129.61538434,10.0
4114.99999973, 4126.92307665, 4113.97435870, 4116.79487152, 4141.79487159, 4143.07692287, 4138.71794851, 4117.94871767, 4136.02564082, 4137.43589723, 4126.41025614, 4097.43589709, 4119.23076896, 4130.89743562,10.0
4108.97435870, 4123.71794844, 4108.46153819, 4111.79487152, 4132.94871767, 4135.51282031, 4123.46153819, 4108.07692280, 4126.92307665, 4134.99999973, 4124.87179460, 4094.48717914, 4120.38461511, 4133.97435870,10.0
4105.76923050, 4114.74358947, 4099.74358940, 4099.74358940, 4107.69230742, 4121.53846126, 4102.82051255, 4107.05128178, 4117.43589716, 4101.41025607, 4114.48717921, 4087.43589709, 4115.38461511, 4133.58974332,10.0
4111.53846126, 4114.23076896, 4104.48717921, 4104.87179460, 4127.69230742, 4127.56410229, 4107.30769203, 4113.84615357, 4124.61538434, 4107.30769203, 4117.69230742, 4091.79487145, 4122.94871767, 4131.41025614,10.0
4116.53846126, 4124.99999973, 4111.66666639, 4115.25640998, 4145.51282031, 4133.58974332, 4117.43589716, 4121.02564075, 4136.92307672, 4133.58974332, 4123.20512793, 4100.89743555, 4118.33333306, 4132.43589716,10.0
4116.15384588, 4133.20512793, 4112.69230742, 4114.23076896, 4127.82051255, 4130.51282024, 4115.12820485, 4122.43589716, 4138.84615364, 4135.76923056, 4122.69230742, 4105.12820485, 4112.82051255, 4134.35897408,10.0
4117.43589716, 4129.61538434, 4118.97435870, 4110.51282024, 4128.71794844, 4128.97435870, 4121.53846126, 4121.66666639, 4137.17948697, 4138.33333313, 4127.82051255, 4109.35897408, 4127.56410229, 4130.38461511,10.0
4121.02564075, 4123.20512793, 4126.28205101, 4109.35897408, 4120.38461511, 4123.58974332, 4132.17948691, 4126.15384588, 4137.82051262, 4137.56410236, 4129.35897408, 4110.38461511, 4132.17948691, 4130.38461511,10.0
4130.38461511, 4128.71794844, 4131.41025614, 4110.89743562, 4108.58974332, 4127.17948691, 4139.74358954, 4135.51282031, 4139.48717928, 4132.69230742, 4129.87179460, 4113.97435870, 4131.02564075, 4133.20512793,10.0
4140.89743569, 4135.64102544, 4137.43589723, 4114.87179460, 4143.07692287, 4147.30769210, 4149.48717928, 4139.23076903, 4141.92307672, 4146.28205108, 4139.99999980, 4125.76923050, 4139.61538441, 4131.15384588,10.0
4138.07692287, 4134.61538434, 4136.02564082, 4114.87179460, 4160.51282031, 4149.23076903, 4145.25641005, 4130.38461511, 4140.51282031, 4148.20512800, 4143.20512800, 4125.38461511, 4138.71794851, 4130.12820485,10.0
4125.89743562, 4133.58974332, 4126.28205101, 4110.25640998, 4132.94871767, 4126.41025614, 4121.79487152, 4118.20512793, 4131.41025614, 4118.20512793, 4137.82051262, 4111.02564075, 4134.23076896, 4130.76923050,10.0
4121.28205101, 4134.35897408, 4121.02564075, 4109.35897408, 4116.92307665, 4119.23076896, 4106.92307665, 4110.89743562, 4122.30769203, 4107.43589716, 4137.43589723, 4105.76923050, 4133.97435870, 4131.53846126,10.0
4115.89743562, 4120.64102537, 4114.61538434, 4102.05128171, 4110.76923050, 4123.46153819, 4104.23076896, 4103.46153819, 4118.71794844, 4125.38461511, 4130.12820485, 4102.05128171, 4115.64102537, 4133.84615357,10.0
4106.41025614, 4108.84615357, 4104.10256383, 4092.30769196, 4110.12820485, 4120.64102537, 4104.23076896, 4100.89743555, 4118.20512793, 4123.20512793, 4118.71794844, 4091.15384581, 4104.61538434, 4134.61538434,10.0
4110.12820485, 4116.41025614, 4106.41025614, 4094.99999966, 4131.79487152, 4121.66666639, 4112.05128178, 4109.61538434, 4124.74358947, 4115.51282024, 4122.17948691, 4093.33333299, 4117.43589716, 4133.97435870,10.0
4120.89743562, 4125.38461511, 4114.61538434, 4099.10256376, 4137.43589723, 4123.97435870, 4120.76923050, 4117.94871767, 4127.82051255, 4124.23076896, 4130.12820485, 4104.87179460, 4120.25640998, 4132.69230742,10.0
4122.17948691, 4126.92307665, 4116.41025614, 4099.10256376, 4123.33333306, 4126.41025614, 4128.71794844, 4120.25640998, 4126.02564075, 4123.20512793, 4135.25640998, 4108.84615357, 4118.84615357, 4132.94871767,10.0
4118.84615357, 4126.66666639, 4113.07692280, 4099.61538427, 4118.33333306, 4128.46153819, 4138.71794851, 4124.61538434, 4132.17948691, 4121.15384588, 4138.20512800, 4107.69230742, 4128.33333306, 4133.20512793,10.0
4117.69230742, 4122.69230742, 4108.46153819, 4097.94871761, 4120.64102537, 4124.10256383, 4136.92307672, 4129.61538434, 4142.43589723, 4136.02564082, 4133.07692280, 4107.69230742, 4133.84615357, 4131.41025614,10.0
4115.76923050, 4118.20512793, 4109.35897408, 4096.53846119, 4115.76923050, 4123.58974332, 4128.71794844, 4130.76923050, 4144.23076903, 4147.94871774, 4129.61538434, 4109.23076896, 4129.87179460, 4131.15384588,10.0
4106.53846126, 4112.05128178, 4102.05128171, 4090.64102530, 4106.53846126, 4123.20512793, 4123.58974332, 4123.84615357, 4131.66666639, 4125.51282024, 4121.41025614, 4101.66666632, 4114.23076896, 4132.43589716,10.0
4097.30769196, 4101.28205094, 4087.43589709, 4078.97435863, 4098.97435863, 4113.46153819, 4117.82051255, 4116.92307665, 4119.99999973, 4095.38461504, 4105.38461511, 4085.51282017, 4101.28205094, 4130.76923050,10.0
4102.05128171, 4102.56410229, 4092.69230735, 4082.05128171, 4107.94871767, 4112.05128178, 4119.74358947, 4123.84615357, 4129.10256383, 4103.46153819, 4107.43589716, 4081.92307658, 4111.41025614, 4131.92307665,10.0
4114.87179460, 4116.92307665, 4111.92307665, 4097.17948684, 4124.87179460, 4121.02564075, 4134.23076896, 4133.58974332, 4142.94871774, 4132.30769203, 4122.05128178, 4094.74358940, 4123.20512793, 4133.97435870,10.0
4119.35897408, 4119.48717921, 4114.99999973, 4095.38461504, 4116.28205101, 4122.56410229, 4134.99999973, 4124.48717921, 4138.46153826, 4137.05128185, 4125.38461511, 4103.20512793, 4120.25640998, 4133.07692280,10.0
4122.94871767, 4119.87179460, 4114.74358947, 4091.66666632, 4106.28205101, 4122.94871767, 4122.17948691, 4110.38461511, 4135.12820485, 4129.23076896, 4127.82051255, 4109.10256383, 4123.71794844, 4132.43589716,10.0
4121.53846126, 4124.35897408, 4118.58974332, 4098.58974325, 4112.43589716, 4124.48717921, 4112.94871767, 4107.94871767, 4139.74358954, 4124.99999973, 4126.79487152, 4112.43589716, 4120.38461511, 4133.71794844,10.0
4106.15384588, 4113.71794844, 4106.92307665, 4089.61538427, 4109.10256383, 4116.79487152, 4101.28205094, 4104.35897408, 4126.28205101, 4108.46153819, 4108.46153819, 4099.23076889, 4102.94871767, 4134.10256383,10.0
4102.69230742, 4107.94871767, 4100.76923043, 4079.23076889, 4108.71794844, 4115.25640998, 4101.66666632, 4102.82051255, 4115.38461511, 4109.74358947, 4104.87179460, 4093.33333299, 4105.12820485, 4131.02564075,10.0
4118.71794844, 4121.53846126, 4114.87179460, 4089.61538427, 4120.76923050, 4127.56410229, 4127.43589716, 4120.38461511, 4134.99999973, 4136.15384595, 4125.76923050, 4109.23076896, 4119.74358947, 4129.35897408,10.0
4118.07692280, 4120.12820485, 4113.58974332, 4091.66666632, 4116.41025614, 4130.64102537, 4141.66666646, 4133.07692280, 4148.33333313, 4133.97435870, 4128.20512793, 4111.28205101, 4115.64102537, 4131.28205101,10.0
4097.30769196, 4102.30769196, 4093.58974325, 4076.53846119, 4105.12820485, 4120.89743562, 4123.97435870, 4117.82051255, 4129.35897408, 4110.12820485, 4108.97435870, 4087.82051248, 4098.84615350, 4131.79487152,10.0
4092.69230735, 4104.48717921, 4091.15384581, 4075.89743555, 4118.46153819, 4119.99999973, 4112.17948691, 4111.28205101, 4121.66666639, 4112.30769203, 4106.79487152, 4082.30769196, 4102.30769196, 4132.94871767,10.0
4095.12820478, 4112.43589716, 4092.43589709, 4080.64102530, 4119.74358947, 4120.38461511, 4114.23076896, 4123.07692280, 4133.20512793, 4124.61538434, 4111.92307665, 4090.25640991, 4113.20512793, 4132.94871767,10.0
4083.33333299, 4102.56410229, 4076.28205094, 4074.61538427, 4098.20512786, 4105.89743562, 4099.74358940, 4110.25640998, 4123.71794844, 4103.84615357, 4095.38461504, 4076.02564068, 4098.20512786, 4131.79487152,10.0
4084.74358940, 4100.76923043, 4078.84615350, 4081.41025607, 4104.61538434, 4102.43589709, 4091.02564068, 4094.87179453, 4115.64102537, 4089.87179453, 4091.15384581, 4071.92307658, 4088.84615350, 4132.43589716,10.0
4099.87179453, 4107.30769203, 4096.66666632, 4092.05128171, 4126.15384588, 4113.58974332, 4103.33333306, 4108.58974332, 4133.58974332, 4116.02564075, 4111.92307665, 4091.41025607, 4105.64102537, 4132.05128178,10.0
4101.02564068, 4107.56410229, 4094.99999966, 4090.38461504, 4125.51282024, 4113.84615357, 4104.74358947, 4115.38461511, 4138.46153826, 4134.35897408, 4116.02564075, 4096.15384581, 4112.30769203, 4133.20512793,10.0
4092.69230735, 4105.76923050, 4087.69230735, 4090.89743555, 4103.58974332, 4105.76923050, 4090.76923043, 4099.87179453, 4121.53846126, 4113.07692280, 4107.05128178, 4087.30769196, 4100.89743555, 4134.10256383,10.0
4095.51282017, 4111.53846126, 4096.53846119, 4096.66666632, 4085.25640991, 4106.66666639, 4092.17948684, 4101.41025607, 4119.35897408, 4099.74358940, 4118.07692280, 4094.74358940, 4104.99999973, 4132.56410229,10.0
4099.87179453, 4113.84615357, 4106.15384588, 4097.69230735, 4095.76923043, 4114.99999973, 4105.12820485, 4116.92307665, 4128.07692280, 4109.61538434, 4129.23076896, 4106.53846126, 4120.64102537, 4131.66666639,10.0
4096.79487145, 4112.56410229, 4104.48717921, 4097.30769196, 4114.99999973, 4114.35897408, 4103.20512793, 4112.69230742, 4124.48717921, 4109.35897408, 4122.56410229, 4102.69230742, 4115.64102537, 4131.15384588,10.0
4098.58974325, 4120.12820485, 4105.12820485, 4102.69230742, 4127.69230742, 4111.92307665, 4109.74358947, 4110.38461511, 4121.41025614, 4112.69230742, 4121.41025614, 4101.15384581, 4104.35897408, 4133.07692280,10.0
4103.58974332, 4121.53846126, 4106.41025614, 4102.43589709, 4130.76923050, 4117.94871767, 4124.99999973, 4119.10256383, 4124.99999973, 4121.53846126, 4124.74358947, 4103.58974332, 4104.61538434, 4135.51282031,10.0
4098.46153812, 4112.82051255, 4101.15384581, 4094.74358940, 4104.23076896, 4114.99999973, 4107.17948691, 4111.02564075, 4117.56410229, 4110.64102537, 4119.23076896, 4099.48717914, 4105.89743562, 4133.20512793,10.0
4090.38461504, 4111.15384588, 4098.07692273, 4092.17948684, 4079.87179453, 4099.48717914, 4079.23076889, 4097.43589709, 4104.87179460, 4100.12820478, 4113.71794844, 4095.25640991, 4102.69230742, 4130.64102537,10.0
4087.05128171, 4109.99999973, 4095.12820478, 4092.17948684, 4092.05128171, 4097.56410222, 4085.76923043, 4103.33333306, 4105.38461511, 4105.76923050, 4109.87179460, 4091.53846119, 4099.10256376, 4131.02564075,10.0
4086.92307658, 4106.79487152, 4091.53846119, 4091.53846119, 4105.25640998, 4107.43589716, 4102.17948684, 4109.99999973, 4109.10256383, 4106.28205101, 4106.41025614, 4085.89743555, 4096.79487145, 4132.05128178,10.0
4095.76923043, 4117.82051255, 4101.66666632, 4103.20512793, 4112.05128178, 4111.15384588, 4102.69230742, 4111.15384588, 4111.41025614, 4103.58974332, 4114.10256383, 4093.71794837, 4100.64102530, 4132.30769203,10.0
4101.53846119, 4123.33333306, 4112.17948691, 4111.53846126, 4123.84615357, 4111.66666639, 4101.92307658, 4115.76923050, 4117.94871767, 4106.79487152, 4125.64102537, 4108.33333306, 4110.12820485, 4133.20512793,10.0
4090.76923043, 4104.87179460, 4100.25640991, 4096.79487145, 4106.28205101, 4106.79487152, 4094.23076889, 4105.38461511, 4115.64102537, 4102.17948684, 4123.20512793, 4101.92307658, 4106.66666639, 4134.61538434,10.0
4084.61538427, 4099.61538427, 4091.79487145, 4089.10256376, 4090.38461504, 4106.28205101, 4089.23076889, 4096.92307658, 4113.07692280, 4107.82051255, 4119.99999973, 4090.89743555, 4105.38461511, 4131.92307665,10.0
4092.17948684, 4116.92307665, 4103.84615357, 4105.76923050, 4103.20512793, 4119.87179460, 4103.33333306, 4107.43589716, 4126.53846126, 4127.30769203, 4121.41025614, 4096.66666632, 4117.56410229, 4131.66666639,10.0
4093.46153812, 4127.82051255, 4107.43589716, 4115.76923050, 4103.46153819, 4122.56410229, 4110.25640998, 4107.82051255, 4130.89743562, 4117.82051255, 4118.07692280, 4099.23076889, 4119.74358947, 4134.10256383,10.0
4084.74358940, 4122.30769203, 4097.94871761, 4106.28205101, 4108.84615357, 4117.17948691, 4104.87179460, 4101.66666632, 4120.76923050, 4094.35897402, 4114.10256383, 4096.15384581, 4113.97435870, 4129.74358947,10.0
4081.79487145, 4108.46153819, 4096.02564068, 4098.07692273, 4127.56410229, 4122.30769203, 4106.53846126, 4105.25640998, 4119.99999973, 4109.87179460, 4113.97435870, 4097.69230735, 4110.51282024, 4128.58974332,10.0
4085.51282017, 4102.30769196, 4098.07692273, 4096.41025607, 4117.05128178, 4121.41025614, 4108.58974332, 4111.92307665, 4129.35897408, 4135.25640998, 4114.23076896, 4096.41025607, 4103.84615357, 4131.53846126,10.0
4098.07692273, 4117.05128178, 4102.69230742, 4100.38461504, 4103.84615357, 4113.58974332, 4109.48717921, 4121.66666639, 4138.33333313, 4130.12820485, 4120.38461511, 4098.07692273, 4107.94871767, 4132.69230742,10.0
4108.84615357, 4128.33333306, 4110.89743562, 4105.38461511, 4109.48717921, 4118.97435870, 4114.10256383, 4124.99999973, 4139.35897415, 4118.33333306, 4126.53846126, 4104.99999973, 4118.84615357, 4132.82051255,10.0
4107.69230742, 4122.17948691, 4112.05128178, 4102.56410229, 4112.94871767, 4129.23076896, 4122.30769203, 4120.51282024, 4138.58974339, 4121.02564075, 4122.17948691, 4106.15384588, 4111.79487152, 4130.51282024,10.0
4105.25640998, 4113.46153819, 4104.87179460, 4097.69230735, 4127.30769203, 4126.28205101, 4126.15384588, 4123.71794844, 4141.02564082, 4127.43589716, 4118.71794844, 4100.25640991, 4097.94871761, 4129.74358947,10.0
4101.15384581, 4108.71794844, 4098.46153812, 4095.12820478, 4128.46153819, 4116.53846126, 4117.94871767, 4119.99999973, 4132.43589716, 4122.56410229, 4115.38461511, 4090.12820478, 4095.51282017, 4131.66666639,10.0
4103.84615357, 4117.82051255, 4106.02564075, 4099.10256376, 4105.25640998, 4123.71794844, 4116.15384588, 4115.12820485, 4127.69230742, 4118.71794844, 4117.56410229, 4094.48717914, 4108.71794844, 4132.05128178,10.0
4117.43589716, 4131.79487152, 4123.46153819, 4102.94871767, 4110.51282024, 4140.89743569, 4128.07692280, 4122.30769203, 4139.74358954, 4123.97435870, 4134.35897408, 4115.25640998, 4127.56410229, 4131.53846126,10.0
4121.53846126, 4132.43589716, 4130.51282024, 4094.61538427, 4135.25640998, 4140.76923056, 4131.15384588, 4118.97435870, 4139.74358954, 4132.94871767, 4142.56410236, 4118.97435870, 4129.10256383, 4133.07692280,10.0
4111.53846126, 4119.99999973, 4123.33333306, 4083.58974325, 4140.12820492, 4123.97435870, 4116.15384588, 4109.35897408, 4128.46153819, 4135.25640998, 4129.61538434, 4102.43589709, 4118.58974332, 4133.20512793,10.0
4101.66666632, 4108.97435870, 4110.12820485, 4078.84615350, 4127.17948691, 4113.46153819, 4096.66666632, 4102.17948684, 4121.02564075, 4122.17948691, 4116.41025614, 4091.41025607, 4112.43589716, 4130.76923050,10.0
4099.10256376, 4113.20512793, 4105.76923050, 4079.35897402, 4119.87179460, 4120.12820485, 4093.58974325, 4091.53846119, 4115.25640998, 4110.51282024, 4119.23076896, 4093.20512786, 4114.10256383, 4131.66666639,10.0
4098.71794837, 4121.92307665, 4113.07692280, 4080.51282017, 4118.07692280, 4127.17948691, 4104.61538434, 4094.74358940, 4118.58974332, 4116.15384588, 4124.48717921, 4096.92307658, 4115.89743562, 4133.71794844,10.0
4095.64102530, 4115.51282024, 4113.71794844, 4072.69230735, 4100.76923043, 4122.56410229, 4110.51282024, 4109.61538434, 4124.23076896, 4117.82051255, 4123.20512793, 4096.53846119, 4114.10256383, 4132.43589716,10.0
4094.48717914, 4106.66666639, 4106.66666639, 4065.38461497, 4091.28205094, 4117.94871767, 4110.76923050, 4111.02564075, 4119.99999973, 4111.79487152, 4123.71794844, 4096.15384581, 4114.99999973, 4131.66666639,10.0
4103.84615357, 4115.89743562, 4109.87179460, 4074.23076889, 4122.69230742, 4126.66666639, 4120.76923050, 4115.89743562, 4130.25640998, 4132.30769203, 4127.94871767, 4103.33333306, 4118.20512793, 4131.92307665,10.0
4110.12820485, 4118.33333306, 4116.28205101, 4080.76923043, 4152.05128185, 4135.76923056, 4130.38461511, 4125.64102537, 4147.30769210, 4145.25641005, 4129.74358947, 4109.74358947, 4118.84615357, 4131.79487152,10.0
4106.53846126, 4111.41025614, 4114.61538434, 4075.25640991, 4134.99999973, 4130.51282024, 4128.07692280, 4120.64102537, 4141.92307672, 4122.43589716, 4130.38461511, 4109.74358947, 4122.56410229, 4133.84615357,10.0
4105.38461511, 4117.69230742, 4117.05128178, 4078.07692273, 4114.61538434, 4124.87179460, 4122.94871767, 4118.97435870, 4137.05128185, 4123.58974332, 4134.87179460, 4110.89743562, 4124.48717921, 4131.79487152,10.0
4101.02564068, 4118.20512793, 4116.15384588, 4084.23076889, 4119.87179460, 4124.61538434, 4113.33333306, 4116.53846126, 4138.33333313, 4141.53846133, 4130.89743562, 4105.76923050, 4110.64102537, 4129.35897408,10.0
4091.15384581, 4103.07692280, 4103.97435870, 4077.17948684, 4112.56410229, 4126.79487152, 4103.58974332, 4106.66666639, 4122.82051255, 4121.02564075, 4112.82051255, 4093.46153812, 4094.87179453, 4134.35897408,10.0
4087.30769196, 4096.15384581, 4095.76923043, 4066.02564061, 4090.12820478, 4121.41025614, 4093.33333299, 4099.35897402, 4108.07692280, 4088.46153812, 4094.23076889, 4083.84615350, 4093.07692273, 4133.97435870,10.0
4085.89743555, 4099.10256376, 4093.84615350, 4061.79487138, 4087.69230735, 4108.07692280, 4074.23076889, 4088.71794837, 4102.30769196, 4081.79487145, 4090.38461504, 4079.10256376, 4093.71794837, 4128.71794844,10.0
4086.53846119, 4101.92307658, 4099.99999966, 4069.74358940, 4109.10256383, 4108.71794844, 4071.92307658, 4086.41025607, 4099.61538427, 4094.48717914, 4108.71794844, 4086.66666632, 4098.46153812, 4131.41025614,10.0
4099.23076889, 4110.12820485, 4114.99999973, 4083.58974325, 4129.99999973, 4125.12820485, 4096.66666632, 4105.12820485, 4113.58974332, 4122.43589716, 4126.53846126, 4101.79487145, 4107.30769203, 4134.23076896,10.0
4103.07692280, 4110.89743562, 4111.66666639, 4077.05128171, 4114.74358947, 4129.61538434, 4111.15384588, 4113.07692280, 4120.64102537, 4126.79487152, 4115.89743562, 4096.66666632, 4099.23076889, 4131.28205101,10.0
4086.79487145, 4099.10256376, 4089.99999966, 4058.97435856, 4086.79487145, 4120.51282024, 4102.56410229, 4100.25640991, 4108.71794844, 4086.92307658, 4099.61538427, 4078.20512786, 4088.20512786, 4130.89743562,10.0
4087.43589709, 4105.51282024, 4095.12820478, 4068.97435856, 4104.23076896, 4129.87179460, 4111.41025614, 4110.25640998, 4119.61538434, 4086.28205094, 4111.02564075, 4085.89743555, 4103.71794844, 4135.76923056,10.0
4104.48717921, 4123.20512793, 4115.76923050, 4087.30769196, 4135.76923056, 4149.10256390, 4136.41025621, 4134.48717921, 4146.66666646, 4136.53846133, 4126.41025614, 4103.97435870, 4119.10256383, 4133.84615357,10.0
4099.99999966, 4113.71794844, 4107.94871767, 4078.71794837, 4124.23076896, 4143.84615364, 4134.87179460, 4132.82051255, 4141.66666646, 4144.10256390, 4117.43589716, 4095.89743555, 4104.48717921, 4130.89743562,10.0
4091.02564068, 4102.17948684, 4097.82051248, 4070.64102530, 4113.84615357, 4135.51282031, 4129.10256383, 4131.53846126, 4134.35897408, 4108.58974332, 4107.05128178, 4088.20512786, 4091.15384581, 4134.99999973,10.0
4098.97435863, 4114.23076896, 4106.53846126, 4080.76923043, 4133.20512793, 4141.66666646, 4136.41025621, 4136.92307672, 4142.82051262, 4102.69230742, 4109.48717921, 4097.17948684, 4096.15384581, 4133.20512793,10.0
4101.53846119, 4120.64102537, 4109.99999973, 4086.41025607, 4120.64102537, 4134.99999973, 4121.92307665, 4114.99999973, 4128.33333306, 4119.87179460, 4110.64102537, 4099.48717914, 4099.10256376, 4129.99999973,10.0
4101.02564068, 4113.46153819, 4112.30769203, 4084.48717914, 4107.17948691, 4126.53846126, 4099.61538427, 4096.92307658, 4111.02564075, 4117.82051255, 4114.61538434, 4098.97435863, 4100.25640991, 4133.33333306,10.0
4108.58974332, 4112.17948691, 4120.38461511, 4082.69230735, 4128.58974332, 4140.25641005, 4109.35897408, 4115.64102537, 4122.43589716, 4114.87179460, 4122.17948691, 4103.58974332, 4098.84615350, 4132.69230742,10.0
4105.25640998, 4110.25640998, 4114.99999973, 4074.99999966, 4124.35897408, 4140.51282031, 4113.46153819, 4124.23076896, 4130.12820485, 4116.66666639, 4117.82051255, 4099.23076889, 4091.02564068, 4130.38461511,10.0
