AF3,F7,F3,FC5,T7,P7,O1,O2,P8,T8,FC6,F4,F8,AF4,Label
4144.48717928, 4145.76923056, 4167.30769210, 4161.41025621, 4137.17948697, 4125.76923050, 4126.28205101, 4116.28205101, 4116.66666639, 4137.69230749, 4141.66666646, 4154.74358954, 4132.05128178, 4123.58974332,12.0
4128.58974332, 4130.51282024, 4153.07692287, 4153.58974339, 4119.87179460, 4112.43589716, 4102.82051255, 4092.56410222, 4091.41025607, 4117.94871767, 4132.82051255, 4143.46153826, 4120.89743562, 4122.94871767,12.0
4127.17948691, 4125.38461511, 4156.41025621, 4149.10256390, 4117.56410229, 4107.30769203, 4102.30769196, 4111.28205101, 4111.79487152, 4128.84615357, 4145.25641005, 4143.20512800, 4130.38461511, 4122.56410229,12.0
4143.33333313, 4133.97435870, 4169.87179474, 4152.82051262, 4123.46153819, 4113.84615357, 4119.10256383, 4131.92307665, 4131.79487152, 4145.12820492, 4155.12820492, 4157.05128185, 4142.17948697, 4121.28205101,12.0
4154.10256390, 4140.64102544, 4177.69230756, 4160.12820492, 4122.43589716, 4122.94871767, 4127.82051255, 4131.79487152, 4136.79487159, 4146.53846133, 4153.46153826, 4169.10256397, 4140.64102544, 4120.64102537,12.0
4147.17948697, 4134.23076896, 4174.23076910, 4157.30769210, 4118.71794844, 4122.30769203, 4120.12820485, 4126.28205101, 4135.76923056, 4140.38461518, 4146.15384595, 4159.87179467, 4134.10256383, 4122.94871767,12.0
4135.76923056, 4126.02564075, 4164.35897415, 4147.05128185, 4118.97435870, 4115.51282024, 4108.84615357, 4117.17948691, 4121.92307665, 4126.66666639, 4133.33333306, 4144.61538441, 4129.23076896, 4124.61538434,12.0
4139.61538441, 4134.10256383, 4166.02564082, 4152.82051262, 4130.12820485, 4122.43589716, 4114.74358947, 4116.79487152, 4118.20512793, 4123.84615357, 4134.35897408, 4151.28205108, 4131.15384588, 4123.84615357,12.0
4145.38461518, 4139.35897415, 4172.82051269, 4160.51282031, 4141.15384595, 4132.43589716, 4122.82051255, 4119.74358947, 4124.99999973, 4134.48717921, 4146.53846133, 4157.17948697, 4135.38461518, 4120.76923050,12.0
4130.12820485, 4126.66666639, 4159.35897415, 4148.84615364, 4130.76923050, 4119.74358947, 4108.20512793, 4108.97435870, 4116.02564075, 4129.99999973, 4141.02564082, 4140.89743569, 4130.51282024, 4120.25640998,12.0
4114.35897408, 4116.79487152, 4138.71794851, 4136.28205108, 4110.64102537, 4103.33333306, 4094.35897402, 4094.23076889, 4103.33333306, 4116.41025614, 4128.71794844, 4126.41025614, 4122.17948691, 4122.56410229,12.0
4111.79487152, 4118.46153819, 4132.05128178, 4136.53846133, 4109.35897408, 4104.99999973, 4101.66666632, 4093.07692273, 4103.33333306, 4113.97435870, 4128.46153819, 4126.28205101, 4119.87179460, 4121.41025614,12.0
4111.15384588, 4123.07692280, 4129.35897408, 4142.43589723, 4116.92307665, 4110.25640998, 4105.38461511, 4096.66666632, 4103.46153819, 4118.97435870, 4133.20512793, 4127.56410229, 4120.89743562, 4119.61538434,12.0
4107.43589716, 4118.84615357, 4124.48717921, 4139.35897415, 4108.46153819, 4101.79487145, 4095.51282017, 4101.15384581, 4099.48717914, 4116.92307665, 4128.46153819, 4120.76923050, 4116.41025614, 4119.99999973,12.0
4113.33333306, 4118.07692280, 4130.51282024, 4136.28205108, 4106.41025614, 4101.15384581, 4101.28205094, 4122.94871767, 4115.89743562, 4118.58974332, 4127.56410229, 4122.30769203, 4120.38461511, 4124.48717921,12.0
4128.71794844, 4134.10256383, 4146.53846133, 4149.35897415, 4123.33333306, 4113.58974332, 4114.23076896, 4134.61538434, 4132.94871767, 4131.53846126, 4142.05128185, 4139.74358954, 4135.76923056, 4128.33333306,12.0
4132.30769203, 4140.64102544, 4151.02564082, 4158.46153826, 4130.12820485, 4110.76923050, 4104.74358947, 4111.02564075, 4113.33333306, 4132.82051255, 4149.10256390, 4146.15384595, 4138.84615364, 4124.35897408,12.0
4124.48717921, 4128.71794844, 4143.97435877, 4148.33333313, 4118.07692280, 4103.71794844, 4094.74358940, 4097.05128171, 4097.56410222, 4119.35897408, 4137.43589723, 4135.12820485, 4129.74358947, 4119.35897408,12.0
4128.46153819, 4128.46153819, 4146.53846133, 4143.71794851, 4120.51282024, 4116.28205101, 4108.20512793, 4117.05128178, 4115.38461511, 4119.23076896, 4130.38461511, 4134.35897408, 4130.89743562, 4118.84615357,12.0
4130.64102537, 4135.25640998, 4151.41025621, 4144.74358954, 4127.43589716, 4120.25640998, 4112.82051255, 4120.76923050, 4115.25640998, 4127.17948691, 4134.74358947, 4137.69230749, 4133.97435870, 4123.20512793,12.0
4119.74358947, 4128.07692280, 4149.48717928, 4133.71794844, 4110.25640998, 4108.71794844, 4103.20512793, 4107.05128178, 4100.76923043, 4121.92307665, 4138.33333313, 4130.38461511, 4127.05128178, 4125.89743562,12.0
4124.74358947, 4130.38461511, 4155.38461518, 4129.10256383, 4106.15384588, 4115.64102537, 4112.30769203, 4116.41025614, 4117.17948691, 4127.82051255, 4150.25641005, 4137.82051262, 4130.25640998, 4124.48717921,12.0
4135.38461518, 4138.71794851, 4156.15384595, 4131.66666639, 4123.46153819, 4124.99999973, 4120.76923050, 4122.30769203, 4126.66666639, 4139.61538441, 4154.48717928, 4148.71794851, 4138.58974339, 4126.66666639,12.0
4121.02564075, 4128.20512793, 4136.92307672, 4122.17948691, 4126.92307665, 4112.05128178, 4107.30769203, 4113.07692280, 4108.84615357, 4129.35897408, 4139.87179467, 4134.87179460, 4131.28205101, 4126.28205101,12.0
4102.82051255, 4121.53846126, 4128.07692280, 4112.94871767, 4119.99999973, 4102.69230742, 4099.61538427, 4112.43589716, 4102.56410229, 4117.94871767, 4131.79487152, 4119.48717921, 4118.97435870, 4121.15384588,12.0
4097.05128171, 4125.12820485, 4134.35897408, 4112.05128178, 4114.10256383, 4107.43589716, 4106.53846126, 4113.46153819, 4108.71794844, 4122.05128178, 4133.20512793, 4117.94871767, 4120.12820485, 4120.64102537,12.0
4095.38461504, 4120.76923050, 4127.69230742, 4108.46153819, 4105.25640998, 4111.53846126, 4111.92307665, 4108.20512793, 4106.28205101, 4127.56410229, 4135.38461518, 4113.20512793, 4126.15384588, 4120.51282024,12.0
4099.10256376, 4121.53846126, 4124.35897408, 4107.94871767, 4111.15384588, 4112.69230742, 4114.48717921, 4113.71794844, 4107.30769203, 4128.84615357, 4138.46153826, 4114.10256383, 4127.05128178, 4120.51282024,12.0
4098.46153812, 4125.12820485, 4133.58974332, 4110.25640998, 4120.76923050, 4109.48717921, 4112.17948691, 4117.69230742, 4111.41025614, 4122.43589716, 4135.25640998, 4118.97435870, 4120.89743562, 4122.69230742,12.0
4088.58974325, 4118.58974332, 4135.25640998, 4106.53846126, 4110.89743562, 4111.92307665, 4113.33333306, 4116.92307665, 4118.58974332, 4119.10256383, 4133.33333306, 4113.71794844, 4116.28205101, 4121.53846126,12.0
4094.99999966, 4119.35897408, 4138.46153826, 4110.12820485, 4114.74358947, 4126.28205101, 4130.89743562, 4137.17948697, 4143.07692287, 4136.79487159, 4142.94871774, 4116.15384588, 4125.38461511, 4121.28205101,12.0
4108.33333306, 4125.76923050, 4146.15384595, 4118.33333306, 4127.94871767, 4128.20512793, 4136.41025621, 4142.30769210, 4147.43589723, 4142.56410236, 4139.35897415, 4121.79487152, 4127.56410229, 4121.28205101,12.0
4106.92307665, 4121.92307665, 4141.53846133, 4116.92307665, 4117.94871767, 4117.05128178, 4119.35897408, 4116.79487152, 4122.69230742, 4121.15384588, 4124.10256383, 4115.51282024, 4117.69230742, 4121.15384588,12.0
4105.76923050, 4117.17948691, 4133.58974332, 4112.30769203, 4111.53846126, 4118.46153819, 4118.58974332, 4118.46153819, 4125.25640998, 4121.41025614, 4125.89743562, 4112.56410229, 4116.41025614, 4121.15384588,12.0
4111.79487152, 4119.35897408, 4138.33333313, 4116.53846126, 4122.69230742, 4125.64102537, 4129.61538434, 4138.07692287, 4142.30769210, 4138.07692287, 4134.10256383, 4118.84615357, 4120.89743562, 4121.92307665,12.0
4108.46153819, 4114.99999973, 4140.25641005, 4117.05128178, 4117.43589716, 4116.92307665, 4117.69230742, 4119.23076896, 4120.64102537, 4127.94871767, 4127.82051255, 4116.28205101, 4116.28205101, 4124.23076896,12.0
4098.33333299, 4103.97435870, 4127.69230742, 4105.12820485, 4101.28205094, 4107.17948691, 4103.71794844, 4090.64102530, 4092.43589709, 4109.74358947, 4117.94871767, 4105.51282024, 4110.51282024, 4121.15384588,12.0
4108.07692280, 4110.76923050, 4129.99999973, 4107.69230742, 4111.28205101, 4118.58974332, 4118.20512793, 4109.23076896, 4107.69230742, 4119.87179460, 4120.64102537, 4111.66666639, 4119.87179460, 4120.64102537,12.0
4130.64102537, 4129.10256383, 4147.94871774, 4124.74358947, 4130.25640998, 4131.28205101, 4133.07692280, 4138.84615364, 4136.66666646, 4139.48717928, 4131.15384588, 4126.02564075, 4130.38461511, 4121.15384588,12.0
4126.28205101, 4119.10256383, 4141.41025621, 4114.87179460, 4119.87179460, 4118.84615357, 4119.10256383, 4135.38461518, 4138.84615364, 4141.92307672, 4132.69230742, 4117.56410229, 4122.94871767, 4115.25640998,12.0
4102.17948684, 4094.48717914, 4122.82051255, 4094.61538427, 4104.48717921, 4102.94871767, 4099.74358940, 4118.84615357, 4127.69230742, 4132.30769203, 4124.48717921, 4098.97435863, 4112.56410229, 4117.05128178,12.0
4099.48717914, 4097.30769196, 4127.56410229, 4102.05128171, 4103.97435870, 4104.99999973, 4099.61538427, 4109.87179460, 4119.99999973, 4124.48717921, 4116.28205101, 4098.46153812, 4113.20512793, 4124.99999973,12.0
4102.82051255, 4099.99999966, 4128.71794844, 4101.79487145, 4092.56410222, 4107.05128178, 4100.25640991, 4104.99999973, 4110.76923050, 4116.02564075, 4107.17948691, 4094.74358940, 4108.58974332, 4123.84615357,12.0
4094.35897402, 4088.33333299, 4118.71794844, 4088.46153812, 4087.05128171, 4104.23076896, 4097.43589709, 4107.17948691, 4106.15384588, 4109.99999973, 4102.43589709, 4086.41025607, 4102.05128171, 4117.69230742,12.0
4097.05128171, 4089.61538427, 4120.12820485, 4093.33333299, 4103.46153819, 4107.69230742, 4102.05128171, 4108.58974332, 4108.58974332, 4107.30769203, 4103.07692280, 4090.64102530, 4104.35897408, 4120.25640998,12.0
4096.41025607, 4087.56410222, 4113.07692280, 4092.30769196, 4098.71794837, 4101.41025607, 4094.23076889, 4091.15384581, 4092.82051248, 4093.97435863, 4091.92307658, 4081.28205094, 4096.66666632, 4125.12820485,12.0
4091.02564068, 4084.48717914, 4106.79487152, 4084.23076889, 4082.94871761, 4093.20512786, 4082.69230735, 4083.71794837, 4076.53846119, 4086.41025607, 4083.84615350, 4071.66666632, 4089.74358940, 4119.48717921,12.0
4106.02564075, 4097.69230735, 4124.74358947, 4098.33333299, 4098.84615350, 4102.94871767, 4095.51282017, 4106.28205101, 4096.28205094, 4102.56410229, 4101.53846119, 4094.61538427, 4106.15384588, 4117.17948691,12.0
4123.58974332, 4107.05128178, 4139.35897415, 4111.15384588, 4113.07692280, 4108.20512793, 4104.10256383, 4113.58974332, 4112.94871767, 4116.79487152, 4125.12820485, 4116.15384588, 4126.28205101, 4123.46153819,12.0
4125.38461511, 4110.89743562, 4137.82051262, 4108.97435870, 4106.02564075, 4103.58974332, 4096.92307658, 4105.64102537, 4106.02564075, 4121.02564075, 4132.43589716, 4116.41025614, 4129.23076896, 4122.82051255,12.0
4125.64102537, 4118.33333306, 4138.07692287, 4112.82051255, 4105.89743562, 4103.84615357, 4100.76923043, 4119.10256383, 4110.89743562, 4128.07692280, 4131.28205101, 4119.74358947, 4125.51282024, 4121.79487152,12.0
4117.43589716, 4111.41025614, 4135.76923056, 4111.28205101, 4109.10256383, 4102.69230742, 4105.12820485, 4129.10256383, 4115.89743562, 4126.41025614, 4127.82051255, 4117.17948691, 4120.12820485, 4121.15384588,12.0
4103.07692280, 4102.05128171, 4127.94871767, 4103.46153819, 4107.56410229, 4099.99999966, 4099.87179453, 4116.28205101, 4109.10256383, 4119.87179460, 4119.10256383, 4101.92307658, 4116.66666639, 4119.10256383,12.0
4104.35897408, 4109.74358947, 4128.46153819, 4101.02564068, 4109.61538434, 4106.79487152, 4103.97435870, 4111.66666639, 4114.48717921, 4123.33333306, 4112.17948691, 4097.56410222, 4119.10256383, 4122.69230742,12.0
4107.56410229, 4112.56410229, 4127.94871767, 4098.97435863, 4112.30769203, 4109.35897408, 4111.66666639, 4119.99999973, 4121.41025614, 4124.61538434, 4114.87179460, 4100.51282017, 4120.38461511, 4122.43589716,12.0
4103.58974332, 4101.15384581, 4122.94871767, 4096.92307658, 4107.43589716, 4096.79487145, 4106.66666639, 4117.30769203, 4112.17948691, 4118.97435870, 4125.25640998, 4099.74358940, 4123.46153819, 4122.05128178,12.0
4097.30769196, 4090.51282017, 4117.17948691, 4084.74358940, 4094.61538427, 4085.89743555, 4093.84615350, 4101.15384581, 4098.58974325, 4115.51282024, 4127.17948691, 4093.97435863, 4123.33333306, 4122.82051255,12.0
4086.15384581, 4080.64102530, 4108.33333306, 4062.94871754, 4081.28205094, 4085.12820478, 4084.74358940, 4089.35897402, 4090.89743555, 4114.74358947, 4129.61538434, 4088.46153812, 4119.35897408, 4118.46153819,12.0
4085.64102530, 4078.33333299, 4111.66666639, 4061.02564061, 4082.56410222, 4090.64102530, 4087.69230735, 4096.79487145, 4096.41025607, 4121.66666639, 4156.15384595, 4100.38461504, 4128.07692280, 4122.30769203,12.0
4094.10256376, 4083.33333299, 4116.15384588, 4064.99999959, 4090.64102530, 4091.41025607, 4095.12820478, 4108.84615357, 4108.33333306, 4130.38461511, 4173.97435884, 4109.99999973, 4136.02564082, 4126.02564075,12.0
4088.33333299, 4083.46153812, 4106.28205101, 4050.89743548, 4089.87179453, 4090.38461504, 4097.05128171, 4108.97435870, 4114.35897408, 4130.38461511, 4160.12820492, 4096.53846119, 4129.87179460, 4119.23076896,12.0
4077.17948684, 4077.94871761, 4095.38461504, 4041.28205087, 4088.84615350, 4092.56410222, 4101.28205094, 4109.99999973, 4119.61538434, 4130.89743562, 4143.20512800, 4083.20512786, 4122.17948691, 4120.64102537,12.0
4080.51282017, 4074.23076889, 4089.99999966, 4045.89743548, 4092.30769196, 4095.12820478, 4109.23076896, 4118.71794844, 4125.25640998, 4131.79487152, 4137.82051262, 4083.84615350, 4119.10256383, 4126.15384588,12.0
4087.69230735, 4076.79487145, 4086.41025607, 4046.41025600, 4092.82051248, 4097.56410222, 4107.17948691, 4119.35897408, 4120.89743562, 4127.56410229, 4136.28205108, 4084.61538427, 4120.12820485, 4123.46153819,12.0
4084.99999966, 4077.30769196, 4084.99999966, 4041.53846113, 4087.56410222, 4096.53846119, 4097.69230735, 4108.07692280, 4110.89743562, 4122.82051255, 4134.61538434, 4077.82051248, 4120.25640998, 4120.38461511,12.0
4073.58974325, 4067.82051241, 4081.02564068, 4036.02564054, 4076.15384581, 4088.46153812, 4089.87179453, 4098.07692273, 4101.66666632, 4115.51282024, 4127.82051255, 4068.84615343, 4109.74358947, 4121.28205101,12.0
4073.97435863, 4066.15384574, 4081.92307658, 4034.61538413, 4078.71794837, 4087.05128171, 4091.28205094, 4096.92307658, 4095.89743555, 4109.74358947, 4122.94871767, 4071.41025607, 4104.87179460, 4120.76923050,12.0
4095.25640991, 4081.28205094, 4098.33333299, 4040.51282010, 4094.99999966, 4100.76923043, 4101.15384581, 4104.23076896, 4106.66666639, 4119.61538434, 4133.46153819, 4087.82051248, 4119.87179460, 4119.99999973,12.0
4102.30769196, 4086.66666632, 4104.10256383, 4039.74358933, 4086.53846119, 4102.43589709, 4102.69230742, 4108.46153819, 4113.58974332, 4127.43589716, 4133.84615357, 4091.28205094, 4124.10256383, 4123.33333306,12.0
4089.87179453, 4078.46153812, 4093.58974325, 4034.10256362, 4074.23076889, 4093.33333299, 4103.20512793, 4111.28205101, 4102.56410229, 4117.69230742, 4119.99999973, 4080.38461504, 4113.20512793, 4121.92307665,12.0
4096.02564068, 4084.35897402, 4098.71794837, 4041.92307651, 4099.61538427, 4106.02564075, 4123.07692280, 4123.97435870, 4109.99999973, 4122.43589716, 4122.56410229, 4087.17948684, 4120.38461511, 4119.99999973,12.0
4106.02564075, 4088.58974325, 4104.99999973, 4045.76923036, 4116.41025614, 4121.28205101, 4136.92307672, 4128.97435870, 4127.17948691, 4130.76923050, 4120.51282024, 4092.94871761, 4127.82051255, 4124.10256383,12.0
4093.71794837, 4077.17948684, 4090.76923043, 4033.07692259, 4097.56410222, 4114.61538434, 4129.99999973, 4125.89743562, 4125.51282024, 4121.15384588, 4102.82051255, 4077.43589709, 4114.99999973, 4124.87179460,12.0
4086.66666632, 4076.41025607, 4078.33333299, 4026.79487131, 4090.64102530, 4107.82051255, 4123.58974332, 4127.56410229, 4123.97435870, 4120.51282024, 4099.10256376, 4069.10256369, 4110.76923050, 4121.92307665,12.0
4089.74358940, 4079.23076889, 4076.02564068, 4029.87179439, 4093.07692273, 4106.15384588, 4113.20512793, 4117.69230742, 4122.30769203, 4123.84615357, 4102.56410229, 4072.69230735, 4115.12820485, 4119.99999973,12.0
4082.94871761, 4071.15384581, 4068.84615343, 4026.92307644, 4082.43589709, 4096.92307658, 4098.58974325, 4102.69230742, 4107.30769203, 4111.79487152, 4094.10256376, 4068.58974318, 4108.20512793, 4124.61538434,12.0
4081.41025607, 4071.53846119, 4067.69230728, 4026.92307644, 4080.51282017, 4093.84615350, 4099.23076889, 4107.05128178, 4107.30769203, 4111.66666639, 4093.46153812, 4069.35897395, 4105.51282024, 4122.56410229,12.0
4089.99999966, 4076.41025607, 4076.92307658, 4031.92307644, 4083.20512786, 4094.23076889, 4100.12820478, 4112.69230742, 4121.41025614, 4124.23076896, 4104.74358947, 4077.43589709, 4109.99999973, 4118.58974332,12.0
4097.17948684, 4078.46153812, 4085.38461504, 4041.79487138, 4083.33333299, 4091.79487145, 4091.15384581, 4104.10256383, 4117.69230742, 4127.05128178, 4109.35897408, 4085.38461504, 4112.94871767, 4125.12820485,12.0
4113.46153819, 4097.82051248, 4100.38461504, 4057.05128164, 4100.25640991, 4106.02564075, 4106.92307665, 4119.61538434, 4129.35897408, 4141.15384595, 4121.28205101, 4102.94871767, 4128.20512793, 4123.71794844,12.0
4119.99999973, 4107.05128178, 4108.33333306, 4054.99999959, 4110.38461511, 4116.79487152, 4125.76923050, 4142.94871774, 4152.43589723, 4151.92307672, 4129.35897408, 4109.87179460, 4137.30769210, 4120.25640998,12.0
4095.89743555, 4082.82051248, 4088.33333299, 4041.92307651, 4082.56410222, 4091.79487145, 4093.07692273, 4110.64102537, 4120.64102537, 4121.79487152, 4106.41025614, 4088.58974325, 4112.94871767, 4121.79487152,12.0
4078.84615350, 4072.43589709, 4071.66666632, 4045.12820472, 4061.02564061, 4071.66666632, 4060.89743548, 4068.71794830, 4081.28205094, 4094.74358940, 4082.94871761, 4075.12820478, 4092.05128171, 4121.53846126,12.0
4082.56410222, 4081.79487145, 4074.23076889, 4045.51282010, 4073.84615350, 4085.51282017, 4079.99999966, 4083.58974325, 4095.25640991, 4105.12820485, 4086.66666632, 4081.92307658, 4101.15384581, 4123.20512793,12.0
4081.92307658, 4074.23076889, 4069.48717907, 4032.17948670, 4073.97435863, 4096.79487145, 4097.30769196, 4111.02564075, 4114.10256383, 4111.79487152, 4088.84615350, 4078.71794837, 4104.23076896, 4121.92307665,12.0
4078.58974325, 4064.35897395, 4059.61538420, 4026.53846106, 4055.12820472, 4088.33333299, 4084.87179453, 4106.41025614, 4103.20512793, 4103.97435870, 4080.12820478, 4068.71794830, 4091.92307658, 4119.48717921,12.0
4082.43589709, 4072.43589709, 4067.43589702, 4034.61538413, 4060.51282010, 4083.46153812, 4081.28205094, 4098.58974325, 4096.66666632, 4103.97435870, 4083.97435863, 4074.61538427, 4091.66666632, 4120.12820485,12.0
4082.43589709, 4072.43589709, 4067.43589702, 4034.61538413, 4060.51282010, 4083.46153812, 4081.28205094, 4098.58974325, 4096.66666632, 4103.97435870, 4083.97435863, 4074.61538427, 4091.66666632, 4120.12820485,12.0
4083.97435863, 4083.97435863, 4077.05128171, 4041.02564061, 4078.71794837, 4086.66666632, 4088.20512786, 4100.89743555, 4099.48717914, 4107.30769203, 4087.05128171, 4081.28205094, 4098.84615350, 4123.20512793,12.0
4087.43589709, 4087.56410222, 4080.89743555, 4045.38461497, 4082.05128171, 4089.61538427, 4087.43589709, 4106.79487152, 4104.23076896, 4113.33333306, 4088.84615350, 4085.89743555, 4105.12820485, 4123.33333306,12.0
4100.89743555, 4089.48717914, 4093.20512786, 4057.94871754, 4083.71794837, 4093.07692273, 4091.79487145, 4109.35897408, 4116.79487152, 4123.20512793, 4101.02564068, 4097.82051248, 4110.38461511, 4119.23076896,12.0
4105.25640998, 4093.20512786, 4099.10256376, 4065.38461497, 4090.51282017, 4092.82051248, 4094.61538427, 4103.20512793, 4117.30769203, 4128.07692280, 4099.74358940, 4102.43589709, 4111.53846126, 4121.28205101,12.0
4105.12820485, 4103.33333306, 4103.58974332, 4068.84615343, 4095.89743555, 4098.58974325, 4099.74358940, 4119.35897408, 4127.30769203, 4138.20512800, 4099.87179453, 4105.12820485, 4120.12820485, 4119.87179460,12.0
4111.41025614, 4110.25640998, 4112.82051255, 4076.28205094, 4099.10256376, 4111.92307665, 4113.46153819, 4137.17948697, 4144.87179467, 4147.17948697, 4111.53846126, 4111.66666639, 4126.02564075, 4116.15384588,12.0
4110.25640998, 4100.12820478, 4108.33333306, 4075.89743555, 4093.33333299, 4107.82051255, 4111.92307665, 4116.15384588, 4127.05128178, 4135.76923056, 4106.79487152, 4108.58974332, 4119.35897408, 4127.82051255,12.0
4105.25640998, 4096.28205094, 4097.30769196, 4077.82051248, 4086.79487145, 4096.28205094, 4100.38461504, 4100.51282017, 4109.87179460, 4131.15384588, 4100.64102530, 4105.12820485, 4120.12820485, 4131.28205101,12.0
4103.58974332, 4108.71794844, 4099.23076889, 4084.61538427, 4098.84615350, 4101.15384581, 4104.74358947, 4120.38461511, 4131.79487152, 4151.15384595, 4115.38461511, 4114.35897408, 4132.17948691, 4120.64102537,12.0
4098.84615350, 4110.25640998, 4103.84615357, 4084.61538427, 4105.89743562, 4109.74358947, 4116.28205101, 4131.66666639, 4149.10256390, 4157.82051262, 4121.02564075, 4120.38461511, 4131.15384588, 4123.84615357,12.0
4096.28205094, 4101.02564068, 4098.07692273, 4080.76923043, 4095.25640991, 4109.35897408, 4118.46153819, 4117.05128178, 4133.71794844, 4143.84615364, 4106.92307665, 4114.23076896, 4116.53846126, 4128.71794844,12.0
4098.58974325, 4103.84615357, 4095.76923043, 4079.23076889, 4095.25640991, 4108.71794844, 4119.35897408, 4119.10256383, 4132.43589716, 4146.79487159, 4105.51282024, 4113.33333306, 4120.12820485, 4124.99999973,12.0
4099.61538427, 4112.56410229, 4104.23076896, 4084.23076889, 4107.56410229, 4107.94871767, 4113.20512793, 4126.92307665, 4145.12820492, 4157.82051262, 4111.66666639, 4116.28205101, 4130.25640998, 4121.53846126,12.0
4096.66666632, 4110.38461511, 4106.41025614, 4087.56410222, 4107.30769203, 4102.94871767, 4093.33333299, 4110.51282024, 4134.23076896, 4142.17948697, 4106.28205101, 4112.82051255, 4122.05128178, 4119.48717921,12.0
4102.94871767, 4115.76923050, 4107.56410229, 4091.66666632, 4103.07692280, 4103.33333306, 4091.02564068, 4105.51282024, 4125.51282024, 4131.53846126, 4105.25640998, 4118.84615357, 4117.30769203, 4123.97435870,12.0
4123.20512793, 4135.89743569, 4125.76923050, 4105.89743562, 4116.15384588, 4108.97435870, 4109.10256383, 4126.79487152, 4141.02564082, 4152.82051262, 4122.56410229, 4139.74358954, 4133.20512793, 4124.74358947,12.0
4120.64102537, 4130.76923050, 4129.74358947, 4108.20512793, 4121.41025614, 4107.69230742, 4110.12820485, 4131.15384588, 4142.82051262, 4155.76923056, 4126.79487152, 4140.76923056, 4140.51282031, 4119.74358947,12.0
4102.56410229, 4115.89743562, 4110.12820485, 4102.17948684, 4109.48717921, 4104.61538434, 4099.35897402, 4112.82051255, 4120.25640998, 4133.33333306, 4105.64102537, 4124.61538434, 4123.46153819, 4119.87179460,12.0
4109.23076896, 4126.92307665, 4108.07692280, 4105.76923050, 4102.94871767, 4108.07692280, 4107.05128178, 4117.82051255, 4118.20512793, 4129.74358947, 4097.82051248, 4124.61538434, 4116.53846126, 4121.92307665,12.0
4116.66666639, 4130.76923050, 4115.89743562, 4103.84615357, 4104.99999973, 4107.69230742, 4112.17948691, 4129.99999973, 4128.07692280, 4133.20512793, 4098.46153812, 4126.79487152, 4119.74358947, 4122.17948691,12.0
4107.17948691, 4117.43589716, 4110.64102537, 4100.25640991, 4108.20512793, 4102.82051255, 4099.99999966, 4115.51282024, 4119.87179460, 4121.41025614, 4084.87179453, 4116.66666639, 4112.69230742, 4121.53846126,12.0
4106.28205101, 4116.53846126, 4106.92307665, 4100.64102530, 4110.76923050, 4105.12820485, 4099.48717914, 4109.35897408, 4117.69230742, 4118.58974332, 4081.53846119, 4114.87179460, 4112.17948691, 4120.89743562,12.0
4108.97435870, 4123.58974332, 4108.84615357, 4096.02564068, 4109.23076896, 4106.28205101, 4107.43589716, 4117.69230742, 4122.05128178, 4124.23076896, 4092.05128171, 4117.43589716, 4118.46153819, 4120.12820485,12.0
4100.64102530, 4122.82051255, 4107.56410229, 4095.89743555, 4112.05128178, 4106.79487152, 4109.23076896, 4122.17948691, 4125.76923050, 4120.89743562, 4087.43589709, 4112.82051255, 4110.51282024, 4119.87179460,12.0
4099.10256376, 4121.41025614, 4110.38461511, 4107.30769203, 4118.71794844, 4114.99999973, 4113.97435870, 4128.71794844, 4140.51282031, 4124.61538434, 4077.94871761, 4110.64102537, 4104.87179460, 4123.20512793,12.0
4099.99999966, 4122.56410229, 4111.41025614, 4112.43589716, 4112.69230742, 4117.56410229, 4117.43589716, 4121.41025614, 4138.58974339, 4127.94871767, 4082.05128171, 4105.89743562, 4115.76923050, 4126.53846126,12.0
4088.33333299, 4121.15384588, 4104.48717921, 4102.56410229, 4112.17948691, 4117.30769203, 4119.23076896, 4107.56410229, 4118.07692280, 4122.56410229, 4088.71794837, 4096.02564068, 4112.69230742, 4121.53846126,12.0
4085.25640991, 4122.43589716, 4108.58974332, 4101.53846119, 4123.84615357, 4122.82051255, 4120.89743562, 4119.23076896, 4127.82051255, 4131.41025614, 4093.97435863, 4099.87179453, 4105.51282024, 4120.25640998,12.0
4091.79487145, 4122.82051255, 4114.48717921, 4105.89743562, 4116.79487152, 4117.94871767, 4115.51282024, 4129.61538434, 4144.35897415, 4139.23076903, 4097.05128171, 4106.02564075, 4115.51282024, 4125.89743562,12.0
4085.51282017, 4114.87179460, 4103.71794844, 4096.02564068, 4102.05128171, 4106.28205101, 4108.97435870, 4110.64102537, 4127.94871767, 4125.89743562, 4091.28205094, 4098.71794837, 4116.79487152, 4122.05128178,12.0
4074.87179453, 4107.17948691, 4093.71794837, 4088.46153812, 4103.07692280, 4104.35897408, 4103.33333306, 4098.58974325, 4115.38461511, 4109.48717921, 4079.10256376, 4090.64102530, 4103.84615357, 4119.87179460,12.0
4075.89743555, 4108.97435870, 4090.89743555, 4089.74358940, 4107.05128178, 4107.30769203, 4097.43589709, 4103.20512793, 4119.74358947, 4103.97435870, 4071.53846119, 4089.87179453, 4098.20512786, 4122.94871767,12.0
4081.02564068, 4112.56410229, 4089.74358940, 4090.51282017, 4107.05128178, 4107.17948691, 4100.51282017, 4105.51282024, 4119.23076896, 4103.71794844, 4071.28205094, 4092.94871761, 4105.12820485, 4119.35897408,12.0
4087.94871761, 4114.74358947, 4098.97435863, 4095.38461504, 4112.82051255, 4107.94871767, 4112.43589716, 4114.35897408, 4126.02564075, 4112.69230742, 4078.97435863, 4099.35897402, 4113.84615357, 4116.92307665,12.0
4096.92307658, 4123.20512793, 4114.61538434, 4103.20512793, 4121.92307665, 4113.20512793, 4115.25640998, 4123.84615357, 4137.30769210, 4124.23076896, 4088.58974325, 4107.82051255, 4120.25640998, 4122.43589716,12.0
4101.92307658, 4133.58974332, 4120.89743562, 4106.92307665, 4128.20512793, 4121.15384588, 4118.58974332, 4123.58974332, 4137.05128185, 4124.99999973, 4084.23076889, 4113.84615357, 4126.02564075, 4128.07692280,12.0
4104.48717921, 4133.58974332, 4123.58974332, 4108.20512793, 4128.84615357, 4130.12820485, 4135.25640998, 4131.53846126, 4143.71794851, 4128.33333306, 4083.46153812, 4117.17948691, 4130.25640998, 4124.99999973,12.0
4111.79487152, 4131.92307665, 4138.71794851, 4114.87179460, 4115.25640998, 4138.20512800, 4153.84615364, 4147.94871774, 4160.51282031, 4143.33333313, 4104.35897408, 4126.66666639, 4137.82051262, 4125.25640998,12.0
4128.58974332, 4147.17948697, 4158.46153826, 4130.76923050, 4093.33333299, 4147.43589723, 4160.25641005, 4155.64102544, 4172.94871781, 4159.99999980, 4124.35897408, 4142.43589723, 4142.56410236, 4129.23076896,12.0
4133.07692280, 4150.25641005, 4155.51282031, 4132.82051255, 4080.51282017, 4139.99999980, 4135.76923056, 4142.69230749, 4169.87179474, 4155.51282031, 4120.51282024, 4141.79487159, 4142.30769210, 4126.41025614,12.0
4118.46153819, 4127.05128178, 4132.82051255, 4114.87179460, 4075.12820478, 4112.30769203, 4089.48717914, 4110.89743562, 4142.43589723, 4127.05128178, 4102.05128171, 4121.92307665, 4139.23076903, 4127.05128178,12.0
4109.48717921, 4115.89743562, 4122.56410229, 4102.17948684, 4067.56410215, 4096.15384581, 4065.76923036, 4085.51282017, 4114.99999973, 4106.66666639, 4087.56410222, 4110.25640998, 4125.25640998, 4124.48717921,12.0
4122.05128178, 4130.38461511, 4135.76923056, 4110.38461511, 4066.92307651, 4102.43589709, 4082.17948684, 4092.56410222, 4119.74358947, 4112.30769203, 4088.07692273, 4117.56410229, 4118.97435870, 4121.53846126,12.0
4139.48717928, 4142.30769210, 4152.43589723, 4126.53846126, 4084.74358940, 4117.56410229, 4105.12820485, 4117.05128178, 4138.84615364, 4130.64102537, 4100.89743555, 4133.33333306, 4135.89743569, 4124.61538434,12.0
4137.69230749, 4135.76923056, 4147.69230749, 4125.12820485, 4096.15384581, 4122.82051255, 4107.30769203, 4124.61538434, 4142.05128185, 4134.87179460, 4101.53846119, 4137.05128185, 4143.33333313, 4121.28205101,12.0
4131.92307665, 4127.05128178, 4131.41025614, 4114.99999973, 4087.05128171, 4121.02564075, 4107.43589716, 4118.97435870, 4137.94871774, 4122.94871767, 4086.66666632, 4127.69230742, 4129.10256383, 4122.69230742,12.0
4139.99999980, 4136.28205108, 4134.23076896, 4123.58974332, 4092.56410222, 4128.58974332, 4123.07692280, 4125.51282024, 4145.76923056, 4126.41025614, 4085.38461504, 4126.02564075, 4124.35897408, 4125.12820485,12.0
4149.48717928, 4154.48717928, 4146.79487159, 4139.87179467, 4114.35897408, 4142.82051262, 4136.92307672, 4141.92307672, 4164.74358954, 4148.33333313, 4108.33333306, 4136.02564082, 4139.48717928, 4119.74358947,12.0
4148.33333313, 4155.25641005, 4143.33333313, 4138.71794851, 4118.07692280, 4144.87179467, 4134.23076896, 4144.10256390, 4171.28205115, 4151.92307672, 4121.28205101, 4140.25641005, 4147.94871774, 4122.43589716,12.0
4136.28205108, 4141.66666646, 4129.23076896, 4125.89743562, 4109.74358947, 4140.12820492, 4135.89743569, 4128.20512793, 4155.51282031, 4137.43589723, 4104.74358947, 4129.48717921, 4136.41025621, 4122.43589716,12.0
4124.99999973, 4133.46153819, 4121.15384588, 4123.58974332, 4102.17948684, 4137.82051262, 4135.38461518, 4122.17948691, 4147.43589723, 4135.76923056, 4085.38461504, 4116.28205101, 4123.71794844, 4118.58974332,12.0
4125.38461511, 4133.07692280, 4121.28205101, 4127.82051255, 4091.79487145, 4122.82051255, 4113.58974332, 4131.28205101, 4156.92307672, 4139.61538441, 4083.71794837, 4112.82051255, 4129.87179460, 4123.71794844,12.0
4127.69230742, 4132.43589716, 4124.74358947, 4126.28205101, 4091.02564068, 4108.07692280, 4091.66666632, 4127.69230742, 4155.51282031, 4137.30769210, 4092.05128171, 4119.74358947, 4136.15384595, 4123.46153819,12.0
4121.28205101, 4128.46153819, 4123.84615357, 4124.74358947, 4091.92307658, 4107.69230742, 4090.89743555, 4112.05128178, 4141.28205108, 4136.79487159, 4089.74358940, 4125.25640998, 4130.89743562, 4121.41025614,12.0
4114.23076896, 4122.69230742, 4116.28205101, 4124.35897408, 4084.10256376, 4106.15384588, 4100.51282017, 4115.38461511, 4136.53846133, 4133.07692280, 4077.82051248, 4122.82051255, 4130.38461511, 4122.05128178,12.0
4117.05128178, 4115.38461511, 4112.94871767, 4121.41025614, 4083.58974325, 4106.02564075, 4107.56410229, 4128.97435870, 4143.20512800, 4126.02564075, 4078.71794837, 4118.97435870, 4127.94871767, 4123.71794844,12.0
4128.58974332, 4126.02564075, 4119.87179460, 4125.51282024, 4092.30769196, 4117.69230742, 4119.48717921, 4128.58974332, 4152.56410236, 4129.61538434, 4087.69230735, 4120.25640998, 4124.48717921, 4124.10256383,12.0
4137.30769210, 4144.35897415, 4126.79487152, 4135.89743569, 4097.69230735, 4125.12820485, 4132.56410229, 4129.10256383, 4154.48717928, 4135.89743569, 4090.76923043, 4127.94871767, 4132.43589716, 4120.89743562,12.0
4133.97435870, 4137.17948697, 4125.76923050, 4137.69230749, 4097.82051248, 4123.07692280, 4129.35897408, 4127.05128178, 4140.89743569, 4126.41025614, 4089.74358940, 4130.89743562, 4133.33333306, 4124.10256383,12.0
4129.35897408, 4123.07692280, 4122.82051255, 4131.53846126, 4098.97435863, 4124.74358947, 4120.25640998, 4119.74358947, 4132.56410229, 4119.61538434, 4089.99999966, 4124.23076896, 4122.56410229, 4123.84615357,12.0
4129.61538434, 4131.28205101, 4118.46153819, 4129.87179460, 4090.51282017, 4120.38461511, 4116.02564075, 4122.56410229, 4139.87179467, 4119.48717921, 4093.58974325, 4120.89743562, 4132.17948691, 4120.76923050,12.0
4121.79487152, 4134.10256383, 4104.61538434, 4127.82051255, 4071.15384581, 4101.41025607, 4095.12820478, 4116.92307665, 4130.64102537, 4109.35897408, 4094.23076889, 4120.76923050, 4138.97435877, 4122.82051255,12.0
4107.94871767, 4113.84615357, 4094.10256376, 4117.82051255, 4074.23076889, 4095.64102530, 4076.92307658, 4099.35897402, 4114.61538434, 4109.87179460, 4085.89743555, 4113.97435870, 4117.17948691, 4121.02564075,12.0
4104.10256383, 4109.74358947, 4092.94871761, 4112.05128178, 4092.56410222, 4103.84615357, 4091.28205094, 4099.87179453, 4117.69230742, 4124.10256383, 4079.74358940, 4110.64102537, 4115.38461511, 4123.97435870,12.0
4108.33333306, 4128.33333306, 4089.87179453, 4111.79487152, 4084.48717914, 4101.92307658, 4100.76923043, 4109.99999973, 4123.71794844, 4118.33333306, 4077.56410222, 4109.61538434, 4134.35897408, 4124.87179460,12.0
4107.69230742, 4128.07692280, 4090.51282017, 4111.53846126, 4069.23076882, 4100.51282017, 4093.84615350, 4106.41025614, 4121.53846126, 4107.56410229, 4073.33333299, 4103.33333306, 4131.41025614, 4119.48717921,12.0
4101.66666632, 4108.71794844, 4096.02564068, 4108.84615357, 4080.51282017, 4105.89743562, 4100.64102530, 4104.35897408, 4116.66666639, 4110.89743562, 4071.28205094, 4101.92307658, 4125.89743562, 4121.28205101,12.0
4106.28205101, 4110.51282024, 4102.82051255, 4111.92307665, 4096.79487145, 4113.07692280, 4121.53846126, 4122.69230742, 4129.23076896, 4122.43589716, 4088.33333299, 4117.30769203, 4148.58974339, 4122.43589716,12.0
4129.87179460, 4138.71794851, 4119.35897408, 4130.38461511, 4107.82051255, 4130.38461511, 4146.53846133, 4146.41025621, 4159.23076903, 4140.64102544, 4114.61538434, 4141.41025621, 4166.79487159, 4120.51282024,12.0
4131.28205101, 4140.51282031, 4118.07692280, 4131.41025614, 4108.84615357, 4136.79487159, 4150.12820492, 4139.48717928, 4155.51282031, 4138.33333313, 4105.64102537, 4135.12820485, 4146.79487159, 4122.05128178,12.0
4103.71794844, 4114.35897408, 4089.35897402, 4108.20512793, 4089.23076889, 4112.56410229, 4116.15384588, 4108.58974332, 4118.07692280, 4108.46153819, 4071.66666632, 4103.20512793, 4121.92307665, 4123.97435870,12.0
4102.69230742, 4121.92307665, 4085.51282017, 4111.41025614, 4081.79487145, 4101.53846119, 4100.12820478, 4101.53846119, 4112.43589716, 4101.92307658, 4071.28205094, 4101.02564068, 4129.35897408, 4123.71794844,12.0
4116.15384588, 4138.97435877, 4101.15384581, 4127.82051255, 4090.76923043, 4112.17948691, 4112.43589716, 4110.51282024, 4127.69230742, 4114.74358947, 4085.64102530, 4116.02564075, 4137.82051262, 4120.38461511,12.0
4116.41025614, 4131.15384588, 4104.74358947, 4122.05128178, 4090.76923043, 4110.51282024, 4110.76923050, 4108.07692280, 4120.38461511, 4113.07692280, 4085.38461504, 4116.53846126, 4133.84615357, 4121.15384588,12.0
4116.79487152, 4124.23076896, 4104.61538434, 4109.99999973, 4086.41025607, 4103.84615357, 4103.07692280, 4104.99999973, 4116.15384588, 4107.94871767, 4082.05128171, 4113.84615357, 4133.58974332, 4121.53846126,12.0
4115.12820485, 4127.82051255, 4102.82051255, 4112.43589716, 4088.71794837, 4105.12820485, 4104.87179460, 4106.66666639, 4121.92307665, 4108.07692280, 4077.82051248, 4113.71794844, 4127.56410229, 4120.64102537,12.0
4111.28205101, 4127.43589716, 4101.66666632, 4118.07692280, 4093.97435863, 4109.87179460, 4109.35897408, 4107.56410229, 4121.28205101, 4107.30769203, 4075.51282017, 4111.92307665, 4122.94871767, 4124.61538434,12.0
4112.56410229, 4123.46153819, 4103.58974332, 4114.48717921, 4091.53846119, 4107.56410229, 4107.05128178, 4107.56410229, 4118.71794844, 4105.12820485, 4079.23076889, 4109.48717921, 4128.58974332, 4123.46153819,12.0
4114.35897408, 4132.30769203, 4108.84615357, 4114.48717921, 4089.48717914, 4102.82051255, 4104.10256383, 4108.84615357, 4120.76923050, 4106.66666639, 4085.64102530, 4113.84615357, 4135.12820485, 4121.15384588,12.0
4122.82051255, 4147.82051262, 4120.76923050, 4131.28205101, 4109.35897408, 4119.48717921, 4123.07692280, 4120.64102537, 4136.41025621, 4126.66666639, 4102.82051255, 4132.56410229, 4145.12820492, 4120.64102537,12.0
4124.10256383, 4147.05128185, 4121.02564075, 4138.84615364, 4122.69230742, 4135.76923056, 4134.48717921, 4129.10256383, 4146.92307672, 4139.74358954, 4112.69230742, 4138.20512800, 4149.99999980, 4121.79487152,12.0
4106.15384588, 4135.12820485, 4106.28205101, 4124.23076896, 4107.56410229, 4121.02564075, 4107.30769203, 4117.56410229, 4136.15384595, 4124.99999973, 4102.17948684, 4124.87179460, 4143.07692287, 4126.02564075,12.0
4099.87179453, 4133.20512793, 4101.92307658, 4116.28205101, 4097.43589709, 4108.46153819, 4091.41025607, 4106.15384588, 4127.30769203, 4114.10256383, 4096.92307658, 4121.66666639, 4142.05128185, 4121.92307665,12.0
4109.35897408, 4137.94871774, 4105.76923050, 4122.05128178, 4102.69230742, 4117.05128178, 4109.10256383, 4106.28205101, 4126.28205101, 4116.02564075, 4098.84615350, 4126.92307665, 4146.53846133, 4118.20512793,12.0
4109.74358947, 4137.05128185, 4104.87179460, 4123.33333306, 4106.53846126, 4112.82051255, 4112.05128178, 4107.56410229, 4122.56410229, 4117.43589716, 4098.46153812, 4126.53846126, 4147.05128185, 4121.66666639,12.0
4105.38461511, 4133.33333306, 4102.30769196, 4121.15384588, 4101.66666632, 4102.43589709, 4102.94871767, 4108.71794844, 4121.92307665, 4116.79487152, 4101.53846119, 4125.51282024, 4146.53846133, 4122.43589716,12.0
4103.58974332, 4131.92307665, 4097.69230735, 4122.43589716, 4093.84615350, 4110.89743562, 4108.97435870, 4111.15384588, 4122.56410229, 4109.61538434, 4100.12820478, 4121.92307665, 4141.66666646, 4122.30769203,12.0
4106.41025614, 4136.41025621, 4097.82051248, 4122.69230742, 4097.05128171, 4116.02564075, 4118.71794844, 4117.05128178, 4120.38461511, 4107.69230742, 4101.15384581, 4120.89743562, 4143.07692287, 4119.87179460,12.0
4116.53846126, 4141.28205108, 4109.23076896, 4126.28205101, 4105.89743562, 4109.10256383, 4120.38461511, 4124.35897408, 4125.76923050, 4123.46153819, 4113.33333306, 4129.23076896, 4150.76923056, 4118.84615357,12.0
4116.66666639, 4142.94871774, 4112.30769203, 4129.87179460, 4099.61538427, 4103.97435870, 4112.56410229, 4122.56410229, 4129.23076896, 4125.25640998, 4112.17948691, 4129.99999973, 4146.53846133, 4125.12820485,12.0
4102.82051255, 4139.87179467, 4101.02564068, 4123.46153819, 4095.12820478, 4107.43589716, 4108.97435870, 4108.58974332, 4117.17948691, 4105.89743562, 4094.48717914, 4112.82051255, 4135.76923056, 4119.99999973,12.0
4101.92307658, 4133.33333306, 4102.94871767, 4124.10256383, 4109.99999973, 4120.51282024, 4127.05128178, 4113.84615357, 4119.87179460, 4110.51282024, 4096.53846119, 4111.02564075, 4142.56410236, 4112.43589716,12.0
4116.79487152, 4140.89743569, 4117.82051255, 4138.46153826, 4117.17948691, 4131.02564075, 4147.17948697, 4150.38461518, 4156.02564082, 4135.89743569, 4115.51282024, 4129.35897408, 4156.41025621, 4118.71794844,12.0
4119.10256383, 4149.35897415, 4117.69230742, 4139.23076903, 4111.41025614, 4127.69230742, 4143.84615364, 4153.97435877, 4163.58974339, 4133.58974332, 4114.23076896, 4128.33333306, 4149.48717928, 4127.43589716,12.0
4106.15384588, 4133.20512793, 4103.07692280, 4122.43589716, 4096.02564068, 4115.64102537, 4120.89743562, 4116.53846126, 4125.64102537, 4108.84615357, 4095.64102530, 4110.25640998, 4135.76923056, 4133.20512793,12.0
4097.69230735, 4113.71794844, 4094.35897402, 4109.48717921, 4076.53846119, 4101.28205094, 4095.12820478, 4100.64102530, 4109.61538434, 4101.66666632, 4090.76923043, 4103.07692280, 4129.10256383, 4123.07692280,12.0
4091.53846119, 4105.12820485, 4085.76923043, 4103.58974332, 4073.58974325, 4087.43589709, 4076.92307658, 4097.82051248, 4114.74358947, 4099.74358940, 4091.15384581, 4098.71794837, 4124.10256383, 4117.69230742,12.0
4083.97435863, 4100.51282017, 4071.92307658, 4097.94871761, 4082.69230735, 4081.66666632, 4070.51282017, 4080.76923043, 4101.92307658, 4086.02564068, 4082.17948684, 4088.71794837, 4121.92307665, 4123.07692280,12.0
4090.25640991, 4106.66666639, 4071.79487145, 4100.12820478, 4085.64102530, 4087.82051248, 4080.89743555, 4084.10256376, 4098.97435863, 4088.46153812, 4084.61538427, 4090.25640991, 4122.30769203, 4115.51282024,12.0
4108.20512793, 4122.05128178, 4084.74358940, 4113.33333306, 4087.94871761, 4100.12820478, 4101.02564068, 4111.66666639, 4123.84615357, 4108.33333306, 4099.74358940, 4104.99999973, 4130.38461511, 4120.12820485,12.0
4111.15384588, 4124.23076896, 4091.79487145, 4117.05128178, 4091.79487145, 4107.17948691, 4108.84615357, 4113.84615357, 4131.02564075, 4111.66666639, 4103.84615357, 4112.30769203, 4137.05128185, 4126.15384588,12.0
4105.38461511, 4124.35897408, 4099.23076889, 4117.17948691, 4094.35897402, 4109.23076896, 4109.74358947, 4108.97435870, 4128.97435870, 4107.43589716, 4107.94871767, 4115.51282024, 4133.58974332, 4116.28205101,12.0
4101.92307658, 4128.20512793, 4102.30769196, 4119.74358947, 4095.12820478, 4107.82051255, 4111.02564075, 4116.92307665, 4136.28205108, 4113.07692280, 4113.71794844, 4117.30769203, 4125.12820485, 4116.28205101,12.0
4098.46153812, 4123.84615357, 4094.35897402, 4116.66666639, 4095.25640991, 4109.61538434, 4117.05128178, 4119.23076896, 4133.71794844, 4113.20512793, 4107.17948691, 4113.97435870, 4120.76923050, 4124.61538434,12.0
4115.89743562, 4137.82051262, 4108.84615357, 4129.87179460, 4116.02564075, 4132.69230742, 4147.30769210, 4137.43589723, 4149.23076903, 4125.12820485, 4114.99999973, 4129.61538434, 4133.97435870, 4128.58974332,12.0
4135.51282031, 4159.48717928, 4131.79487152, 4148.33333313, 4129.74358947, 4147.30769210, 4164.48717928, 4158.58974339, 4179.23076910, 4144.61538441, 4133.71794844, 4151.66666646, 4148.71794851, 4121.92307665,12.0
4114.87179460, 4147.17948697, 4112.05128178, 4133.46153819, 4098.97435863, 4121.79487152, 4128.33333306, 4131.66666639, 4158.71794851, 4125.64102537, 4113.46153819, 4132.30769203, 4136.53846133, 4124.74358947,12.0
4081.79487145, 4112.05128178, 4076.15384581, 4103.58974332, 4078.20512786, 4090.89743555, 4088.46153812, 4086.41025607, 4110.51282024, 4090.25640991, 4079.48717914, 4095.76923043, 4112.69230742, 4133.07692280,12.0
4076.79487145, 4096.53846119, 4072.94871761, 4097.30769196, 4092.43589709, 4088.07692273, 4086.92307658, 4086.53846119, 4109.87179460, 4089.35897402, 4084.74358940, 4093.33333299, 4108.07692280, 4121.53846126,12.0
4082.82051248, 4100.89743555, 4083.46153812, 4103.20512793, 4089.87179453, 4090.25640991, 4093.46153812, 4106.92307665, 4128.58974332, 4099.61538427, 4099.87179453, 4102.94871767, 4113.97435870, 4119.10256383,12.0
4080.12820478, 4107.43589716, 4082.30769196, 4101.66666632, 4078.07692273, 4095.51282017, 4099.35897402, 4109.35897408, 4124.87179460, 4098.07692273, 4094.35897402, 4095.12820478, 4110.76923050, 4120.89743562,12.0
4083.46153812, 4113.46153819, 4082.82051248, 4102.30769196, 4088.33333299, 4105.51282024, 4105.51282024, 4106.92307665, 4122.82051255, 4102.69230742, 4095.25640991, 4096.41025607, 4111.53846126, 4116.79487152,12.0
4096.15384581, 4118.97435870, 4091.66666632, 4112.05128178, 4094.61538427, 4101.79487145, 4101.41025607, 4110.12820485, 4128.20512793, 4106.15384588, 4105.64102537, 4112.69230742, 4118.58974332, 4124.35897408,12.0
4108.84615357, 4130.89743562, 4105.51282024, 4127.43589716, 4096.15384581, 4108.20512793, 4121.15384588, 4131.15384588, 4144.99999980, 4112.82051255, 4118.46153819, 4127.30769203, 4128.20512793, 4124.23076896,12.0
4118.97435870, 4138.84615364, 4116.15384588, 4138.58974339, 4108.71794844, 4123.58974332, 4143.07692287, 4146.02564082, 4162.30769210, 4128.46153819, 4131.53846126, 4137.17948697, 4139.35897415, 4120.51282024,12.0
4120.64102537, 4140.25641005, 4115.38461511, 4139.87179467, 4119.74358947, 4119.23076896, 4124.74358947, 4126.66666639, 4149.23076903, 4130.51282024, 4127.43589716, 4138.46153826, 4137.43589723, 4122.05128178,12.0
4103.97435870, 4134.99999973, 4105.38461511, 4131.15384588, 4111.02564075, 4102.17948684, 4100.25640991, 4102.30769196, 4125.38461511, 4113.58974332, 4106.53846126, 4124.99999973, 4122.56410229, 4119.74358947,12.0
4086.66666632, 4125.76923050, 4095.76923043, 4119.74358947, 4090.51282017, 4092.43589709, 4095.51282017, 4097.82051248, 4119.61538434, 4101.66666632, 4096.15384581, 4110.51282024, 4114.87179460, 4121.53846126,12.0
4085.89743555, 4120.51282024, 4093.58974325, 4113.07692280, 4093.58974325, 4094.99999966, 4096.28205094, 4099.23076889, 4117.17948691, 4103.58974332, 4100.38461504, 4105.25640998, 4114.99999973, 4122.17948691,12.0
4092.17948684, 4119.74358947, 4096.66666632, 4112.94871767, 4114.10256383, 4106.15384588, 4098.58974325, 4106.02564075, 4121.79487152, 4107.05128178, 4102.30769196, 4108.71794844, 4113.20512793, 4120.25640998,12.0
4094.87179453, 4121.28205101, 4094.87179453, 4111.28205101, 4112.69230742, 4107.43589716, 4103.84615357, 4113.84615357, 4122.69230742, 4114.35897408, 4098.46153812, 4116.66666639, 4115.64102537, 4122.30769203,12.0
4092.30769196, 4119.99999973, 4092.43589709, 4105.12820485, 4102.43589709, 4089.35897402, 4103.58974332, 4112.69230742, 4110.76923050, 4124.23076896, 4097.69230735, 4118.20512793, 4117.94871767, 4120.12820485,12.0
4094.23076889, 4123.33333306, 4097.56410222, 4108.84615357, 4109.10256383, 4097.43589709, 4123.58974332, 4116.15384588, 4118.97435870, 4118.07692280, 4099.87179453, 4116.41025614, 4116.92307665, 4119.99999973,12.0
4097.69230735, 4127.05128178, 4098.58974325, 4111.41025614, 4111.79487152, 4126.15384588, 4147.30769210, 4125.76923050, 4147.17948697, 4103.07692280, 4098.46153812, 4114.10256383, 4115.25640998, 4121.41025614,12.0
4096.92307658, 4126.53846126, 4095.64102530, 4105.76923050, 4103.33333306, 4120.64102537, 4126.79487152, 4128.84615357, 4159.74358954, 4107.05128178, 4096.15384581, 4111.02564075, 4114.99999973, 4118.20512793,12.0
4093.20512786, 4120.38461511, 4095.25640991, 4104.23076896, 4098.33333299, 4099.35897402, 4101.79487145, 4120.76923050, 4150.64102544, 4116.28205101, 4098.84615350, 4113.20512793, 4115.89743562, 4117.82051255,12.0
4082.69230735, 4107.94871767, 4087.43589709, 4097.43589709, 4089.10256376, 4096.92307658, 4103.07692280, 4108.71794844, 4137.17948697, 4107.30769203, 4100.38461504, 4110.64102537, 4111.53846126, 4121.02564075,12.0
4074.48717914, 4102.56410229, 4074.61538427, 4089.99999966, 4077.17948684, 4096.02564068, 4096.53846119, 4102.17948684, 4128.58974332, 4099.74358940, 4093.20512786, 4101.79487145, 4108.20512793, 4127.30769203,12.0
4074.87179453, 4102.94871767, 4070.38461504, 4093.46153812, 4074.99999966, 4085.89743555, 4082.05128171, 4103.07692280, 4130.76923050, 4101.66666632, 4089.23076889, 4099.48717914, 4113.84615357, 4124.87179460,12.0
4076.92307658, 4105.12820485, 4079.10256376, 4099.87179453, 4079.87179453, 4090.38461504, 4092.17948684, 4111.28205101, 4140.51282031, 4106.79487152, 4093.20512786, 4106.28205101, 4119.48717921, 4119.10256383,12.0
4086.02564068, 4116.66666639, 4097.82051248, 4109.10256383, 4092.82051248, 4108.58974332, 4116.53846126, 4120.38461511, 4148.46153826, 4115.64102537, 4097.94871761, 4116.92307665, 4123.58974332, 4123.97435870,12.0
4108.71794844, 4131.41025614, 4114.48717921, 4120.51282024, 4113.07692280, 4120.25640998, 4128.97435870, 4126.02564075, 4157.69230749, 4121.53846126, 4110.12820485, 4128.07692280, 4131.92307665, 4124.99999973,12.0
4131.53846126, 4138.33333313, 4127.05128178, 4130.38461511, 4126.79487152, 4126.15384588, 4141.15384595, 4142.43589723, 4171.66666653, 4125.76923050, 4127.17948691, 4139.23076903, 4138.33333313, 4122.05128178,12.0
4140.89743569, 4136.02564082, 4134.23076896, 4128.07692280, 4125.89743562, 4127.94871767, 4148.71794851, 4154.87179467, 4179.99999986, 4132.69230742, 4128.97435870, 4142.69230749, 4135.76923056, 4122.56410229,12.0
4148.07692287, 4136.79487159, 4131.79487152, 4118.58974332, 4123.71794844, 4127.05128178, 4141.28205108, 4136.28205108, 4173.97435884, 4133.58974332, 4122.17948691, 4140.25641005, 4135.64102544, 4124.10256383,12.0
4166.15384595, 4149.74358954, 4135.76923056, 4122.69230742, 4131.02564075, 4129.23076896, 4136.53846133, 4124.61538434, 4169.99999986, 4133.20512793, 4127.94871767, 4144.35897415, 4144.10256390, 4123.97435870,12.0
4179.35897422, 4150.25641005, 4139.48717928, 4127.43589716, 4131.02564075, 4130.76923050, 4135.51282031, 4133.58974332, 4167.82051262, 4132.82051255, 4132.30769203, 4149.48717928, 4144.10256390, 4121.92307665,12.0
4177.30769217, 4131.79487152, 4126.15384588, 4117.30769203, 4125.25640998, 4127.69230742, 4132.17948691, 4127.56410229, 4154.23076903, 4123.07692280, 4119.87179460, 4144.23076903, 4131.41025614, 4126.15384588,12.0
4175.12820499, 4126.41025614, 4113.20512793, 4105.51282024, 4123.20512793, 4125.38461511, 4136.41025621, 4123.46153819, 4149.48717928, 4109.35897408, 4110.89743562, 4132.30769203, 4122.94871767, 4128.46153819,12.0
4172.43589730, 4126.66666639, 4104.74358947, 4098.71794837, 4109.35897408, 4120.25640998, 4134.23076896, 4128.71794844, 4151.66666646, 4104.99999973, 4111.15384588, 4119.87179460, 4120.12820485, 4118.58974332,12.0
4173.20512807, 4117.43589716, 4098.33333299, 4097.94871761, 4096.66666632, 4112.82051255, 4121.41025614, 4126.15384588, 4147.56410236, 4108.84615357, 4111.92307665, 4115.38461511, 4117.82051255, 4118.97435870,12.0
4188.97435884, 4126.28205101, 4106.79487152, 4112.43589716, 4117.30769203, 4118.84615357, 4128.46153819, 4131.28205101, 4155.38461518, 4116.41025614, 4117.94871767, 4124.99999973, 4122.82051255, 4124.10256383,12.0
4202.05128199, 4149.99999980, 4123.84615357, 4130.12820485, 4143.07692287, 4129.23076896, 4141.79487159, 4141.66666646, 4171.28205115, 4129.23076896, 4133.07692280, 4138.20512800, 4130.89743562, 4111.41025614,12.0
4204.48717942, 4154.48717928, 4132.05128178, 4136.02564082, 4139.99999980, 4131.41025614, 4141.92307672, 4142.30769210, 4174.87179474, 4140.76923056, 4140.51282031, 4142.56410236, 4132.30769203, 4110.51282024,12.0
4203.46153840, 4138.33333313, 4127.82051255, 4136.41025621, 4132.69230742, 4131.92307665, 4145.89743569, 4145.38461518, 4167.94871774, 4139.87179467, 4132.43589716, 4136.41025621, 4128.84615357, 4127.17948691,12.0
4203.07692301, 4135.25640998, 4122.30769203, 4136.66666646, 4137.82051262, 4135.12820485, 4153.97435877, 4140.12820492, 4156.02564082, 4128.58974332, 4131.28205101, 4130.76923050, 4128.20512793, 4131.66666639,12.0
4202.56410250, 4150.76923056, 4124.35897408, 4140.89743569, 4143.97435877, 4135.89743569, 4145.25641005, 4124.87179460, 4148.46153826, 4123.97435870, 4137.05128185, 4132.43589716, 4128.33333306, 4126.79487152,12.0
4192.69230756, 4145.25641005, 4117.17948691, 4137.17948697, 4132.30769203, 4119.10256383, 4115.89743562, 4112.82051255, 4137.43589723, 4116.53846126, 4123.20512793, 4129.87179460, 4121.28205101, 4124.23076896,12.0
4182.43589730, 4126.28205101, 4101.53846119, 4126.79487152, 4111.53846126, 4101.92307658, 4097.69230735, 4104.48717921, 4121.66666639, 4102.43589709, 4106.41025614, 4122.05128178, 4117.30769203, 4123.58974332,12.0
4185.12820499, 4125.38461511, 4101.66666632, 4130.76923050, 4112.94871767, 4112.05128178, 4110.89743562, 4107.69230742, 4123.33333306, 4108.58974332, 4113.07692280, 4120.12820485, 4122.82051255, 4126.15384588,12.0
4189.23076910, 4130.12820485, 4107.82051255, 4133.20512793, 4119.23076896, 4121.15384588, 4124.48717921, 4121.53846126, 4137.05128185, 4123.84615357, 4121.02564075, 4121.79487152, 4122.94871767, 4126.41025614,12.0
4189.87179474, 4128.58974332, 4106.41025614, 4123.33333306, 4114.74358947, 4114.99999973, 4122.05128178, 4128.84615357, 4144.10256390, 4129.61538434, 4122.30769203, 4122.43589716, 4122.82051255, 4121.28205101,12.0
4199.10256397, 4133.46153819, 4117.05128178, 4126.79487152, 4121.79487152, 4118.33333306, 4127.30769203, 4133.58974332, 4152.43589723, 4136.79487159, 4134.48717921, 4129.99999973, 4137.05128185, 4131.53846126,12.0
4207.56410250, 4141.02564082, 4128.33333306, 4136.15384595, 4125.12820485, 4130.12820485, 4143.20512800, 4148.97435877, 4162.94871774, 4145.38461518, 4143.07692287, 4135.76923056, 4146.02564082, 4137.43589723,12.0
4202.69230763, 4137.17948697, 4118.84615357, 4128.84615357, 4114.74358947, 4129.74358947, 4152.17948697, 4153.71794851, 4158.07692287, 4140.12820492, 4132.30769203, 4126.28205101, 4131.15384588, 4121.92307665,12.0
4199.87179474, 4130.76923050, 4112.82051255, 4121.02564075, 4119.23076896, 4129.35897408, 4151.15384595, 4137.56410236, 4142.30769210, 4125.89743562, 4121.15384588, 4118.20512793, 4118.07692280, 4118.71794844,12.0
4193.71794858, 4121.92307665, 4109.74358947, 4110.38461511, 4123.33333306, 4126.02564075, 4130.51282024, 4114.23076896, 4126.28205101, 4112.56410229, 4113.97435870, 4110.51282024, 4113.84615357, 4122.69230742,12.0
4178.46153833, 4110.76923050, 4093.58974325, 4094.61538427, 4105.38461511, 4106.28205101, 4101.15384581, 4100.89743555, 4117.05128178, 4101.79487145, 4107.17948691, 4097.30769196, 4107.05128178, 4119.61538434,12.0
4173.20512807, 4111.41025614, 4087.69230735, 4096.79487145, 4099.48717914, 4098.84615350, 4096.92307658, 4106.28205101, 4118.20512793, 4102.69230742, 4110.64102537, 4092.30769196, 4108.07692280, 4116.92307665,12.0
4182.69230756, 4124.48717921, 4098.84615350, 4107.56410229, 4112.30769203, 4113.20512793, 4116.02564075, 4119.61538434, 4121.92307665, 4113.71794844, 4120.64102537, 4098.58974325, 4113.07692280, 4119.87179460,12.0
4183.71794858, 4123.46153819, 4095.76923043, 4105.64102537, 4113.71794844, 4120.12820485, 4126.92307665, 4125.38461511, 4122.30769203, 4118.84615357, 4120.89743562, 4099.74358940, 4110.76923050, 4129.61538434,12.0
4170.25641012, 4106.41025614, 4082.43589709, 4098.33333299, 4104.23076896, 4113.71794844, 4121.02564075, 4120.51282024, 4119.61538434, 4114.99999973, 4114.87179460, 4092.69230735, 4110.25640998, 4127.82051255,12.0
4171.53846140, 4110.76923050, 4091.15384581, 4101.66666632, 4105.76923050, 4113.58974332, 4118.33333306, 4125.76923050, 4126.41025614, 4118.71794844, 4118.07692280, 4094.23076889, 4115.64102537, 4124.74358947,12.0
4192.17948704, 4136.53846133, 4113.46153819, 4115.76923050, 4124.48717921, 4132.43589716, 4142.43589723, 4140.76923056, 4139.35897415, 4134.10256383, 4130.89743562, 4111.53846126, 4125.38461511, 4125.38461511,12.0
4200.64102551, 4140.64102544, 4119.87179460, 4121.02564075, 4134.74358947, 4141.28205108, 4154.10256390, 4138.20512800, 4140.12820492, 4142.17948697, 4137.82051262, 4125.51282024, 4132.43589716, 4119.48717921,12.0
4192.30769217, 4127.82051255, 4114.23076896, 4113.46153819, 4116.92307665, 4120.51282024, 4121.79487152, 4123.46153819, 4133.71794844, 4137.56410236, 4134.23076896, 4124.74358947, 4130.76923050, 4122.56410229,12.0
4196.92307679, 4131.15384588, 4117.56410229, 4114.99999973, 4108.58974332, 4106.28205101, 4105.89743562, 4124.74358947, 4138.33333313, 4139.48717928, 4140.89743569, 4132.05128178, 4129.99999973, 4124.74358947,12.0
4209.99999993, 4138.33333313, 4127.05128178, 4126.02564075, 4114.48717921, 4114.74358947, 4120.38461511, 4131.79487152, 4140.76923056, 4147.69230749, 4151.41025621, 4148.07692287, 4134.23076896, 4118.07692280,12.0
4203.46153840, 4128.97435870, 4124.61538434, 4119.35897408, 4107.56410229, 4113.58974332, 4112.94871767, 4120.12820485, 4125.51282024, 4140.89743569, 4142.17948697, 4143.71794851, 4132.69230742, 4118.97435870,12.0
4188.33333320, 4119.61538434, 4119.74358947, 4106.15384588, 4104.99999973, 4107.30769203, 4106.92307665, 4117.05128178, 4119.61538434, 4126.28205101, 4132.69230742, 4133.33333306, 4123.33333306, 4123.46153819,12.0
4187.17948704, 4123.20512793, 4124.87179460, 4113.46153819, 4105.12820485, 4114.74358947, 4120.76923050, 4127.17948691, 4122.69230742, 4121.79487152, 4136.53846133, 4136.53846133, 4114.61538434, 4123.46153819,12.0
4190.38461525, 4123.97435870, 4124.74358947, 4115.76923050, 4095.64102530, 4111.92307665, 4111.79487152, 4117.56410229, 4109.10256383, 4118.71794844, 4137.05128185, 4142.05128185, 4113.46153819, 4121.15384588,12.0
4196.28205115, 4126.41025614, 4125.38461511, 4108.84615357, 4106.15384588, 4104.61538434, 4109.61538434, 4114.10256383, 4107.69230742, 4118.46153819, 4135.64102544, 4149.99999980, 4125.38461511, 4124.23076896,12.0
4201.92307686, 4134.10256383, 4134.61538434, 4115.64102537, 4127.82051255, 4111.92307665, 4130.12820485, 4128.20512793, 4123.20512793, 4122.94871767, 4132.43589716, 4155.25641005, 4132.43589716, 4130.51282024,12.0
4196.41025628, 4141.02564082, 4135.76923056, 4121.92307665, 4126.15384588, 4121.92307665, 4136.53846133, 4127.69230742, 4116.66666639, 4124.74358947, 4124.99999973, 4147.94871774, 4122.17948691, 4124.48717921,12.0
4191.41025628, 4146.02564082, 4127.17948691, 4115.51282024, 4121.53846126, 4126.53846126, 4134.74358947, 4120.64102537, 4105.51282024, 4124.61538434, 4123.71794844, 4143.58974339, 4118.58974332, 4115.25640998,12.0
4182.43589730, 4130.38461511, 4116.28205101, 4102.43589709, 4115.76923050, 4112.69230742, 4115.89743562, 4117.82051255, 4109.99999973, 4116.53846126, 4118.97435870, 4136.92307672, 4117.82051255, 4120.89743562,12.0
4162.43589723, 4105.12820485, 4104.74358947, 4087.56410222, 4095.38461504, 4090.38461504, 4082.56410222, 4108.20512793, 4108.71794844, 4106.66666639, 4110.12820485, 4117.94871767, 4106.66666639, 4122.43589716,12.0
4151.79487159, 4099.23076889, 4097.30769196, 4079.48717914, 4087.05128171, 4088.33333299, 4079.74358940, 4104.10256383, 4103.84615357, 4110.25640998, 4110.25640998, 4108.07692280, 4102.30769196, 4114.99999973,12.0
4155.38461518, 4107.56410229, 4100.51282017, 4081.02564068, 4093.84615350, 4099.87179453, 4098.46153812, 4108.84615357, 4102.56410229, 4112.17948691, 4107.43589716, 4110.51282024, 4103.84615357, 4121.66666639,12.0
4153.46153826, 4111.41025614, 4104.35897408, 4081.15384581, 4099.35897402, 4103.46153819, 4104.61538434, 4102.05128171, 4095.25640991, 4104.61538434, 4101.66666632, 4109.48717921, 4099.10256376, 4122.69230742,12.0
4151.79487159, 4115.76923050, 4106.15384588, 4082.43589709, 4108.33333306, 4108.97435870, 4118.58974332, 4106.79487152, 4098.33333299, 4108.07692280, 4105.89743562, 4111.15384588, 4099.35897402, 4111.41025614,12.0
4158.71794851, 4117.17948691, 4104.61538434, 4083.33333299, 4112.17948691, 4119.35897408, 4136.28205108, 4129.61538434, 4111.15384588, 4113.71794844, 4106.02564075, 4114.61538434, 4106.15384588, 4121.15384588,12.0
4156.41025621, 4107.56410229, 4100.38461504, 4075.12820478, 4101.41025607, 4112.30769203, 4120.64102537, 4124.48717921, 4103.46153819, 4104.23076896, 4095.76923043, 4107.43589716, 4104.74358947, 4138.20512800,12.0
4146.79487159, 4105.64102537, 4099.10256376, 4066.92307651, 4091.92307658, 4098.97435863, 4101.66666632, 4105.25640998, 4091.28205094, 4095.64102530, 4086.28205094, 4097.56410222, 4096.15384581, 4126.79487152,12.0
4142.43589723, 4111.41025614, 4098.33333299, 4066.79487138, 4092.69230735, 4103.20512793, 4110.76923050, 4102.82051255, 4089.74358940, 4089.10256376, 4080.25640991, 4094.87179453, 4093.07692273, 4118.33333306,12.0
4144.61538441, 4110.25640998, 4097.43589709, 4066.53846113, 4092.30769196, 4104.99999973, 4112.56410229, 4101.79487145, 4084.74358940, 4083.33333299, 4080.38461504, 4097.43589709, 4095.64102530, 4127.05128178,12.0
4141.66666646, 4101.53846119, 4093.20512786, 4060.25640984, 4088.71794837, 4089.87179453, 4085.89743555, 4088.84615350, 4079.61538427, 4083.84615350, 4080.64102530, 4094.35897402, 4092.56410222, 4122.69230742,12.0
4137.56410236, 4101.53846119, 4088.84615350, 4060.38461497, 4088.71794837, 4086.41025607, 4076.79487145, 4089.48717914, 4084.99999966, 4087.94871761, 4082.17948684, 4092.43589709, 4091.66666632, 4124.48717921,12.0
4138.20512800, 4107.05128178, 4087.56410222, 4062.43589702, 4082.69230735, 4093.46153812, 4093.97435863, 4103.33333306, 4093.33333299, 4094.74358940, 4092.30769196, 4096.41025607, 4096.15384581, 4126.41025614,12.0
4140.25641005, 4105.64102537, 4093.33333299, 4063.33333292, 4082.05128171, 4096.66666632, 4103.84615357, 4108.71794844, 4098.20512786, 4107.30769203, 4099.35897402, 4102.05128171, 4099.48717914, 4116.02564075,12.0
4139.87179467, 4102.05128171, 4094.87179453, 4065.25640984, 4093.97435863, 4103.33333306, 4102.30769196, 4102.43589709, 4093.20512786, 4110.25640998, 4093.97435863, 4101.15384581, 4098.07692273, 4121.28205101,12.0
4135.51282031, 4101.28205094, 4089.74358940, 4060.12820472, 4095.76923043, 4107.17948691, 4112.43589716, 4104.48717921, 4089.61538427, 4102.56410229, 4092.56410222, 4095.12820478, 4097.94871761, 4124.74358947,12.0
4141.66666646, 4109.23076896, 4101.92307658, 4059.87179446, 4093.20512786, 4111.28205101, 4136.41025621, 4125.89743562, 4111.28205101, 4115.12820485, 4111.41025614, 4104.87179460, 4113.07692280, 4117.56410229,12.0
4143.20512800, 4106.41025614, 4105.64102537, 4060.51282010, 4093.84615350, 4107.43589716, 4123.33333306, 4117.94871767, 4113.46153819, 4120.12820485, 4114.10256383, 4108.46153819, 4113.58974332, 4119.48717921,12.0
4130.89743562, 4093.58974325, 4090.51282017, 4053.33333292, 4092.69230735, 4094.35897402, 4088.58974325, 4087.94871761, 4087.43589709, 4101.53846119, 4094.61538427, 4094.99999966, 4095.76923043, 4122.69230742,12.0
4139.87179467, 4104.61538434, 4095.89743555, 4057.43589702, 4098.84615350, 4100.64102530, 4106.28205101, 4104.35897408, 4102.56410229, 4110.64102537, 4102.05128171, 4103.58974332, 4106.41025614, 4121.79487152,12.0
4148.46153826, 4110.89743562, 4102.17948684, 4060.25640984, 4098.20512786, 4111.28205101, 4127.05128178, 4120.12820485, 4118.20512793, 4125.64102537, 4117.69230742, 4114.35897408, 4121.41025614, 4123.07692280,12.0
4124.23076896, 4088.33333299, 4082.05128171, 4042.94871754, 4076.28205094, 4093.33333299, 4091.41025607, 4086.53846119, 4083.46153812, 4101.92307658, 4101.66666632, 4096.79487145, 4100.12820478, 4124.61538434,12.0
4114.61538434, 4086.28205094, 4080.89743555, 4039.74358933, 4073.58974325, 4083.71794837, 4074.74358940, 4078.71794837, 4075.76923043, 4089.10256376, 4088.84615350, 4090.64102530, 4089.99999966, 4121.92307665,12.0
4136.02564082, 4112.05128178, 4107.56410229, 4060.12820472, 4096.41025607, 4101.41025607, 4104.61538434, 4118.33333306, 4109.87179460, 4114.61538434, 4108.71794844, 4109.23076896, 4112.69230742, 4120.38461511,12.0
4140.38461518, 4111.15384588, 4113.07692280, 4068.71794830, 4097.94871761, 4103.20512793, 4110.64102537, 4122.69230742, 4107.05128178, 4120.51282024, 4123.07692280, 4112.94871767, 4115.64102537, 4125.25640998,12.0
4131.53846126, 4095.76923043, 4101.79487145, 4063.07692266, 4090.25640991, 4095.76923043, 4100.64102530, 4105.12820485, 4087.82051248, 4103.84615357, 4114.99999973, 4106.66666639, 4103.07692280, 4122.43589716,12.0
4137.56410236, 4100.89743555, 4104.35897408, 4061.53846113, 4090.89743555, 4105.12820485, 4119.35897408, 4133.07692280, 4115.89743562, 4112.17948691, 4114.74358947, 4113.20512793, 4109.48717921, 4117.17948691,12.0
4136.66666646, 4102.30769196, 4104.35897408, 4057.56410215, 4078.71794837, 4105.38461511, 4126.53846126, 4149.23076903, 4128.58974332, 4118.71794844, 4110.38461511, 4110.38461511, 4108.46153819, 4122.69230742,12.0
4121.53846126, 4089.61538427, 4094.10256376, 4052.17948677, 4075.89743555, 4095.51282017, 4105.38461511, 4104.48717921, 4085.51282017, 4094.74358940, 4092.82051248, 4094.35897402, 4088.07692273, 4123.84615357,12.0
4123.71794844, 4096.92307658, 4097.17948684, 4060.89743548, 4103.07692280, 4104.48717921, 4105.51282024, 4083.97435863, 4074.10256376, 4091.92307658, 4092.82051248, 4097.82051248, 4089.23076889, 4121.15384588,12.0
4133.58974332, 4115.64102537, 4100.64102530, 4065.25640984, 4112.56410229, 4116.79487152, 4123.07692280, 4113.33333306, 4106.28205101, 4113.07692280, 4102.43589709, 4108.97435870, 4102.94871767, 4120.12820485,12.0
4118.97435870, 4099.48717914, 4081.66666632, 4047.17948677, 4086.66666632, 4099.10256376, 4106.28205101, 4107.69230742, 4093.97435863, 4097.30769196, 4087.30769196, 4091.41025607, 4089.23076889, 4118.84615357,12.0
4102.05128171, 4077.82051248, 4073.58974325, 4039.61538420, 4080.64102530, 4084.48717914, 4083.33333299, 4084.61538427, 4064.23076882, 4071.79487145, 4074.87179453, 4078.97435863, 4078.46153812, 4117.56410229,12.0
4110.89743562, 4091.66666632, 4090.25640991, 4053.20512779, 4098.20512786, 4100.76923043, 4101.28205094, 4102.56410229, 4084.48717914, 4088.20512786, 4090.12820478, 4095.76923043, 4090.25640991, 4118.07692280,12.0
4112.82051255, 4098.07692273, 4089.87179453, 4050.38461497, 4088.58974325, 4101.53846119, 4103.07692280, 4101.53846119, 4090.89743555, 4096.02564068, 4091.28205094, 4094.35897402, 4089.35897402, 4124.61538434,12.0
4104.87179460, 4086.28205094, 4081.79487145, 4038.07692266, 4074.35897402, 4088.97435863, 4090.25640991, 4091.02564068, 4077.05128171, 4082.43589709, 4083.07692273, 4077.94871761, 4086.66666632, 4126.92307665,12.0
4111.92307665, 4091.53846119, 4088.84615350, 4041.41025600, 4088.07692273, 4101.02564068, 4110.25640998, 4119.48717921, 4097.94871761, 4093.46153812, 4089.99999966, 4079.99999966, 4096.28205094, 4122.05128178,12.0
4103.46153819, 4083.33333299, 4074.74358940, 4035.12820465, 4082.30769196, 4100.38461504, 4104.35897408, 4109.99999973, 4089.74358940, 4090.51282017, 4076.15384581, 4071.66666632, 4085.51282017, 4122.56410229,12.0
4080.89743555, 4061.53846113, 4047.94871754, 4018.84615336, 4061.41025600, 4076.41025607, 4068.58974318, 4065.38461497, 4048.58974318, 4065.76923036, 4054.61538420, 4052.17948677, 4068.33333292, 4122.05128178,12.0
4091.79487145, 4078.84615350, 4061.02564061, 4034.10256362, 4079.10256376, 4080.12820478, 4077.43589709, 4077.43589709, 4059.10256369, 4078.33333299, 4072.30769196, 4066.53846113, 4080.76923043, 4119.87179460,12.0
4109.10256383, 4098.20512786, 4082.17948684, 4050.38461497, 4089.99999966, 4097.05128171, 4102.56410229, 4103.07692280, 4085.76923043, 4097.05128171, 4090.64102530, 4081.66666632, 4091.79487145, 4122.94871767,12.0
4095.51282017, 4082.17948684, 4068.20512779, 4033.20512772, 4068.58974318, 4088.84615350, 4085.89743555, 4080.89743555, 4065.89743548, 4080.25640991, 4072.69230735, 4066.79487138, 4077.82051248, 4122.56410229,12.0
4094.99999966, 4082.17948684, 4066.66666625, 4032.69230721, 4075.76923043, 4084.99999966, 4078.84615350, 4074.87179453, 4055.25640984, 4075.38461504, 4064.48717907, 4071.28205094, 4076.02564068, 4122.56410229,12.0
4114.99999973, 4101.92307658, 4087.94871761, 4054.87179446, 4102.43589709, 4100.51282017, 4103.84615357, 4099.61538427, 4077.17948684, 4094.99999966, 4084.99999966, 4096.15384581, 4092.43589709, 4124.35897408,12.0
4114.99999973, 4101.92307658, 4087.94871761, 4054.87179446, 4102.43589709, 4100.51282017, 4103.84615357, 4099.61538427, 4077.17948684, 4094.99999966, 4084.99999966, 4096.15384581, 4092.43589709, 4124.35897408,12.0
4111.41025614, 4099.74358940, 4087.69230735, 4053.71794830, 4097.69230735, 4107.30769203, 4109.74358947, 4109.48717921, 4088.07692273, 4102.17948684, 4096.53846119, 4099.35897402, 4098.20512786, 4124.99999973,12.0
4100.38461504, 4096.15384581, 4080.76923043, 4044.10256369, 4087.30769196, 4104.48717921, 4104.74358947, 4111.02564075, 4086.41025607, 4102.69230742, 4088.97435863, 4093.71794837, 4092.43589709, 4123.84615357,12.0
4111.53846126, 4109.87179460, 4094.35897402, 4055.12820472, 4098.20512786, 4109.87179460, 4119.35897408, 4112.82051255, 4091.02564068, 4107.56410229, 4090.25640991, 4104.23076896, 4093.84615350, 4118.84615357,12.0
4121.15384588, 4111.15384588, 4099.61538427, 4061.53846113, 4097.56410222, 4109.35897408, 4121.15384588, 4111.28205101, 4097.43589709, 4104.87179460, 4100.64102530, 4110.51282024, 4100.12820478, 4122.94871767,12.0
4103.71794844, 4090.12820478, 4080.12820478, 4044.48717907, 4078.20512786, 4084.10256376, 4079.87179453, 4094.74358940, 4079.35897402, 4091.41025607, 4092.05128171, 4095.25640991, 4088.71794837, 4125.64102537,12.0
4084.61538427, 4076.66666632, 4070.89743555, 4033.58974311, 4074.74358940, 4072.05128171, 4056.15384574, 4070.64102530, 4051.28205087, 4079.48717914, 4077.43589709, 4084.48717914, 4073.46153812, 4121.28205101,12.0
4091.41025607, 4090.12820478, 4085.76923043, 4046.02564061, 4090.25640991, 4091.28205094, 4081.15384581, 4071.66666632, 4055.12820472, 4083.07692273, 4088.97435863, 4100.76923043, 4082.94871761, 4125.12820485,12.0
4101.66666632, 4101.28205094, 4093.46153812, 4053.20512779, 4093.33333299, 4094.87179453, 4090.25640991, 4085.25640991, 4070.38461504, 4091.66666632, 4101.92307658, 4112.05128178, 4094.87179453, 4123.46153819,12.0
4096.53846119, 4094.99999966, 4084.74358940, 4045.51282010, 4090.64102530, 4086.02564068, 4080.89743555, 4088.20512786, 4068.46153805, 4091.41025607, 4088.97435863, 4100.12820478, 4087.69230735, 4118.20512793,12.0
4088.33333299, 4090.12820478, 4076.15384581, 4041.15384574, 4088.97435863, 4090.76923043, 4087.30769196, 4082.69230735, 4061.02564061, 4087.56410222, 4076.79487145, 4090.51282017, 4078.58974325, 4122.43589716,12.0
4082.05128171, 4087.94871761, 4070.25640991, 4038.84615343, 4074.99999966, 4090.12820478, 4091.92307658, 4080.25640991, 4054.23076882, 4082.05128171, 4079.10256376, 4088.07692273, 4079.35897402, 4124.35897408,12.0
4095.12820478, 4097.69230735, 4084.61538427, 4050.89743548, 4090.25640991, 4099.48717914, 4111.53846126, 4108.20512793, 4074.74358940, 4101.66666632, 4100.25640991, 4103.20512793, 4097.69230735, 4119.87179460,12.0
4121.66666639, 4119.10256383, 4116.28205101, 4075.25640991, 4130.64102537, 4124.10256383, 4143.71794851, 4140.51282031, 4111.66666639, 4135.25640998, 4127.43589716, 4128.07692280, 4118.71794844, 4119.10256383,12.0
4122.56410229, 4121.41025614, 4120.64102537, 4075.89743555, 4128.71794844, 4124.87179460, 4136.66666646, 4121.28205101, 4102.69230742, 4129.61538434, 4124.35897408, 4125.38461511, 4113.46153819, 4122.43589716,12.0
4115.64102537, 4112.05128178, 4108.97435870, 4064.99999959, 4107.05128178, 4116.92307665, 4115.89743562, 4104.10256383, 4084.99999966, 4114.10256383, 4114.61538434, 4118.07692280, 4107.69230742, 4123.07692280,12.0
4117.56410229, 4108.46153819, 4109.23076896, 4068.46153805, 4109.23076896, 4115.76923050, 4114.61538434, 4119.10256383, 4095.38461504, 4117.05128178, 4119.99999973, 4125.38461511, 4112.56410229, 4118.97435870,12.0
4109.35897408, 4104.99999973, 4101.66666632, 4069.74358940, 4108.58974332, 4104.23076896, 4103.46153819, 4105.38461511, 4082.94871761, 4105.89743562, 4111.41025614, 4119.35897408, 4103.71794844, 4119.48717921,12.0
4108.20512793, 4107.82051255, 4093.58974325, 4067.17948677, 4104.99999973, 4097.43589709, 4091.28205094, 4085.76923043, 4061.15384574, 4092.69230735, 4104.10256383, 4110.89743562, 4097.82051248, 4122.43589716,12.0
4126.66666639, 4119.74358947, 4109.99999973, 4077.17948684, 4117.05128178, 4108.20512793, 4105.25640998, 4102.43589709, 4076.15384581, 4103.97435870, 4119.35897408, 4122.17948691, 4105.76923050, 4117.69230742,12.0
4139.99999980, 4127.56410229, 4126.41025614, 4087.30769196, 4124.99999973, 4118.20512793, 4122.56410229, 4115.25640998, 4093.33333299, 4114.61538434, 4124.23076896, 4129.10256383, 4107.56410229, 4116.92307665,12.0
4140.89743569, 4124.87179460, 4123.46153819, 4083.33333299, 4123.33333306, 4122.69230742, 4123.84615357, 4112.69230742, 4090.76923043, 4116.66666639, 4119.87179460, 4126.41025614, 4106.92307665, 4121.66666639,12.0
4139.74358954, 4116.28205101, 4119.74358947, 4077.82051248, 4123.97435870, 4121.53846126, 4117.94871767, 4115.12820485, 4089.23076889, 4121.28205101, 4127.43589716, 4126.53846126, 4111.79487152, 4117.82051255,12.0
4141.28205108, 4116.92307665, 4123.71794844, 4081.53846119, 4127.82051255, 4118.46153819, 4128.84615357, 4130.89743562, 4102.43589709, 4130.51282024, 4135.64102544, 4126.02564075, 4115.38461511, 4116.28205101,12.0
4145.76923056, 4125.38461511, 4127.30769203, 4087.56410222, 4123.58974332, 4127.05128178, 4149.61538441, 4147.30769210, 4120.51282024, 4139.48717928, 4139.87179467, 4128.33333306, 4118.97435870, 4129.87179460,12.0
4140.38461518, 4122.69230742, 4122.82051255, 4081.66666632, 4114.87179460, 4128.46153819, 4138.33333313, 4133.20512793, 4113.20512793, 4134.10256383, 4141.66666646, 4125.38461511, 4117.17948691, 4132.43589716,12.0
4134.35897408, 4116.41025614, 4114.48717921, 4075.64102530, 4121.41025614, 4117.43589716, 4121.02564075, 4118.20512793, 4099.74358940, 4129.74358947, 4138.33333313, 4119.87179460, 4112.94871767, 4118.71794844,12.0
4149.74358954, 4129.23076896, 4121.79487152, 4086.28205094, 4137.56410236, 4126.02564075, 4145.51282031, 4136.28205108, 4111.53846126, 4142.05128185, 4145.64102544, 4135.38461518, 4124.35897408, 4120.64102537,12.0
4155.38461518, 4130.38461511, 4128.71794844, 4085.12820478, 4130.12820485, 4136.79487159, 4155.38461518, 4138.46153826, 4112.17948691, 4140.76923056, 4149.99999980, 4142.43589723, 4125.76923050, 4122.17948691,12.0
4133.33333306, 4104.74358947, 4110.89743562, 4063.33333292, 4105.76923050, 4116.15384588, 4114.99999973, 4107.30769203, 4087.30769196, 4116.92307665, 4127.05128178, 4116.66666639, 4102.69230742, 4116.53846126,12.0
4123.84615357, 4102.17948684, 4100.25640991, 4060.89743548, 4103.97435870, 4099.74358940, 4094.99999966, 4098.84615350, 4078.97435863, 4109.35897408, 4111.66666639, 4105.51282024, 4097.05128171, 4121.53846126,12.0
4134.74358947, 4120.12820485, 4115.12820485, 4077.17948684, 4118.46153819, 4111.15384588, 4111.02564075, 4115.89743562, 4091.15384581, 4120.12820485, 4122.56410229, 4121.15384588, 4109.61538434, 4122.82051255,12.0
4139.48717928, 4121.41025614, 4123.33333306, 4081.79487145, 4127.82051255, 4123.71794844, 4126.02564075, 4122.30769203, 4094.99999966, 4121.53846126, 4129.23076896, 4125.64102537, 4111.79487152, 4120.64102537,12.0
4139.23076903, 4114.74358947, 4112.56410229, 4073.20512786, 4121.66666639, 4125.12820485, 4135.51282031, 4119.35897408, 4091.15384581, 4119.61538434, 4123.58974332, 4119.35897408, 4107.30769203, 4121.28205101,12.0
4139.48717928, 4114.87179460, 4104.99999973, 4069.10256369, 4107.94871767, 4118.20512793, 4132.82051255, 4124.48717921, 4094.48717914, 4121.02564075, 4119.61538434, 4117.30769203, 4105.76923050, 4118.20512793,12.0
4136.79487159, 4110.25640998, 4109.10256383, 4070.76923043, 4109.23076896, 4109.87179460, 4118.58974332, 4127.05128178, 4097.43589709, 4113.97435870, 4117.56410229, 4114.74358947, 4102.30769196, 4114.87179460,12.0
4144.74358954, 4113.20512793, 4123.07692280, 4075.64102530, 4124.74358947, 4118.46153819, 4121.79487152, 4113.20512793, 4088.46153812, 4103.84615357, 4117.69230742, 4118.84615357, 4102.30769196, 4117.43589716,12.0
4164.99999980, 4133.33333306, 4142.56410236, 4084.10256376, 4132.17948691, 4131.41025614, 4136.28205108, 4112.30769203, 4088.07692273, 4111.66666639, 4130.76923050, 4136.15384595, 4112.56410229, 4129.61538434,12.0
4155.38461518, 4126.28205101, 4133.58974332, 4073.97435863, 4110.64102537, 4108.84615357, 4113.33333306, 4114.10256383, 4084.48717914, 4108.33333306, 4128.97435870, 4131.15384588, 4106.28205101, 4131.02564075,12.0
4126.79487152, 4102.82051255, 4108.46153819, 4052.69230728, 4092.56410222, 4086.02564068, 4083.84615350, 4094.99999966, 4060.51282010, 4084.48717914, 4107.30769203, 4105.12820485, 4084.99999966, 4118.71794844,12.0
4137.69230749, 4112.82051255, 4119.61538434, 4060.64102523, 4101.92307658, 4109.10256383, 4105.12820485, 4093.84615350, 4058.46153805, 4088.20512786, 4110.12820485, 4108.58974332, 4089.23076889, 4118.46153819,12.0
4158.58974339, 4131.66666639, 4142.94871774, 4079.35897402, 4112.30769203, 4128.58974332, 4133.33333306, 4117.43589716, 4083.46153812, 4111.02564075, 4131.66666639, 4129.61538434, 4107.05128178, 4124.61538434,12.0
4141.79487159, 4121.15384588, 4131.66666639, 4070.89743555, 4108.58974332, 4110.25640998, 4115.51282024, 4114.23076896, 4078.97435863, 4109.48717921, 4132.17948691, 4124.87179460, 4105.76923050, 4126.28205101,12.0
4127.69230742, 4107.30769203, 4114.87179460, 4060.51282010, 4108.58974332, 4098.33333299, 4095.38461504, 4097.05128171, 4058.07692266, 4103.71794844, 4123.20512793, 4114.99999973, 4101.92307658, 4123.58974332,12.0
4144.61538441, 4116.02564075, 4123.07692280, 4069.23076882, 4117.69230742, 4115.64102537, 4121.41025614, 4114.99999973, 4075.38461504, 4119.87179460, 4130.51282024, 4126.53846126, 4112.43589716, 4119.87179460,12.0
4150.64102544, 4126.02564075, 4127.69230742, 4076.15384581, 4120.64102537, 4129.48717921, 4145.76923056, 4134.35897408, 4099.74358940, 4128.07692280, 4139.48717928, 4133.20512793, 4118.71794844, 4123.84615357,12.0
4136.92307672, 4122.17948691, 4115.25640998, 4071.41025607, 4126.92307665, 4123.58974332, 4133.46153819, 4120.12820485, 4091.28205094, 4116.92307665, 4135.51282031, 4123.46153819, 4112.56410229, 4124.35897408,12.0
4125.38461511, 4108.97435870, 4098.46153812, 4063.33333292, 4119.48717921, 4110.89743562, 4111.53846126, 4100.25640991, 4069.10256369, 4107.17948691, 4122.05128178, 4111.92307665, 4103.58974332, 4119.10256383,12.0
4117.43589716, 4102.05128171, 4090.12820478, 4058.71794830, 4095.25640991, 4106.02564075, 4103.71794844, 4106.02564075, 4067.43589702, 4107.56410229, 4115.38461511, 4106.41025614, 4101.15384581, 4118.33333306,12.0
4111.92307665, 4100.89743555, 4088.33333299, 4054.99999959, 4091.15384581, 4105.76923050, 4101.02564068, 4115.89743562, 4078.84615350, 4108.84615357, 4116.53846126, 4101.92307658, 4098.71794837, 4120.25640998,12.0
4112.05128178, 4098.97435863, 4086.41025607, 4053.46153805, 4104.48717921, 4104.99999973, 4102.82051255, 4106.53846126, 4075.38461504, 4103.07692280, 4112.43589716, 4098.58974325, 4093.84615350, 4122.30769203,12.0
4116.28205101, 4104.35897408, 4091.53846119, 4059.74358933, 4110.89743562, 4112.43589716, 4113.71794844, 4106.66666639, 4070.76923043, 4101.79487145, 4110.12820485, 4103.97435870, 4094.10256376, 4119.74358947,12.0
4119.48717921, 4110.89743562, 4102.69230742, 4069.48717907, 4106.53846126, 4110.89743562, 4109.87179460, 4110.64102537, 4072.30769196, 4103.20512793, 4113.58974332, 4108.46153819, 4092.56410222, 4118.71794844,12.0
4115.89743562, 4106.02564075, 4099.74358940, 4069.35897395, 4100.76923043, 4096.66666632, 4098.84615350, 4097.82051248, 4059.87179446, 4094.87179453, 4110.38461511, 4101.28205094, 4086.02564068, 4124.61538434,12.0
4108.71794844, 4100.25640991, 4090.12820478, 4064.35897395, 4102.30769196, 4098.07692273, 4104.61538434, 4092.30769196, 4047.82051241, 4085.76923043, 4100.76923043, 4091.53846119, 4084.87179453, 4124.23076896,12.0
4108.84615357, 4107.56410229, 4096.92307658, 4066.79487138, 4106.92307665, 4105.25640998, 4108.84615357, 4102.30769196, 4057.43589702, 4086.79487145, 4098.71794837, 4092.05128171, 4086.53846119, 4118.97435870,12.0
4107.43589716, 4111.66666639, 4103.20512793, 4062.94871754, 4099.10256376, 4099.35897402, 4103.33333306, 4101.53846119, 4061.53846113, 4086.79487145, 4101.28205094, 4092.17948684, 4080.89743555, 4118.20512793,12.0
4097.56410222, 4102.56410229, 4094.61538427, 4054.10256369, 4088.71794837, 4095.38461504, 4099.87179453, 4090.89743555, 4049.87179446, 4084.87179453, 4097.82051248, 4083.46153812, 4076.28205094, 4121.53846126,12.0
4098.84615350, 4100.89743555, 4091.53846119, 4059.74358933, 4100.76923043, 4101.02564068, 4105.38461511, 4100.51282017, 4056.66666625, 4093.07692273, 4100.64102530, 4083.46153812, 4086.41025607, 4124.61538434,12.0
4109.48717921, 4112.05128178, 4097.56410222, 4072.82051248, 4122.94871767, 4111.28205101, 4119.99999973, 4121.28205101, 4077.56410222, 4106.02564075, 4120.64102537, 4092.69230735, 4098.84615350, 4121.66666639,12.0
4107.56410229, 4113.71794844, 4096.66666632, 4071.53846119, 4121.79487152, 4112.17948691, 4118.58974332, 4120.64102537, 4080.25640991, 4112.94871767, 4132.17948691, 4098.33333299, 4096.92307658, 4118.07692280,12.0
4096.66666632, 4096.02564068, 4087.82051248, 4056.92307651, 4095.64102530, 4092.43589709, 4089.23076889, 4096.66666632, 4063.20512779, 4102.43589709, 4118.20512793, 4092.82051248, 4086.53846119, 4120.89743562,12.0
4096.92307658, 4087.94871761, 4087.30769196, 4054.87179446, 4084.10256376, 4081.02564068, 4079.87179453, 4086.79487145, 4051.92307651, 4090.89743555, 4114.23076896, 4088.71794837, 4086.15384581, 4124.23076896,12.0
4108.97435870, 4104.87179460, 4102.30769196, 4071.66666632, 4104.48717921, 4097.30769196, 4106.53846126, 4114.23076896, 4067.82051241, 4102.30769196, 4129.87179460, 4104.99999973, 4098.84615350, 4122.43589716,12.0
4111.28205101, 4112.82051255, 4107.69230742, 4074.10256376, 4110.51282024, 4110.51282024, 4117.56410229, 4123.33333306, 4079.23076889, 4110.38461511, 4127.17948691, 4112.94871767, 4099.74358940, 4119.87179460,12.0
4098.58974325, 4094.99999966, 4094.10256376, 4058.07692266, 4084.48717914, 4103.58974332, 4100.76923043, 4101.41025607, 4062.30769189, 4094.87179453, 4112.56410229, 4095.64102530, 4087.69230735, 4125.25640998,12.0
4100.12820478, 4089.74358940, 4103.71794844, 4060.51282010, 4086.02564068, 4103.58974332, 4104.10256383, 4103.58974332, 4061.79487138, 4093.33333299, 4120.51282024, 4091.92307658, 4091.66666632, 4127.05128178,12.0
4112.05128178, 4104.10256383, 4122.69230742, 4070.76923043, 4114.35897408, 4113.07692280, 4121.79487152, 4116.66666639, 4080.38461504, 4107.43589716, 4131.02564075, 4105.89743562, 4099.87179453, 4116.02564075,12.0
4102.94871767, 4101.66666632, 4111.15384588, 4062.69230728, 4108.71794844, 4108.33333306, 4110.51282024, 4100.76923043, 4067.43589702, 4097.94871761, 4115.25640998, 4100.89743555, 4089.74358940, 4113.07692280,12.0
4094.87179453, 4094.99999966, 4102.82051255, 4059.74358933, 4093.07692273, 4100.38461504, 4098.33333299, 4093.07692273, 4054.61538420, 4088.58974325, 4106.79487152, 4092.43589709, 4082.56410222, 4122.43589716,12.0
4106.92307665, 4103.84615357, 4118.97435870, 4071.15384581, 4108.58974332, 4106.53846126, 4114.99999973, 4112.17948691, 4075.12820478, 4104.74358947, 4125.64102537, 4104.48717921, 4094.10256376, 4127.69230742,12.0
4108.20512793, 4105.89743562, 4116.41025614, 4070.25640991, 4112.43589716, 4110.64102537, 4119.48717921, 4110.89743562, 4076.02564068, 4109.74358947, 4129.23076896, 4108.58974332, 4102.17948684, 4129.23076896,12.0
4102.17948684, 4101.79487145, 4104.99999973, 4062.56410215, 4096.79487145, 4107.94871767, 4114.99999973, 4103.97435870, 4064.10256369, 4102.69230742, 4118.33333306, 4104.87179460, 4101.28205094, 4126.41025614,12.0
4111.15384588, 4106.92307665, 4116.15384588, 4071.28205094, 4097.05128171, 4106.53846126, 4120.12820485, 4115.64102537, 4078.71794837, 4109.10256383, 4126.66666639, 4114.10256383, 4103.84615357, 4117.94871767,12.0
4109.48717921, 4105.89743562, 4114.10256383, 4075.76923043, 4100.51282017, 4094.48717914, 4100.64102530, 4102.05128171, 4075.38461504, 4108.84615357, 4130.25640998, 4112.82051255, 4101.41025607, 4116.53846126,12.0
4098.20512786, 4098.97435863, 4098.58974325, 4069.10256369, 4089.10256376, 4083.97435863, 4074.23076889, 4077.82051248, 4053.33333292, 4099.23076889, 4120.38461511, 4101.15384581, 4096.92307658, 4122.69230742,12.0
4105.12820485, 4104.87179460, 4107.05128178, 4072.17948684, 4081.02564068, 4100.76923043, 4093.97435863, 4094.23076889, 4066.79487138, 4105.51282024, 4127.43589716, 4107.82051255, 4102.69230742, 4125.76923050,12.0
4113.33333306, 4109.87179460, 4119.23076896, 4076.79487145, 4088.33333299, 4112.05128178, 4116.15384588, 4115.89743562, 4086.28205094, 4116.15384588, 4137.56410236, 4118.33333306, 4106.79487152, 4122.94871767,12.0
4107.56410229, 4101.28205094, 4113.71794844, 4070.64102530, 4096.28205094, 4097.43589709, 4097.94871761, 4100.64102530, 4067.69230728, 4111.15384588, 4128.46153819, 4109.87179460, 4098.33333299, 4120.51282024,12.0
4108.33333306, 4099.10256376, 4115.76923050, 4068.07692266, 4099.61538427, 4093.84615350, 4090.38461504, 4092.43589709, 4059.23076882, 4105.25640998, 4126.41025614, 4107.43589716, 4094.99999966, 4118.58974332,12.0
4112.05128178, 4105.64102537, 4123.33333306, 4074.10256376, 4104.35897408, 4107.43589716, 4112.05128178, 4108.07692280, 4075.89743555, 4108.71794844, 4129.23076896, 4113.97435870, 4100.12820478, 4119.35897408,12.0
4107.82051255, 4110.38461511, 4117.56410229, 4076.28205094, 4111.79487152, 4112.17948691, 4122.30769203, 4112.69230742, 4075.64102530, 4110.12820485, 4122.82051255, 4110.64102537, 4100.38461504, 4125.38461511,12.0
4109.74358947, 4112.94871767, 4117.05128178, 4075.76923043, 4109.99999973, 4109.48717921, 4115.89743562, 4107.30769203, 4066.66666625, 4108.58974332, 4123.33333306, 4108.84615357, 4099.74358940, 4125.51282024,12.0
4115.89743562, 4115.64102537, 4127.56410229, 4081.28205094, 4105.25640998, 4113.71794844, 4118.58974332, 4110.12820485, 4075.38461504, 4109.61538434, 4128.33333306, 4115.64102537, 4100.89743555, 4121.28205101,12.0
4106.02564075, 4111.66666639, 4128.97435870, 4082.17948684, 4109.87179460, 4113.97435870, 4118.20512793, 4107.05128178, 4077.69230735, 4109.87179460, 4128.58974332, 4113.58974332, 4096.92307658, 4120.38461511,12.0
4091.79487145, 4099.61538427, 4120.64102537, 4072.30769196, 4102.82051255, 4103.71794844, 4101.66666632, 4091.79487145, 4058.97435856, 4102.82051255, 4125.64102537, 4103.46153819, 4092.05128171, 4122.56410229,12.0
4090.51282017, 4096.66666632, 4115.12820485, 4065.51282010, 4082.82051248, 4101.15384581, 4098.33333299, 4085.76923043, 4050.64102523, 4094.99999966, 4122.94871767, 4102.05128171, 4091.66666632, 4124.35897408,12.0
4093.84615350, 4104.74358947, 4117.94871767, 4071.92307658, 4086.41025607, 4108.46153819, 4110.38461511, 4097.82051248, 4061.53846113, 4098.46153812, 4127.30769203, 4108.84615357, 4095.51282017, 4120.51282024,12.0
4092.56410222, 4105.76923050, 4119.87179460, 4079.10256376, 4103.58974332, 4105.64102537, 4108.46153819, 4106.28205101, 4067.43589702, 4106.41025614, 4134.99999973, 4114.48717921, 4101.53846119, 4122.43589716,12.0
4090.64102530, 4096.28205094, 4112.43589716, 4075.64102530, 4096.53846119, 4095.38461504, 4097.17948684, 4107.69230742, 4067.43589702, 4109.61538434, 4135.25640998, 4115.76923050, 4101.53846119, 4125.76923050,12.0
4091.79487145, 4090.89743555, 4107.56410229, 4071.28205094, 4083.58974325, 4092.43589709, 4100.38461504, 4113.97435870, 4070.76923043, 4107.05128178, 4126.92307665, 4114.61538434, 4096.79487145, 4122.69230742,12.0
4092.94871761, 4093.71794837, 4110.76923050, 4069.23076882, 4085.89743555, 4094.10256376, 4104.87179460, 4107.94871767, 4066.02564061, 4096.28205094, 4113.84615357, 4110.51282024, 4093.58974325, 4123.97435870,12.0
4094.87179453, 4097.17948684, 4110.89743562, 4068.07692266, 4087.94871761, 4099.48717914, 4106.66666639, 4098.84615350, 4055.38461497, 4091.15384581, 4108.07692280, 4105.12820485, 4092.56410222, 4123.84615357,12.0
4098.33333299, 4099.48717914, 4110.89743562, 4072.82051248, 4092.69230735, 4111.02564075, 4119.10256383, 4112.94871767, 4064.48717907, 4103.97435870, 4119.74358947, 4111.28205101, 4095.89743555, 4121.92307665,12.0
4090.38461504, 4091.92307658, 4106.28205101, 4071.02564068, 4091.79487145, 4106.28205101, 4113.58974332, 4117.82051255, 4076.28205094, 4109.10256383, 4116.92307665, 4112.17948691, 4096.66666632, 4119.61538434,12.0
4075.89743555, 4082.17948684, 4092.05128171, 4062.17948677, 4078.33333299, 4093.58974325, 4093.58974325, 4098.07692273, 4065.12820472, 4095.12820478, 4097.30769196, 4096.79487145, 4086.79487145, 4117.94871767,12.0
4076.28205094, 4084.74358940, 4089.23076889, 4064.99999959, 4081.02564068, 4098.07692273, 4096.15384581, 4087.94871761, 4044.10256369, 4083.58974325, 4098.07692273, 4092.05128171, 4081.41025607, 4128.97435870,12.0
4084.23076889, 4089.74358940, 4097.17948684, 4068.58974318, 4098.97435863, 4105.12820485, 4106.79487152, 4097.30769196, 4043.46153805, 4084.87179453, 4105.38461511, 4097.56410222, 4086.15384581, 4129.74358947,12.0
4085.89743555, 4090.38461504, 4098.71794837, 4064.74358933, 4103.07692280, 4104.23076896, 4104.74358947, 4107.17948691, 4059.99999959, 4091.41025607, 4104.87179460, 4100.25640991, 4091.02564068, 4119.10256383,12.0
4089.23076889, 4095.64102530, 4101.28205094, 4068.84615343, 4099.74358940, 4108.20512793, 4109.10256383, 4109.99999973, 4063.97435856, 4098.71794837, 4112.43589716, 4108.33333306, 4093.58974325, 4121.66666639,12.0
4089.35897402, 4099.99999966, 4107.94871767, 4073.46153812, 4097.82051248, 4110.25640998, 4116.02564075, 4107.69230742, 4058.07692266, 4101.66666632, 4116.02564075, 4113.46153819, 4091.66666632, 4123.33333306,12.0
4086.41025607, 4099.74358940, 4109.48717921, 4074.61538427, 4092.05128171, 4100.38461504, 4108.20512793, 4109.87179460, 4064.35897395, 4100.76923043, 4107.30769203, 4108.97435870, 4091.02564068, 4120.25640998,12.0
4086.41025607, 4098.07692273, 4100.89743555, 4075.89743555, 4083.84615350, 4089.99999966, 4096.02564068, 4112.94871767, 4064.99999959, 4095.76923043, 4101.02564068, 4101.92307658, 4091.92307658, 4120.89743562,12.0
4087.17948684, 4093.33333299, 4092.82051248, 4074.23076889, 4085.25640991, 4092.56410222, 4096.41025607, 4107.05128178, 4052.43589702, 4090.12820478, 4100.76923043, 4094.99999966, 4087.17948684, 4116.79487152,12.0
4087.82051248, 4089.74358940, 4095.51282017, 4074.99999966, 4089.61538427, 4095.64102530, 4100.64102530, 4100.25640991, 4050.38461497, 4090.89743555, 4102.17948684, 4096.28205094, 4085.64102530, 4114.87179460,12.0
4087.30769196, 4090.38461504, 4098.46153812, 4079.99999966, 4080.89743555, 4094.10256376, 4097.94871761, 4100.51282017, 4057.43589702, 4090.76923043, 4102.17948684, 4101.53846119, 4087.94871761, 4121.92307665,12.0
4088.33333299, 4099.74358940, 4097.82051248, 4086.53846119, 4081.41025607, 4101.41025607, 4103.97435870, 4106.15384588, 4060.76923036, 4091.92307658, 4101.66666632, 4101.28205094, 4089.74358940, 4124.48717921,12.0
4085.64102530, 4103.33333306, 4089.48717914, 4087.56410222, 4100.76923043, 4107.30769203, 4111.53846126, 4104.99999973, 4058.58974318, 4096.92307658, 4101.28205094, 4094.99999966, 4088.97435863, 4116.79487152,12.0
4076.92307658, 4091.28205094, 4076.41025607, 4077.82051248, 4102.69230742, 4095.89743555, 4107.43589716, 4099.99999966, 4054.61538420, 4097.17948684, 4097.43589709, 4088.20512786, 4090.12820478, 4120.51282024,12.0
4077.69230735, 4088.33333299, 4078.84615350, 4074.48717914, 4090.89743555, 4092.43589709, 4110.25640998, 4107.05128178, 4058.97435856, 4095.76923043, 4097.17948684, 4090.64102530, 4094.23076889, 4135.38461518,12.0
4086.79487145, 4096.79487145, 4090.25640991, 4084.35897402, 4091.28205094, 4099.10256376, 4110.12820485, 4113.71794844, 4065.76923036, 4097.43589709, 4099.48717914, 4093.07692273, 4094.35897402, 4126.53846126,12.0
4088.71794837, 4098.07692273, 4090.76923043, 4086.53846119, 4095.12820478, 4093.58974325, 4099.10256376, 4108.97435870, 4063.97435856, 4099.74358940, 4097.30769196, 4087.30769196, 4092.94871761, 4116.41025614,12.0
4082.30769196, 4090.38461504, 4085.51282017, 4076.41025607, 4090.25640991, 4088.97435863, 4095.76923043, 4100.64102530, 4055.64102523, 4097.30769196, 4093.97435863, 4085.64102530, 4092.05128171, 4125.64102537,12.0
4076.53846119, 4088.84615350, 4089.23076889, 4073.46153812, 4092.69230735, 4097.94871761, 4101.92307658, 4099.74358940, 4053.84615343, 4097.30769196, 4098.58974325, 4092.17948684, 4090.89743555, 4124.87179460,12.0
4081.28205094, 4100.51282017, 4104.61538434, 4088.20512786, 4102.82051255, 4108.58974332, 4110.38461511, 4111.79487152, 4068.71794830, 4108.20512793, 4112.05128178, 4103.97435870, 4098.33333299, 4118.84615357,12.0
4085.76923043, 4106.02564075, 4113.33333306, 4095.76923043, 4097.17948684, 4109.99999973, 4116.02564075, 4114.74358947, 4074.23076889, 4115.76923050, 4116.02564075, 4112.82051255, 4106.28205101, 4119.10256383,12.0
4073.33333299, 4088.58974325, 4101.41025607, 4074.35897402, 4079.87179453, 4098.71794837, 4103.84615357, 4096.28205094, 4052.17948677, 4104.87179460, 4104.23076896, 4106.41025614, 4096.28205094, 4118.46153819,12.0
4069.48717907, 4082.94871761, 4099.74358940, 4067.69230728, 4088.97435863, 4094.48717914, 4096.66666632, 4091.92307658, 4046.28205087, 4099.23076889, 4104.23076896, 4108.20512793, 4090.64102530, 4119.87179460,12.0
4092.30769196, 4109.10256383, 4121.15384588, 4096.28205094, 4114.48717921, 4111.41025614, 4121.02564075, 4109.23076896, 4063.71794830, 4109.23076896, 4119.35897408, 4127.82051255, 4103.33333306, 4122.30769203,12.0
4102.94871767, 4115.76923050, 4125.76923050, 4107.43589716, 4113.20512793, 4115.64102537, 4127.82051255, 4113.97435870, 4068.07692266, 4110.25640998, 4117.69230742, 4129.35897408, 4104.61538434, 4114.99999973,12.0
4091.92307658, 4098.58974325, 4116.53846126, 4091.41025607, 4102.69230742, 4102.69230742, 4107.82051255, 4108.58974332, 4067.05128164, 4107.82051255, 4108.58974332, 4116.02564075, 4096.28205094, 4113.46153819,12.0
4097.94871761, 4101.28205094, 4121.92307665, 4093.71794837, 4113.58974332, 4109.48717921, 4110.89743562, 4111.15384588, 4074.99999966, 4118.07692280, 4119.99999973, 4121.41025614, 4103.97435870, 4126.66666639,12.0
4111.79487152, 4114.35897408, 4128.20512793, 4108.46153819, 4126.79487152, 4121.15384588, 4120.76923050, 4113.33333306, 4077.82051248, 4126.92307665, 4133.97435870, 4130.89743562, 4114.48717921, 4128.71794844,12.0
4113.20512793, 4115.51282024, 4124.61538434, 4106.92307665, 4125.76923050, 4112.05128178, 4109.10256383, 4114.48717921, 4078.07692273, 4126.15384588, 4134.48717921, 4126.02564075, 4111.28205101, 4120.12820485,12.0
4118.20512793, 4118.71794844, 4126.41025614, 4107.17948691, 4119.74358947, 4108.58974332, 4108.71794844, 4123.58974332, 4085.64102530, 4126.92307665, 4134.99999973, 4124.87179460, 4111.53846126, 4124.35897408,12.0
4121.02564075, 4118.20512793, 4126.41025614, 4110.64102537, 4115.76923050, 4118.71794844, 4124.87179460, 4128.07692280, 4087.56410222, 4127.05128178, 4135.64102544, 4127.43589716, 4113.84615357, 4129.35897408,12.0
4113.97435870, 4108.46153819, 4115.76923050, 4104.23076896, 4106.79487152, 4119.23076896, 4121.53846126, 4119.87179460, 4081.41025607, 4123.58974332, 4131.66666639, 4123.20512793, 4106.79487152, 4120.25640998,12.0
4121.15384588, 4116.79487152, 4117.17948691, 4108.20512793, 4108.20512793, 4120.76923050, 4121.92307665, 4117.69230742, 4082.17948684, 4127.30769203, 4136.02564082, 4125.64102537, 4107.94871767, 4116.66666639,12.0
4124.10256383, 4119.61538434, 4115.64102537, 4110.64102537, 4120.51282024, 4122.30769203, 4126.79487152, 4112.56410229, 4072.05128171, 4122.43589716, 4131.92307665, 4124.10256383, 4105.25640998, 4118.84615357,12.0
4101.02564068, 4093.84615350, 4094.99999966, 4093.84615350, 4112.69230742, 4108.46153819, 4107.30769203, 4090.64102530, 4048.71794830, 4098.58974325, 4110.38461511, 4105.64102537, 4087.94871761, 4117.82051255,12.0
4097.94871761, 4087.17948684, 4090.76923043, 4086.79487145, 4101.92307658, 4106.41025614, 4105.64102537, 4090.25640991, 4052.30769189, 4094.23076889, 4104.23076896, 4097.30769196, 4089.10256376, 4119.48717921,12.0
4117.56410229, 4106.79487152, 4105.25640998, 4100.25640991, 4116.02564075, 4121.41025614, 4131.02564075, 4117.43589716, 4078.46153812, 4114.61538434, 4116.53846126, 4110.12820485, 4105.76923050, 4122.43589716,12.0
4119.10256383, 4112.43589716, 4107.82051255, 4107.56410229, 4125.12820485, 4128.20512793, 4141.66666646, 4127.82051255, 4082.30769196, 4120.76923050, 4118.20512793, 4115.51282024, 4105.89743562, 4121.66666639,12.0
4116.15384588, 4107.94871767, 4105.25640998, 4103.97435870, 4119.48717921, 4128.46153819, 4142.82051262, 4123.20512793, 4077.82051248, 4118.84615357, 4118.20512793, 4111.66666639, 4103.58974332, 4116.92307665,12.0
4115.51282024, 4104.99999973, 4102.56410229, 4098.46153812, 4111.02564075, 4120.38461511, 4129.61538434, 4125.38461511, 4085.12820478, 4119.23076896, 4120.51282024, 4109.10256383, 4108.20512793, 4120.64102537,12.0
4110.25640998, 4101.15384581, 4097.30769196, 4097.43589709, 4107.94871767, 4106.92307665, 4104.61538434, 4125.76923050, 4082.05128171, 4109.48717921, 4113.58974332, 4105.38461511, 4104.23076896, 4127.05128178,12.0
4115.12820485, 4105.76923050, 4105.25640998, 4103.71794844, 4114.87179460, 4109.74358947, 4105.51282024, 4119.61538434, 4075.25640991, 4108.20512793, 4116.15384588, 4109.35897408, 4103.33333306, 4122.30769203,12.0
4120.64102537, 4107.17948691, 4114.99999973, 4102.56410229, 4107.94871767, 4107.30769203, 4110.51282024, 4110.25640998, 4075.76923043, 4118.33333306, 4123.84615357, 4118.46153819, 4112.05128178, 4120.51282024,12.0
4117.56410229, 4103.20512793, 4110.76923050, 4095.25640991, 4094.35897402, 4094.10256376, 4100.25640991, 4103.71794844, 4073.20512786, 4119.35897408, 4118.71794844, 4118.84615357, 4114.23076896, 4123.84615357,12.0
4119.87179460, 4107.56410229, 4110.38461511, 4099.87179453, 4103.46153819, 4098.97435863, 4101.02564068, 4107.17948691, 4072.69230735, 4118.46153819, 4115.89743562, 4116.15384588, 4113.71794844, 4126.15384588,12.0
4126.02564075, 4112.69230742, 4117.69230742, 4107.56410229, 4117.17948691, 4111.66666639, 4111.28205101, 4114.99999973, 4080.38461504, 4124.99999973, 4121.28205101, 4121.92307665, 4114.87179460, 4123.71794844,12.0
4125.25640998, 4112.43589716, 4118.07692280, 4105.89743562, 4114.23076896, 4116.02564075, 4116.15384588, 4113.58974332, 4081.02564068, 4124.23076896, 4120.64102537, 4124.48717921, 4109.87179460, 4115.64102537,12.0
4121.02564075, 4114.10256383, 4117.69230742, 4105.64102537, 4113.07692280, 4117.17948691, 4116.53846126, 4104.87179460, 4070.25640991, 4119.10256383, 4114.61538434, 4116.92307665, 4108.20512793, 4122.82051255,12.0
4117.30769203, 4112.30769203, 4124.10256383, 4110.25640998, 4121.66666639, 4118.46153819, 4119.10256383, 4112.94871767, 4074.48717914, 4121.28205101, 4116.15384588, 4115.51282024, 4111.92307665, 4126.53846126,12.0
4115.64102537, 4111.15384588, 4129.48717921, 4112.05128178, 4121.92307665, 4122.43589716, 4122.82051255, 4118.07692280, 4079.48717914, 4116.53846126, 4117.56410229, 4119.87179460, 4107.94871767, 4118.07692280,12.0
4114.74358947, 4116.28205101, 4126.66666639, 4109.48717921, 4113.97435870, 4121.28205101, 4112.43589716, 4095.64102530, 4059.35897395, 4102.82051255, 4108.33333306, 4115.51282024, 4097.05128171, 4120.25640998,12.0
4107.30769203, 4111.53846126, 4119.74358947, 4102.43589709, 4112.05128178, 4108.58974332, 4093.46153812, 4087.30769196, 4049.35897395, 4100.89743555, 4097.69230735, 4105.38461511, 4091.41025607, 4121.79487152,12.0
4106.28205101, 4104.74358947, 4125.38461511, 4102.43589709, 4118.71794844, 4109.48717921, 4102.82051255, 4109.35897408, 4071.53846119, 4112.43589716, 4104.10256383, 4111.15384588, 4101.79487145, 4116.66666639,12.0
4104.35897408, 4106.02564075, 4129.87179460, 4104.35897408, 4106.66666639, 4114.10256383, 4109.23076896, 4111.02564075, 4078.58974325, 4114.61538434, 4113.33333306, 4116.15384588, 4109.35897408, 4113.97435870,12.0
4098.33333299, 4107.69230742, 4127.17948691, 4100.64102530, 4099.10256376, 4104.61538434, 4098.71794837, 4099.74358940, 4067.69230728, 4113.84615357, 4111.15384588, 4110.12820485, 4103.46153819, 4115.51282024,12.0
4108.20512793, 4113.33333306, 4138.33333313, 4102.05128171, 4121.92307665, 4109.48717921, 4115.64102537, 4113.20512793, 4078.33333299, 4123.84615357, 4117.56410229, 4120.25640998, 4107.94871767, 4121.15384588,12.0
4109.23076896, 4112.43589716, 4140.38461518, 4101.53846119, 4120.51282024, 4113.97435870, 4117.43589716, 4108.46153819, 4078.46153812, 4116.66666639, 4123.46153819, 4124.35897408, 4111.53846126, 4123.84615357,12.0
4088.07692273, 4096.41025607, 4119.35897408, 4095.64102530, 4094.61538427, 4097.05128171, 4080.76923043, 4078.33333299, 4050.64102523, 4092.82051248, 4106.28205101, 4103.71794844, 4094.48717914, 4117.30769203,12.0
4088.46153812, 4096.79487145, 4121.28205101, 4099.74358940, 4097.56410222, 4097.17948684, 4086.66666632, 4094.10256376, 4060.89743548, 4097.82051248, 4098.07692273, 4098.97435863, 4091.53846119, 4117.43589716,12.0
4116.15384588, 4119.99999973, 4149.61538441, 4114.61538434, 4122.43589716, 4125.38461511, 4134.35897408, 4133.07692280, 4098.07692273, 4124.99999973, 4118.97435870, 4121.53846126, 4114.74358947, 4123.84615357,12.0
4116.92307665, 4122.94871767, 4149.61538441, 4116.02564075, 4125.51282024, 4128.58974332, 4128.20512793, 4116.53846126, 4085.64102530, 4127.17948691, 4127.56410229, 4122.05128178, 4114.99999973, 4120.25640998,12.0
4093.07692273, 4104.74358947, 4124.61538434, 4101.66666632, 4108.20512793, 4103.33333306, 4087.30769196, 4085.64102530, 4054.87179446, 4108.84615357, 4105.25640998, 4097.69230735, 4090.51282017, 4117.30769203,12.0
4083.84615350, 4097.43589709, 4111.66666639, 4094.74358940, 4104.61538434, 4098.07692273, 4085.89743555, 4094.23076889, 4061.66666625, 4096.28205094, 4085.12820478, 4084.48717914, 4079.61538427, 4119.99999973,12.0
4080.89743555, 4093.46153812, 4104.74358947, 4093.71794837, 4105.12820485, 4108.07692280, 4096.92307658, 4099.99999966, 4065.64102523, 4087.56410222, 4076.79487145, 4077.05128171, 4078.46153812, 4118.58974332,12.0
4076.02564068, 4088.71794837, 4098.33333299, 4088.07692273, 4093.07692273, 4109.74358947, 4097.56410222, 4094.87179453, 4053.71794830, 4083.33333299, 4071.79487145, 4071.28205094, 4075.76923043, 4119.74358947,12.0
4079.87179453, 4094.87179453, 4102.05128171, 4088.58974325, 4093.71794837, 4112.05128178, 4103.71794844, 4100.89743555, 4058.07692266, 4087.17948684, 4073.20512786, 4075.89743555, 4080.64102530, 4129.61538434,12.0
4085.89743555, 4098.20512786, 4105.51282024, 4090.89743555, 4109.87179460, 4111.92307665, 4108.71794844, 4101.28205094, 4064.10256369, 4093.97435863, 4078.84615350, 4078.46153812, 4087.30769196, 4124.35897408,12.0
4089.23076889, 4097.30769196, 4106.53846126, 4091.15384581, 4111.53846126, 4109.10256383, 4114.35897408, 4100.89743555, 4064.74358933, 4102.05128171, 4084.48717914, 4082.82051248, 4091.02564068, 4117.30769203,12.0
4095.64102530, 4101.28205094, 4110.76923050, 4097.82051248, 4108.07692280, 4119.10256383, 4126.79487152, 4116.66666639, 4076.15384581, 4106.28205101, 4084.61538427, 4097.43589709, 4094.87179453, 4124.99999973,12.0
4094.99999966, 4096.79487145, 4107.56410229, 4095.12820478, 4107.30769203, 4120.89743562, 4124.10256383, 4116.66666639, 4076.15384581, 4096.92307658, 4078.07692273, 4096.53846119, 4090.89743555, 4122.56410229,12.0
4090.76923043, 4092.69230735, 4106.28205101, 4087.30769196, 4103.71794844, 4113.97435870, 4123.84615357, 4107.69230742, 4066.15384574, 4091.41025607, 4082.05128171, 4088.84615350, 4088.71794837, 4120.38461511,12.0
4095.76923043, 4105.64102537, 4118.84615357, 4093.84615350, 4107.17948691, 4119.23076896, 4136.79487159, 4116.53846126, 4071.92307658, 4102.05128171, 4098.46153812, 4101.79487145, 4097.30769196, 4121.92307665,12.0
4095.38461504, 4106.28205101, 4121.66666639, 4096.53846119, 4102.82051255, 4110.89743562, 4118.46153819, 4111.79487152, 4076.28205094, 4105.51282024, 4105.51282024, 4110.76923050, 4098.71794837, 4119.35897408,12.0
4089.74358940, 4093.20512786, 4113.07692280, 4086.28205094, 4091.28205094, 4093.97435863, 4089.23076889, 4089.74358940, 4066.79487138, 4100.51282017, 4104.48717921, 4105.38461511, 4097.43589709, 4120.25640998,12.0
4091.66666632, 4097.17948684, 4113.58974332, 4084.48717914, 4089.74358940, 4098.58974325, 4094.74358940, 4087.82051248, 4059.74358933, 4104.23076896, 4107.94871767, 4103.97435870, 4102.30769196, 4122.56410229,12.0
4086.53846119, 4098.07692273, 4110.38461511, 4086.28205094, 4083.20512786, 4098.97435863, 4098.07692273, 4094.35897402, 4054.10256369, 4103.07692280, 4099.99999966, 4100.12820478, 4096.79487145, 4123.84615357,12.0
4075.76923043, 4087.94871761, 4098.97435863, 4079.48717914, 4081.66666632, 4088.20512786, 4084.23076889, 4087.30769196, 4055.51282010, 4093.84615350, 4086.79487145, 4091.66666632, 4087.56410222, 4120.25640998,12.0
4081.66666632, 4094.74358940, 4106.28205101, 4082.05128171, 4101.02564068, 4098.84615350, 4093.46153812, 4093.07692273, 4071.28205094, 4101.28205094, 4095.89743555, 4098.20512786, 4095.64102530, 4119.23076896,12.0
4094.87179453, 4109.48717921, 4121.02564075, 4091.15384581, 4113.84615357, 4115.76923050, 4117.30769203, 4115.64102537, 4083.20512786, 4114.48717921, 4112.94871767, 4111.53846126, 4105.64102537, 4124.61538434,12.0
4086.41025607, 4101.02564068, 4107.82051255, 4084.61538427, 4104.35897408, 4112.56410229, 4112.43589716, 4108.46153819, 4073.07692273, 4101.79487145, 4103.71794844, 4103.07692280, 4094.48717914, 4123.07692280,12.0
4074.87179453, 4088.20512786, 4094.61538427, 4076.79487145, 4101.02564068, 4105.25640998, 4102.94871767, 4091.02564068, 4060.25640984, 4088.07692273, 4088.20512786, 4090.38461504, 4083.58974325, 4117.43589716,12.0
4086.92307658, 4097.05128171, 4111.15384588, 4084.99999966, 4108.71794844, 4113.20512793, 4121.02564075, 4111.66666639, 4076.66666632, 4102.56410229, 4100.12820478, 4099.10256376, 4094.87179453, 4117.56410229,12.0
4089.35897402, 4101.02564068, 4114.48717921, 4087.94871761, 4103.20512793, 4114.87179460, 4119.10256383, 4118.84615357, 4085.38461504, 4107.30769203, 4110.89743562, 4101.79487145, 4098.58974325, 4121.79487152,12.0
4068.71794830, 4089.48717914, 4088.46153812, 4077.94871761, 4086.66666632, 4095.64102530, 4075.51282017, 4075.64102530, 4049.10256369, 4081.41025607, 4093.07692273, 4079.61538427, 4082.56410222, 4127.43589716,12.0
4061.15384574, 4086.15384581, 4076.02564068, 4075.12820478, 4087.56410222, 4090.51282017, 4064.99999959, 4062.94871754, 4032.82051234, 4072.82051248, 4077.56410222, 4064.23076882, 4077.82051248, 4123.07692280,12.0
4073.71794837, 4098.71794837, 4091.41025607, 4086.41025607, 4103.33333306, 4112.05128178, 4111.02564075, 4103.07692280, 4062.69230728, 4093.84615350, 4088.84615350, 4074.99999966, 4092.56410222, 4118.20512793,12.0
4074.61538427, 4102.69230742, 4100.64102530, 4091.92307658, 4100.64102530, 4118.33333306, 4127.56410229, 4116.79487152, 4071.28205094, 4097.82051248, 4096.66666632, 4084.74358940, 4098.97435863, 4121.28205101,12.0
4062.94871754, 4092.69230735, 4092.82051248, 4085.51282017, 4088.33333299, 4101.28205094, 4096.92307658, 4097.94871761, 4058.84615343, 4087.17948684, 4090.25640991, 4080.38461504, 4091.02564068, 4121.28205101,12.0
4062.94871754, 4090.89743555, 4088.84615350, 4083.20512786, 4088.58974325, 4093.71794837, 4081.28205094, 4091.53846119, 4061.66666625, 4089.10256376, 4092.17948684, 4079.23076889, 4087.94871761, 4122.69230742,12.0
4070.51282017, 4093.97435863, 4097.43589709, 4085.12820478, 4092.56410222, 4098.97435863, 4091.28205094, 4092.30769196, 4061.41025600, 4091.66666632, 4099.23076889, 4087.05128171, 4090.76923043, 4122.56410229,12.0
4073.46153812, 4093.97435863, 4105.64102537, 4084.87179453, 4093.84615350, 4105.76923050, 4101.02564068, 4093.20512786, 4060.89743548, 4090.76923043, 4099.23076889, 4093.46153812, 4095.38461504, 4119.87179460,12.0
4072.43589709, 4098.20512786, 4105.12820485, 4086.15384581, 4099.35897402, 4111.02564075, 4103.97435870, 4097.17948684, 4071.92307658, 4097.17948684, 4100.38461504, 4095.51282017, 4100.12820478, 4122.17948691,12.0
4073.97435863, 4101.92307658, 4106.15384588, 4087.05128171, 4104.48717921, 4108.84615357, 4103.71794844, 4100.38461504, 4074.10256376, 4101.79487145, 4101.66666632, 4099.74358940, 4098.07692273, 4121.66666639,12.0
4079.74358940, 4102.30769196, 4113.71794844, 4088.71794837, 4103.33333306, 4106.41025614, 4104.87179460, 4102.30769196, 4072.05128171, 4103.33333306, 4100.12820478, 4106.53846126, 4096.41025607, 4121.15384588,12.0
4085.12820478, 4107.94871767, 4119.10256383, 4094.61538427, 4110.51282024, 4118.84615357, 4123.33333306, 4110.38461511, 4079.87179453, 4109.99999973, 4108.58974332, 4110.12820485, 4104.48717921, 4121.02564075,12.0
4084.87179453, 4107.43589716, 4116.79487152, 4092.82051248, 4108.97435870, 4122.56410229, 4129.10256383, 4112.94871767, 4081.28205094, 4111.41025614, 4113.84615357, 4106.53846126, 4109.23076896, 4119.87179460,12.0
4081.02564068, 4098.33333299, 4114.99999973, 4087.05128171, 4088.33333299, 4102.56410229, 4101.53846119, 4099.10256376, 4069.99999966, 4105.25640998, 4104.10256383, 4104.87179460, 4103.58974332, 4121.02564075,12.0
4087.69230735, 4106.15384588, 4126.28205101, 4095.89743555, 4093.33333299, 4101.15384581, 4094.99999966, 4102.94871767, 4075.51282017, 4111.53846126, 4104.10256383, 4116.41025614, 4105.51282024, 4118.46153819,12.0
4098.97435863, 4118.58974332, 4135.76923056, 4107.82051255, 4119.74358947, 4114.35897408, 4111.15384588, 4120.64102537, 4093.97435863, 4120.89743562, 4115.51282024, 4125.25640998, 4115.51282024, 4120.64102537,12.0
4099.99999966, 4115.89743562, 4131.41025614, 4105.76923050, 4118.46153819, 4109.87179460, 4107.82051255, 4110.64102537, 4090.51282017, 4117.43589716, 4112.05128178, 4120.12820485, 4114.74358947, 4124.99999973,12.0
4088.71794837, 4105.25640998, 4119.48717921, 4093.97435863, 4100.51282017, 4100.51282017, 4089.99999966, 4086.41025607, 4067.30769189, 4105.12820485, 4097.05128171, 4106.28205101, 4099.61538427, 4118.71794844,12.0
4077.17948684, 4098.07692273, 4109.61538434, 4089.10256376, 4098.97435863, 4100.25640991, 4086.92307658, 4088.84615350, 4056.66666625, 4091.79487145, 4088.71794837, 4093.84615350, 4090.51282017, 4116.41025614,12.0
4088.84615350, 4108.97435870, 4119.99999973, 4100.76923043, 4114.87179460, 4108.33333306, 4104.23076896, 4108.97435870, 4072.17948684, 4098.33333299, 4093.97435863, 4099.87179453, 4102.17948684, 4121.28205101,12.0
4114.23076896, 4129.74358947, 4140.89743569, 4117.05128178, 4133.07692280, 4125.76923050, 4126.66666639, 4122.30769203, 4093.71794837, 4122.94871767, 4113.20512793, 4122.05128178, 4117.30769203, 4117.94871767,12.0
4110.38461511, 4125.38461511, 4133.71794844, 4112.82051255, 4133.20512793, 4130.89743562, 4127.05128178, 4124.35897408, 4092.17948684, 4120.12820485, 4113.58974332, 4118.84615357, 4109.23076896, 4115.51282024,12.0
4077.82051248, 4100.51282017, 4102.94871767, 4091.15384581, 4109.61538434, 4109.35897408, 4101.41025607, 4104.10256383, 4065.89743548, 4088.97435863, 4085.12820478, 4086.02564068, 4087.43589709, 4123.58974332,12.0
4058.97435856, 4091.53846119, 4086.28205094, 4076.66666632, 4091.53846119, 4094.10256376, 4086.28205094, 4083.71794837, 4048.33333292, 4073.07692273, 4065.89743548, 4069.99999966, 4078.20512786, 4123.84615357,12.0
4062.56410215, 4098.46153812, 4091.02564068, 4076.79487145, 4099.48717914, 4105.64102537, 4098.46153812, 4093.33333299, 4058.33333292, 4077.94871761, 4065.12820472, 4075.25640991, 4080.89743555, 4116.66666639,12.0
4074.61538427, 4109.35897408, 4103.58974332, 4091.02564068, 4121.66666639, 4126.41025614, 4121.92307665, 4113.20512793, 4077.94871761, 4093.58974325, 4074.99999966, 4084.87179453, 4089.99999966, 4123.58974332,12.0
4077.30769196, 4114.61538434, 4107.82051255, 4098.84615350, 4128.97435870, 4125.76923050, 4122.69230742, 4108.20512793, 4079.74358940, 4105.51282024, 4087.94871761, 4089.99999966, 4098.33333299, 4129.35897408,12.0
4062.69230728, 4103.07692280, 4091.53846119, 4085.89743555, 4113.46153819, 4108.46153819, 4099.48717914, 4088.84615350, 4060.89743548, 4094.87179453, 4080.51282017, 4079.99999966, 4090.51282017, 4118.84615357,12.0
4055.25640984, 4092.43589709, 4079.74358940, 4078.07692273, 4099.87179453, 4104.48717921, 4091.92307658, 4086.92307658, 4055.38461497, 4083.58974325, 4064.23076882, 4070.64102530, 4080.89743555, 4117.43589716,12.0
4066.79487138, 4100.12820478, 4095.51282017, 4087.56410222, 4105.12820485, 4111.28205101, 4105.12820485, 4101.92307658, 4073.33333299, 4098.20512786, 4074.99999966, 4082.82051248, 4090.76923043, 4123.07692280,12.0
4078.33333299, 4109.87179460, 4116.15384588, 4096.66666632, 4119.48717921, 4116.41025614, 4116.28205101, 4113.07692280, 4083.71794837, 4114.35897408, 4098.71794837, 4099.61538427, 4105.38461511, 4122.43589716,12.0
4080.38461504, 4105.64102537, 4113.71794844, 4096.92307658, 4112.82051255, 4114.23076896, 4108.20512793, 4106.66666639, 4077.30769196, 4107.56410229, 4099.99999966, 4101.28205094, 4103.46153819, 4122.17948691,12.0
4076.15384581, 4100.12820478, 4098.58974325, 4093.84615350, 4094.87179453, 4107.17948691, 4092.56410222, 4095.25640991, 4073.58974325, 4099.99999966, 4089.48717914, 4094.35897402, 4093.46153812, 4119.48717921,12.0
4069.23076882, 4101.92307658, 4094.99999966, 4092.94871761, 4104.99999973, 4099.10256376, 4086.41025607, 4091.66666632, 4075.25640991, 4103.58974332, 4083.84615350, 4088.84615350, 4094.61538427, 4121.41025614,12.0
4065.38461497, 4098.71794837, 4093.97435863, 4092.30769196, 4115.64102537, 4097.56410222, 4089.61538427, 4091.79487145, 4070.51282017, 4101.66666632, 4081.28205094, 4086.28205094, 4097.30769196, 4121.79487152,12.0
4059.48717907, 4087.82051248, 4080.89743555, 4086.41025607, 4099.35897402, 4103.58974332, 4099.99999966, 4100.25640991, 4067.82051241, 4090.38461504, 4073.97435863, 4083.46153812, 4087.30769196, 4118.07692280,12.0
4051.15384574, 4082.43589709, 4068.33333292, 4079.99999966, 4088.20512786, 4104.99999973, 4103.84615357, 4104.23076896, 4068.84615343, 4084.35897402, 4060.64102523, 4078.33333299, 4077.82051248, 4121.28205101,12.0
4050.76923036, 4082.43589709, 4066.79487138, 4077.94871761, 4089.74358940, 4098.84615350, 4092.82051248, 4090.64102530, 4063.58974318, 4083.84615350, 4054.48717907, 4073.71794837, 4078.71794837, 4121.53846126,12.0
4060.12820472, 4087.82051248, 4078.46153812, 4084.61538427, 4095.25640991, 4100.12820478, 4092.30769196, 4092.30769196, 4065.38461497, 4089.10256376, 4064.10256369, 4081.92307658, 4087.43589709, 4118.71794844,12.0
4067.30769189, 4096.53846119, 4090.25640991, 4092.43589709, 4110.51282024, 4110.25640998, 4108.84615357, 4108.84615357, 4079.23076889, 4099.23076889, 4075.51282017, 4091.15384581, 4093.84615350, 4121.53846126,12.0
4058.84615343, 4090.38461504, 4080.89743555, 4084.23076889, 4103.20512793, 4105.38461511, 4106.66666639, 4095.76923043, 4074.99999966, 4092.43589709, 4068.84615343, 4079.48717914, 4086.28205094, 4124.48717921,12.0
4053.97435856, 4081.15384581, 4068.71794830, 4076.53846119, 4084.48717914, 4099.48717914, 4098.97435863, 4081.79487145, 4064.74358933, 4086.28205094, 4063.33333292, 4072.69230735, 4082.94871761, 4123.07692280,12.0
4064.74358933, 4089.74358940, 4080.76923043, 4087.17948684, 4096.79487145, 4103.84615357, 4102.82051255, 4099.48717914, 4080.25640991, 4104.74358947, 4078.58974325, 4091.92307658, 4097.43589709, 4117.82051255,12.0
4077.05128171, 4101.79487145, 4100.51282017, 4099.23076889, 4113.46153819, 4105.38461511, 4107.56410229, 4112.94871767, 4097.94871761, 4124.61538434, 4097.94871761, 4111.41025614, 4109.99999973, 4120.51282024,12.0
4081.02564068, 4100.51282017, 4101.92307658, 4095.51282017, 4107.94871767, 4109.48717921, 4115.12820485, 4111.66666639, 4097.43589709, 4126.28205101, 4103.71794844, 4109.61538434, 4109.74358947, 4127.05128178,12.0
4069.87179453, 4090.76923043, 4089.99999966, 4084.35897402, 4096.41025607, 4105.89743562, 4106.41025614, 4105.89743562, 4089.99999966, 4117.30769203, 4093.33333299, 4094.48717914, 4102.56410229, 4122.94871767,12.0
4063.20512779, 4088.84615350, 4086.53846119, 4085.38461504, 4092.69230735, 4093.33333299, 4083.33333299, 4098.97435863, 4088.07692273, 4114.74358947, 4084.87179453, 4090.51282017, 4100.51282017, 4119.74358947,12.0
4077.69230735, 4099.99999966, 4096.92307658, 4096.66666632, 4102.30769196, 4100.64102530, 4091.41025607, 4109.48717921, 4102.56410229, 4128.33333306, 4096.41025607, 4105.38461511, 4108.58974332, 4120.76923050,12.0
4091.41025607, 4107.94871767, 4109.61538434, 4104.99999973, 4111.92307665, 4120.12820485, 4117.43589716, 4121.28205101, 4112.56410229, 4135.76923056, 4110.89743562, 4115.12820485, 4114.87179460, 4120.76923050,12.0
4093.58974325, 4104.99999973, 4115.25640998, 4106.41025614, 4102.82051255, 4121.15384588, 4118.58974332, 4111.15384588, 4100.51282017, 4124.74358947, 4106.79487152, 4112.94871767, 4112.69230742, 4121.53846126,12.0
4100.64102530, 4105.25640998, 4120.38461511, 4106.66666639, 4108.20512793, 4124.10256383, 4124.48717921, 4114.35897408, 4104.35897408, 4127.17948691, 4103.07692280, 4117.17948691, 4113.07692280, 4120.89743562,12.0
4106.41025614, 4108.46153819, 4128.20512793, 4107.05128178, 4134.10256383, 4135.76923056, 4144.99999980, 4135.38461518, 4127.30769203, 4137.05128185, 4110.38461511, 4125.12820485, 4115.12820485, 4121.15384588,12.0
4101.02564068, 4105.38461511, 4127.30769203, 4103.97435870, 4133.46153819, 4130.89743562, 4141.28205108, 4133.46153819, 4126.79487152, 4125.38461511, 4106.41025614, 4121.15384588, 4108.33333306, 4121.41025614,12.0
4101.79487145, 4101.79487145, 4119.48717921, 4100.51282017, 4116.28205101, 4124.99999973, 4131.66666639, 4126.02564075, 4116.28205101, 4122.69230742, 4097.17948684, 4113.58974332, 4106.41025614, 4119.74358947,12.0
4107.82051255, 4101.79487145, 4120.12820485, 4103.97435870, 4118.97435870, 4130.38461511, 4142.17948697, 4138.58974339, 4121.92307665, 4139.99999980, 4100.89743555, 4118.84615357, 4115.51282024, 4118.46153819,12.0
4107.69230742, 4101.28205094, 4122.56410229, 4108.71794844, 4125.12820485, 4130.25640998, 4148.33333313, 4143.84615364, 4127.30769203, 4139.74358954, 4104.48717921, 4126.02564075, 4117.56410229, 4121.02564075,12.0
4111.41025614, 4104.99999973, 4120.12820485, 4109.74358947, 4119.61538434, 4124.61538434, 4131.28205101, 4128.33333306, 4120.64102537, 4123.46153819, 4101.41025607, 4122.05128178, 4111.92307665, 4126.28205101,12.0
4112.05128178, 4109.87179460, 4120.76923050, 4110.38461511, 4114.48717921, 4115.51282024, 4108.20512793, 4110.76923050, 4104.23076896, 4113.97435870, 4095.51282017, 4110.12820485, 4107.56410229, 4125.12820485,12.0
4101.41025607, 4105.38461511, 4118.07692280, 4109.35897408, 4114.61538434, 4104.99999973, 4100.64102530, 4104.23076896, 4094.61538427, 4110.64102537, 4086.92307658, 4103.20512793, 4104.61538434, 4117.94871767,12.0
4099.61538427, 4101.41025607, 4108.20512793, 4110.12820485, 4115.38461511, 4113.20512793, 4107.94871767, 4109.87179460, 4102.94871767, 4114.99999973, 4087.56410222, 4107.17948691, 4104.74358947, 4115.38461511,12.0
4110.51282024, 4107.43589716, 4107.82051255, 4115.12820485, 4110.51282024, 4125.38461511, 4116.41025614, 4117.94871767, 4110.89743562, 4123.07692280, 4097.69230735, 4111.92307665, 4106.66666639, 4120.12820485,12.0
4110.12820485, 4108.97435870, 4114.10256383, 4113.97435870, 4110.51282024, 4115.76923050, 4115.89743562, 4113.84615357, 4103.97435870, 4118.20512793, 4097.82051248, 4108.84615357, 4103.84615357, 4124.10256383,12.0
4109.35897408, 4107.56410229, 4116.92307665, 4112.69230742, 4123.07692280, 4113.46153819, 4121.92307665, 4117.17948691, 4104.87179460, 4114.23076896, 4096.66666632, 4109.35897408, 4103.71794844, 4122.05128178,12.0
4118.20512793, 4108.58974332, 4119.10256383, 4115.38461511, 4126.53846126, 4122.94871767, 4124.99999973, 4123.97435870, 4110.25640998, 4119.10256383, 4103.97435870, 4116.41025614, 4108.97435870, 4119.99999973,12.0
4117.30769203, 4109.61538434, 4125.51282024, 4115.25640998, 4119.61538434, 4124.99999973, 4124.87179460, 4116.79487152, 4105.76923050, 4122.05128178, 4106.02564075, 4122.05128178, 4112.56410229, 4121.92307665,12.0
4116.15384588, 4111.79487152, 4136.02564082, 4114.87179460, 4124.61538434, 4130.89743562, 4142.30769210, 4122.82051255, 4116.15384588, 4131.79487152, 4111.66666639, 4128.71794844, 4118.20512793, 4119.48717921,12.0
4122.43589716, 4112.82051255, 4140.51282031, 4116.66666639, 4125.64102537, 4129.48717921, 4143.20512800, 4134.99999973, 4133.20512793, 4141.15384595, 4120.12820485, 4134.99999973, 4124.87179460, 4120.89743562,12.0
4118.71794844, 4108.58974332, 4134.61538434, 4115.38461511, 4113.46153819, 4113.33333306, 4120.89743562, 4123.46153819, 4122.05128178, 4136.79487159, 4116.79487152, 4130.12820485, 4124.23076896, 4125.89743562,12.0
4111.79487152, 4104.74358947, 4127.82051255, 4112.56410229, 4112.17948691, 4107.17948691, 4117.56410229, 4112.30769203, 4104.61538434, 4129.61538434, 4111.66666639, 4123.20512793, 4117.05128178, 4121.28205101,12.0
4113.71794844, 4107.43589716, 4126.02564075, 4114.10256383, 4118.84615357, 4111.79487152, 4123.07692280, 4123.07692280, 4114.87179460, 4127.69230742, 4113.46153819, 4127.82051255, 4114.48717921, 4119.87179460,12.0
4111.28205101, 4107.69230742, 4121.15384588, 4111.66666639, 4112.69230742, 4110.76923050, 4108.33333306, 4125.64102537, 4124.35897408, 4122.56410229, 4111.79487152, 4130.12820485, 4115.89743562, 4120.12820485,12.0
4113.20512793, 4109.74358947, 4122.30769203, 4114.35897408, 4106.53846126, 4117.30769203, 4108.20512793, 4118.20512793, 4114.87179460, 4121.41025614, 4113.46153819, 4130.89743562, 4116.28205101, 4118.33333306,12.0
4120.51282024, 4115.89743562, 4131.53846126, 4122.94871767, 4117.30769203, 4124.23076896, 4123.84615357, 4112.69230742, 4103.97435870, 4124.10256383, 4119.61538434, 4136.15384595, 4115.64102537, 4121.66666639,12.0
