AF3,F7,F3,FC5,T7,P7,O1,O2,P8,T8,FC6,F4,F8,AF4,Label
4129.87179460, 4121.41025614, 4124.61538434, 4134.87179460, 4119.61538434, 4090.12820478, 4123.71794844, 4122.56410229, 4121.15384588, 4129.23076896, 4117.56410229, 4122.05128178, 4130.51282024, 4126.41025614,12.0
4106.28205101, 4109.61538434, 4103.71794844, 4120.76923050, 4111.79487152, 4081.53846119, 4105.38461511, 4109.87179460, 4103.46153819, 4107.69230742, 4098.58974325, 4099.61538427, 4111.41025614, 4126.66666639,12.0
4113.46153819, 4121.79487152, 4111.28205101, 4130.89743562, 4128.84615357, 4090.76923043, 4116.53846126, 4121.66666639, 4119.61538434, 4117.05128178, 4102.69230742, 4104.35897408, 4108.97435870, 4128.33333306,12.0
4123.58974332, 4129.61538434, 4118.97435870, 4140.64102544, 4129.99999973, 4095.38461504, 4123.71794844, 4124.87179460, 4123.07692280, 4125.25640998, 4109.23076896, 4111.92307665, 4117.17948691, 4125.51282024,12.0
4122.17948691, 4127.05128178, 4116.02564075, 4140.76923056, 4119.48717921, 4096.02564068, 4123.97435870, 4125.38461511, 4120.76923050, 4122.30769203, 4111.02564075, 4111.53846126, 4122.17948691, 4127.43589716,12.0
4118.33333306, 4117.94871767, 4111.79487152, 4134.87179460, 4115.25640998, 4090.89743555, 4127.43589716, 4133.84615357, 4132.94871767, 4123.33333306, 4112.56410229, 4109.61538434, 4120.76923050, 4129.74358947,12.0
4128.84615357, 4117.94871767, 4121.28205101, 4139.23076903, 4118.71794844, 4090.89743555, 4136.66666646, 4147.05128185, 4154.87179467, 4138.20512800, 4122.43589716, 4118.07692280, 4129.74358947, 4125.64102537,12.0
4137.56410236, 4125.38461511, 4133.20512793, 4152.30769210, 4125.64102537, 4099.61538427, 4139.99999980, 4143.71794851, 4153.46153826, 4144.10256390, 4131.41025614, 4125.51282024, 4133.84615357, 4124.10256383,12.0
4115.12820485, 4111.79487152, 4117.43589716, 4143.46153826, 4113.46153819, 4089.48717914, 4116.79487152, 4114.61538434, 4116.79487152, 4117.30769203, 4111.66666639, 4104.99999973, 4112.56410229, 4125.64102537,12.0
4103.33333306, 4104.99999973, 4108.46153819, 4137.94871774, 4103.20512793, 4081.28205094, 4103.58974332, 4104.48717921, 4100.89743555, 4104.74358947, 4093.84615350, 4097.69230735, 4101.79487145, 4128.07692280,12.0
4130.76923050, 4130.64102537, 4140.12820492, 4165.64102544, 4124.99999973, 4096.79487145, 4121.02564075, 4120.89743562, 4119.61538434, 4130.89743562, 4115.51282024, 4135.25640998, 4124.23076896, 4126.28205101,12.0
4140.12820492, 4141.79487159, 4155.76923056, 4177.56410243, 4136.41025621, 4097.43589709, 4117.82051255, 4119.74358947, 4122.94871767, 4137.56410236, 4131.66666639, 4156.02564082, 4136.79487159, 4120.89743562,12.0
4112.05128178, 4120.89743562, 4124.61538434, 4154.10256390, 4113.84615357, 4075.38461504, 4097.56410222, 4101.53846119, 4106.15384588, 4109.74358947, 4107.43589716, 4126.41025614, 4111.92307665, 4122.69230742,12.0
4101.92307658, 4114.74358947, 4106.53846126, 4147.94871774, 4108.33333306, 4071.53846119, 4103.46153819, 4102.43589709, 4105.38461511, 4101.02564068, 4093.84615350, 4105.76923050, 4099.48717914, 4125.76923050,12.0
4113.33333306, 4123.71794844, 4112.30769203, 4158.33333313, 4121.02564075, 4082.30769196, 4116.02564075, 4109.35897408, 4108.71794844, 4104.87179460, 4100.64102530, 4111.02564075, 4110.51282024, 4123.07692280,12.0
4120.38461511, 4122.82051255, 4110.51282024, 4156.66666646, 4117.69230742, 4091.66666632, 4124.35897408, 4117.69230742, 4114.35897408, 4103.07692280, 4099.23076889, 4110.51282024, 4113.84615357, 4123.20512793,12.0
4112.94871767, 4113.97435870, 4095.76923043, 4145.89743569, 4104.61538434, 4091.79487145, 4126.02564075, 4123.46153819, 4120.76923050, 4105.89743562, 4091.79487145, 4093.84615350, 4105.51282024, 4127.05128178,12.0
4102.17948684, 4111.28205101, 4086.15384581, 4140.64102544, 4106.41025614, 4087.43589709, 4116.28205101, 4118.84615357, 4118.20512793, 4110.89743562, 4092.56410222, 4083.33333299, 4104.99999973, 4125.89743562,12.0
4111.28205101, 4122.69230742, 4098.84615350, 4148.46153826, 4118.46153819, 4096.15384581, 4117.82051255, 4121.79487152, 4126.41025614, 4118.33333306, 4105.89743562, 4095.25640991, 4118.07692280, 4124.74358947,12.0
4110.89743562, 4122.17948691, 4099.61538427, 4148.07692287, 4108.97435870, 4093.20512786, 4114.23076896, 4113.33333306, 4120.64102537, 4114.35897408, 4103.07692280, 4095.38461504, 4115.12820485, 4127.17948691,12.0
4090.38461504, 4107.17948691, 4077.30769196, 4133.07692280, 4094.87179453, 4075.25640991, 4092.94871761, 4093.20512786, 4092.30769196, 4098.07692273, 4082.30769196, 4075.25640991, 4096.41025607, 4128.07692280,12.0
4093.33333299, 4113.71794844, 4078.58974325, 4136.79487159, 4112.30769203, 4087.82051248, 4101.02564068, 4102.30769196, 4093.58974325, 4097.30769196, 4081.53846119, 4078.20512786, 4093.84615350, 4127.82051255,12.0
4115.51282024, 4133.71794844, 4102.30769196, 4157.30769210, 4133.71794844, 4117.82051255, 4133.58974332, 4126.66666639, 4123.33333306, 4115.25640998, 4100.51282017, 4101.15384581, 4110.64102537, 4127.82051255,12.0
4112.82051255, 4128.58974332, 4103.84615357, 4153.97435877, 4122.43589716, 4110.64102537, 4126.28205101, 4122.30769203, 4123.07692280, 4116.79487152, 4102.30769196, 4102.43589709, 4114.74358947, 4125.51282024,12.0
4096.79487145, 4109.74358947, 4089.10256376, 4135.51282031, 4104.23076896, 4087.82051248, 4101.66666632, 4110.51282024, 4107.05128178, 4103.33333306, 4090.12820478, 4089.74358940, 4102.82051255, 4123.71794844,12.0
4092.69230735, 4105.12820485, 4085.38461504, 4130.51282024, 4099.99999966, 4088.97435863, 4104.48717921, 4113.20512793, 4107.94871767, 4095.12820478, 4085.25640991, 4087.43589709, 4094.48717914, 4123.84615357,12.0
4095.51282017, 4113.97435870, 4093.84615350, 4135.51282031, 4107.94871767, 4099.10256376, 4118.07692280, 4117.17948691, 4113.97435870, 4098.46153812, 4089.23076889, 4094.87179453, 4101.02564068, 4125.25640998,12.0
4109.23076896, 4128.33333306, 4113.58974332, 4147.94871774, 4131.66666639, 4110.76923050, 4133.97435870, 4137.05128185, 4142.56410236, 4125.64102537, 4109.10256383, 4114.74358947, 4121.53846126, 4126.28205101,12.0
4108.58974332, 4124.87179460, 4114.87179460, 4149.61538441, 4127.94871767, 4111.53846126, 4135.76923056, 4138.84615364, 4150.38461518, 4136.79487159, 4114.48717921, 4116.66666639, 4120.51282024, 4127.69230742,12.0
4092.05128171, 4111.28205101, 4095.51282017, 4136.79487159, 4103.46153819, 4099.87179453, 4120.38461511, 4111.15384588, 4114.74358947, 4112.17948691, 4094.23076889, 4096.02564068, 4100.25640991, 4127.30769203,12.0
4091.92307658, 4114.74358947, 4093.33333299, 4131.15384588, 4110.12820485, 4099.99999966, 4113.33333306, 4107.56410229, 4105.38461511, 4106.66666639, 4094.35897402, 4088.58974325, 4102.69230742, 4125.76923050,12.0
4108.20512793, 4128.07692280, 4113.46153819, 4142.30769210, 4134.10256383, 4114.23076896, 4121.66666639, 4125.64102537, 4131.02564075, 4131.15384588, 4119.35897408, 4104.87179460, 4120.38461511, 4127.30769203,12.0
4117.43589716, 4131.02564075, 4124.10256383, 4152.94871774, 4138.33333313, 4121.28205101, 4126.02564075, 4128.58974332, 4137.56410236, 4137.69230749, 4124.87179460, 4114.10256383, 4123.20512793, 4128.33333306,12.0
4119.10256383, 4127.30769203, 4117.56410229, 4151.02564082, 4133.20512793, 4120.38461511, 4121.28205101, 4125.25640998, 4129.87179460, 4128.07692280, 4113.84615357, 4105.89743562, 4118.97435870, 4125.89743562,12.0
4123.20512793, 4128.71794844, 4115.12820485, 4150.38461518, 4134.10256383, 4121.79487152, 4117.56410229, 4125.89743562, 4130.12820485, 4127.56410229, 4117.69230742, 4104.35897408, 4121.28205101, 4127.05128178,12.0
4125.38461511, 4130.51282024, 4120.12820485, 4152.69230749, 4138.33333313, 4124.10256383, 4123.71794844, 4129.23076896, 4139.23076903, 4131.66666639, 4131.28205101, 4109.61538434, 4126.15384588, 4128.33333306,12.0
4121.41025614, 4120.51282024, 4118.84615357, 4146.15384595, 4138.20512800, 4123.07692280, 4127.94871767, 4136.41025621, 4150.64102544, 4130.89743562, 4135.76923056, 4105.76923050, 4125.64102537, 4125.51282024,12.0
4113.97435870, 4106.66666639, 4111.92307665, 4132.56410229, 4124.61538434, 4117.30769203, 4114.99999973, 4129.35897408, 4135.38461518, 4121.41025614, 4133.33333306, 4097.05128171, 4118.71794844, 4126.53846126,12.0
4114.10256383, 4108.71794844, 4112.05128178, 4124.48717921, 4118.97435870, 4114.87179460, 4111.66666639, 4114.87179460, 4114.48717921, 4113.46153819, 4134.35897408, 4097.94871761, 4117.30769203, 4129.35897408,12.0
4115.51282024, 4112.69230742, 4107.94871767, 4120.12820485, 4123.84615357, 4117.94871767, 4125.76923050, 4119.74358947, 4123.46153819, 4114.87179460, 4135.38461518, 4095.64102530, 4118.46153819, 4127.05128178,12.0
4121.28205101, 4118.20512793, 4113.33333306, 4129.35897408, 4127.82051255, 4125.25640998, 4139.87179467, 4146.66666646, 4155.89743569, 4135.89743569, 4148.07692287, 4100.76923043, 4131.53846126, 4124.35897408,12.0
4151.28205108, 4146.53846133, 4155.25641005, 4162.82051262, 4153.33333313, 4144.10256390, 4160.25641005, 4177.56410243, 4195.89743576, 4178.33333320, 4181.15384602, 4137.82051262, 4162.56410236, 4124.61538434,12.0
4158.84615364, 4152.05128185, 4165.51282031, 4167.05128185, 4161.66666646, 4145.51282031, 4152.05128185, 4162.56410236, 4184.35897422, 4180.64102551, 4181.53846140, 4146.28205108, 4159.74358954, 4128.84615357,12.0
4130.38461511, 4121.92307665, 4126.92307665, 4141.15384595, 4130.25640998, 4122.30769203, 4117.56410229, 4123.20512793, 4135.38461518, 4140.12820492, 4152.30769210, 4117.43589716, 4128.84615357, 4130.38461511,12.0
4127.05128178, 4116.41025614, 4125.12820485, 4144.23076903, 4122.05128178, 4118.84615357, 4116.28205101, 4128.84615357, 4139.99999980, 4134.48717921, 4154.10256390, 4119.99999973, 4131.53846126, 4125.76923050,12.0
4146.28205108, 4135.12820485, 4158.07692287, 4163.33333313, 4144.23076903, 4135.25640998, 4135.38461518, 4151.41025621, 4171.79487166, 4155.89743569, 4172.05128192, 4142.43589723, 4149.74358954, 4124.23076896,12.0
4141.66666646, 4131.53846126, 4156.02564082, 4154.74358954, 4142.69230749, 4141.79487159, 4129.74358947, 4139.10256390, 4155.76923056, 4149.74358954, 4165.64102544, 4135.38461518, 4142.69230749, 4127.30769203,12.0
4123.46153819, 4114.87179460, 4125.38461511, 4132.82051255, 4124.61538434, 4139.35897415, 4120.38461511, 4121.53846126, 4126.41025614, 4128.97435870, 4148.71794851, 4115.38461511, 4125.38461511, 4127.82051255,12.0
4123.46153819, 4114.35897408, 4115.89743562, 4129.10256383, 4122.17948691, 4134.99999973, 4124.23076896, 4124.61538434, 4123.46153819, 4121.53846126, 4141.92307672, 4111.79487152, 4119.74358947, 4127.43589716,12.0
4141.02564082, 4126.28205101, 4131.79487152, 4145.64102544, 4130.12820485, 4138.33333313, 4133.84615357, 4138.20512800, 4144.74358954, 4138.46153826, 4156.53846133, 4126.53846126, 4133.84615357, 4128.71794844,12.0
4151.28205108, 4131.66666639, 4139.74358954, 4153.46153826, 4135.76923056, 4147.82051262, 4145.89743569, 4146.92307672, 4164.48717928, 4158.46153826, 4174.10256397, 4136.28205108, 4146.92307672, 4128.84615357,12.0
4142.17948697, 4127.17948691, 4129.35897408, 4140.76923056, 4139.10256390, 4146.53846133, 4145.38461518, 4139.10256390, 4149.99999980, 4152.05128185, 4164.10256390, 4124.48717921, 4134.10256383, 4126.41025614,12.0
4128.58974332, 4118.20512793, 4118.33333306, 4128.58974332, 4136.79487159, 4137.94871774, 4133.97435870, 4128.46153819, 4132.30769203, 4132.82051255, 4143.46153826, 4108.97435870, 4118.58974332, 4126.66666639,12.0
4118.46153819, 4109.48717921, 4106.41025614, 4121.66666639, 4118.84615357, 4137.82051262, 4128.58974332, 4128.46153819, 4132.94871767, 4116.28205101, 4131.02564075, 4097.17948684, 4113.20512793, 4129.61538434,12.0
4112.56410229, 4108.07692280, 4096.92307658, 4117.05128178, 4109.61538434, 4142.94871774, 4130.64102537, 4130.51282024, 4134.87179460, 4112.69230742, 4124.48717921, 4090.76923043, 4111.79487152, 4128.71794844,12.0
4122.30769203, 4119.10256383, 4107.30769203, 4122.30769203, 4130.25640998, 4149.74358954, 4135.12820485, 4132.82051255, 4139.74358954, 4123.97435870, 4131.28205101, 4104.74358947, 4120.25640998, 4128.71794844,12.0
4133.07692280, 4125.51282024, 4117.17948691, 4130.51282024, 4139.23076903, 4151.66666646, 4131.28205101, 4136.79487159, 4143.71794851, 4122.17948691, 4139.74358954, 4120.89743562, 4127.05128178, 4128.58974332,12.0
4133.71794844, 4121.92307665, 4114.10256383, 4130.51282024, 4129.61538434, 4146.28205108, 4127.82051255, 4139.74358954, 4143.33333313, 4114.23076896, 4137.30769210, 4124.10256383, 4126.79487152, 4124.87179460,12.0
4137.05128185, 4122.43589716, 4114.35897408, 4127.69230742, 4129.48717921, 4143.58974339, 4132.30769203, 4138.84615364, 4144.87179467, 4123.84615357, 4142.30769210, 4132.17948691, 4129.87179460, 4125.25640998,12.0
4131.53846126, 4117.05128178, 4113.84615357, 4125.89743562, 4123.84615357, 4139.87179467, 4127.82051255, 4127.82051255, 4140.64102544, 4127.94871767, 4157.82051262, 4141.02564082, 4130.38461511, 4127.82051255,12.0
4123.84615357, 4110.38461511, 4113.46153819, 4123.33333306, 4114.74358947, 4144.10256390, 4126.15384588, 4124.61538434, 4136.41025621, 4126.53846126, 4169.35897422, 4143.58974339, 4134.48717921, 4129.48717921,12.0
4132.69230742, 4113.97435870, 4116.53846126, 4123.20512793, 4122.94871767, 4152.56410236, 4131.92307665, 4134.48717921, 4142.82051262, 4140.38461518, 4174.74358961, 4144.61538441, 4143.33333313, 4131.28205101,12.0
4138.97435877, 4116.92307665, 4112.43589716, 4123.84615357, 4130.38461511, 4149.23076903, 4135.89743569, 4142.05128185, 4154.10256390, 4147.69230749, 4171.66666653, 4139.74358954, 4141.15384595, 4129.87179460,12.0
4129.48717921, 4115.76923050, 4104.23076896, 4124.10256383, 4126.41025614, 4150.89743569, 4149.61538441, 4149.35897415, 4163.58974339, 4143.33333313, 4163.33333313, 4129.35897408, 4136.41025621, 4126.79487152,12.0
4120.51282024, 4114.99999973, 4098.07692273, 4122.43589716, 4125.51282024, 4152.82051262, 4150.64102544, 4142.05128185, 4154.61538441, 4140.76923056, 4154.99999980, 4117.30769203, 4133.58974332, 4123.97435870,12.0
4119.48717921, 4112.56410229, 4091.92307658, 4119.48717921, 4124.35897408, 4139.10256390, 4121.15384588, 4120.25640998, 4133.46153819, 4135.25640998, 4147.56410236, 4109.74358947, 4125.12820485, 4123.84615357,12.0
4102.82051255, 4097.05128171, 4079.10256376, 4107.05128178, 4103.46153819, 4122.82051255, 4100.51282017, 4111.92307665, 4121.92307665, 4118.07692280, 4134.87179460, 4100.89743555, 4111.79487152, 4124.61538434,12.0
4087.43589709, 4085.76923043, 4071.53846119, 4093.46153812, 4084.74358940, 4121.79487152, 4107.30769203, 4118.71794844, 4118.20512793, 4103.84615357, 4125.25640998, 4096.28205094, 4110.38461511, 4122.82051255,12.0
4108.97435870, 4100.76923043, 4091.02564068, 4106.66666639, 4105.64102537, 4133.20512793, 4121.41025614, 4126.92307665, 4123.20512793, 4118.84615357, 4139.10256390, 4116.53846126, 4125.89743562, 4125.64102537,12.0
4133.33333306, 4117.94871767, 4112.30769203, 4123.97435870, 4129.10256383, 4138.20512800, 4125.76923050, 4129.61538434, 4136.66666646, 4141.66666646, 4154.35897415, 4136.66666646, 4132.30769203, 4130.38461511,12.0
4129.61538434, 4115.51282024, 4109.61538434, 4119.87179460, 4117.94871767, 4132.69230742, 4119.74358947, 4129.74358947, 4142.82051262, 4142.56410236, 4148.07692287, 4128.07692280, 4126.41025614, 4128.20512793,12.0
4132.56410229, 4117.17948691, 4113.84615357, 4121.41025614, 4117.69230742, 4148.58974339, 4136.66666646, 4142.69230749, 4149.35897415, 4141.53846133, 4145.89743569, 4125.38461511, 4132.17948691, 4124.48717921,12.0
4147.30769210, 4130.25640998, 4127.82051255, 4129.74358947, 4138.33333313, 4175.89743576, 4170.51282038, 4173.07692294, 4182.05128192, 4152.56410236, 4154.10256390, 4140.38461518, 4142.05128185, 4125.38461511,12.0
4131.92307665, 4117.17948691, 4111.92307665, 4113.58974332, 4123.58974332, 4161.15384595, 4155.89743569, 4168.84615371, 4184.35897422, 4142.82051262, 4138.20512800, 4128.58974332, 4125.89743562, 4127.69230742,12.0
4109.48717921, 4095.89743555, 4093.20512786, 4095.38461504, 4098.97435863, 4136.79487159, 4118.33333306, 4130.51282024, 4137.94871774, 4124.87179460, 4121.66666639, 4108.07692280, 4114.10256383, 4126.02564075,12.0
4108.71794844, 4098.46153812, 4096.02564068, 4097.05128171, 4103.97435870, 4142.69230749, 4115.38461511, 4115.12820485, 4116.15384588, 4124.10256383, 4126.66666639, 4111.66666639, 4119.87179460, 4122.17948691,12.0
4103.07692280, 4095.64102530, 4089.35897402, 4089.23076889, 4095.76923043, 4138.58974339, 4114.87179460, 4118.33333306, 4126.66666639, 4121.92307665, 4121.79487152, 4112.05128178, 4112.56410229, 4124.35897408,12.0
4098.46153812, 4084.87179453, 4084.35897402, 4080.76923043, 4076.66666632, 4125.25640998, 4102.43589709, 4114.99999973, 4127.69230742, 4115.89743562, 4114.35897408, 4106.66666639, 4109.10256383, 4128.97435870,12.0
4101.66666632, 4081.92307658, 4088.46153812, 4081.92307658, 4081.41025607, 4127.17948691, 4100.51282017, 4108.97435870, 4111.79487152, 4108.46153819, 4112.69230742, 4103.58974332, 4110.89743562, 4128.20512793,12.0
4098.84615350, 4082.94871761, 4084.87179453, 4078.84615350, 4090.25640991, 4126.53846126, 4105.89743562, 4110.25640998, 4109.61538434, 4096.15384581, 4107.82051255, 4098.33333299, 4102.94871767, 4124.74358947,12.0
4094.74358940, 4086.15384581, 4081.02564068, 4081.92307658, 4084.48717914, 4125.51282024, 4105.76923050, 4110.64102537, 4117.17948691, 4088.07692273, 4105.12820485, 4091.02564068, 4094.48717914, 4124.23076896,12.0
4082.94871761, 4081.15384581, 4072.17948684, 4080.12820478, 4071.28205094, 4126.53846126, 4092.17948684, 4101.41025607, 4107.17948691, 4079.99999966, 4094.74358940, 4074.23076889, 4088.97435863, 4127.30769203,12.0
4065.64102523, 4067.43589702, 4056.28205087, 4065.25640984, 4062.43589702, 4120.64102537, 4077.43589709, 4091.28205094, 4089.87179453, 4069.99999966, 4078.20512786, 4058.46153805, 4081.41025607, 4124.87179460,12.0
4060.51282010, 4063.20512779, 4049.23076882, 4058.84615343, 4054.61538420, 4119.10256383, 4078.58974325, 4087.43589709, 4083.97435863, 4063.97435856, 4074.35897402, 4058.07692266, 4078.46153812, 4122.05128178,12.0
4060.51282010, 4065.89743548, 4046.02564061, 4058.33333292, 4045.12820472, 4124.10256383, 4084.10256376, 4092.56410222, 4090.51282017, 4057.30769189, 4073.84615350, 4056.28205087, 4078.58974325, 4125.25640998,12.0
4059.87179446, 4066.41025600, 4042.82051241, 4057.30769189, 4044.87179446, 4123.58974332, 4079.35897402, 4090.76923043, 4086.02564068, 4049.61538420, 4063.58974318, 4043.07692266, 4069.48717907, 4123.84615357,12.0
4061.02564061, 4066.53846113, 4045.12820472, 4058.07692266, 4050.64102523, 4113.84615357, 4067.69230728, 4075.25640991, 4069.48717907, 4045.64102523, 4059.74358933, 4038.07692266, 4062.69230728, 4122.30769203,12.0
4054.74358933, 4061.92307651, 4042.69230728, 4054.87179446, 4047.30769189, 4107.69230742, 4056.41025600, 4061.66666625, 4057.43589702, 4043.58974318, 4063.33333292, 4042.56410215, 4067.56410215, 4124.48717921,12.0
4046.28205087, 4055.12820472, 4034.61538413, 4049.61538420, 4036.15384567, 4108.71794844, 4053.97435856, 4063.20512779, 4058.97435856, 4043.97435856, 4063.58974318, 4041.79487138, 4069.10256369, 4128.07692280,12.0
4050.51282010, 4055.89743548, 4036.15384567, 4050.12820472, 4034.99999952, 4110.64102537, 4060.89743548, 4075.64102530, 4074.48717914, 4044.74358933, 4062.94871754, 4040.89743548, 4066.92307651, 4130.89743562,12.0
4061.79487138, 4064.23076882, 4047.82051241, 4056.79487138, 4045.38461497, 4111.53846126, 4067.82051241, 4081.15384581, 4084.87179453, 4048.97435856, 4064.87179446, 4048.33333292, 4072.56410222, 4127.82051255,12.0
4063.71794830, 4070.12820478, 4054.99999959, 4063.97435856, 4053.07692266, 4113.71794844, 4071.53846119, 4082.69230735, 4087.69230735, 4061.41025600, 4070.25640991, 4052.69230728, 4080.64102530, 4124.61538434,12.0
4052.82051241, 4060.38461497, 4041.53846113, 4057.82051241, 4040.38461497, 4107.17948691, 4066.66666625, 4082.94871761, 4084.35897402, 4058.46153805, 4063.46153805, 4036.15384567, 4070.38461504, 4124.87179460,12.0
4036.79487131, 4043.71794830, 4016.79487131, 4039.48717907, 4018.97435849, 4091.28205094, 4058.84615343, 4070.64102530, 4064.87179446, 4024.74358926, 4042.05128164, 4009.10256362, 4049.23076882, 4128.07692280,12.0
4025.38461490, 4035.76923029, 4005.25640977, 4029.48717900, 4017.82051234, 4088.84615350, 4056.15384574, 4056.28205087, 4044.23076882, 4003.97435842, 4031.02564054, 3999.61538406, 4042.56410215, 4129.87179460,12.0
4021.92307644, 4037.17948677, 4008.20512772, 4035.38461490, 4026.28205080, 4093.07692273, 4053.07692266, 4054.35897395, 4043.46153805, 4014.61538413, 4031.02564054, 4003.20512765, 4043.46153805, 4126.66666639,12.0
4022.05128157, 4038.07692266, 4009.61538413, 4038.71794830, 4024.23076875, 4086.66666632, 4044.74358933, 4053.71794830, 4049.23076882, 4019.23076875, 4026.28205080, 3999.23076868, 4042.82051241, 4127.05128178,12.0
4022.30769183, 4038.07692266, 4007.94871747, 4039.23076882, 4021.02564054, 4081.53846119, 4035.12820465, 4043.46153805, 4042.17948677, 4012.05128157, 4028.07692259, 3998.84615329, 4046.28205087, 4129.23076896,12.0
4020.38461490, 4036.66666618, 4007.94871747, 4044.74358933, 4017.94871747, 4079.74358940, 4024.74358926, 4034.23076875, 4033.58974311, 4011.02564054, 4030.25640977, 4004.74358926, 4041.92307651, 4127.69230742,12.0
4017.30769183, 4035.51282003, 4009.48717900, 4043.20512779, 4011.41025593, 4074.74358940, 4018.46153798, 4035.25640977, 4030.89743541, 4008.97435849, 4021.66666618, 4005.51282003, 4032.56410208, 4128.71794844,12.0
4032.17948670, 4051.66666625, 4027.17948670, 4052.56410215, 4022.43589695, 4076.02564068, 4023.58974311, 4047.17948677, 4043.20512779, 4015.89743541, 4033.46153798, 4018.97435849, 4048.33333292, 4129.10256383,12.0
4060.38461497, 4073.33333299, 4052.56410215, 4076.28205094, 4043.58974318, 4090.64102530, 4045.89743548, 4071.79487145, 4082.05128171, 4044.35897395, 4063.84615343, 4044.10256369, 4076.66666632, 4127.56410229,12.0
4056.41025600, 4064.87179446, 4042.82051241, 4069.61538420, 4034.74358926, 4094.61538427, 4058.20512779, 4079.35897402, 4093.46153812, 4050.89743548, 4060.25640984, 4037.69230728, 4069.23076882, 4127.05128178,12.0
4020.89743541, 4034.99999952, 4005.64102516, 4040.76923036, 4003.97435842, 4071.66666632, 4028.84615336, 4044.10256369, 4041.15384574, 4014.48717900, 4022.82051234, 3998.46153791, 4037.69230728, 4125.38461511,12.0
4004.87179439, 4022.17948670, 3994.23076868, 4035.25640977, 3998.20512765, 4059.23076882, 4002.56410201, 4014.10256362, 4001.66666611, 3989.48717894, 4008.33333285, 3984.23076868, 4029.23076875, 4122.69230742,12.0
4013.71794824, 4029.35897388, 4011.92307644, 4044.74358933, 4011.15384567, 4077.43589709, 4017.69230721, 4024.74358926, 4018.07692259, 3995.38461483, 4015.89743541, 4008.84615336, 4037.17948677, 4121.28205101,12.0
4015.51282003, 4033.97435849, 4021.92307644, 4037.94871754, 4012.69230721, 4091.28205094, 4032.17948670, 4036.02564054, 4029.87179439, 3994.87179432, 4009.61538413, 4039.87179446, 4034.61538413, 4125.76923050,12.0
4007.56410208, 4031.15384567, 4022.56410208, 4027.82051234, 4010.12820465, 4085.89743555, 4027.05128157, 4030.76923029, 4018.58974311, 3987.43589688, 3999.87179432, 4062.56410215, 4028.33333285, 4130.76923050,12.0
4015.38461490, 4037.82051241, 4032.56410208, 4039.99999959, 4020.38461490, 4087.05128171, 4037.05128164, 4039.35897395, 4029.23076875, 3994.87179432, 4005.64102516, 4074.99999966, 4034.48717900, 4128.97435870,12.0
4029.99999952, 4050.25640984, 4039.48717907, 4050.12820472, 4029.10256362, 4087.82051248, 4047.56410215, 4051.66666625, 4049.87179446, 4004.74358926, 4012.94871747, 4074.35897402, 4043.58974318, 4126.41025614,12.0
4034.99999952, 4054.10256369, 4036.79487131, 4048.71794830, 4027.30769183, 4078.20512786, 4043.58974318, 4045.38461497, 4045.51282010, 4005.64102516, 4016.53846106, 4061.41025600, 4046.66666625, 4127.94871767,12.0
4042.30769189, 4060.38461497, 4038.46153805, 4060.51282010, 4034.61538413, 4081.28205094, 4055.89743548, 4048.20512779, 4044.35897395, 4014.10256362, 4026.53846106, 4048.20512779, 4051.28205087, 4129.35897408,12.0
4044.23076882, 4061.53846113, 4031.28205080, 4063.97435856, 4038.46153805, 4087.43589709, 4069.87179453, 4072.69230735, 4070.89743555, 4026.53846106, 4030.25640977, 4028.71794824, 4052.69230728, 4128.20512793,12.0
4033.20512772, 4043.07692266, 4006.41025593, 4044.61538420, 4024.23076875, 4077.43589709, 4058.97435856, 4077.30769196, 4086.92307658, 4019.61538413, 4015.51282003, 4000.38461483, 4038.46153805, 4127.94871767,12.0
4018.33333285, 4026.28205080, 3992.56410201, 4029.48717900, 4012.17948670, 4055.76923036, 4026.53846106, 4043.07692266, 4055.25640984, 4001.53846099, 3999.48717894, 3986.53846099, 4025.51282003, 4127.69230742,12.0
4010.64102516, 4026.15384567, 4003.84615329, 4030.25640977, 4014.35897388, 4040.25640984, 4001.41025586, 4011.28205080, 4010.38461490, 3994.99999945, 3999.74358919, 4005.25640977, 4029.61538413, 4127.43589716,12.0
4018.33333285, 4037.17948677, 4026.02564054, 4035.51282003, 4026.41025593, 4049.35897395, 4011.79487131, 4015.51282003, 4006.92307644, 3994.23076868, 4007.17948670, 4050.25640984, 4036.28205080, 4128.58974332,12.0
4034.61538413, 4052.05128164, 4051.92307651, 4041.15384574, 4045.25640984, 4072.30769196, 4044.10256369, 4036.53846106, 4034.48717900, 3995.38461483, 4010.38461490, 4098.97435863, 4042.17948677, 4126.66666639,12.0
4045.51282010, 4061.53846113, 4071.41025607, 4050.12820472, 4057.69230728, 4079.99999966, 4053.97435856, 4042.30769189, 4049.23076882, 4004.74358926, 4016.02564054, 4135.12820485, 4055.12820472, 4126.02564075,12.0
4052.69230728, 4066.02564061, 4078.46153812, 4057.05128164, 4058.58974318, 4075.64102530, 4043.71794830, 4040.76923036, 4048.97435856, 4016.66666618, 4026.92307644, 4151.79487159, 4066.92307651, 4128.33333306,12.0
4059.74358933, 4072.56410222, 4077.05128171, 4060.51282010, 4066.53846113, 4080.64102530, 4051.28205087, 4049.35897395, 4057.17948677, 4023.84615336, 4033.07692259, 4148.07692287, 4069.74358940, 4128.33333306,12.0
4062.69230728, 4077.43589709, 4069.99999966, 4066.02564061, 4075.25640991, 4082.05128171, 4058.84615343, 4056.15384574, 4070.25640991, 4027.82051234, 4032.43589695, 4124.87179460, 4064.10256369, 4128.20512793,12.0
4058.33333292, 4073.20512786, 4058.97435856, 4067.94871754, 4061.79487138, 4067.82051241, 4047.30769189, 4055.38461497, 4071.15384581, 4026.92307644, 4033.58974311, 4093.20512786, 4058.97435856, 4127.17948691,12.0
4049.35897395, 4062.56410215, 4043.46153805, 4060.25640984, 4046.02564061, 4061.53846113, 4042.30769189, 4054.35897395, 4064.61538420, 4023.71794824, 4029.35897388, 4064.61538420, 4059.61538420, 4124.87179460,12.0
4052.56410215, 4058.46153805, 4036.28205080, 4058.58974318, 4056.79487138, 4074.99999966, 4055.25640984, 4066.02564061, 4082.30769196, 4035.25640977, 4026.53846106, 4051.02564061, 4064.48717907, 4125.64102537,12.0
4067.17948677, 4066.79487138, 4048.97435856, 4071.92307658, 4075.38461504, 4088.71794837, 4067.94871754, 4078.71794837, 4106.92307665, 4053.07692266, 4038.46153805, 4058.20512779, 4071.41025607, 4127.17948691,12.0
4074.23076889, 4078.71794837, 4064.87179446, 4082.82051248, 4078.46153812, 4095.64102530, 4076.53846119, 4075.51282017, 4096.79487145, 4053.71794830, 4045.89743548, 4066.53846113, 4073.33333299, 4127.56410229,12.0
4071.28205094, 4076.28205094, 4062.05128164, 4076.28205094, 4072.56410222, 4095.89743555, 4073.58974325, 4063.71794830, 4073.46153812, 4047.43589702, 4038.07692266, 4063.33333292, 4067.56410215, 4126.53846126,12.0
4073.84615350, 4069.61538420, 4058.97435856, 4072.05128171, 4073.84615350, 4093.46153812, 4063.46153805, 4063.46153805, 4079.74358940, 4053.71794830, 4041.92307651, 4063.97435856, 4072.69230735, 4126.02564075,12.0
4084.35897402, 4082.56410222, 4075.64102530, 4087.94871761, 4087.94871761, 4102.69230742, 4072.30769196, 4074.10256376, 4097.30769196, 4064.99999959, 4061.28205087, 4078.20512786, 4087.56410222, 4126.92307665,12.0
4088.71794837, 4097.43589709, 4086.41025607, 4099.48717914, 4098.33333299, 4112.17948691, 4079.99999966, 4069.99999966, 4091.02564068, 4066.15384574, 4062.30769189, 4087.43589709, 4084.74358940, 4124.87179460,12.0
4079.10256376, 4087.30769196, 4076.53846119, 4087.30769196, 4081.28205094, 4095.51282017, 4055.64102523, 4051.02564061, 4070.64102530, 4054.10256369, 4045.25640984, 4080.51282017, 4073.84615350, 4123.20512793,12.0
4072.94871761, 4076.28205094, 4071.66666632, 4079.23076889, 4062.82051241, 4082.82051248, 4037.82051241, 4045.76923036, 4064.48717907, 4047.17948677, 4046.66666625, 4079.35897402, 4079.74358940, 4124.23076896,12.0
4084.35897402, 4085.76923043, 4084.87179453, 4089.23076889, 4076.79487145, 4097.56410222, 4051.53846113, 4059.74358933, 4078.84615350, 4062.43589702, 4066.41025600, 4095.64102530, 4088.97435863, 4126.28205101,12.0
4098.20512786, 4096.66666632, 4097.82051248, 4100.38461504, 4098.46153812, 4110.38461511, 4065.25640984, 4074.87179453, 4097.56410222, 4082.82051248, 4079.99999966, 4112.69230742, 4094.74358940, 4125.64102537,12.0
4103.84615357, 4098.97435863, 4101.66666632, 4106.15384588, 4105.25640998, 4120.76923050, 4075.25640991, 4085.64102530, 4107.05128178, 4093.33333299, 4084.35897402, 4113.97435870, 4101.15384581, 4123.71794844,12.0
4092.69230735, 4090.64102530, 4090.76923043, 4096.66666632, 4095.51282017, 4117.69230742, 4073.84615350, 4086.02564068, 4107.43589716, 4091.02564068, 4078.71794837, 4100.51282017, 4093.33333299, 4127.05128178,12.0
4081.02564068, 4080.25640991, 4077.43589709, 4084.74358940, 4082.30769196, 4096.92307658, 4055.51282010, 4076.79487145, 4106.28205101, 4085.38461504, 4067.82051241, 4091.66666632, 4085.64102530, 4127.56410229,12.0
4095.89743555, 4092.17948684, 4090.51282017, 4096.28205094, 4091.66666632, 4104.48717921, 4063.97435856, 4078.97435863, 4108.58974332, 4091.41025607, 4072.94871761, 4098.97435863, 4095.64102530, 4122.56410229,12.0
4111.15384588, 4106.28205101, 4105.89743562, 4110.25640998, 4108.07692280, 4124.61538434, 4090.89743555, 4082.30769196, 4099.23076889, 4095.25640991, 4082.82051248, 4106.41025614, 4099.35897402, 4122.05128178,12.0
4095.12820478, 4096.28205094, 4090.76923043, 4101.02564068, 4099.99999966, 4104.35897408, 4075.51282017, 4069.23076882, 4079.23076889, 4081.02564068, 4072.56410222, 4095.38461504, 4084.87179453, 4122.56410229,12.0
4077.17948684, 4082.17948684, 4074.23076889, 4086.15384581, 4081.41025607, 4079.61538427, 4045.12820472, 4058.71794830, 4071.15384581, 4070.76923043, 4059.23076882, 4082.69230735, 4076.41025607, 4123.58974332,12.0
4085.12820478, 4083.07692273, 4080.12820478, 4085.89743555, 4079.99999966, 4095.12820478, 4057.05128164, 4066.53846113, 4078.84615350, 4075.51282017, 4067.56410215, 4091.53846119, 4085.38461504, 4124.23076896,12.0
4097.30769196, 4092.43589709, 4091.66666632, 4091.66666632, 4089.99999966, 4110.25640998, 4076.92307658, 4076.41025607, 4091.15384581, 4079.87179453, 4078.58974325, 4107.43589716, 4094.61538427, 4122.30769203,12.0
4102.30769196, 4101.66666632, 4098.07692273, 4097.69230735, 4099.23076889, 4103.58974332, 4073.84615350, 4079.48717914, 4100.25640991, 4084.74358940, 4077.56410222, 4112.69230742, 4096.02564068, 4123.46153819,12.0
4103.84615357, 4103.07692280, 4100.76923043, 4099.99999966, 4101.15384581, 4100.89743555, 4074.23076889, 4081.41025607, 4101.53846119, 4091.66666632, 4077.56410222, 4113.07692280, 4096.15384581, 4124.87179460,12.0
4108.71794844, 4102.17948684, 4103.84615357, 4101.28205094, 4098.33333299, 4104.61538434, 4083.71794837, 4085.64102530, 4101.28205094, 4094.61538427, 4085.25640991, 4122.17948691, 4103.84615357, 4123.33333306,12.0
4111.02564075, 4102.94871767, 4101.66666632, 4099.74358940, 4095.64102530, 4098.07692273, 4080.89743555, 4083.46153812, 4099.35897402, 4090.64102530, 4085.38461504, 4124.48717921, 4103.84615357, 4124.23076896,12.0
4102.17948684, 4100.76923043, 4088.97435863, 4093.07692273, 4093.07692273, 4085.76923043, 4071.66666632, 4082.05128171, 4104.87179460, 4084.87179453, 4076.02564068, 4108.58974332, 4090.25640991, 4125.89743562,12.0
4103.58974332, 4104.74358947, 4090.38461504, 4096.02564068, 4096.92307658, 4087.56410222, 4076.15384581, 4093.58974325, 4124.48717921, 4094.87179453, 4078.07692273, 4104.61538434, 4090.89743555, 4124.99999973,12.0
4112.17948691, 4111.41025614, 4099.99999966, 4101.92307658, 4102.05128171, 4094.87179453, 4079.61538427, 4087.43589709, 4118.07692280, 4106.28205101, 4084.61538427, 4108.71794844, 4099.23076889, 4124.10256383,12.0
4104.35897408, 4103.71794844, 4089.10256376, 4094.23076889, 4098.20512786, 4095.38461504, 4069.99999966, 4064.35897395, 4082.56410222, 4094.61538427, 4079.48717914, 4098.20512786, 4093.46153812, 4124.87179460,12.0
4097.94871761, 4096.66666632, 4083.97435863, 4088.84615350, 4098.71794837, 4102.05128171, 4071.41025607, 4069.35897395, 4078.46153812, 4086.92307658, 4079.23076889, 4095.51282017, 4093.20512786, 4124.48717921,12.0
4109.48717921, 4100.89743555, 4097.43589709, 4097.43589709, 4103.97435870, 4103.71794844, 4078.58974325, 4087.43589709, 4104.23076896, 4100.25640991, 4087.82051248, 4110.12820485, 4107.05128178, 4123.46153819,12.0
4112.69230742, 4101.15384581, 4098.97435863, 4102.05128171, 4100.76923043, 4091.02564068, 4070.12820478, 4082.94871761, 4111.02564075, 4109.48717921, 4091.02564068, 4113.84615357, 4107.30769203, 4126.53846126,12.0
4111.02564075, 4101.66666632, 4099.10256376, 4099.10256376, 4099.48717914, 4091.79487145, 4074.23076889, 4080.12820478, 4104.35897408, 4110.12820485, 4095.51282017, 4113.97435870, 4102.56410229, 4128.97435870,12.0
4114.48717921, 4103.20512793, 4105.76923050, 4098.58974325, 4097.94871761, 4099.74358940, 4088.07692273, 4085.64102530, 4098.58974325, 4105.64102537, 4097.56410222, 4124.23076896, 4107.69230742, 4127.43589716,12.0
4115.64102537, 4104.35897408, 4106.53846126, 4099.10256376, 4091.92307658, 4095.51282017, 4084.74358940, 4084.99999966, 4100.76923043, 4097.56410222, 4094.23076889, 4127.82051255, 4108.58974332, 4126.79487152,12.0
4123.20512793, 4113.33333306, 4110.89743562, 4103.33333306, 4100.89743555, 4086.15384581, 4072.56410222, 4080.12820478, 4108.97435870, 4104.87179460, 4098.58974325, 4129.35897408, 4107.69230742, 4125.89743562,12.0
4126.92307665, 4117.05128178, 4115.25640998, 4104.48717921, 4112.30769203, 4072.05128171, 4064.99999959, 4073.33333299, 4104.87179460, 4113.71794844, 4098.07692273, 4133.07692280, 4106.15384588, 4126.15384588,12.0
4121.02564075, 4114.35897408, 4115.51282024, 4104.61538434, 4107.56410229, 4064.99999959, 4070.25640991, 4081.92307658, 4107.82051255, 4106.92307665, 4092.56410222, 4134.48717921, 4103.71794844, 4128.71794844,12.0
4116.53846126, 4114.48717921, 4117.56410229, 4105.76923050, 4100.89743555, 4069.99999966, 4073.46153812, 4085.38461504, 4109.99999973, 4097.56410222, 4094.10256376, 4133.58974332, 4100.64102530, 4128.58974332,12.0
4106.28205101, 4100.64102530, 4104.48717921, 4091.28205094, 4092.43589709, 4066.79487138, 4058.33333292, 4057.82051241, 4075.89743555, 4085.89743555, 4084.87179453, 4120.89743562, 4088.97435863, 4127.82051255,12.0
4092.17948684, 4083.84615350, 4087.94871761, 4076.53846119, 4083.58974325, 4062.82051241, 4054.74358933, 4047.30769189, 4056.15384574, 4076.15384581, 4072.17948684, 4110.76923050, 4082.82051248, 4128.33333306,12.0
4096.28205094, 4093.84615350, 4098.97435863, 4085.76923043, 4091.79487145, 4074.61538427, 4073.20512786, 4071.66666632, 4087.56410222, 4088.71794837, 4083.97435863, 4120.89743562, 4097.94871761, 4129.35897408,12.0
4100.64102530, 4100.51282017, 4106.41025614, 4092.94871761, 4097.94871761, 4080.38461504, 4071.02564068, 4075.89743555, 4099.87179453, 4098.46153812, 4089.87179453, 4123.07692280, 4102.17948684, 4130.25640998,12.0
4092.30769196, 4089.74358940, 4093.84615350, 4084.48717914, 4093.84615350, 4085.25640991, 4061.66666625, 4068.33333292, 4083.71794837, 4088.84615350, 4077.69230735, 4110.76923050, 4089.23076889, 4130.89743562,12.0
4097.30769196, 4096.28205094, 4098.33333299, 4088.58974325, 4098.07692273, 4100.76923043, 4072.69230735, 4081.28205094, 4091.28205094, 4089.23076889, 4083.20512786, 4117.30769203, 4093.46153812, 4128.84615357,12.0
4109.87179460, 4112.82051255, 4114.74358947, 4101.41025607, 4105.38461511, 4106.53846126, 4079.10256376, 4087.82051248, 4101.28205094, 4099.99999966, 4093.97435863, 4128.07692280, 4101.28205094, 4124.87179460,12.0
4118.33333306, 4121.41025614, 4125.12820485, 4107.56410229, 4116.53846126, 4122.30769203, 4094.99999966, 4096.53846119, 4112.82051255, 4114.23076896, 4096.41025607, 4127.82051255, 4107.05128178, 4123.71794844,12.0
4121.66666639, 4120.64102537, 4124.10256383, 4106.28205101, 4119.87179460, 4138.84615364, 4113.20512793, 4112.17948691, 4134.23076896, 4122.30769203, 4096.66666632, 4125.25640998, 4112.69230742, 4125.64102537,12.0
4110.51282024, 4111.66666639, 4109.61538434, 4098.46153812, 4097.82051248, 4118.84615357, 4087.43589709, 4092.56410222, 4114.74358947, 4102.56410229, 4088.20512786, 4116.92307665, 4099.74358940, 4126.79487152,12.0
4098.33333299, 4101.28205094, 4101.02564068, 4091.79487145, 4081.92307658, 4095.89743555, 4051.02564061, 4054.23076882, 4065.25640984, 4080.38461504, 4076.92307658, 4110.64102537, 4086.66666632, 4127.30769203,12.0
4098.20512786, 4095.38461504, 4104.48717921, 4087.17948684, 4088.33333299, 4106.15384588, 4054.35897395, 4053.33333292, 4054.87179446, 4079.35897402, 4073.20512786, 4112.56410229, 4089.74358940, 4128.20512793,12.0
4103.07692280, 4095.12820478, 4105.12820485, 4083.33333299, 4091.15384581, 4121.92307665, 4070.89743555, 4074.99999966, 4077.56410222, 4083.33333299, 4077.56410222, 4116.41025614, 4093.46153812, 4128.58974332,12.0
4110.51282024, 4104.99999973, 4108.07692280, 4088.20512786, 4097.94871761, 4121.79487152, 4077.94871761, 4080.76923043, 4090.25640991, 4092.17948684, 4090.38461504, 4130.12820485, 4101.02564068, 4128.33333306,12.0
4118.20512793, 4112.43589716, 4118.07692280, 4098.58974325, 4107.69230742, 4115.38461511, 4079.74358940, 4084.35897402, 4101.92307658, 4113.07692280, 4106.02564075, 4148.20512800, 4116.15384588, 4127.82051255,12.0
4114.74358947, 4108.07692280, 4118.58974332, 4099.74358940, 4098.84615350, 4107.82051255, 4071.53846119, 4086.53846119, 4105.12820485, 4118.46153819, 4107.69230742, 4144.23076903, 4118.58974332, 4127.56410229,12.0
4109.74358947, 4110.25640998, 4115.76923050, 4095.89743555, 4096.15384581, 4102.94871767, 4073.84615350, 4081.15384581, 4096.02564068, 4114.99999973, 4099.87179453, 4131.41025614, 4112.30769203, 4128.58974332,12.0
4112.17948691, 4111.66666639, 4116.02564075, 4094.99999966, 4098.97435863, 4096.79487145, 4085.38461504, 4090.89743555, 4111.28205101, 4121.66666639, 4096.53846119, 4128.71794844, 4107.69230742, 4128.33333306,12.0
4111.41025614, 4106.79487152, 4111.41025614, 4094.48717914, 4087.94871761, 4099.48717914, 4085.89743555, 4097.69230735, 4118.71794844, 4113.46153819, 4096.66666632, 4119.61538434, 4102.05128171, 4128.84615357,12.0
4109.74358947, 4110.64102537, 4109.99999973, 4097.94871761, 4082.82051248, 4115.76923050, 4088.46153812, 4085.76923043, 4098.07692273, 4103.58974332, 4101.02564068, 4112.17948691, 4105.12820485, 4129.10256383,12.0
4101.28205094, 4104.99999973, 4102.94871767, 4097.05128171, 4080.38461504, 4106.53846126, 4075.64102530, 4069.10256369, 4085.51282017, 4106.66666639, 4097.56410222, 4110.64102537, 4102.05128171, 4125.64102537,12.0
4079.35897402, 4082.43589709, 4078.58974325, 4080.76923043, 4066.28205087, 4076.79487145, 4041.41025600, 4053.84615343, 4073.58974325, 4091.41025607, 4078.84615350, 4095.12820478, 4082.94871761, 4122.56410229,12.0
4072.69230735, 4078.20512786, 4068.84615343, 4072.43589709, 4068.20512779, 4078.58974325, 4038.07692266, 4051.79487138, 4061.28205087, 4074.35897402, 4071.53846119, 4086.15384581, 4079.87179453, 4123.20512793,12.0
4083.46153812, 4091.15384581, 4081.02564068, 4079.74358940, 4081.15384581, 4095.89743555, 4059.99999959, 4063.71794830, 4071.92307658, 4084.61538427, 4079.99999966, 4098.07692273, 4093.58974325, 4123.58974332,12.0
4081.92307658, 4089.61538427, 4079.74358940, 4076.02564068, 4072.43589709, 4086.53846119, 4057.82051241, 4068.97435856, 4082.43589709, 4088.71794837, 4074.74358940, 4099.48717914, 4088.46153812, 4123.33333306,12.0
4079.35897402, 4085.12820478, 4074.35897402, 4069.61538420, 4071.28205094, 4080.25640991, 4057.56410215, 4072.56410222, 4083.33333299, 4078.33333299, 4068.46153805, 4096.41025607, 4081.79487145, 4126.41025614,12.0
4097.94871761, 4094.10256376, 4094.61538427, 4079.48717914, 4091.66666632, 4103.07692280, 4086.02564068, 4090.64102530, 4104.10256383, 4094.23076889, 4088.97435863, 4121.15384588, 4102.82051255, 4128.84615357,12.0
4106.15384588, 4100.12820478, 4110.12820485, 4082.17948684, 4093.71794837, 4110.64102537, 4094.99999966, 4094.99999966, 4113.33333306, 4110.51282024, 4103.33333306, 4139.99999980, 4112.17948691, 4124.35897408,12.0
4096.66666632, 4101.79487145, 4103.07692280, 4073.84615350, 4084.99999966, 4097.94871761, 4082.05128171, 4085.38461504, 4097.69230735, 4098.71794837, 4094.10256376, 4134.61538434, 4097.05128171, 4122.94871767,12.0
4102.69230742, 4106.66666639, 4104.48717921, 4079.23076889, 4092.43589709, 4103.07692280, 4085.89743555, 4089.35897402, 4101.28205094, 4094.87179453, 4092.17948684, 4137.94871774, 4097.30769196, 4126.53846126,12.0
4118.46153819, 4109.99999973, 4119.61538434, 4090.64102530, 4101.53846119, 4111.15384588, 4093.33333299, 4093.46153812, 4114.48717921, 4108.46153819, 4103.33333306, 4152.82051262, 4111.53846126, 4125.12820485,12.0
4119.10256383, 4106.53846126, 4122.05128178, 4089.61538427, 4100.25640991, 4101.15384581, 4081.28205094, 4084.23076889, 4107.17948691, 4109.87179460, 4103.33333306, 4152.30769210, 4110.51282024, 4122.43589716,12.0
4102.82051255, 4093.71794837, 4103.07692280, 4074.23076889, 4081.79487145, 4087.43589709, 4061.79487138, 4066.02564061, 4083.20512786, 4087.82051248, 4084.74358940, 4131.15384588, 4093.84615350, 4124.48717921,12.0
4094.23076889, 4088.58974325, 4095.51282017, 4067.56410215, 4068.46153805, 4091.15384581, 4064.10256369, 4061.53846113, 4075.51282017, 4082.17948684, 4079.61538427, 4125.51282024, 4089.10256376, 4125.38461511,12.0
4106.92307665, 4101.79487145, 4111.79487152, 4082.56410222, 4087.05128171, 4106.92307665, 4084.61538427, 4079.48717914, 4097.17948684, 4106.02564075, 4096.79487145, 4141.92307672, 4104.10256383, 4124.35897408,12.0
4116.92307665, 4108.71794844, 4116.28205101, 4087.30769196, 4102.43589709, 4108.58974332, 4092.94871761, 4090.89743555, 4114.74358947, 4118.84615357, 4105.25640998, 4141.66666646, 4113.97435870, 4125.38461511,12.0
4105.89743562, 4095.12820478, 4098.46153812, 4071.53846119, 4086.41025607, 4090.64102530, 4079.23076889, 4082.05128171, 4105.64102537, 4105.64102537, 4092.82051248, 4118.84615357, 4103.58974332, 4125.51282024,12.0
4091.02564068, 4085.38461504, 4086.66666632, 4065.25640984, 4076.15384581, 4082.17948684, 4068.58974318, 4077.69230735, 4098.58974325, 4092.43589709, 4083.58974325, 4105.64102537, 4091.15384581, 4123.97435870,12.0
4090.25640991, 4088.58974325, 4088.33333299, 4071.41025607, 4085.51282017, 4093.84615350, 4078.46153812, 4084.87179453, 4106.28205101, 4095.25640991, 4085.64102530, 4109.23076896, 4092.43589709, 4125.76923050,12.0
4090.89743555, 4089.35897402, 4088.46153812, 4069.23076882, 4085.51282017, 4095.51282017, 4087.82051248, 4086.53846119, 4107.94871767, 4099.74358940, 4082.56410222, 4108.07692280, 4094.87179453, 4127.43589716,12.0
4088.71794837, 4088.84615350, 4088.46153812, 4065.38461497, 4085.51282017, 4087.43589709, 4086.79487145, 4081.92307658, 4098.33333299, 4093.07692273, 4075.89743555, 4102.17948684, 4088.07692273, 4125.76923050,12.0
4091.53846119, 4088.84615350, 4088.33333299, 4066.15384574, 4091.02564068, 4086.41025607, 4083.58974325, 4078.84615350, 4089.61538427, 4082.17948684, 4071.92307658, 4102.30769196, 4083.20512786, 4124.99999973,12.0
4086.53846119, 4081.02564068, 4079.99999966, 4061.53846113, 4084.61538427, 4079.61538427, 4071.15384581, 4073.71794837, 4084.35897402, 4081.02564068, 4068.33333292, 4102.05128171, 4085.51282017, 4124.87179460,12.0
4068.07692266, 4068.71794830, 4067.94871754, 4052.05128164, 4067.17948677, 4061.28205087, 4049.99999959, 4060.89743548, 4069.87179453, 4081.92307658, 4062.05128164, 4094.61538427, 4082.69230735, 4125.51282024,12.0
4072.82051248, 4077.43589709, 4078.97435863, 4058.07692266, 4069.10256369, 4061.92307651, 4055.76923036, 4064.74358933, 4074.74358940, 4086.41025607, 4070.89743555, 4105.12820485, 4088.20512786, 4124.10256383,12.0
4105.25640998, 4100.76923043, 4107.43589716, 4080.51282017, 4097.69230735, 4083.97435863, 4091.92307658, 4091.92307658, 4113.07692280, 4106.79487152, 4091.41025607, 4135.89743569, 4109.61538434, 4122.17948691,12.0
4117.82051255, 4108.97435870, 4116.02564075, 4090.51282017, 4112.17948691, 4090.51282017, 4106.02564075, 4104.35897408, 4131.66666639, 4121.79487152, 4098.84615350, 4148.20512800, 4117.82051255, 4126.79487152,12.0
4117.30769203, 4110.25640998, 4114.23076896, 4090.89743555, 4110.25640998, 4084.87179453, 4101.66666632, 4100.51282017, 4123.20512793, 4123.07692280, 4104.35897408, 4145.12820492, 4114.61538434, 4129.10256383,12.0
4122.94871767, 4111.92307665, 4116.79487152, 4091.53846119, 4107.56410229, 4084.48717914, 4107.69230742, 4105.64102537, 4126.66666639, 4125.38461511, 4109.10256383, 4141.41025621, 4113.84615357, 4125.64102537,12.0
4119.35897408, 4108.20512793, 4111.79487152, 4087.05128171, 4109.48717921, 4089.23076889, 4114.23076896, 4116.53846126, 4138.20512800, 4125.25640998, 4101.79487145, 4129.99999973, 4109.23076896, 4126.15384588,12.0
4107.05128178, 4106.41025614, 4102.30769196, 4083.07692273, 4117.56410229, 4091.53846119, 4107.17948691, 4108.20512793, 4125.38461511, 4112.43589716, 4090.76923043, 4115.12820485, 4099.35897402, 4128.07692280,12.0
4111.79487152, 4114.35897408, 4110.76923050, 4090.76923043, 4126.79487152, 4089.74358940, 4101.41025607, 4091.66666632, 4109.23076896, 4104.99999973, 4091.15384581, 4113.97435870, 4099.23076889, 4126.66666639,12.0
4137.56410236, 4128.46153819, 4134.10256383, 4108.07692280, 4136.66666646, 4097.05128171, 4113.20512793, 4103.33333306, 4126.92307665, 4121.28205101, 4111.53846126, 4131.66666639, 4119.35897408, 4125.12820485,12.0
4139.35897415, 4123.84615357, 4131.92307665, 4107.17948691, 4134.10256383, 4097.30769196, 4110.89743562, 4112.17948691, 4136.53846133, 4129.61538434, 4117.94871767, 4132.94871767, 4128.84615357, 4126.41025614,12.0
4111.66666639, 4099.87179453, 4105.51282024, 4089.48717914, 4118.07692280, 4080.76923043, 4087.05128171, 4086.15384581, 4106.15384588, 4110.25640998, 4093.58974325, 4103.84615357, 4105.38461511, 4128.33333306,12.0
4110.25640998, 4100.25640991, 4107.94871767, 4090.76923043, 4114.35897408, 4079.61538427, 4087.43589709, 4079.74358940, 4098.07692273, 4107.69230742, 4092.17948684, 4097.05128171, 4100.51282017, 4127.69230742,12.0
4134.74358947, 4122.17948691, 4131.28205101, 4107.82051255, 4129.35897408, 4088.84615350, 4105.76923050, 4108.07692280, 4131.66666639, 4132.30769203, 4121.92307665, 4123.07692280, 4128.84615357, 4125.64102537,12.0
4133.07692280, 4119.23076896, 4122.94871767, 4103.20512793, 4123.71794844, 4078.84615350, 4103.33333306, 4107.94871767, 4133.58974332, 4132.30769203, 4120.76923050, 4122.82051255, 4130.25640998, 4126.15384588,12.0
4113.71794844, 4105.12820485, 4104.10256383, 4087.82051248, 4100.12820478, 4064.10256369, 4090.89743555, 4087.05128171, 4102.56410229, 4109.10256383, 4096.41025607, 4097.05128171, 4105.76923050, 4127.94871767,12.0
4114.87179460, 4113.46153819, 4106.53846126, 4093.20512786, 4101.92307658, 4064.48717907, 4092.69230735, 4102.56410229, 4115.89743562, 4113.71794844, 4100.51282017, 4093.71794837, 4107.69230742, 4127.30769203,12.0
4131.79487152, 4130.51282024, 4119.99999973, 4107.43589716, 4132.56410229, 4093.58974325, 4128.46153819, 4132.56410229, 4149.87179467, 4135.89743569, 4120.25640998, 4112.94871767, 4127.17948691, 4126.79487152,12.0
4140.89743569, 4133.33333306, 4127.56410229, 4110.12820485, 4148.46153826, 4120.64102537, 4156.15384595, 4126.92307665, 4135.64102544, 4131.53846126, 4122.43589716, 4118.46153819, 4128.97435870, 4127.69230742,12.0
4126.41025614, 4118.84615357, 4117.82051255, 4099.48717914, 4122.94871767, 4087.17948684, 4107.43589716, 4092.56410222, 4102.05128171, 4113.84615357, 4111.53846126, 4100.89743555, 4113.07692280, 4129.35897408,12.0
4110.76923050, 4106.79487152, 4107.69230742, 4093.71794837, 4101.92307658, 4046.41025600, 4051.41025600, 4075.12820478, 4097.94871761, 4111.15384588, 4107.94871767, 4090.64102530, 4105.12820485, 4128.33333306,12.0
4114.61538434, 4107.94871767, 4111.02564075, 4093.97435863, 4109.35897408, 4066.66666625, 4072.05128171, 4085.51282017, 4106.02564075, 4110.76923050, 4109.99999973, 4097.94871761, 4109.48717921, 4125.64102537,12.0
4119.23076896, 4107.82051255, 4113.20512793, 4091.53846119, 4111.41025614, 4090.38461504, 4103.33333306, 4099.10256376, 4110.89743562, 4110.12820485, 4109.23076896, 4101.79487145, 4111.41025614, 4126.15384588,12.0
4120.51282024, 4107.17948691, 4114.74358947, 4095.64102530, 4108.58974332, 4076.79487145, 4092.30769196, 4108.33333306, 4129.10256383, 4124.87179460, 4115.89743562, 4104.99999973, 4116.41025614, 4128.71794844,12.0
4137.94871774, 4121.79487152, 4129.61538434, 4112.30769203, 4126.66666639, 4083.84615350, 4102.82051255, 4119.23076896, 4141.15384595, 4142.56410236, 4131.15384588, 4120.89743562, 4133.58974332, 4127.94871767,12.0
4158.71794851, 4135.89743569, 4141.15384595, 4122.05128178, 4145.12820492, 4108.20512793, 4137.30769210, 4125.51282024, 4134.48717921, 4145.76923056, 4137.43589723, 4133.46153819, 4139.87179467, 4124.87179460,12.0
4151.53846133, 4124.99999973, 4130.51282024, 4110.25640998, 4131.28205101, 4094.87179453, 4128.58974332, 4118.97435870, 4131.66666639, 4137.56410236, 4130.12820485, 4123.97435870, 4124.74358947, 4125.38461511,12.0
4135.51282031, 4108.07692280, 4119.48717921, 4098.33333299, 4115.76923050, 4073.84615350, 4099.35897402, 4111.28205101, 4133.84615357, 4127.94871767, 4121.92307665, 4109.87179460, 4115.76923050, 4127.82051255,12.0
4137.94871774, 4111.53846126, 4125.76923050, 4101.66666632, 4122.82051255, 4083.97435863, 4105.38461511, 4115.64102537, 4137.69230749, 4130.89743562, 4121.79487152, 4117.30769203, 4126.02564075, 4126.66666639,12.0
4148.07692287, 4122.69230742, 4135.76923056, 4108.97435870, 4123.84615357, 4097.43589709, 4124.99999973, 4126.92307665, 4148.20512800, 4145.64102544, 4128.84615357, 4136.15384595, 4136.02564082, 4124.23076896,12.0
4155.51282031, 4127.43589716, 4141.53846133, 4116.02564075, 4118.20512793, 4095.25640991, 4114.87179460, 4128.07692280, 4152.17948697, 4150.76923056, 4137.94871774, 4148.58974339, 4137.43589723, 4124.23076896,12.0
4154.87179467, 4126.28205101, 4147.30769210, 4120.25640998, 4127.69230742, 4091.41025607, 4093.97435863, 4106.92307665, 4133.07692280, 4138.71794851, 4136.15384595, 4150.64102544, 4130.76923050, 4125.64102537,12.0
4142.43589723, 4121.02564075, 4145.38461518, 4115.25640998, 4132.56410229, 4088.46153812, 4091.79487145, 4087.94871761, 4110.76923050, 4123.71794844, 4121.28205101, 4142.94871774, 4121.28205101, 4128.20512793,12.0
4137.82051262, 4119.35897408, 4139.99999980, 4112.82051255, 4126.41025614, 4090.89743555, 4106.41025614, 4098.07692273, 4113.84615357, 4123.84615357, 4114.99999973, 4139.74358954, 4120.51282024, 4128.33333306,12.0
4147.30769210, 4123.07692280, 4142.56410236, 4117.56410229, 4129.23076896, 4101.15384581, 4117.94871767, 4113.33333306, 4129.61538434, 4134.74358947, 4124.35897408, 4143.46153826, 4128.46153819, 4126.28205101,12.0
4155.12820492, 4129.10256383, 4150.12820492, 4124.10256383, 4138.46153826, 4106.15384588, 4123.71794844, 4122.69230742, 4147.30769210, 4147.69230749, 4136.79487159, 4147.82051262, 4141.28205108, 4126.92307665,12.0
4159.10256390, 4138.07692287, 4156.53846133, 4133.71794844, 4147.05128185, 4107.56410229, 4138.46153826, 4138.33333313, 4165.64102544, 4160.12820492, 4146.92307672, 4154.35897415, 4148.71794851, 4127.56410229,12.0
4156.79487159, 4136.02564082, 4151.41025621, 4135.64102544, 4149.23076903, 4104.48717921, 4144.74358954, 4134.23076896, 4155.51282031, 4152.94871774, 4141.79487159, 4150.89743569, 4137.17948697, 4127.56410229,12.0
4142.56410236, 4119.61538434, 4137.82051262, 4123.07692280, 4138.20512800, 4088.71794837, 4120.64102537, 4107.82051255, 4121.92307665, 4130.76923050, 4124.48717921, 4132.17948691, 4121.79487152, 4128.33333306,12.0
4134.74358947, 4116.41025614, 4138.46153826, 4115.38461511, 4131.41025614, 4087.17948684, 4111.53846126, 4115.12820485, 4126.53846126, 4126.92307665, 4122.56410229, 4124.35897408, 4125.89743562, 4128.46153819,12.0
4142.30769210, 4127.82051255, 4146.66666646, 4122.69230742, 4141.15384595, 4106.53846126, 4136.15384595, 4138.97435877, 4154.61538441, 4138.46153826, 4131.15384588, 4133.46153819, 4132.82051255, 4128.33333306,12.0
4143.84615364, 4126.41025614, 4140.12820492, 4124.61538434, 4144.99999980, 4104.23076896, 4137.17948697, 4123.84615357, 4142.17948697, 4137.30769210, 4129.10256383, 4131.15384588, 4125.12820485, 4129.99999973,12.0
4133.33333306, 4115.76923050, 4130.38461511, 4116.53846126, 4137.69230749, 4084.48717914, 4112.30769203, 4103.20512793, 4117.05128178, 4128.46153819, 4122.82051255, 4118.46153819, 4117.30769203, 4130.64102537,12.0
4122.05128178, 4108.46153819, 4122.56410229, 4107.94871767, 4129.35897408, 4078.07692273, 4101.28205094, 4108.20512793, 4121.53846126, 4124.87179460, 4117.43589716, 4110.12820485, 4115.12820485, 4127.69230742,12.0
4122.69230742, 4105.76923050, 4119.23076896, 4103.46153819, 4121.79487152, 4081.66666632, 4108.07692280, 4117.17948691, 4135.38461518, 4132.82051255, 4119.10256383, 4114.10256383, 4119.10256383, 4126.28205101,12.0
4134.10256383, 4109.87179460, 4126.66666639, 4107.17948691, 4120.25640998, 4090.76923043, 4119.87179460, 4122.17948691, 4143.33333313, 4145.12820492, 4129.48717921, 4127.56410229, 4129.10256383, 4127.05128178,12.0
4131.79487152, 4112.30769203, 4127.05128178, 4111.79487152, 4123.20512793, 4100.38461504, 4126.53846126, 4125.76923050, 4150.25641005, 4139.35897415, 4126.28205101, 4130.51282024, 4126.92307665, 4127.56410229,12.0
4117.17948691, 4107.05128178, 4119.10256383, 4112.69230742, 4127.05128178, 4095.12820478, 4116.79487152, 4114.99999973, 4138.33333313, 4124.99999973, 4117.17948691, 4123.46153819, 4118.20512793, 4126.28205101,12.0
4118.07692280, 4109.99999973, 4125.25640998, 4115.12820485, 4129.87179460, 4090.64102530, 4112.56410229, 4105.38461511, 4121.15384588, 4126.28205101, 4120.38461511, 4125.38461511, 4120.25640998, 4124.61538434,12.0
4132.69230742, 4122.05128178, 4137.69230749, 4121.15384588, 4135.64102544, 4102.43589709, 4127.43589716, 4118.20512793, 4134.74358947, 4136.53846133, 4126.02564075, 4134.74358947, 4125.38461511, 4126.66666639,12.0
4127.82051255, 4117.43589716, 4129.74358947, 4119.23076896, 4129.99999973, 4094.99999966, 4118.46153819, 4114.74358947, 4137.82051262, 4131.53846126, 4120.89743562, 4131.41025614, 4119.23076896, 4124.48717921,12.0
4127.82051255, 4117.43589716, 4129.74358947, 4119.23076896, 4129.99999973, 4094.99999966, 4118.46153819, 4114.74358947, 4137.82051262, 4131.53846126, 4120.89743562, 4131.41025614, 4119.23076896, 4124.48717921,12.0
4111.92307665, 4101.15384581, 4118.84615357, 4109.74358947, 4113.71794844, 4073.33333299, 4091.28205094, 4091.66666632, 4112.69230742, 4116.02564075, 4114.48717921, 4120.51282024, 4112.69230742, 4119.99999973,12.0
4114.74358947, 4100.89743555, 4124.48717921, 4109.48717921, 4110.89743562, 4077.30769196, 4094.10256376, 4094.74358940, 4115.25640998, 4117.43589716, 4117.56410229, 4122.43589716, 4115.64102537, 4125.12820485,12.0
4133.07692280, 4119.23076896, 4140.12820492, 4121.92307665, 4126.28205101, 4093.97435863, 4118.58974332, 4111.15384588, 4137.43589723, 4135.12820485, 4129.23076896, 4137.17948697, 4123.97435870, 4129.99999973,12.0
4144.87179467, 4131.28205101, 4153.33333313, 4131.28205101, 4138.46153826, 4094.23076889, 4121.79487152, 4104.74358947, 4132.56410229, 4145.64102544, 4138.07692287, 4145.64102544, 4132.43589716, 4124.99999973,12.0
4134.87179460, 4120.64102537, 4147.82051262, 4121.15384588, 4128.07692280, 4084.99999966, 4105.89743562, 4094.99999966, 4122.17948691, 4138.20512800, 4130.12820485, 4134.87179460, 4128.58974332, 4122.30769203,12.0
4116.41025614, 4106.28205101, 4129.99999973, 4104.99999973, 4112.82051255, 4081.02564068, 4099.74358940, 4099.48717914, 4125.51282024, 4122.43589716, 4114.35897408, 4117.56410229, 4113.46153819, 4127.05128178,12.0
4103.33333306, 4098.84615350, 4113.84615357, 4097.30769196, 4102.82051255, 4077.43589709, 4095.64102530, 4092.82051248, 4110.76923050, 4108.20512793, 4101.92307658, 4102.17948684, 4102.56410229, 4127.94871767,12.0
4105.89743562, 4099.35897402, 4117.05128178, 4099.74358940, 4104.87179460, 4083.07692273, 4098.46153812, 4087.82051248, 4098.07692273, 4108.33333306, 4101.28205094, 4100.64102530, 4105.76923050, 4124.23076896,12.0
4118.46153819, 4107.30769203, 4131.92307665, 4108.71794844, 4116.92307665, 4095.12820478, 4108.46153819, 4099.35897402, 4109.74358947, 4120.89743562, 4114.74358947, 4115.51282024, 4118.58974332, 4125.76923050,12.0
4119.48717921, 4105.12820485, 4128.97435870, 4110.12820485, 4112.30769203, 4090.25640991, 4101.79487145, 4103.97435870, 4116.79487152, 4123.71794844, 4121.66666639, 4120.51282024, 4121.15384588, 4129.35897408,12.0
4116.41025614, 4098.33333299, 4121.41025614, 4105.89743562, 4102.82051255, 4087.56410222, 4095.76923043, 4101.66666632, 4117.05128178, 4123.20512793, 4120.51282024, 4118.58974332, 4120.51282024, 4126.15384588,12.0
4117.43589716, 4098.33333299, 4122.05128178, 4102.82051255, 4106.79487152, 4102.05128171, 4104.23076896, 4098.58974325, 4111.02564075, 4122.05128178, 4117.56410229, 4123.58974332, 4120.12820485, 4123.58974332,12.0
4115.38461511, 4094.35897402, 4117.17948691, 4098.84615350, 4108.84615357, 4102.17948684, 4100.12820478, 4093.33333299, 4098.84615350, 4108.58974332, 4108.97435870, 4122.05128178, 4112.17948691, 4125.64102537,12.0
4116.66666639, 4096.02564068, 4117.43589716, 4104.61538434, 4109.87179460, 4088.97435863, 4094.35897402, 4098.84615350, 4105.89743562, 4108.33333306, 4111.15384588, 4121.02564075, 4112.30769203, 4126.15384588,12.0
4121.53846126, 4108.20512793, 4129.48717921, 4115.76923050, 4116.92307665, 4088.58974325, 4103.71794844, 4109.87179460, 4122.82051255, 4125.51282024, 4124.61538434, 4131.28205101, 4124.74358947, 4125.64102537,12.0
4120.25640998, 4106.53846126, 4129.61538434, 4112.30769203, 4114.61538434, 4094.35897402, 4109.99999973, 4109.35897408, 4117.82051255, 4128.07692280, 4125.38461511, 4134.99999973, 4125.76923050, 4126.79487152,12.0
4123.20512793, 4104.35897408, 4126.79487152, 4110.38461511, 4113.97435870, 4099.87179453, 4117.43589716, 4113.07692280, 4117.17948691, 4125.25640998, 4121.53846126, 4134.35897408, 4120.51282024, 4126.15384588,12.0
4130.38461511, 4114.74358947, 4133.58974332, 4121.66666639, 4121.02564075, 4099.35897402, 4118.71794844, 4121.02564075, 4134.23076896, 4130.76923050, 4123.84615357, 4134.99999973, 4122.43589716, 4124.10256383,12.0
4123.58974332, 4110.25640998, 4130.64102537, 4120.76923050, 4116.02564075, 4089.61538427, 4101.53846119, 4109.99999973, 4130.76923050, 4126.41025614, 4120.51282024, 4127.30769203, 4117.82051255, 4124.10256383,12.0
4117.56410229, 4099.61538427, 4122.82051255, 4113.58974332, 4111.66666639, 4090.12820478, 4099.10256376, 4097.05128171, 4110.76923050, 4117.94871767, 4117.05128178, 4123.84615357, 4110.38461511, 4125.25640998,12.0
4122.05128178, 4103.33333306, 4122.56410229, 4115.89743562, 4114.87179460, 4094.99999966, 4106.79487152, 4100.38461504, 4111.66666639, 4121.92307665, 4122.17948691, 4129.48717921, 4114.87179460, 4126.15384588,12.0
4126.15384588, 4105.38461511, 4126.53846126, 4118.84615357, 4117.82051255, 4092.05128171, 4102.17948684, 4107.56410229, 4125.76923050, 4126.66666639, 4126.79487152, 4133.46153819, 4122.69230742, 4128.07692280,12.0
4122.82051255, 4099.23076889, 4126.02564075, 4114.35897408, 4119.87179460, 4085.76923043, 4098.33333299, 4097.05128171, 4110.76923050, 4115.64102537, 4119.74358947, 4129.61538434, 4116.41025614, 4128.20512793,12.0
4112.94871767, 4093.84615350, 4114.87179460, 4106.15384588, 4112.05128178, 4072.05128171, 4093.33333299, 4080.64102530, 4081.66666632, 4098.97435863, 4108.97435870, 4121.53846126, 4103.84615357, 4126.53846126,12.0
4117.69230742, 4099.99999966, 4117.43589716, 4108.20512793, 4106.53846126, 4067.05128164, 4090.64102530, 4087.05128171, 4087.82051248, 4103.71794844, 4114.48717921, 4130.12820485, 4109.99999973, 4126.79487152,12.0
4135.76923056, 4118.07692280, 4138.20512800, 4121.02564075, 4121.28205101, 4079.23076889, 4105.76923050, 4112.30769203, 4121.79487152, 4126.92307665, 4132.82051255, 4150.12820492, 4129.61538434, 4126.92307665,12.0
4130.76923050, 4118.58974332, 4137.30769210, 4121.92307665, 4126.15384588, 4076.28205094, 4108.97435870, 4118.46153819, 4131.02564075, 4131.02564075, 4131.41025614, 4147.17948697, 4126.02564075, 4125.25640998,12.0
4107.69230742, 4098.97435863, 4113.58974332, 4106.92307665, 4110.25640998, 4062.56410215, 4093.07692273, 4098.58974325, 4105.51282024, 4106.92307665, 4110.38461511, 4125.38461511, 4102.94871767, 4127.43589716,12.0
4100.76923043, 4093.20512786, 4105.12820485, 4097.69230735, 4099.48717914, 4059.99999959, 4087.94871761, 4089.35897402, 4090.38461504, 4092.82051248, 4099.99999966, 4117.17948691, 4095.38461504, 4128.97435870,12.0
4103.97435870, 4098.33333299, 4110.12820485, 4098.84615350, 4093.97435863, 4057.05128164, 4089.74358940, 4095.25640991, 4096.28205094, 4097.05128171, 4104.61538434, 4117.30769203, 4101.92307658, 4124.74358947,12.0
4104.61538434, 4098.97435863, 4109.48717921, 4104.87179460, 4096.15384581, 4054.99999959, 4087.56410222, 4096.79487145, 4102.05128171, 4104.35897408, 4110.51282024, 4110.25640998, 4106.41025614, 4124.10256383,12.0
4115.51282024, 4109.23076896, 4117.17948691, 4116.92307665, 4114.87179460, 4066.66666625, 4093.33333299, 4099.99999966, 4106.92307665, 4114.74358947, 4118.33333306, 4114.23076896, 4114.10256383, 4127.94871767,12.0
4131.28205101, 4124.74358947, 4134.10256383, 4128.84615357, 4132.43589716, 4079.87179453, 4110.64102537, 4109.10256383, 4115.76923050, 4123.46153819, 4126.79487152, 4132.82051255, 4122.56410229, 4127.69230742,12.0
4126.53846126, 4116.41025614, 4129.74358947, 4124.10256383, 4123.33333306, 4077.82051248, 4106.66666639, 4100.89743555, 4106.79487152, 4112.17948691, 4119.87179460, 4130.38461511, 4114.48717921, 4124.74358947,12.0
4115.12820485, 4102.30769196, 4112.69230742, 4113.84615357, 4108.71794844, 4071.79487145, 4089.99999966, 4089.61538427, 4094.61538427, 4100.51282017, 4112.17948691, 4112.69230742, 4107.82051255, 4125.38461511,12.0
4119.61538434, 4112.30769203, 4117.69230742, 4119.48717921, 4113.58974332, 4073.07692273, 4094.10256376, 4097.82051248, 4104.74358947, 4114.87179460, 4120.89743562, 4121.28205101, 4117.69230742, 4125.25640998,12.0
4122.30769203, 4119.35897408, 4128.46153819, 4119.61538434, 4117.30769203, 4072.43589709, 4101.02564068, 4105.38461511, 4117.05128178, 4124.10256383, 4123.46153819, 4133.97435870, 4120.25640998, 4123.84615357,12.0
4108.84615357, 4105.38461511, 4115.76923050, 4104.10256383, 4103.97435870, 4060.38461497, 4088.07692273, 4098.33333299, 4105.76923050, 4108.58974332, 4108.46153819, 4119.10256383, 4105.51282024, 4125.76923050,12.0
4100.25640991, 4096.92307658, 4106.15384588, 4102.82051255, 4093.58974325, 4052.82051241, 4081.79487145, 4084.87179453, 4086.02564068, 4097.43589709, 4102.30769196, 4111.15384588, 4097.69230735, 4126.92307665,12.0
4112.43589716, 4105.89743562, 4117.94871767, 4116.41025614, 4103.20512793, 4063.33333292, 4101.53846119, 4089.74358940, 4093.97435863, 4111.28205101, 4114.74358947, 4130.51282024, 4110.25640998, 4126.15384588,12.0
4128.46153819, 4114.87179460, 4134.35897408, 4122.94871767, 4119.87179460, 4071.92307658, 4114.99999973, 4110.89743562, 4122.69230742, 4130.51282024, 4125.25640998, 4146.28205108, 4123.07692280, 4124.99999973,12.0
4131.79487152, 4117.05128178, 4142.30769210, 4124.87179460, 4124.99999973, 4071.41025607, 4113.46153819, 4117.56410229, 4133.20512793, 4133.20512793, 4127.05128178, 4149.48717928, 4123.97435870, 4125.12820485,12.0
4128.58974332, 4117.56410229, 4138.97435877, 4127.43589716, 4124.74358947, 4076.41025607, 4118.71794844, 4111.02564075, 4126.92307665, 4127.05128178, 4127.05128178, 4151.92307672, 4124.99999973, 4125.38461511,12.0
4123.46153819, 4112.43589716, 4132.69230742, 4123.33333306, 4130.12820485, 4081.66666632, 4122.69230742, 4109.74358947, 4125.89743562, 4126.53846126, 4128.33333306, 4152.69230749, 4125.64102537, 4123.84615357,12.0
4114.48717921, 4102.30769196, 4131.28205101, 4115.38461511, 4120.51282024, 4075.64102530, 4111.66666639, 4103.46153819, 4115.89743562, 4123.97435870, 4122.94871767, 4147.69230749, 4112.30769203, 4123.20512793,12.0
4110.64102537, 4097.43589709, 4128.97435870, 4112.56410229, 4102.05128171, 4068.20512779, 4102.30769196, 4097.17948684, 4106.15384588, 4115.38461511, 4114.23076896, 4139.61538441, 4103.20512793, 4124.87179460,12.0
4112.56410229, 4101.02564068, 4121.79487152, 4115.51282024, 4107.56410229, 4070.51282017, 4104.61538434, 4099.23076889, 4109.61538434, 4113.07692280, 4113.33333306, 4135.64102544, 4112.82051255, 4126.15384588,12.0
4108.33333306, 4104.74358947, 4119.99999973, 4115.12820485, 4120.51282024, 4077.30769196, 4106.79487152, 4101.92307658, 4115.64102537, 4117.30769203, 4117.17948691, 4133.33333306, 4117.94871767, 4124.74358947,12.0
4113.58974332, 4108.97435870, 4128.33333306, 4119.10256383, 4121.15384588, 4084.48717914, 4117.69230742, 4118.20512793, 4135.89743569, 4131.28205101, 4124.99999973, 4134.99999973, 4120.64102537, 4123.84615357,12.0
4129.48717921, 4120.89743562, 4136.28205108, 4133.07692280, 4127.82051255, 4091.28205094, 4136.66666646, 4136.92307672, 4152.56410236, 4148.58974339, 4134.87179460, 4141.53846133, 4132.69230742, 4125.25640998,12.0
4126.15384588, 4121.28205101, 4132.69230742, 4131.53846126, 4132.43589716, 4083.84615350, 4127.56410229, 4125.64102537, 4135.51282031, 4143.07692287, 4128.58974332, 4131.79487152, 4127.30769203, 4126.79487152,12.0
4115.25640998, 4112.56410229, 4124.35897408, 4122.43589716, 4126.53846126, 4074.74358940, 4106.53846126, 4109.10256383, 4121.15384588, 4128.33333306, 4120.12820485, 4115.12820485, 4114.10256383, 4125.76923050,12.0
4131.53846126, 4125.38461511, 4140.38461518, 4138.33333313, 4145.38461518, 4093.46153812, 4121.92307665, 4124.61538434, 4143.58974339, 4141.79487159, 4139.61538441, 4129.23076896, 4131.02564075, 4123.84615357,12.0
4146.28205108, 4139.35897415, 4158.71794851, 4153.97435877, 4166.79487159, 4115.25640998, 4142.30769210, 4134.35897408, 4155.51282031, 4158.20512800, 4157.17948697, 4151.15384595, 4147.17948697, 4122.94871767,12.0
4132.43589716, 4127.30769203, 4147.56410236, 4140.51282031, 4151.53846133, 4103.84615357, 4130.12820485, 4119.23076896, 4139.87179467, 4145.89743569, 4144.48717928, 4139.61538441, 4133.58974332, 4125.38461511,12.0
4123.97435870, 4115.76923050, 4137.17948697, 4129.61538434, 4134.48717921, 4086.28205094, 4118.84615357, 4117.82051255, 4137.56410236, 4136.92307672, 4135.76923056, 4126.79487152, 4124.23076896, 4127.05128178,12.0
4135.76923056, 4125.12820485, 4148.07692287, 4140.51282031, 4143.07692287, 4096.41025607, 4128.84615357, 4131.28205101, 4147.94871774, 4146.66666646, 4147.17948697, 4136.66666646, 4134.10256383, 4123.97435870,12.0
4142.56410236, 4135.76923056, 4150.25641005, 4150.64102544, 4151.79487159, 4112.05128178, 4140.38461518, 4133.58974332, 4149.74358954, 4148.84615364, 4149.35897415, 4139.35897415, 4136.15384595, 4123.58974332,12.0
4139.74358954, 4138.20512800, 4144.35897415, 4151.15384595, 4152.94871774, 4114.10256383, 4146.53846133, 4129.74358947, 4144.48717928, 4141.79487159, 4140.51282031, 4128.46153819, 4126.79487152, 4125.89743562,12.0
4138.84615364, 4136.41025621, 4148.20512800, 4151.41025621, 4158.46153826, 4112.56410229, 4149.87179467, 4133.71794844, 4146.79487159, 4140.76923056, 4136.79487159, 4121.79487152, 4122.56410229, 4124.61538434,12.0
4131.92307665, 4125.25640998, 4139.48717928, 4145.51282031, 4150.38461518, 4105.25640998, 4138.58974339, 4131.53846126, 4147.69230749, 4136.53846133, 4132.43589716, 4111.15384588, 4118.33333306, 4122.94871767,12.0
4118.58974332, 4112.82051255, 4118.46153819, 4131.53846126, 4129.61538434, 4090.89743555, 4117.94871767, 4115.38461511, 4133.97435870, 4126.79487152, 4127.69230742, 4092.69230735, 4112.30769203, 4124.99999973,12.0
4120.25640998, 4119.99999973, 4122.94871767, 4130.64102537, 4132.05128178, 4090.51282017, 4115.64102537, 4112.94871767, 4131.02564075, 4127.56410229, 4132.30769203, 4089.99999966, 4117.82051255, 4125.76923050,12.0
4138.71794851, 4140.38461518, 4147.82051262, 4151.02564082, 4150.38461518, 4106.02564075, 4126.79487152, 4127.82051255, 4149.99999980, 4140.64102544, 4147.43589723, 4108.97435870, 4137.56410236, 4125.64102537,12.0
4148.07692287, 4143.84615364, 4154.35897415, 4161.15384595, 4151.02564082, 4107.30769203, 4119.23076896, 4123.20512793, 4148.84615364, 4146.15384595, 4156.02564082, 4120.51282024, 4144.10256390, 4126.15384588,12.0
4146.92307672, 4136.15384595, 4146.41025621, 4153.84615364, 4140.64102544, 4104.48717921, 4112.30769203, 4112.17948691, 4131.15384588, 4145.51282031, 4153.20512800, 4115.25640998, 4135.64102544, 4126.15384588,12.0
4151.15384595, 4138.07692287, 4147.43589723, 4154.10256390, 4141.79487159, 4111.41025614, 4127.69230742, 4122.17948691, 4135.38461518, 4147.82051262, 4152.56410236, 4114.35897408, 4135.25640998, 4125.51282024,12.0
4149.23076903, 4136.53846133, 4146.28205108, 4154.10256390, 4143.33333313, 4107.17948691, 4128.33333306, 4128.20512793, 4141.92307672, 4143.71794851, 4150.38461518, 4113.97435870, 4136.41025621, 4123.71794844,12.0
4141.28205108, 4130.64102537, 4139.61538441, 4146.02564082, 4143.97435877, 4106.53846126, 4119.48717921, 4122.56410229, 4133.07692280, 4139.48717928, 4145.12820492, 4111.92307665, 4131.41025614, 4125.76923050,12.0
4149.10256390, 4137.82051262, 4145.12820492, 4150.51282031, 4156.79487159, 4126.92307665, 4141.53846133, 4137.05128185, 4144.35897415, 4149.10256390, 4148.97435877, 4123.71794844, 4134.74358947, 4128.33333306,12.0
4156.28205108, 4140.64102544, 4146.53846133, 4154.23076903, 4158.46153826, 4129.23076896, 4153.33333313, 4143.97435877, 4155.64102544, 4152.56410236, 4152.56410236, 4128.20512793, 4136.92307672, 4125.89743562,12.0
4141.92307672, 4127.05128178, 4130.25640998, 4140.64102544, 4139.99999980, 4106.28205101, 4124.74358947, 4122.69230742, 4137.82051262, 4138.20512800, 4140.76923056, 4114.23076896, 4125.25640998, 4122.17948691,12.0
4135.38461518, 4126.79487152, 4131.41025614, 4143.33333313, 4143.07692287, 4108.97435870, 4119.87179460, 4125.89743562, 4137.30769210, 4136.66666646, 4139.23076903, 4115.89743562, 4125.51282024, 4123.07692280,12.0
4147.05128185, 4140.64102544, 4147.69230749, 4161.15384595, 4161.79487159, 4130.64102537, 4143.97435877, 4146.79487159, 4159.35897415, 4153.46153826, 4156.66666646, 4129.87179460, 4138.71794851, 4125.76923050,12.0
4144.35897415, 4135.89743569, 4139.10256390, 4152.43589723, 4149.10256390, 4125.51282024, 4135.76923056, 4132.94871767, 4148.46153826, 4149.99999980, 4153.97435877, 4120.89743562, 4132.17948691, 4123.33333306,12.0
4134.87179460, 4125.25640998, 4125.89743562, 4142.30769210, 4130.89743562, 4111.66666639, 4116.79487152, 4115.25640998, 4132.05128178, 4132.56410229, 4138.58974339, 4109.99999973, 4123.46153819, 4124.10256383,12.0
4153.58974339, 4142.82051262, 4145.89743569, 4164.48717928, 4153.07692287, 4125.89743562, 4138.71794851, 4139.74358954, 4161.53846133, 4149.61538441, 4155.76923056, 4127.43589716, 4142.30769210, 4127.56410229,12.0
4169.10256397, 4159.10256390, 4161.66666646, 4175.25641012, 4171.92307679, 4141.66666646, 4160.64102544, 4153.46153826, 4173.46153833, 4172.94871781, 4173.58974345, 4139.99999980, 4152.43589723, 4125.38461511,12.0
4146.02564082, 4139.74358954, 4137.17948697, 4151.15384595, 4151.53846133, 4124.61538434, 4135.64102544, 4119.48717921, 4132.69230742, 4143.71794851, 4148.58974339, 4117.94871767, 4130.89743562, 4124.35897408,12.0
4128.20512793, 4122.17948691, 4119.23076896, 4141.66666646, 4134.87179460, 4108.71794844, 4113.20512793, 4106.41025614, 4121.41025614, 4117.69230742, 4128.46153819, 4099.48717914, 4119.10256383, 4127.30769203,12.0
4145.12820492, 4136.41025621, 4137.94871774, 4159.35897415, 4147.94871774, 4129.87179460, 4135.38461518, 4137.69230749, 4155.64102544, 4146.66666646, 4146.15384595, 4112.69230742, 4134.10256383, 4128.20512793,12.0
4156.66666646, 4147.56410236, 4149.87179467, 4163.33333313, 4157.05128185, 4149.23076903, 4153.97435877, 4156.79487159, 4170.38461525, 4166.53846133, 4155.51282031, 4121.02564075, 4140.64102544, 4125.76923050,12.0
4138.84615364, 4131.41025614, 4129.99999973, 4146.92307672, 4144.23076903, 4133.71794844, 4134.61538434, 4138.71794851, 4153.97435877, 4145.25641005, 4139.23076903, 4102.05128171, 4124.99999973, 4125.12820485,12.0
4130.76923050, 4121.92307665, 4120.51282024, 4145.51282031, 4137.94871774, 4122.69230742, 4120.51282024, 4120.25640998, 4137.82051262, 4131.53846126, 4135.64102544, 4097.56410222, 4120.51282024, 4126.02564075,12.0
4147.05128185, 4133.07692280, 4139.87179467, 4161.41025621, 4147.69230749, 4136.53846133, 4128.97435870, 4123.07692280, 4133.33333306, 4140.64102544, 4149.10256390, 4122.82051255, 4137.05128185, 4126.15384588,12.0
4155.38461518, 4141.53846133, 4151.02564082, 4160.89743569, 4154.23076903, 4143.71794851, 4132.17948691, 4137.82051262, 4154.10256390, 4157.56410236, 4158.71794851, 4137.43589723, 4149.61538441, 4127.30769203,12.0
4148.20512800, 4136.02564082, 4144.61538441, 4149.99999980, 4153.97435877, 4137.94871774, 4127.43589716, 4141.53846133, 4167.94871774, 4162.69230749, 4156.92307672, 4132.82051255, 4145.12820492, 4127.05128178,12.0
4148.58974339, 4131.66666639, 4143.20512800, 4154.87179467, 4158.46153826, 4140.76923056, 4132.17948691, 4130.76923050, 4145.25641005, 4148.20512800, 4152.69230749, 4134.23076896, 4139.99999980, 4125.12820485,12.0
4156.15384595, 4137.82051262, 4148.84615364, 4162.94871774, 4163.20512800, 4146.92307672, 4142.05128185, 4133.58974332, 4133.71794844, 4143.97435877, 4155.51282031, 4141.92307672, 4146.02564082, 4124.99999973,12.0
4150.25641005, 4138.58974339, 4146.28205108, 4156.92307672, 4160.38461518, 4139.48717928, 4138.97435877, 4141.79487159, 4148.46153826, 4152.56410236, 4155.76923056, 4139.87179467, 4144.48717928, 4125.76923050,12.0
4144.23076903, 4135.25640998, 4142.05128185, 4152.69230749, 4157.30769210, 4138.33333313, 4136.41025621, 4139.23076903, 4151.53846133, 4150.76923056, 4149.48717928, 4135.12820485, 4135.38461518, 4124.48717921,12.0
4143.33333313, 4133.46153819, 4141.28205108, 4153.20512800, 4153.84615364, 4144.87179467, 4137.43589723, 4138.71794851, 4144.61538441, 4141.53846133, 4145.38461518, 4132.17948691, 4132.69230742, 4123.33333306,12.0
4132.69230742, 4126.92307665, 4133.84615357, 4143.33333313, 4146.15384595, 4143.71794851, 4128.46153819, 4137.30769210, 4145.38461518, 4135.38461518, 4141.41025621, 4122.30769203, 4131.66666639, 4124.23076896,12.0
4129.99999973, 4124.48717921, 4132.17948691, 4141.66666646, 4144.48717928, 4150.64102544, 4130.12820485, 4133.33333306, 4142.43589723, 4136.02564082, 4139.87179467, 4116.53846126, 4130.76923050, 4126.66666639,12.0
4139.35897415, 4128.97435870, 4138.97435877, 4151.66666646, 4154.48717928, 4161.79487159, 4137.05128185, 4131.28205101, 4136.53846133, 4139.74358954, 4145.38461518, 4118.58974332, 4132.82051255, 4128.58974332,12.0
4132.43589716, 4124.74358947, 4131.41025614, 4150.51282031, 4154.35897415, 4154.10256390, 4123.71794844, 4124.10256383, 4135.76923056, 4136.15384595, 4146.66666646, 4116.41025614, 4130.76923050, 4127.56410229,12.0
4113.33333306, 4113.33333306, 4111.53846126, 4137.56410236, 4134.23076896, 4139.61538441, 4109.61538434, 4119.23076896, 4133.71794844, 4126.15384588, 4136.02564082, 4104.87179460, 4122.17948691, 4126.28205101,12.0
4122.17948691, 4120.76923050, 4120.38461511, 4139.48717928, 4132.43589716, 4144.87179467, 4123.58974332, 4128.97435870, 4137.82051262, 4129.48717921, 4137.94871774, 4109.48717921, 4126.41025614, 4126.53846126,12.0
4144.99999980, 4133.07692280, 4144.35897415, 4152.82051262, 4154.10256390, 4151.92307672, 4135.25640998, 4130.89743562, 4138.07692287, 4142.56410236, 4148.84615364, 4126.79487152, 4136.15384595, 4127.17948691,12.0
4140.76923056, 4127.94871767, 4137.69230749, 4150.51282031, 4155.51282031, 4143.07692287, 4126.79487152, 4121.92307665, 4134.74358947, 4144.61538441, 4145.76923056, 4125.76923050, 4133.07692280, 4127.43589716,12.0
4128.33333306, 4122.56410229, 4127.56410229, 4142.43589723, 4142.17948697, 4134.87179460, 4125.76923050, 4128.97435870, 4145.38461518, 4142.56410236, 4143.97435877, 4119.74358947, 4130.76923050, 4127.82051255,12.0
4133.33333306, 4127.94871767, 4139.74358954, 4146.41025621, 4145.89743569, 4133.58974332, 4130.51282024, 4134.74358947, 4147.05128185, 4139.23076903, 4151.15384595, 4128.58974332, 4134.48717921, 4127.94871767,12.0
4139.48717928, 4132.30769203, 4145.89743569, 4152.30769210, 4150.89743569, 4134.99999973, 4132.17948691, 4126.79487152, 4137.82051262, 4141.28205108, 4152.56410236, 4134.48717921, 4136.02564082, 4126.15384588,12.0
4123.97435870, 4120.12820485, 4128.58974332, 4139.61538441, 4134.99999973, 4128.71794844, 4124.99999973, 4119.35897408, 4134.23076896, 4138.20512800, 4138.97435877, 4117.30769203, 4125.51282024, 4123.84615357,12.0
4113.46153819, 4111.53846126, 4119.87179460, 4128.20512793, 4126.66666639, 4123.84615357, 4120.64102537, 4121.53846126, 4129.48717921, 4122.94871767, 4128.58974332, 4108.97435870, 4115.76923050, 4123.84615357,12.0
4129.87179460, 4125.38461511, 4133.97435870, 4141.41025621, 4138.33333313, 4132.30769203, 4129.74358947, 4129.61538434, 4125.12820485, 4117.30769203, 4134.35897408, 4127.82051255, 4121.02564075, 4125.64102537,12.0
4142.69230749, 4133.84615357, 4144.48717928, 4151.41025621, 4146.79487159, 4139.87179467, 4132.94871767, 4128.20512793, 4132.30769203, 4125.51282024, 4139.35897415, 4136.92307672, 4128.58974332, 4126.66666639,12.0
4130.25640998, 4121.79487152, 4134.35897408, 4139.87179467, 4136.41025621, 4127.17948691, 4117.43589716, 4109.48717921, 4128.58974332, 4120.76923050, 4131.92307665, 4120.64102537, 4125.38461511, 4127.05128178,12.0
4122.43589716, 4119.10256383, 4127.56410229, 4137.05128185, 4125.51282024, 4117.94871767, 4106.92307665, 4102.82051255, 4119.10256383, 4112.56410229, 4133.71794844, 4114.99999973, 4124.48717921, 4126.02564075,12.0
4141.92307672, 4140.38461518, 4149.74358954, 4158.07692287, 4141.41025621, 4136.92307672, 4123.46153819, 4120.76923050, 4137.05128185, 4134.10256383, 4153.33333313, 4136.66666646, 4136.41025621, 4125.25640998,12.0
4152.82051262, 4151.28205108, 4164.10256390, 4166.41025621, 4154.99999980, 4146.79487159, 4133.84615357, 4124.74358947, 4148.46153826, 4149.61538441, 4157.30769210, 4144.99999980, 4137.69230749, 4125.38461511,12.0
4147.43589723, 4143.07692287, 4154.99999980, 4156.15384595, 4145.89743569, 4141.53846133, 4132.56410229, 4121.66666639, 4140.64102544, 4142.05128185, 4149.87179467, 4137.69230749, 4132.05128178, 4124.23076896,12.0
4146.92307672, 4137.56410236, 4148.20512800, 4149.48717928, 4143.46153826, 4153.97435877, 4145.25641005, 4137.17948697, 4148.58974339, 4142.94871774, 4150.25641005, 4135.38461518, 4134.23076896, 4123.33333306,12.0
4140.89743569, 4132.17948691, 4141.66666646, 4142.43589723, 4148.07692287, 4161.79487159, 4144.10256390, 4134.61538434, 4149.35897415, 4142.43589723, 4141.28205108, 4129.99999973, 4126.28205101, 4124.87179460,12.0
4121.15384588, 4121.79487152, 4124.87179460, 4131.02564075, 4132.69230742, 4137.43589723, 4116.28205101, 4108.71794844, 4125.12820485, 4127.56410229, 4126.79487152, 4119.10256383, 4112.94871767, 4127.30769203,12.0
4119.35897408, 4125.12820485, 4126.79487152, 4134.74358947, 4127.94871767, 4130.38461511, 4116.92307665, 4122.69230742, 4135.76923056, 4131.28205101, 4139.48717928, 4128.33333306, 4126.28205101, 4127.17948691,12.0
4138.07692287, 4137.43589723, 4144.74358954, 4147.94871774, 4145.51282031, 4152.17948697, 4141.41025621, 4148.07692287, 4162.17948697, 4147.05128185, 4159.99999980, 4150.64102544, 4142.17948697, 4125.25640998,12.0
4134.48717921, 4129.48717921, 4134.10256383, 4141.02564082, 4138.07692287, 4143.58974339, 4123.07692280, 4118.07692280, 4131.41025614, 4132.30769203, 4146.53846133, 4145.89743569, 4125.25640998, 4123.33333306,12.0
4117.69230742, 4114.61538434, 4116.53846126, 4126.92307665, 4122.94871767, 4118.58974332, 4094.10256376, 4098.71794837, 4111.41025614, 4121.15384588, 4129.99999973, 4131.41025614, 4116.92307665, 4124.23076896,12.0
4116.92307665, 4117.05128178, 4122.69230742, 4130.51282024, 4128.58974332, 4121.92307665, 4104.48717921, 4121.66666639, 4141.02564082, 4137.43589723, 4137.94871774, 4138.07692287, 4131.53846126, 4126.53846126,12.0
4117.82051255, 4120.51282024, 4129.35897408, 4136.92307672, 4126.15384588, 4131.02564075, 4118.46153819, 4126.15384588, 4144.48717928, 4140.76923056, 4143.71794851, 4148.46153826, 4131.53846126, 4123.84615357,12.0
4117.17948691, 4118.97435870, 4128.46153819, 4135.51282031, 4120.89743562, 4130.12820485, 4120.76923050, 4119.48717921, 4131.66666639, 4136.28205108, 4142.94871774, 4148.20512800, 4128.20512793, 4124.48717921,12.0
4121.02564075, 4118.84615357, 4126.66666639, 4134.48717921, 4132.17948691, 4134.87179460, 4127.17948691, 4131.28205101, 4145.25641005, 4148.33333313, 4143.97435877, 4142.69230749, 4132.43589716, 4129.61538434,12.0
4116.53846126, 4114.10256383, 4116.02564075, 4129.99999973, 4131.02564075, 4136.02564082, 4126.66666639, 4134.61538434, 4149.87179467, 4145.51282031, 4135.25640998, 4128.46153819, 4122.05128178, 4126.79487152,12.0
4114.74358947, 4116.02564075, 4113.20512793, 4129.35897408, 4123.71794844, 4137.82051262, 4128.71794844, 4132.94871767, 4142.30769210, 4130.38461511, 4130.12820485, 4122.69230742, 4118.20512793, 4122.05128178,12.0
4129.61538434, 4127.05128178, 4125.89743562, 4138.46153826, 4135.25640998, 4145.89743569, 4137.43589723, 4136.02564082, 4143.58974339, 4138.20512800, 4141.53846133, 4134.99999973, 4133.33333306, 4126.41025614,12.0
4128.33333306, 4122.17948691, 4123.33333306, 4136.02564082, 4135.25640998, 4141.41025621, 4131.02564075, 4126.92307665, 4137.43589723, 4141.92307672, 4138.46153826, 4130.89743562, 4128.71794844, 4130.64102537,12.0
4119.61538434, 4116.02564075, 4116.92307665, 4130.64102537, 4128.58974332, 4136.92307672, 4123.46153819, 4128.07692280, 4138.07692287, 4135.76923056, 4128.33333306, 4121.79487152, 4118.20512793, 4126.15384588,12.0
4129.74358947, 4128.20512793, 4128.33333306, 4140.76923056, 4138.20512800, 4144.35897415, 4122.82051255, 4132.05128178, 4140.25641005, 4139.61538441, 4138.33333313, 4133.07692280, 4127.82051255, 4122.30769203,12.0
4138.46153826, 4135.64102544, 4141.66666646, 4149.23076903, 4140.51282031, 4147.94871774, 4115.12820485, 4118.84615357, 4132.69230742, 4144.10256390, 4152.05128185, 4144.99999980, 4138.20512800, 4127.05128178,12.0
4142.05128185, 4136.53846133, 4150.51282031, 4150.38461518, 4137.82051262, 4151.15384595, 4119.74358947, 4122.17948691, 4143.71794851, 4150.89743569, 4158.20512800, 4150.64102544, 4143.58974339, 4129.35897408,12.0
4145.89743569, 4139.48717928, 4149.48717928, 4151.15384595, 4143.97435877, 4159.10256390, 4136.28205108, 4135.64102544, 4151.79487159, 4156.41025621, 4157.05128185, 4155.12820492, 4141.41025621, 4122.94871767,12.0
4130.38461511, 4126.92307665, 4131.66666639, 4138.58974339, 4137.17948697, 4156.02564082, 4130.51282024, 4126.53846126, 4132.94871767, 4141.15384595, 4142.43589723, 4144.87179467, 4125.64102537, 4120.38461511,12.0
4123.58974332, 4119.74358947, 4126.15384588, 4131.92307665, 4133.97435870, 4158.20512800, 4125.64102537, 4123.97435870, 4131.41025614, 4133.97435870, 4138.33333313, 4138.71794851, 4124.87179460, 4125.89743562,12.0
4139.74358954, 4131.79487152, 4137.30769210, 4143.33333313, 4150.76923056, 4174.10256397, 4141.15384595, 4137.05128185, 4142.69230749, 4141.53846133, 4141.41025621, 4147.94871774, 4132.17948691, 4126.41025614,12.0
4131.79487152, 4126.41025614, 4129.23076896, 4138.46153826, 4147.56410236, 4177.69230756, 4140.89743569, 4128.97435870, 4132.69230742, 4128.58974332, 4127.17948691, 4141.02564082, 4117.43589716, 4123.20512793,12.0
4111.02564075, 4110.25640998, 4117.94871767, 4122.94871767, 4133.58974332, 4169.87179474, 4124.61538434, 4120.64102537, 4129.23076896, 4122.94871767, 4123.46153819, 4131.53846126, 4114.35897408, 4124.99999973,12.0
4116.41025614, 4114.74358947, 4126.15384588, 4127.43589716, 4132.56410229, 4164.61538441, 4118.07692280, 4128.07692280, 4137.56410236, 4139.74358954, 4139.23076903, 4140.51282031, 4131.02564075, 4126.28205101,12.0
4127.82051255, 4125.12820485, 4130.51282024, 4138.20512800, 4131.66666639, 4166.28205108, 4125.51282024, 4130.12820485, 4138.20512800, 4141.79487159, 4142.05128185, 4146.15384595, 4132.94871767, 4124.87179460,12.0
4129.87179460, 4128.07692280, 4128.46153819, 4138.46153826, 4138.33333313, 4173.97435884, 4139.48717928, 4141.15384595, 4155.76923056, 4145.51282031, 4140.25641005, 4143.46153826, 4132.43589716, 4127.43589716,12.0
4127.82051255, 4127.69230742, 4130.64102537, 4134.99999973, 4147.30769210, 4173.58974345, 4138.20512800, 4148.20512800, 4163.71794851, 4156.02564082, 4142.69230749, 4137.82051262, 4133.84615357, 4128.97435870,12.0
4121.41025614, 4120.76923050, 4127.82051255, 4130.64102537, 4136.92307672, 4161.53846133, 4120.12820485, 4122.94871767, 4131.02564075, 4139.35897415, 4137.17948697, 4129.10256383, 4125.12820485, 4124.99999973,12.0
4128.07692280, 4127.30769203, 4130.64102537, 4141.66666646, 4138.97435877, 4164.99999980, 4132.94871767, 4120.25640998, 4127.43589716, 4130.38461511, 4143.07692287, 4135.64102544, 4129.23076896, 4124.99999973,12.0
4141.66666646, 4144.23076903, 4139.61538441, 4158.33333313, 4158.46153826, 4178.33333320, 4160.89743569, 4147.17948697, 4152.94871774, 4145.89743569, 4151.53846133, 4145.76923056, 4139.48717928, 4127.05128178,12.0
4129.61538434, 4135.12820485, 4127.30769203, 4149.61538441, 4144.35897415, 4164.61538441, 4136.02564082, 4129.99999973, 4131.02564075, 4132.69230742, 4133.71794844, 4126.79487152, 4121.41025614, 4125.51282024,12.0
4123.20512793, 4124.23076896, 4116.41025614, 4142.94871774, 4127.82051255, 4155.38461518, 4116.79487152, 4112.30769203, 4114.48717921, 4113.07692280, 4127.17948691, 4118.71794844, 4113.07692280, 4125.76923050,12.0
4142.43589723, 4136.15384595, 4135.38461518, 4158.07692287, 4143.84615364, 4170.12820499, 4146.66666646, 4141.15384595, 4146.53846133, 4128.58974332, 4148.46153826, 4142.69230749, 4136.15384595, 4128.46153819,12.0
4143.07692287, 4136.53846133, 4139.74358954, 4156.92307672, 4142.43589723, 4166.41025621, 4147.69230749, 4148.07692287, 4152.43589723, 4134.99999973, 4147.17948697, 4144.99999980, 4138.20512800, 4129.35897408,12.0
4129.35897408, 4124.48717921, 4120.51282024, 4138.71794851, 4124.35897408, 4145.64102544, 4115.38461511, 4127.30769203, 4132.05128178, 4121.41025614, 4129.10256383, 4130.12820485, 4118.20512793, 4128.71794844,12.0
4134.87179460, 4129.87179460, 4124.35897408, 4143.46153826, 4132.94871767, 4149.48717928, 4116.28205101, 4124.23076896, 4134.74358947, 4124.61538434, 4135.64102544, 4139.48717928, 4120.76923050, 4128.71794844,12.0
4148.97435877, 4143.46153826, 4146.79487159, 4161.66666646, 4151.79487159, 4170.12820499, 4138.33333313, 4131.53846126, 4141.92307672, 4138.97435877, 4154.61538441, 4158.71794851, 4139.35897415, 4127.56410229,12.0
4151.15384595, 4145.89743569, 4152.82051262, 4166.02564082, 4152.69230749, 4175.89743576, 4145.89743569, 4137.17948697, 4145.89743569, 4145.89743569, 4157.17948697, 4161.79487159, 4141.92307672, 4125.64102537,12.0
4153.33333313, 4151.41025621, 4152.69230749, 4167.69230749, 4161.92307672, 4176.41025628, 4153.58974339, 4147.94871774, 4162.82051262, 4157.17948697, 4159.23076903, 4162.05128185, 4143.33333313, 4126.66666639,12.0
4151.53846133, 4156.02564082, 4153.71794851, 4168.71794858, 4169.48717935, 4177.30769217, 4149.74358954, 4144.87179467, 4166.53846133, 4166.41025621, 4165.51282031, 4157.94871774, 4148.07692287, 4128.07692280,12.0
4140.25641005, 4143.71794851, 4143.33333313, 4164.10256390, 4156.41025621, 4174.87179474, 4133.97435870, 4131.41025614, 4152.30769210, 4154.99999980, 4160.12820492, 4142.56410236, 4138.46153826, 4126.15384588,12.0
4150.76923056, 4146.28205108, 4147.43589723, 4172.30769217, 4165.89743569, 4188.97435884, 4148.71794851, 4140.64102544, 4157.30769210, 4151.53846133, 4161.92307672, 4145.51282031, 4137.69230749, 4126.15384588,12.0
4166.79487159, 4161.15384595, 4161.41025621, 4181.79487166, 4186.66666653, 4196.28205115, 4160.51282031, 4147.82051262, 4164.74358954, 4160.76923056, 4169.35897422, 4153.46153826, 4146.92307672, 4126.79487152,12.0
4163.33333313, 4161.79487159, 4157.56410236, 4175.38461525, 4178.97435884, 4185.51282038, 4144.99999980, 4140.64102544, 4162.82051262, 4164.23076903, 4167.05128185, 4146.92307672, 4145.89743569, 4125.64102537,12.0
4170.64102551, 4164.99999980, 4164.23076903, 4182.30769217, 4180.76923063, 4196.15384602, 4153.97435877, 4147.56410236, 4174.48717935, 4176.15384602, 4179.61538448, 4157.05128185, 4153.58974339, 4125.89743562,12.0
4180.38461525, 4172.94871781, 4177.30769217, 4195.12820499, 4192.82051269, 4205.76923070, 4166.66666646, 4157.82051262, 4182.56410243, 4183.71794858, 4194.61538448, 4169.48717935, 4168.20512807, 4125.38461511,12.0
4167.30769210, 4163.07692287, 4167.82051262, 4180.64102551, 4176.28205115, 4183.07692294, 4144.35897415, 4152.05128185, 4171.66666653, 4167.56410236, 4182.17948704, 4154.35897415, 4161.02564082, 4125.38461511,12.0
4163.84615364, 4152.30769210, 4162.30769210, 4168.46153833, 4162.05128185, 4170.25641012, 4131.41025614, 4149.74358954, 4173.84615371, 4159.99999980, 4173.33333320, 4146.41025621, 4151.53846133, 4124.99999973,12.0
4172.05128192, 4154.74358954, 4168.58974345, 4172.82051269, 4172.82051269, 4181.66666653, 4139.99999980, 4148.33333313, 4176.66666653, 4167.94871774, 4176.53846140, 4154.10256390, 4151.02564082, 4124.99999973,12.0
4163.07692287, 4153.46153826, 4165.25641005, 4169.35897422, 4175.38461525, 4187.17948704, 4141.92307672, 4141.92307672, 4162.69230749, 4159.74358954, 4167.30769210, 4150.89743569, 4143.58974339, 4127.82051255,12.0
4163.58974339, 4159.35897415, 4171.41025628, 4172.43589730, 4171.28205115, 4189.87179474, 4150.25641005, 4152.43589723, 4168.58974345, 4156.66666646, 4171.53846140, 4155.64102544, 4144.61538441, 4128.71794844,12.0
4176.53846140, 4169.87179474, 4181.28205115, 4183.84615371, 4177.56410243, 4194.35897422, 4165.89743569, 4159.35897415, 4181.15384602, 4166.02564082, 4186.92307679, 4166.92307672, 4153.84615364, 4125.89743562,12.0
4170.89743576, 4165.12820492, 4167.82051262, 4180.51282038, 4185.38461525, 4188.84615371, 4163.33333313, 4148.33333313, 4174.74358961, 4165.51282031, 4177.17948704, 4154.99999980, 4153.33333313, 4125.38461511,12.0
4166.92307672, 4165.89743569, 4165.25641005, 4183.58974345, 4194.48717935, 4183.58974345, 4159.48717928, 4153.84615364, 4177.05128192, 4170.25641012, 4170.12820499, 4143.97435877, 4152.94871774, 4127.82051255,12.0
4174.87179474, 4175.38461525, 4179.23076910, 4196.79487166, 4196.79487166, 4191.02564089, 4174.23076910, 4170.51282038, 4189.61538448, 4174.74358961, 4182.05128192, 4147.30769210, 4156.92307672, 4127.82051255,12.0
4166.92307672, 4168.33333320, 4169.87179474, 4189.23076910, 4184.61538448, 4195.76923063, 4181.92307679, 4173.07692294, 4196.53846140, 4165.64102544, 4176.66666653, 4137.30769210, 4151.41025621, 4126.28205101,12.0
4148.84615364, 4152.05128185, 4149.87179467, 4173.71794858, 4171.28205115, 4179.74358961, 4158.84615364, 4156.15384595, 4184.74358961, 4156.53846133, 4159.48717928, 4118.97435870, 4142.17948697, 4124.74358947,12.0
4143.46153826, 4150.89743569, 4149.10256390, 4176.02564089, 4165.12820492, 4158.71794851, 4132.17948691, 4137.94871774, 4164.10256390, 4157.30769210, 4159.99999980, 4116.79487152, 4142.43589723, 4124.35897408,12.0
4134.10256383, 4144.61538441, 4142.43589723, 4172.82051269, 4157.17948697, 4151.41025621, 4128.07692280, 4129.35897408, 4150.76923056, 4149.10256390, 4155.89743569, 4114.10256383, 4135.76923056, 4125.64102537,12.0
4120.51282024, 4131.28205101, 4127.94871767, 4162.30769210, 4147.69230749, 4151.53846133, 4130.51282024, 4128.84615357, 4146.41025621, 4137.94871774, 4145.76923056, 4107.82051255, 4126.28205101, 4126.41025614,12.0
4134.35897408, 4141.53846133, 4139.99999980, 4173.58974345, 4153.84615364, 4152.56410236, 4137.82051262, 4138.46153826, 4152.05128185, 4147.05128185, 4157.43589723, 4122.43589716, 4134.10256383, 4126.41025614,12.0
4154.10256390, 4159.87179467, 4153.33333313, 4186.92307679, 4162.43589723, 4147.94871774, 4149.48717928, 4148.46153826, 4161.92307672, 4153.97435877, 4166.15384595, 4136.28205108, 4140.64102544, 4127.17948691,12.0
4147.56410236, 4155.51282031, 4147.94871774, 4179.74358961, 4163.97435877, 4139.61538441, 4148.97435877, 4148.20512800, 4163.07692287, 4150.76923056, 4156.41025621, 4128.07692280, 4136.28205108, 4125.89743562,12.0
4151.41025621, 4155.76923056, 4157.94871774, 4180.12820499, 4178.33333320, 4146.15384595, 4148.58974339, 4148.84615364, 4166.92307672, 4162.69230749, 4162.69230749, 4134.48717921, 4144.99999980, 4121.66666639,12.0
4165.76923056, 4162.94871774, 4167.43589723, 4185.89743576, 4185.51282038, 4157.43589723, 4157.30769210, 4156.79487159, 4176.02564089, 4169.99999986, 4170.25641012, 4147.56410236, 4152.94871774, 4123.07692280,12.0
4147.82051262, 4143.46153826, 4143.46153826, 4172.05128192, 4164.48717928, 4150.76923056, 4152.69230749, 4149.87179467, 4163.58974339, 4144.10256390, 4147.69230749, 4130.38461511, 4133.84615357, 4125.38461511,12.0
4131.53846126, 4128.46153819, 4129.87179460, 4162.05128185, 4151.02564082, 4141.28205108, 4140.89743569, 4137.82051262, 4149.48717928, 4131.02564075, 4136.15384595, 4117.05128178, 4122.43589716, 4123.07692280,12.0
4149.23076903, 4145.12820492, 4153.46153826, 4171.92307679, 4166.02564082, 4147.17948697, 4149.10256390, 4143.71794851, 4164.35897415, 4155.25641005, 4158.84615364, 4135.89743569, 4141.66666646, 4123.46153819,12.0
4161.41025621, 4156.92307672, 4164.87179467, 4178.58974345, 4175.12820499, 4164.10256390, 4167.82051262, 4155.51282031, 4177.56410243, 4164.74358954, 4170.25641012, 4148.58974339, 4153.97435877, 4126.28205101,12.0
4154.48717928, 4149.48717928, 4153.07692287, 4174.23076910, 4167.17948697, 4168.97435884, 4167.56410236, 4157.43589723, 4174.48717935, 4155.64102544, 4158.33333313, 4138.97435877, 4145.38461518, 4125.38461511,12.0
4154.48717928, 4148.20512800, 4151.41025621, 4171.66666653, 4167.56410236, 4158.58974339, 4153.20512800, 4151.66666646, 4172.69230756, 4159.48717928, 4157.69230749, 4134.35897408, 4142.30769210, 4121.92307665,12.0
4162.56410236, 4156.41025621, 4159.61538441, 4174.87179474, 4172.69230756, 4153.07692287, 4149.48717928, 4153.07692287, 4175.38461525, 4167.94871774, 4171.79487166, 4140.12820492, 4152.30769210, 4123.20512793,12.0
4157.17948697, 4149.87179467, 4149.99999980, 4167.56410236, 4162.94871774, 4145.51282031, 4143.71794851, 4150.25641005, 4162.69230749, 4157.30769210, 4165.38461518, 4131.66666639, 4148.46153826, 4124.61538434,12.0
4144.87179467, 4136.92307672, 4136.53846133, 4158.46153826, 4156.66666646, 4132.30769203, 4134.10256383, 4141.66666646, 4155.76923056, 4146.02564082, 4148.84615364, 4115.51282024, 4134.61538434, 4121.41025614,12.0
4156.79487159, 4152.30769210, 4157.30769210, 4177.43589730, 4178.97435884, 4143.33333313, 4150.89743569, 4147.82051262, 4172.82051269, 4157.69230749, 4158.46153826, 4122.82051255, 4139.61538441, 4122.82051255,12.0
4174.87179474, 4178.46153833, 4181.02564089, 4201.02564096, 4199.35897422, 4165.38461518, 4171.92307679, 4156.79487159, 4175.64102551, 4169.10256397, 4172.94871781, 4140.51282031, 4152.43589723, 4127.05128178,12.0
4157.69230749, 4164.48717928, 4159.74358954, 4184.87179474, 4183.58974345, 4154.61538441, 4156.28205108, 4143.97435877, 4150.89743569, 4146.79487159, 4153.71794851, 4125.51282024, 4139.74358954, 4125.38461511,12.0
4134.10256383, 4136.92307672, 4131.28205101, 4160.12820492, 4159.61538441, 4129.74358947, 4126.66666639, 4125.12820485, 4135.64102544, 4124.87179460, 4133.46153819, 4100.76923043, 4123.46153819, 4123.58974332,12.0
4147.94871774, 4149.74358954, 4147.43589723, 4171.41025628, 4161.28205108, 4131.92307665, 4125.89743562, 4130.51282024, 4148.33333313, 4148.97435877, 4153.07692287, 4117.30769203, 4138.58974339, 4125.89743562,12.0
4168.97435884, 4170.76923063, 4173.84615371, 4191.41025628, 4171.28205115, 4147.94871774, 4142.30769210, 4143.97435877, 4161.66666646, 4172.69230756, 4172.43589730, 4144.23076903, 4156.66666646, 4128.58974332,12.0
4166.53846133, 4166.53846133, 4175.51282038, 4190.76923063, 4176.28205115, 4152.05128185, 4149.35897415, 4150.51282031, 4165.76923056, 4159.99999980, 4163.33333313, 4142.94871774, 4150.76923056, 4128.71794844,12.0
4150.12820492, 4153.97435877, 4162.56410236, 4177.17948704, 4171.92307679, 4145.51282031, 4145.89743569, 4146.53846133, 4161.15384595, 4142.17948697, 4150.25641005, 4131.28205101, 4137.69230749, 4127.05128178,12.0
4130.51282024, 4141.79487159, 4143.71794851, 4159.87179467, 4151.92307672, 4135.38461518, 4132.43589716, 4133.58974332, 4146.53846133, 4133.33333306, 4139.35897415, 4119.87179460, 4126.15384588, 4126.79487152,12.0
4132.56410229, 4140.51282031, 4145.89743569, 4160.38461518, 4145.76923056, 4137.94871774, 4130.38461511, 4136.41025621, 4145.89743569, 4135.38461518, 4142.17948697, 4123.84615357, 4128.07692280, 4127.43589716,12.0
4158.07692287, 4154.74358954, 4170.38461525, 4180.25641012, 4171.79487166, 4156.92307672, 4154.48717928, 4160.38461518, 4172.05128192, 4156.92307672, 4162.82051262, 4146.66666646, 4147.56410236, 4126.92307665,12.0
4157.17948697, 4152.82051262, 4163.84615364, 4178.84615371, 4178.33333320, 4162.30769210, 4165.38461518, 4169.74358961, 4193.33333320, 4167.69230749, 4163.71794851, 4143.71794851, 4148.46153826, 4125.64102537,12.0
4124.74358947, 4128.84615357, 4128.20512793, 4153.46153826, 4146.28205108, 4139.10256390, 4131.92307665, 4138.07692287, 4161.28205108, 4139.48717928, 4134.74358947, 4111.53846126, 4120.89743562, 4127.30769203,12.0
4110.89743562, 4118.97435870, 4117.30769203, 4141.66666646, 4129.23076896, 4119.35897408, 4098.58974325, 4102.17948684, 4108.58974332, 4107.05128178, 4118.20512793, 4098.33333299, 4107.05128178, 4130.25640998,12.0
4122.17948691, 4128.97435870, 4130.12820485, 4151.15384595, 4142.05128185, 4123.84615357, 4107.43589716, 4102.82051255, 4103.46153819, 4107.43589716, 4127.17948691, 4113.33333306, 4118.07692280, 4129.10256383,12.0
4133.07692280, 4136.66666646, 4138.97435877, 4160.64102544, 4150.51282031, 4136.41025621, 4131.66666639, 4126.92307665, 4136.79487159, 4132.05128178, 4142.69230749, 4131.66666639, 4132.69230742, 4125.89743562,12.0
4139.35897415, 4137.56410236, 4145.51282031, 4159.87179467, 4149.48717928, 4143.58974339, 4142.17948697, 4138.46153826, 4151.53846133, 4145.25641005, 4152.43589723, 4142.82051262, 4138.71794851, 4123.97435870,12.0
4149.35897415, 4144.61538441, 4158.71794851, 4162.94871774, 4156.92307672, 4146.79487159, 4144.61538441, 4137.69230749, 4149.87179467, 4145.76923056, 4156.92307672, 4154.48717928, 4141.53846133, 4123.97435870,12.0
4163.58974339, 4156.41025621, 4175.38461525, 4173.84615371, 4164.74358954, 4151.53846133, 4152.30769210, 4148.33333313, 4166.41025621, 4159.61538441, 4169.48717935, 4172.69230756, 4151.53846133, 4125.76923050,12.0
4164.61538441, 4158.20512800, 4176.02564089, 4172.05128192, 4157.82051262, 4152.17948697, 4158.71794851, 4153.71794851, 4176.28205115, 4167.94871774, 4174.99999986, 4178.71794858, 4155.51282031, 4126.02564075,12.0
4153.71794851, 4152.69230749, 4164.48717928, 4162.69230749, 4157.43589723, 4152.05128185, 4155.38461518, 4142.43589723, 4163.33333313, 4158.71794851, 4162.56410236, 4169.74358961, 4148.71794851, 4124.87179460,12.0
4148.97435877, 4146.41025621, 4160.76923056, 4161.15384595, 4161.15384595, 4149.35897415, 4143.84615364, 4137.05128185, 4157.43589723, 4154.61538441, 4153.97435877, 4165.25641005, 4144.23076903, 4126.41025614,12.0
4142.05128185, 4136.15384595, 4154.10256390, 4151.53846133, 4147.17948697, 4138.58974339, 4130.76923050, 4134.23076896, 4156.79487159, 4152.17948697, 4148.71794851, 4154.35897415, 4138.20512800, 4128.20512793,12.0
4137.17948697, 4134.74358947, 4146.53846133, 4145.12820492, 4141.66666646, 4141.02564082, 4133.84615357, 4134.35897408, 4150.89743569, 4144.99999980, 4142.94871774, 4142.43589723, 4133.71794844, 4126.66666639,12.0
4140.51282031, 4139.74358954, 4147.69230749, 4152.69230749, 4150.76923056, 4146.66666646, 4138.46153826, 4135.12820485, 4146.28205108, 4141.15384595, 4141.28205108, 4140.89743569, 4131.92307665, 4126.02564075,12.0
4138.33333313, 4135.25640998, 4145.38461518, 4150.51282031, 4148.58974339, 4134.99999973, 4129.48717921, 4126.92307665, 4138.84615364, 4136.53846133, 4139.99999980, 4137.05128185, 4128.84615357, 4127.17948691,12.0
4134.35897408, 4134.99999973, 4141.92307672, 4146.53846133, 4145.38461518, 4129.99999973, 4127.94871767, 4122.30769203, 4130.51282024, 4133.20512793, 4141.02564082, 4137.94871774, 4132.30769203, 4126.15384588,12.0
4138.84615364, 4147.43589723, 4151.53846133, 4158.46153826, 4153.33333313, 4148.07692287, 4146.92307672, 4134.48717921, 4141.79487159, 4143.33333313, 4147.56410236, 4148.84615364, 4140.25641005, 4125.38461511,12.0
4143.58974339, 4152.69230749, 4161.66666646, 4167.69230749, 4156.41025621, 4162.43589723, 4166.79487159, 4153.07692287, 4166.28205108, 4157.30769210, 4153.84615364, 4152.94871774, 4143.71794851, 4128.33333306,12.0
4135.25640998, 4143.84615364, 4152.43589723, 4157.69230749, 4146.92307672, 4148.97435877, 4149.23076903, 4142.82051262, 4157.05128185, 4152.69230749, 4151.15384595, 4144.61538441, 4139.35897415, 4129.48717921,12.0
4130.76923050, 4138.58974339, 4142.05128185, 4149.48717928, 4141.28205108, 4137.82051262, 4130.89743562, 4128.46153819, 4139.48717928, 4149.87179467, 4148.33333313, 4141.02564082, 4134.35897408, 4127.30769203,12.0
4143.84615364, 4147.05128185, 4147.17948697, 4155.51282031, 4147.82051262, 4158.46153826, 4163.84615364, 4166.41025621, 4182.17948704, 4165.64102544, 4153.33333313, 4146.15384595, 4139.99999980, 4126.79487152,12.0
4142.30769210, 4147.30769210, 4142.17948697, 4150.89743569, 4147.17948697, 4170.25641012, 4172.43589730, 4177.69230756, 4194.74358961, 4151.92307672, 4146.02564082, 4138.58974339, 4136.66666646, 4126.92307665,12.0
4110.51282024, 4123.20512793, 4114.23076896, 4125.76923050, 4125.64102537, 4138.71794851, 4113.20512793, 4109.48717921, 4115.38461511, 4102.43589709, 4114.74358947, 4109.99999973, 4107.43589716, 4125.64102537,12.0
4094.48717914, 4103.07692280, 4099.35897402, 4107.05128178, 4110.64102537, 4116.53846126, 4083.33333299, 4072.94871761, 4068.84615343, 4081.41025607, 4093.58974325, 4093.58974325, 4088.84615350, 4124.48717921,12.0
4122.05128178, 4120.12820485, 4121.28205101, 4118.20512793, 4128.58974332, 4136.53846133, 4117.94871767, 4115.25640998, 4115.89743562, 4106.92307665, 4114.61538434, 4118.84615357, 4113.33333306, 4127.17948691,12.0
4152.17948697, 4151.02564082, 4154.10256390, 4142.56410236, 4156.15384595, 4151.92307672, 4147.30769210, 4147.56410236, 4157.56410236, 4141.53846133, 4151.15384595, 4162.94871774, 4148.33333313, 4129.10256383,12.0
4163.20512800, 4159.48717928, 4172.82051269, 4152.43589723, 4168.20512807, 4151.02564082, 4159.10256390, 4150.89743569, 4160.25641005, 4162.82051262, 4169.48717935, 4192.56410243, 4162.69230749, 4126.41025614,12.0
4162.05128185, 4151.28205108, 4169.23076910, 4142.94871774, 4165.51282031, 4154.35897415, 4163.84615364, 4151.15384595, 4162.30769210, 4161.79487159, 4164.61538441, 4195.12820499, 4157.30769210, 4124.87179460,12.0
4144.48717928, 4140.38461518, 4150.12820492, 4126.66666639, 4148.46153826, 4146.92307672, 4141.92307672, 4130.12820485, 4146.79487159, 4144.10256390, 4147.43589723, 4174.23076910, 4138.71794851, 4124.99999973,12.0
4128.33333306, 4131.53846126, 4137.94871774, 4121.15384588, 4131.79487152, 4134.74358947, 4123.58974332, 4119.48717921, 4133.07692280, 4137.05128185, 4138.71794851, 4157.05128185, 4131.41025614, 4126.15384588,12.0
4137.82051262, 4137.82051262, 4145.12820492, 4128.84615357, 4142.69230749, 4145.38461518, 4142.94871774, 4144.87179467, 4155.64102544, 4146.28205108, 4143.97435877, 4160.12820492, 4142.56410236, 4126.15384588,12.0
4141.66666646, 4141.28205108, 4146.28205108, 4128.71794844, 4147.43589723, 4147.30769210, 4149.74358954, 4144.10256390, 4157.56410236, 4139.48717928, 4140.25641005, 4151.41025621, 4138.71794851, 4124.87179460,12.0
4121.02564075, 4123.07692280, 4130.12820485, 4116.02564075, 4122.56410229, 4121.92307665, 4118.07692280, 4112.05128178, 4117.82051255, 4114.23076896, 4125.89743562, 4122.94871767, 4118.71794844, 4124.74358947,12.0
4111.41025614, 4112.43589716, 4120.12820485, 4112.43589716, 4116.15384588, 4112.30769203, 4099.35897402, 4104.48717921, 4103.46153819, 4107.30769203, 4122.82051255, 4116.02564075, 4115.25640998, 4125.12820485,12.0
4116.28205101, 4117.05128178, 4118.71794844, 4117.05128178, 4129.74358947, 4120.12820485, 4104.99999973, 4110.51282024, 4115.25640998, 4115.89743562, 4126.28205101, 4122.56410229, 4122.17948691, 4123.07692280,12.0
4118.33333306, 4119.87179460, 4120.38461511, 4118.20512793, 4130.76923050, 4119.74358947, 4109.10256383, 4106.41025614, 4110.38461511, 4119.87179460, 4129.35897408, 4120.12820485, 4122.43589716, 4123.33333306,12.0
4141.15384595, 4140.76923056, 4144.10256390, 4137.94871774, 4146.02564082, 4139.35897415, 4136.66666646, 4133.84615357, 4135.25640998, 4143.84615364, 4149.87179467, 4142.05128185, 4139.48717928, 4125.64102537,12.0
4160.89743569, 4161.79487159, 4165.64102544, 4159.35897415, 4167.82051262, 4164.99999980, 4167.43589723, 4160.76923056, 4170.12820499, 4171.15384602, 4166.41025621, 4168.46153833, 4158.46153826, 4123.58974332,12.0
4136.79487159, 4142.30769210, 4147.05128185, 4143.33333313, 4154.99999980, 4151.28205108, 4156.41025621, 4139.35897415, 4149.99999980, 4156.92307672, 4148.58974339, 4146.53846133, 4142.56410236, 4124.35897408,12.0
4114.74358947, 4121.02564075, 4127.17948691, 4124.61538434, 4139.48717928, 4134.35897408, 4145.51282031, 4134.99999973, 4141.15384595, 4135.76923056, 4127.05128178, 4116.15384588, 4124.23076896, 4127.94871767,12.0
4124.23076896, 4129.99999973, 4133.58974332, 4129.61538434, 4143.07692287, 4142.43589723, 4153.07692287, 4146.92307672, 4154.87179467, 4131.41025614, 4126.66666639, 4117.05128178, 4124.99999973, 4125.89743562,12.0
4128.20512793, 4137.05128185, 4136.79487159, 4133.58974332, 4141.15384595, 4149.61538441, 4150.38461518, 4129.99999973, 4134.48717921, 4121.53846126, 4130.38461511, 4122.30769203, 4122.05128178, 4122.82051255,12.0
4102.05128171, 4112.94871767, 4110.76923050, 4112.82051255, 4121.66666639, 4132.05128178, 4119.10256383, 4105.12820485, 4102.69230742, 4098.97435863, 4111.79487152, 4102.94871767, 4103.84615357, 4125.12820485,12.0
4074.35897402, 4085.89743555, 4080.64102530, 4088.58974325, 4089.87179453, 4099.87179453, 4072.69230735, 4085.51282017, 4084.23076889, 4079.35897402, 4085.89743555, 4081.02564068, 4089.10256376, 4127.82051255,12.0
4104.99999973, 4117.43589716, 4114.74358947, 4114.99999973, 4104.48717921, 4114.35897408, 4082.43589709, 4096.79487145, 4103.71794844, 4106.28205101, 4117.05128178, 4117.43589716, 4116.02564075, 4124.99999973,12.0
4167.56410236, 4171.66666653, 4183.20512807, 4163.84615364, 4168.84615371, 4168.97435884, 4148.97435877, 4145.76923056, 4164.48717928, 4163.97435877, 4178.33333320, 4186.02564089, 4163.46153826, 4123.97435870,12.0
4177.56410243, 4169.87179474, 4191.28205115, 4165.51282031, 4194.23076910, 4183.46153833, 4177.94871781, 4167.56410236, 4188.33333320, 4180.89743576, 4181.92307679, 4195.76923063, 4169.61538448, 4124.74358947,12.0
4142.69230749, 4134.23076896, 4154.10256390, 4135.12820485, 4163.84615364, 4157.69230749, 4153.46153826, 4144.74358954, 4161.28205108, 4159.48717928, 4150.64102544, 4161.15384595, 4142.17948697, 4123.58974332,12.0
4126.53846126, 4122.69230742, 4140.38461518, 4124.99999973, 4144.87179467, 4159.10256390, 4149.23076903, 4138.97435877, 4157.30769210, 4148.71794851, 4143.71794851, 4145.89743569, 4131.66666639, 4125.64102537,12.0
4127.43589716, 4123.33333306, 4140.12820492, 4125.64102537, 4147.17948697, 4169.10256397, 4154.87179467, 4142.94871774, 4165.25641005, 4143.33333313, 4142.30769210, 4139.23076903, 4132.94871767, 4124.99999973,12.0
4123.58974332, 4117.82051255, 4128.46153819, 4117.17948691, 4142.05128185, 4157.82051262, 4137.56410236, 4124.74358947, 4140.12820492, 4127.30769203, 4131.66666639, 4125.12820485, 4126.92307665, 4122.56410229,12.0
4129.48717921, 4124.23076896, 4127.69230742, 4118.20512793, 4139.10256390, 4159.23076903, 4139.99999980, 4126.92307665, 4133.84615357, 4125.64102537, 4134.74358947, 4127.56410229, 4128.71794844, 4125.89743562,12.0
4145.38461518, 4138.84615364, 4148.20512800, 4132.94871767, 4151.92307672, 4174.23076910, 4163.97435877, 4154.61538441, 4168.07692287, 4146.53846133, 4149.99999980, 4145.76923056, 4142.30769210, 4126.66666639,12.0
4136.53846133, 4128.97435870, 4149.23076903, 4129.61538434, 4144.23076903, 4155.76923056, 4141.15384595, 4137.94871774, 4159.23076903, 4145.76923056, 4144.99999980, 4142.56410236, 4136.92307672, 4122.43589716,12.0
4108.46153819, 4101.92307658, 4122.43589716, 4104.23076896, 4109.48717921, 4115.38461511, 4087.69230735, 4088.07692273, 4101.02564068, 4111.66666639, 4122.82051255, 4121.28205101, 4114.74358947, 4122.43589716,12.0
4118.07692280, 4114.48717921, 4129.87179460, 4111.41025614, 4116.02564075, 4119.99999973, 4101.79487145, 4097.82051248, 4100.89743555, 4113.84615357, 4131.02564075, 4134.23076896, 4123.71794844, 4126.79487152,12.0
4159.74358954, 4151.92307672, 4172.94871781, 4148.71794851, 4166.41025621, 4160.51282031, 4161.41025621, 4154.35897415, 4165.51282031, 4161.41025621, 4166.28205108, 4174.23076910, 4159.87179467, 4127.69230742,12.0
4164.61538441, 4147.05128185, 4175.51282038, 4150.25641005, 4173.71794858, 4167.05128185, 4167.17948697, 4165.76923056, 4188.20512807, 4176.79487166, 4167.56410236, 4176.15384602, 4166.02564082, 4124.61538434,12.0
4143.46153826, 4130.25640998, 4147.30769210, 4129.87179460, 4149.87179467, 4152.17948697, 4147.69230749, 4148.33333313, 4165.76923056, 4161.28205108, 4145.25641005, 4148.97435877, 4147.30769210, 4125.25640998,12.0
4143.84615364, 4139.35897415, 4144.48717928, 4128.97435870, 4155.51282031, 4161.53846133, 4162.30769210, 4152.94871774, 4161.41025621, 4160.51282031, 4146.53846133, 4141.66666646, 4145.76923056, 4128.71794844,12.0
4145.25641005, 4140.64102544, 4141.79487159, 4128.07692280, 4163.07692287, 4173.33333320, 4177.94871781, 4167.43589723, 4179.10256397, 4159.61538441, 4149.99999980, 4131.53846126, 4149.35897415, 4127.69230742,12.0
4142.43589723, 4137.05128185, 4129.23076896, 4124.74358947, 4160.38461518, 4168.58974345, 4174.48717935, 4180.76923063, 4203.20512814, 4162.05128185, 4147.05128185, 4113.58974332, 4148.20512800, 4125.76923050,12.0
4147.30769210, 4141.28205108, 4132.69230742, 4132.30769203, 4163.58974339, 4159.99999980, 4164.61538441, 4169.61538448, 4192.82051269, 4168.46153833, 4151.66666646, 4111.28205101, 4148.58974339, 4128.20512793,12.0
4131.02564075, 4123.58974332, 4123.71794844, 4121.92307665, 4144.87179467, 4141.15384595, 4130.64102537, 4119.99999973, 4130.76923050, 4135.38461518, 4141.53846133, 4097.05128171, 4131.79487152, 4128.07692280,12.0
4111.79487152, 4106.02564075, 4108.97435870, 4104.74358947, 4123.07692280, 4131.41025614, 4104.35897408, 4097.43589709, 4101.66666632, 4105.64102537, 4129.61538434, 4079.61538427, 4116.41025614, 4123.71794844,12.0
4127.56410229, 4120.38461511, 4124.74358947, 4117.94871767, 4129.23076896, 4147.69230749, 4128.46153819, 4129.10256383, 4142.05128185, 4130.76923050, 4148.33333313, 4101.92307658, 4133.33333306, 4124.61538434,12.0
4146.28205108, 4138.71794851, 4146.79487159, 4131.41025614, 4145.51282031, 4161.41025621, 4150.89743569, 4145.51282031, 4163.33333313, 4153.33333313, 4170.25641012, 4134.87179460, 4150.89743569, 4128.46153819,12.0
4152.82051262, 4155.89743569, 4156.92307672, 4127.05128178, 4162.56410236, 4167.56410236, 4149.74358954, 4136.66666646, 4146.41025621, 4150.12820492, 4176.15384602, 4149.99999980, 4151.15384595, 4126.66666639,12.0
4161.41025621, 4166.53846133, 4167.94871774, 4133.58974332, 4174.48717935, 4178.20512807, 4159.23076903, 4145.12820492, 4154.87179467, 4158.84615364, 4184.10256397, 4162.05128185, 4156.41025621, 4123.97435870,12.0
4153.20512800, 4148.97435877, 4161.28205108, 4141.15384595, 4166.28205108, 4174.48717935, 4156.53846133, 4140.12820492, 4154.87179467, 4163.58974339, 4180.89743576, 4157.30769210, 4156.66666646, 4126.92307665,12.0
4155.25641005, 4148.71794851, 4161.92307672, 4144.10256390, 4173.20512807, 4180.51282038, 4159.99999980, 4149.61538441, 4159.23076903, 4169.61538448, 4186.79487166, 4157.82051262, 4159.35897415, 4131.02564075,12.0
4179.35897422, 4169.99999986, 4182.94871781, 4154.74358954, 4192.56410243, 4196.15384602, 4185.38461525, 4188.71794858, 4201.15384609, 4186.92307679, 4208.20512814, 4178.58974345, 4169.87179474, 4126.02564075,12.0
4179.35897422, 4169.99999986, 4182.94871781, 4154.74358954, 4192.56410243, 4196.15384602, 4185.38461525, 4188.71794858, 4201.15384609, 4186.92307679, 4208.20512814, 4178.58974345, 4169.87179474, 4126.02564075,12.0
4157.82051262, 4147.30769210, 4161.28205108, 4141.92307672, 4167.43589723, 4171.41025628, 4163.58974339, 4165.38461518, 4183.07692294, 4161.66666646, 4187.56410243, 4157.05128185, 4149.23076903, 4120.51282024,12.0
4122.69230742, 4118.07692280, 4130.12820485, 4117.94871767, 4141.66666646, 4146.15384595, 4123.20512793, 4113.07692280, 4114.87179460, 4129.74358947, 4156.02564082, 4127.05128178, 4127.56410229, 4126.79487152,12.0
4148.97435877, 4142.82051262, 4162.17948697, 4138.20512800, 4166.41025621, 4165.76923056, 4145.64102544, 4136.53846133, 4130.38461511, 4158.84615364, 4184.10256397, 4159.35897415, 4153.71794851, 4130.89743562,12.0
4183.58974345, 4170.76923063, 4199.99999986, 4168.58974345, 4189.87179474, 4183.33333320, 4179.48717935, 4182.17948704, 4193.46153833, 4195.51282038, 4219.99999993, 4194.99999986, 4178.71794858, 4127.30769203,12.0
4184.61538448, 4170.38461525, 4197.56410243, 4168.33333320, 4192.56410243, 4182.30769217, 4182.56410243, 4178.58974345, 4197.17948704, 4192.05128192, 4213.58974352, 4187.94871781, 4173.20512807, 4126.79487152,12.0
4183.58974345, 4165.89743569, 4189.10256397, 4162.69230749, 4193.33333320, 4184.48717935, 4182.94871781, 4166.92307672, 4176.02564089, 4179.23076910, 4202.43589737, 4178.84615371, 4169.10256397, 4127.43589716,12.0
4172.43589730, 4151.66666646, 4173.46153833, 4150.51282031, 4175.76923063, 4171.66666653, 4165.51282031, 4157.94871774, 4165.25641005, 4164.61538441, 4192.05128192, 4164.48717928, 4158.84615364, 4125.64102537,12.0
4145.76923056, 4131.41025614, 4148.84615364, 4128.07692280, 4146.92307672, 4149.87179467, 4133.46153819, 4133.71794844, 4144.35897415, 4142.17948697, 4169.99999986, 4134.23076896, 4135.12820485, 4125.12820485,12.0
4150.38461518, 4137.30769210, 4156.28205108, 4132.56410229, 4152.43589723, 4152.69230749, 4136.28205108, 4134.23076896, 4143.33333313, 4141.79487159, 4169.48717935, 4138.33333313, 4137.82051262, 4125.51282024,12.0
4176.41025628, 4159.35897415, 4182.05128192, 4152.43589723, 4174.99999986, 4170.76923063, 4163.58974339, 4157.82051262, 4162.69230749, 4157.43589723, 4190.51282038, 4170.12820499, 4159.23076903, 4126.28205101,12.0
4181.66666653, 4164.87179467, 4189.61538448, 4154.23076903, 4179.48717935, 4181.15384602, 4178.46153833, 4170.89743576, 4174.48717935, 4166.15384595, 4197.05128192, 4179.61538448, 4166.41025621, 4128.07692280,12.0
4169.23076910, 4154.48717928, 4184.35897422, 4149.87179467, 4171.28205115, 4173.58974345, 4170.89743576, 4164.48717928, 4173.84615371, 4166.53846133, 4185.51282038, 4167.69230749, 4158.97435877, 4128.20512793,12.0
4159.87179467, 4148.71794851, 4176.15384602, 4148.20512800, 4163.20512800, 4163.07692287, 4152.17948697, 4152.82051262, 4164.74358954, 4157.30769210, 4176.92307679, 4159.74358954, 4150.89743569, 4127.05128178,12.0
4159.23076903, 4152.94871774, 4170.64102551, 4146.28205108, 4162.43589723, 4165.76923056, 4142.17948697, 4145.25641005, 4151.41025621, 4149.74358954, 4180.25641012, 4158.71794851, 4146.28205108, 4126.79487152,12.0
4161.79487159, 4155.64102544, 4172.43589730, 4147.69230749, 4161.53846133, 4172.17948704, 4150.25641005, 4148.46153826, 4150.38461518, 4156.41025621, 4185.38461525, 4158.20512800, 4148.97435877, 4126.66666639,12.0
4168.97435884, 4158.71794851, 4177.05128192, 4150.51282031, 4164.48717928, 4178.97435884, 4168.71794858, 4166.15384595, 4171.15384602, 4169.61538448, 4186.53846140, 4166.41025621, 4157.30769210, 4126.28205101,12.0
4172.30769217, 4164.23076903, 4178.71794858, 4151.15384595, 4174.10256397, 4184.61538448, 4169.23076910, 4168.07692287, 4174.10256397, 4171.15384602, 4188.71794858, 4175.89743576, 4155.89743569, 4127.17948691,12.0
4166.15384595, 4162.05128185, 4178.58974345, 4150.89743569, 4174.99999986, 4182.56410243, 4153.20512800, 4154.87179467, 4160.12820492, 4173.84615371, 4192.56410243, 4177.30769217, 4152.05128185, 4127.69230742,12.0
4160.76923056, 4156.53846133, 4175.25641012, 4149.35897415, 4168.46153833, 4180.89743576, 4158.20512800, 4155.76923056, 4163.07692287, 4176.79487166, 4188.84615371, 4176.28205115, 4154.61538441, 4127.17948691,12.0
4157.69230749, 4154.23076903, 4168.97435884, 4143.97435877, 4164.99999980, 4180.89743576, 4167.56410236, 4154.87179467, 4161.41025621, 4159.87179467, 4179.74358961, 4176.53846140, 4151.66666646, 4126.66666639,12.0
4144.10256390, 4144.10256390, 4156.41025621, 4132.56410229, 4150.76923056, 4169.35897422, 4146.79487159, 4135.38461518, 4137.94871774, 4135.76923056, 4169.87179474, 4162.94871774, 4137.56410236, 4125.76923050,12.0
4139.87179467, 4142.82051262, 4151.41025621, 4134.23076896, 4144.23076903, 4175.89743576, 4147.05128185, 4139.48717928, 4138.46153826, 4139.74358954, 4170.38461525, 4152.94871774, 4137.82051262, 4126.02564075,12.0
4152.94871774, 4152.43589723, 4159.10256390, 4141.92307672, 4156.66666646, 4194.61538448, 4169.99999986, 4157.94871774, 4159.99999980, 4154.61538441, 4177.82051269, 4162.30769210, 4148.33333313, 4128.07692280,12.0
4146.66666646, 4142.05128185, 4156.92307672, 4132.43589716, 4146.66666646, 4171.53846140, 4143.46153826, 4135.76923056, 4145.64102544, 4143.71794851, 4172.30769217, 4159.99999980, 4137.30769210, 4125.51282024,12.0
4147.56410236, 4142.69230749, 4166.79487159, 4138.20512800, 4144.87179467, 4153.71794851, 4121.02564075, 4128.71794844, 4139.87179467, 4150.51282031, 4181.53846140, 4168.20512807, 4142.94871774, 4122.56410229,12.0
4182.82051269, 4174.48717935, 4199.87179474, 4170.51282038, 4175.12820499, 4184.35897422, 4162.56410236, 4166.02564082, 4176.15384602, 4188.20512807, 4213.97435891, 4205.25641019, 4173.97435884, 4125.51282024,12.0
4190.38461525, 4179.35897422, 4205.12820506, 4171.66666653, 4176.79487166, 4191.79487166, 4178.71794858, 4171.28205115, 4185.25641012, 4190.51282038, 4214.61538455, 4213.84615378, 4172.69230756, 4126.41025614,12.0
4157.94871774, 4153.33333313, 4178.71794858, 4142.56410236, 4154.87179467, 4164.35897415, 4144.74358954, 4146.66666646, 4159.74358954, 4163.20512800, 4186.28205115, 4185.38461525, 4146.53846133, 4126.28205101,12.0
4149.87179467, 4152.82051262, 4172.82051269, 4136.66666646, 4162.43589723, 4162.30769210, 4143.71794851, 4149.87179467, 4159.35897415, 4162.69230749, 4181.92307679, 4178.07692294, 4144.61538441, 4127.56410229,12.0
4158.97435877, 4164.99999980, 4178.07692294, 4143.84615364, 4171.92307679, 4169.23076910, 4163.33333313, 4152.69230749, 4159.23076903, 4161.41025621, 4185.64102551, 4183.58974345, 4148.58974339, 4125.25640998,12.0
4160.38461518, 4169.61538448, 4179.35897422, 4144.23076903, 4169.74358961, 4167.82051262, 4173.33333320, 4155.89743569, 4156.02564082, 4153.07692287, 4183.71794858, 4182.82051269, 4151.66666646, 4124.48717921,12.0
