AF3,F7,F3,FC5,T7,P7,O1,O2,P8,T8,FC6,F4,F8,AF4,Label
4117.94871767, 3947.17948656, 4108.84615357, 3995.12820458, 4104.35897408, 4111.66666639, 4115.38461511, 4134.61538434, 4136.41025621, 4097.82051248, 4044.35897395, 4083.58974325, 3900.38461462, 4127.69230742,12.0
4113.20512793, 3948.20512758, 4106.02564075, 3995.64102509, 4105.38461511, 4116.79487152, 4123.33333306, 4136.02564082, 4133.33333306, 4095.76923043, 4044.35897395, 4077.69230735, 3899.99999924, 4122.17948691,12.0
4113.71794844, 3951.53846092, 4114.10256383, 3998.71794817, 4110.76923050, 4112.05128178, 4116.79487152, 4118.20512793, 4117.56410229, 4092.43589709, 4052.17948677, 4083.33333299, 3901.02564027, 4120.51282024,12.0
4116.41025614, 3950.12820451, 4117.94871767, 4000.76923022, 4100.38461504, 4102.94871767, 4101.28205094, 4104.35897408, 4108.84615357, 4085.76923043, 4052.56410215, 4085.51282017, 3902.43589668, 4126.53846126,12.0
4114.87179460, 3951.28205066, 4118.46153819, 3999.99999945, 4092.56410222, 4101.28205094, 4096.79487145, 4103.84615357, 4109.23076896, 4085.12820478, 4051.66666625, 4084.74358940, 3907.05128136, 4127.69230742,12.0
4105.51282024, 3947.94871733, 4111.66666639, 3994.23076868, 4089.23076889, 4097.05128171, 4090.25640991, 4098.07692273, 4103.33333306, 4084.48717914, 4049.10256369, 4082.17948684, 3908.07692239, 4123.20512793,12.0
4097.82051248, 3939.10256348, 4102.17948684, 3989.35897381, 4080.89743555, 4091.53846119, 4079.74358940, 4097.56410222, 4102.69230742, 4081.92307658, 4046.66666625, 4078.46153812, 3906.79487110, 4116.66666639,12.0
4095.76923043, 3938.58974297, 4098.97435863, 3985.12820458, 4070.76923043, 4089.74358940, 4077.30769196, 4104.35897408, 4105.89743562, 4081.53846119, 4048.71794830, 4074.74358940, 3911.53846085, 4123.58974332,12.0
4099.35897402, 3948.84615322, 4102.17948684, 3985.64102509, 4073.33333299, 4088.71794837, 4081.28205094, 4101.66666632, 4101.41025607, 4085.76923043, 4061.53846113, 4076.15384581, 3921.02564033, 4129.10256383,12.0
4113.71794844, 3961.53846092, 4112.30769203, 3996.15384560, 4093.46153812, 4096.79487145, 4099.74358940, 4111.53846126, 4109.48717921, 4100.76923043, 4082.43589709, 4091.28205094, 3932.05128136, 4117.69230742,12.0
4124.23076896, 3965.76923015, 4117.94871767, 4000.38461483, 4106.66666639, 4110.64102537, 4118.07692280, 4136.53846133, 4132.17948691, 4114.99999973, 4084.61538427, 4103.33333306, 3937.17948649, 4116.53846126,12.0
4107.30769203, 3954.74358912, 4102.30769196, 3981.92307637, 4086.28205094, 4109.35897408, 4112.56410229, 4131.53846126, 4128.46153819, 4104.10256383, 4059.10256369, 4084.48717914, 3926.53846085, 4128.20512793,12.0
4091.66666632, 3945.38461476, 4085.64102530, 3968.46153784, 4071.02564068, 4101.66666632, 4102.30769196, 4106.92307665, 4102.82051255, 4083.58974325, 4046.02564061, 4067.17948677, 3918.20512751, 4128.97435870,12.0
4101.41025607, 3955.38461476, 4090.12820478, 3978.20512765, 4096.28205094, 4103.71794844, 4108.46153819, 4112.30769203, 4107.05128178, 4087.94871761, 4058.71794830, 4080.12820478, 3926.79487110, 4119.48717921,12.0
4101.92307658, 3960.51281989, 4094.87179453, 3982.56410201, 4109.23076896, 4108.33333306, 4112.05128178, 4124.87179460, 4120.51282024, 4097.82051248, 4059.99999959, 4084.61538427, 3927.30769162, 4117.94871767,12.0
4085.12820478, 3948.58974297, 4088.97435863, 3972.69230714, 4089.23076889, 4107.94871767, 4103.97435870, 4115.25640998, 4106.92307665, 4088.97435863, 4050.89743548, 4071.28205094, 3917.56410187, 4128.97435870,12.0
4087.82051248, 3953.20512758, 4094.35897402, 3972.43589688, 4086.15384581, 4104.23076896, 4102.69230742, 4109.74358947, 4098.97435863, 4083.33333299, 4058.46153805, 4073.20512786, 3922.17948649, 4127.30769203,12.0
4100.51282017, 3966.66666605, 4104.35897408, 3978.58974304, 4096.15384581, 4099.99999966, 4097.69230735, 4108.33333306, 4105.89743562, 4084.87179453, 4065.51282010, 4078.71794837, 3929.87179418, 4114.35897408,12.0
4103.33333306, 3967.05128143, 4109.74358947, 3978.97435842, 4094.61538427, 4103.33333306, 4093.07692273, 4104.10256383, 4104.87179460, 4084.35897402, 4062.94871754, 4082.94871761, 3933.97435828, 4118.84615357,12.0
4109.35897408, 3969.48717887, 4119.23076896, 3984.99999945, 4097.43589709, 4110.38461511, 4102.05128171, 4113.71794844, 4110.51282024, 4089.87179453, 4069.23076882, 4097.94871761, 3944.48717887, 4128.71794844,12.0
4117.30769203, 3976.53846099, 4124.74358947, 3993.58974304, 4104.99999973, 4108.20512793, 4107.94871767, 4124.87179460, 4117.56410229, 4094.74358940, 4076.66666632, 4102.94871767, 3948.84615322, 4124.23076896,12.0
4116.66666639, 3978.71794817, 4121.02564075, 3993.97435842, 4109.23076896, 4106.02564075, 4109.10256383, 4119.74358947, 4106.15384588, 4090.76923043, 4072.82051248, 4096.53846119, 3944.10256348, 4118.46153819,12.0
4119.48717921, 3980.51281996, 4123.71794844, 3997.30769176, 4108.97435870, 4116.41025614, 4119.74358947, 4121.28205101, 4103.84615357, 4095.76923043, 4073.46153812, 4100.76923043, 3953.33333271, 4124.99999973,12.0
4121.53846126, 3977.94871740, 4124.48717921, 3998.07692252, 4099.87179453, 4122.69230742, 4131.02564075, 4136.41025621, 4120.25640998, 4105.76923050, 4079.99999966, 4100.76923043, 3964.48717887, 4127.05128178,12.0
4100.12820478, 3959.99999938, 4102.94871767, 3976.92307637, 4089.99999966, 4111.15384588, 4117.43589716, 4131.79487152, 4114.10256383, 4097.05128171, 4073.97435863, 4078.46153812, 3949.35897374, 4117.82051255,12.0
4082.43589709, 3954.74358912, 4089.61538427, 3964.35897374, 4093.84615350, 4106.02564075, 4103.71794844, 4119.61538434, 4101.66666632, 4094.35897402, 4072.56410222, 4068.84615343, 3944.61538399, 4118.71794844,12.0
4083.84615350, 3960.38461476, 4094.74358940, 3971.15384553, 4095.64102530, 4107.82051255, 4102.30769196, 4118.07692280, 4108.84615357, 4105.38461511, 4078.33333299, 4073.84615350, 3957.30769169, 4123.07692280,12.0
4076.66666632, 3949.35897374, 4086.92307658, 3961.92307630, 4077.82051248, 4095.38461504, 4089.99999966, 4113.46153819, 4107.82051255, 4098.84615350, 4074.48717914, 4067.43589702, 3951.79487117, 4124.61538434,12.0
4076.66666632, 3950.76923015, 4083.84615350, 3955.89743528, 4075.76923043, 4092.69230735, 4089.87179453, 4114.23076896, 4106.41025614, 4093.20512786, 4079.10256376, 4071.66666632, 3949.61538399, 4125.38461511,12.0
4090.51282017, 3968.07692246, 4094.48717914, 3966.53846092, 4090.38461504, 4099.61538427, 4101.66666632, 4116.53846126, 4111.79487152, 4099.23076889, 4086.41025607, 4081.15384581, 3959.87179425, 4120.89743562,12.0
4088.58974325, 3963.07692246, 4092.82051248, 3964.74358912, 4085.89743555, 4095.25640991, 4094.87179453, 4106.15384588, 4101.66666632, 4092.69230735, 4077.56410222, 4074.61538427, 3957.43589681, 4122.05128178,12.0
4081.41025607, 3954.74358912, 4087.94871761, 3959.10256348, 4079.35897402, 4097.94871761, 4091.28205094, 4102.94871767, 4091.41025607, 4086.15384581, 4074.23076889, 4072.17948684, 3953.58974297, 4127.43589716,12.0
4088.97435863, 3962.56410194, 4092.05128171, 3961.79487117, 4089.23076889, 4109.48717921, 4103.58974332, 4111.66666639, 4098.84615350, 4088.58974325, 4084.61538427, 4081.53846119, 3958.97435835, 4124.35897408,12.0
4086.15384581, 3958.07692246, 4086.02564068, 3952.05128143, 4088.33333299, 4104.87179460, 4098.20512786, 4104.48717921, 4096.79487145, 4077.94871761, 4082.05128171, 4077.82051248, 3954.87179425, 4118.58974332,12.0
4077.82051248, 3952.56410194, 4080.89743555, 3944.35897374, 4080.64102530, 4098.84615350, 4093.20512786, 4101.02564068, 4087.69230735, 4070.12820478, 4078.46153812, 4071.53846119, 3952.17948656, 4119.35897408,12.0
4087.30769196, 3967.43589681, 4090.51282017, 3956.66666605, 4095.76923043, 4114.99999973, 4115.25640998, 4122.56410229, 4099.10256376, 4079.35897402, 4091.28205094, 4077.69230735, 3965.51281989, 4122.17948691,12.0
4083.46153812, 3968.33333271, 4084.10256376, 3955.12820451, 4097.56410222, 4119.23076896, 4111.15384588, 4123.07692280, 4100.38461504, 4076.41025607, 4091.28205094, 4070.89743555, 3966.53846092, 4121.66666639,12.0
4064.87179446, 3955.12820451, 4068.84615343, 3943.33333271, 4076.41025607, 4101.92307658, 4085.64102530, 4105.64102537, 4087.94871761, 4070.25640991, 4079.48717914, 4058.97435856, 3958.84615322, 4121.28205101,12.0
4068.84615343, 3962.17948656, 4077.17948684, 3953.58974297, 4078.58974325, 4101.53846119, 4093.71794837, 4119.74358947, 4103.84615357, 4090.12820478, 4084.23076889, 4069.74358940, 3972.69230714, 4123.07692280,12.0
4079.10256376, 3968.84615322, 4085.89743555, 3959.35897374, 4088.58974325, 4108.58974332, 4099.74358940, 4128.46153819, 4119.23076896, 4105.51282024, 4093.46153812, 4077.05128171, 3984.23076868, 4122.05128178,12.0
4068.07692266, 3956.15384553, 4075.25640991, 3946.28205066, 4074.61538427, 4093.07692273, 4071.92307658, 4095.64102530, 4096.02564068, 4095.76923043, 4091.28205094, 4063.46153805, 3976.28205073, 4122.56410229,12.0
4063.33333292, 3954.48717887, 4074.48717914, 3945.89743528, 4064.99999959, 4079.48717914, 4062.82051241, 4083.84615350, 4084.99999966, 4097.30769196, 4095.38461504, 4066.53846113, 3981.15384560, 4122.05128178,12.0
4081.92307658, 3969.23076861, 4094.35897402, 3961.28205066, 4077.56410222, 4094.23076889, 4090.51282017, 4116.02564075, 4110.76923050, 4115.89743562, 4108.20512793, 4091.28205094, 3997.43589688, 4119.48717921,12.0
4092.30769196, 3974.10256355, 4100.12820478, 3965.64102502, 4083.84615350, 4103.71794844, 4103.33333306, 4126.79487152, 4113.97435870, 4114.74358947, 4112.43589716, 4100.76923043, 3996.92307637, 4124.23076896,12.0
4082.05128171, 3964.87179425, 4084.48717914, 3956.53846092, 4073.33333299, 4090.51282017, 4088.46153812, 4108.20512793, 4090.25640991, 4096.02564068, 4103.71794844, 4089.87179453, 3987.43589688, 4124.10256383,12.0
4077.56410222, 3966.02564040, 4083.71794837, 3956.53846092, 4072.94871761, 4085.64102530, 4083.71794837, 4108.97435870, 4090.89743555, 4090.12820478, 4099.10256376, 4085.38461504, 3989.61538406, 4114.10256383,12.0
4086.79487145, 3978.46153791, 4096.41025607, 3966.53846092, 4087.17948684, 4097.43589709, 4096.02564068, 4123.58974332, 4106.02564075, 4095.38461504, 4103.07692280, 4094.23076889, 3997.69230714, 4116.15384588,12.0
4085.51282017, 3980.25640970, 4092.43589709, 3967.56410194, 4092.30769196, 4103.58974332, 4100.51282017, 4121.15384588, 4102.43589709, 4093.46153812, 4100.38461504, 4094.87179453, 3996.79487124, 4123.97435870,12.0
4068.20512779, 3968.84615322, 4077.30769196, 3959.10256348, 4080.76923043, 4098.58974325, 4090.76923043, 4103.07692280, 4081.92307658, 4080.89743555, 4085.12820478, 4080.89743555, 3985.25640970, 4123.84615357,12.0
4050.89743548, 3953.71794810, 4061.79487138, 3946.41025579, 4065.38461497, 4089.87179453, 4078.46153812, 4083.33333299, 4058.58974318, 4059.74358933, 4061.79487138, 4057.05128164, 3967.17948656, 4125.76923050,12.0
4037.56410215, 3943.84615322, 4042.56410215, 3935.38461469, 4056.92307651, 4081.53846119, 4067.05128164, 4071.53846119, 4045.51282010, 4043.20512779, 4044.10256369, 4037.43589702, 3955.25640963, 4129.23076896,12.0
4039.10256369, 3948.46153784, 4041.41025600, 3939.87179425, 4062.82051241, 4081.28205094, 4066.28205087, 4078.20512786, 4058.97435856, 4051.66666625, 4047.82051241, 4041.15384574, 3959.35897374, 4122.94871767,12.0
4057.17948677, 3965.38461476, 4062.56410215, 3958.97435835, 4078.84615350, 4092.69230735, 4080.12820478, 4099.23076889, 4092.94871761, 4079.61538427, 4066.92307651, 4061.02564061, 3975.51281996, 4115.38461511,12.0
4058.33333292, 3968.58974297, 4062.17948677, 3958.33333271, 4076.41025607, 4092.82051248, 4075.64102530, 4095.76923043, 4088.33333299, 4080.12820478, 4067.17948677, 4063.33333292, 3980.89743535, 4122.82051255,12.0
4042.43589702, 3957.17948656, 4046.53846113, 3941.41025579, 4060.38461497, 4078.97435863, 4061.79487138, 4072.56410222, 4049.74358933, 4054.87179446, 4054.99999959, 4052.56410215, 3971.92307637, 4127.05128178,12.0
4046.15384574, 3958.58974297, 4049.87179446, 3941.66666605, 4062.43589702, 4076.66666632, 4072.56410222, 4075.25640991, 4049.99999959, 4057.17948677, 4062.82051241, 4058.46153805, 3974.48717894, 4118.46153819,12.0
4054.61538420, 3964.74358912, 4053.46153805, 3944.48717887, 4065.89743548, 4084.74358940, 4080.76923043, 4092.30769196, 4075.89743555, 4075.38461504, 4071.02564068, 4062.56410215, 3984.99999945, 4117.17948691,12.0
4049.48717907, 3964.48717887, 4049.35897395, 3939.87179425, 4060.64102523, 4086.28205094, 4071.02564068, 4090.12820478, 4073.33333299, 4077.82051248, 4068.46153805, 4057.56410215, 3989.87179432, 4120.64102537,12.0
4056.41025600, 3969.74358912, 4061.28205087, 3949.10256348, 4069.48717907, 4091.28205094, 4079.61538427, 4091.15384581, 4068.97435856, 4086.28205094, 4070.76923043, 4068.84615343, 3994.87179432, 4123.46153819,12.0
4074.23076889, 3979.10256355, 4076.66666632, 3958.46153784, 4082.69230735, 4102.30769196, 4100.51282017, 4108.97435870, 4092.56410222, 4106.53846126, 4079.48717914, 4086.15384581, 4002.30769176, 4125.12820485,12.0
4066.02564061, 3971.41025586, 4068.20512779, 3946.79487117, 4067.82051241, 4088.58974325, 4082.30769196, 4102.30769196, 4094.48717914, 4102.82051255, 4084.61538427, 4076.53846119, 4002.69230714, 4122.82051255,12.0
4042.56410215, 3953.97435835, 4054.48717907, 3941.28205066, 4045.64102523, 4061.92307651, 4049.23076882, 4074.87179453, 4067.94871754, 4082.82051248, 4089.61538427, 4060.25640984, 3998.71794817, 4120.51282024,12.0
4053.07692266, 3959.99999938, 4067.30769189, 3961.15384553, 4060.89743548, 4076.53846119, 4070.38461504, 4085.64102530, 4074.23076889, 4095.89743555, 4113.33333306, 4079.35897402, 4011.53846106, 4121.28205101,12.0
4071.28205094, 3968.97435835, 4079.87179453, 3965.76923015, 4075.76923043, 4100.12820478, 4100.51282017, 4111.53846126, 4097.30769196, 4114.35897408, 4128.71794844, 4096.53846119, 4023.33333285, 4123.71794844,12.0
4053.46153805, 3958.58974297, 4065.89743548, 3945.89743528, 4055.76923036, 4083.46153812, 4078.33333299, 4098.46153812, 4085.51282017, 4102.69230742, 4112.43589716, 4075.12820478, 4012.69230721, 4121.92307665,12.0
4035.25640977, 3952.94871733, 4053.58974318, 3939.61538399, 4044.10256369, 4067.05128164, 4057.56410215, 4078.46153812, 4064.48717907, 4085.51282017, 4095.25640991, 4053.84615343, 3999.23076868, 4119.61538434,12.0
4045.38461497, 3961.53846092, 4058.46153805, 3948.20512758, 4059.61538420, 4078.58974325, 4077.17948684, 4092.69230735, 4078.20512786, 4090.64102530, 4099.48717914, 4060.76923036, 4004.74358926, 4121.41025614,12.0
4053.20512779, 3963.33333271, 4060.38461497, 3947.17948656, 4063.97435856, 4081.92307658, 4084.61538427, 4102.43589709, 4094.48717914, 4101.15384581, 4104.23076896, 4069.35897395, 4010.25640977, 4121.53846126,12.0
4054.35897395, 3966.92307630, 4066.02564061, 3949.74358912, 4063.58974318, 4081.66666632, 4077.17948684, 4094.35897402, 4088.84615350, 4106.15384588, 4106.66666639, 4073.33333299, 4011.79487131, 4119.99999973,12.0
4065.12820472, 3978.46153791, 4077.94871761, 3963.58974297, 4078.84615350, 4091.41025607, 4089.48717914, 4096.79487145, 4088.46153812, 4111.66666639, 4116.53846126, 4083.46153812, 4023.84615336, 4121.66666639,12.0
4078.33333299, 3989.35897381, 4086.92307658, 3973.07692252, 4088.46153812, 4093.71794837, 4103.46153819, 4114.99999973, 4104.35897408, 4119.35897408, 4128.71794844, 4092.94871761, 4036.79487131, 4121.66666639,12.0
4095.76923043, 4004.99999952, 4105.12820485, 3986.28205073, 4099.74358940, 4098.84615350, 4111.28205101, 4134.61538434, 4124.48717921, 4138.71794851, 4148.07692287, 4108.97435870, 4048.97435856, 4122.56410229,12.0
4103.71794844, 4008.71794824, 4113.71794844, 3997.94871740, 4109.87179460, 4108.58974332, 4113.71794844, 4135.51282031, 4124.87179460, 4145.64102544, 4153.20512800, 4116.15384588, 4052.30769189, 4120.12820485,12.0
4088.84615350, 3993.84615329, 4096.41025607, 3989.99999945, 4093.58974325, 4098.33333299, 4099.87179453, 4116.92307665, 4096.92307658, 4124.61538434, 4128.84615357, 4099.87179453, 4041.53846113, 4116.92307665,12.0
4092.17948684, 3998.20512765, 4101.02564068, 3995.51281996, 4089.35897402, 4095.12820478, 4102.05128171, 4122.56410229, 4094.87179453, 4123.97435870, 4131.02564075, 4101.79487145, 4048.58974318, 4123.97435870,12.0
4119.23076896, 4018.58974311, 4130.12820485, 4023.33333285, 4116.79487152, 4119.23076896, 4128.97435870, 4152.30769210, 4130.25640998, 4150.12820492, 4162.05128185, 4123.33333306, 4066.66666625, 4124.87179460,12.0
4120.38461511, 4014.61538413, 4131.92307665, 4025.76923029, 4116.66666639, 4123.84615357, 4126.92307665, 4144.61538441, 4128.84615357, 4147.56410236, 4160.38461518, 4121.28205101, 4062.30769189, 4119.35897408,12.0
4110.51282024, 4007.30769183, 4122.69230742, 4012.05128157, 4091.66666632, 4110.38461511, 4108.07692280, 4122.17948691, 4102.43589709, 4127.17948691, 4147.82051262, 4115.38461511, 4053.20512779, 4122.05128178,12.0
4123.20512793, 4019.74358926, 4134.48717921, 4022.05128157, 4099.87179453, 4118.58974332, 4120.25640998, 4133.33333306, 4114.74358947, 4140.38461518, 4164.99999980, 4130.25640998, 4061.53846113, 4123.07692280,12.0
4132.05128178, 4022.56410208, 4147.82051262, 4034.87179439, 4120.64102537, 4127.05128178, 4130.51282024, 4141.02564082, 4128.07692280, 4156.28205108, 4172.94871781, 4138.84615364, 4070.25640991, 4123.84615357,12.0
4136.66666646, 4024.61538413, 4157.94871774, 4038.33333292, 4124.87179460, 4125.51282024, 4129.10256383, 4141.28205108, 4127.69230742, 4158.20512800, 4167.30769210, 4144.10256390, 4076.53846119, 4126.66666639,12.0
4147.30769210, 4037.94871754, 4163.58974339, 4042.43589702, 4121.28205101, 4124.87179460, 4132.82051255, 4150.64102544, 4136.15384595, 4161.79487159, 4173.97435884, 4151.15384595, 4079.87179453, 4120.76923050,12.0
4148.07692287, 4040.12820472, 4161.92307672, 4041.53846113, 4120.38461511, 4123.58974332, 4136.28205108, 4149.61538441, 4129.35897408, 4156.79487159, 4174.35897422, 4145.89743569, 4081.15384581, 4121.41025614,12.0
4149.10256390, 4035.64102516, 4167.82051262, 4041.15384574, 4127.30769203, 4123.58974332, 4137.56410236, 4139.10256390, 4113.07692280, 4152.43589723, 4170.76923063, 4144.23076903, 4090.38461504, 4127.69230742,12.0
4144.61538441, 4035.38461490, 4163.07692287, 4038.58974318, 4122.69230742, 4119.48717921, 4124.87179460, 4132.82051255, 4107.30769203, 4153.71794851, 4167.17948697, 4141.41025621, 4079.99999966, 4122.82051255,12.0
4117.94871767, 4016.53846106, 4132.82051255, 4016.66666618, 4095.12820478, 4100.25640991, 4098.33333299, 4119.61538434, 4088.20512786, 4134.48717921, 4142.43589723, 4113.84615357, 4046.92307651, 4116.28205101,12.0
4106.66666639, 4001.28205073, 4121.79487152, 4005.38461490, 4086.53846119, 4089.74358940, 4095.89743555, 4112.94871767, 4081.79487145, 4124.23076896, 4132.94871767, 4099.74358940, 4047.30769189, 4116.41025614,12.0
4123.20512793, 4017.17948670, 4135.89743569, 4016.02564054, 4105.64102537, 4103.46153819, 4118.58974332, 4128.46153819, 4108.97435870, 4152.05128185, 4157.43589723, 4119.74358947, 4077.82051248, 4124.10256383,12.0
4122.17948691, 4023.58974311, 4130.51282024, 4016.41025593, 4108.71794844, 4111.02564075, 4118.97435870, 4134.10256383, 4111.66666639, 4159.87179467, 4160.64102544, 4121.92307665, 4084.10256376, 4125.89743562,12.0
4117.94871767, 4017.43589695, 4124.74358947, 4016.79487131, 4105.12820485, 4110.25640998, 4114.74358947, 4134.23076896, 4100.38461504, 4147.30769210, 4157.43589723, 4111.92307665, 4084.99999966, 4123.58974332,12.0
4126.53846126, 4021.02564054, 4130.89743562, 4018.84615336, 4110.89743562, 4109.87179460, 4120.64102537, 4142.43589723, 4109.23076896, 4154.99999980, 4171.66666653, 4119.23076896, 4094.99999966, 4122.82051255,12.0
4121.79487152, 4026.53846106, 4122.30769203, 4012.56410208, 4104.74358947, 4103.84615357, 4110.51282024, 4132.17948691, 4100.89743555, 4152.43589723, 4166.28205108, 4116.66666639, 4088.46153812, 4121.02564075,12.0
4113.84615357, 4028.20512772, 4112.94871767, 4014.87179439, 4102.30769196, 4104.23076896, 4101.53846119, 4115.64102537, 4081.92307658, 4138.84615364, 4151.79487159, 4105.89743562, 4088.07692273, 4123.58974332,12.0
4109.74358947, 4022.17948670, 4112.05128178, 4021.28205080, 4105.64102537, 4102.94871767, 4101.66666632, 4110.76923050, 4076.79487145, 4133.46153819, 4149.35897415, 4101.66666632, 4089.61538427, 4118.84615357,12.0
4097.30769196, 4008.58974311, 4102.43589709, 4012.17948670, 4092.69230735, 4090.76923043, 4094.10256376, 4102.69230742, 4066.53846113, 4121.28205101, 4141.53846133, 4093.46153812, 4072.05128171, 4118.97435870,12.0
4096.41025607, 4009.87179439, 4101.66666632, 4007.30769183, 4091.02564068, 4093.84615350, 4092.56410222, 4102.05128171, 4063.71794830, 4123.07692280, 4138.07692287, 4095.51282017, 4068.33333292, 4127.69230742,12.0
4112.05128178, 4027.30769183, 4119.23076896, 4023.33333285, 4110.64102537, 4108.97435870, 4107.43589716, 4117.82051255, 4082.94871761, 4141.41025621, 4146.41025621, 4112.05128178, 4088.07692273, 4124.35897408,12.0
4108.71794844, 4023.97435849, 4118.97435870, 4023.71794824, 4106.41025614, 4097.69230735, 4105.12820485, 4116.53846126, 4078.71794837, 4128.58974332, 4136.92307672, 4107.94871767, 4091.92307658, 4118.33333306,12.0
4099.61538427, 4016.28205080, 4109.35897408, 4011.92307644, 4089.99999966, 4081.92307658, 4092.69230735, 4106.92307665, 4062.94871754, 4111.53846126, 4126.28205101, 4096.79487145, 4078.33333299, 4117.43589716,12.0
4118.20512793, 4035.38461490, 4129.87179460, 4023.33333285, 4105.64102537, 4101.79487145, 4110.89743562, 4127.17948691, 4087.43589709, 4135.38461518, 4148.97435877, 4117.43589716, 4088.46153812, 4121.53846126,12.0
4124.35897408, 4043.33333292, 4139.48717928, 4030.12820465, 4119.99999973, 4111.66666639, 4118.71794844, 4136.66666646, 4098.46153812, 4143.20512800, 4159.35897415, 4126.15384588, 4102.56410229, 4121.53846126,12.0
4095.76923043, 4018.33333285, 4111.41025614, 4009.35897388, 4098.07692273, 4088.20512786, 4083.84615350, 4101.79487145, 4058.33333292, 4112.94871767, 4134.61538434, 4098.97435863, 4085.64102530, 4120.25640998,12.0
4081.28205094, 4009.48717900, 4098.20512786, 3996.02564047, 4082.30769196, 4078.97435863, 4068.84615343, 4084.10256376, 4041.79487138, 4106.15384588, 4122.94871767, 4088.07692273, 4074.48717914, 4124.48717921,12.0
4098.71794837, 4028.84615336, 4113.33333306, 4007.56410208, 4100.64102530, 4092.82051248, 4097.69230735, 4109.61538434, 4071.28205094, 4127.82051255, 4135.51282031, 4101.79487145, 4094.99999966, 4119.23076896,12.0
4102.82051255, 4032.82051234, 4113.58974332, 4015.25640977, 4113.84615357, 4096.66666632, 4105.25640998, 4115.64102537, 4076.53846119, 4127.30769203, 4131.92307665, 4099.35897402, 4100.25640991, 4117.56410229,12.0
4085.89743555, 4022.69230721, 4099.99999966, 4007.56410208, 4100.76923043, 4091.41025607, 4084.10256376, 4097.56410222, 4059.74358933, 4110.51282024, 4122.17948691, 4086.28205094, 4086.15384581, 4123.58974332,12.0
4076.41025607, 4017.05128157, 4094.35897402, 4001.28205073, 4092.30769196, 4089.48717914, 4074.35897402, 4089.87179453, 4059.99999959, 4110.64102537, 4124.10256383, 4082.30769196, 4088.33333299, 4119.99999973,12.0
4067.82051241, 4010.76923029, 4086.15384581, 4000.38461483, 4093.97435863, 4086.28205094, 4072.94871761, 4081.92307658, 4054.23076882, 4108.33333306, 4118.07692280, 4071.79487145, 4084.61538427, 4118.71794844,12.0
4062.69230728, 4013.84615336, 4083.71794837, 4004.23076875, 4090.89743555, 4088.07692273, 4076.28205094, 4079.48717914, 4046.92307651, 4100.76923043, 4117.30769203, 4064.61538420, 4078.07692273, 4121.15384588,12.0
4075.76923043, 4031.92307644, 4099.87179453, 4016.92307644, 4097.17948684, 4089.23076889, 4081.79487145, 4093.71794837, 4062.05128164, 4113.07692280, 4136.02564082, 4079.87179453, 4095.89743555, 4121.28205101,12.0
4076.41025607, 4025.51282003, 4095.38461504, 4014.48717900, 4100.38461504, 4078.46153812, 4072.94871761, 4097.43589709, 4067.17948677, 4121.15384588, 4136.79487159, 4082.05128171, 4103.46153819, 4122.82051255,12.0
4056.41025600, 4000.12820458, 4067.82051241, 3994.99999945, 4080.64102530, 4070.25640991, 4059.35897395, 4086.28205094, 4048.84615343, 4100.64102530, 4111.41025614, 4057.17948677, 4074.99999966, 4123.71794844,12.0
4052.69230728, 4004.61538413, 4064.48717907, 3993.07692252, 4072.43589709, 4075.51282017, 4061.02564061, 4084.35897402, 4038.97435856, 4081.02564068, 4102.56410229, 4047.82051241, 4056.79487138, 4120.51282024,12.0
4071.79487145, 4025.38461490, 4086.79487145, 4011.53846106, 4092.94871761, 4087.69230735, 4076.28205094, 4094.87179453, 4051.53846113, 4094.48717914, 4128.46153819, 4069.23076882, 4083.97435863, 4118.20512793,12.0
4082.05128171, 4029.99999952, 4100.38461504, 4018.58974311, 4103.33333306, 4091.66666632, 4083.58974325, 4098.20512786, 4068.20512779, 4115.51282024, 4149.48717928, 4088.58974325, 4110.89743562, 4121.53846126,12.0
4064.23076882, 4015.64102516, 4087.43589709, 4000.12820458, 4083.20512786, 4079.10256376, 4069.74358940, 4084.99999966, 4059.61538420, 4103.20512793, 4128.71794844, 4078.97435863, 4094.61538427, 4122.94871767,12.0
4049.35897395, 4006.79487131, 4075.76923043, 3991.15384560, 4073.97435863, 4072.43589709, 4061.66666625, 4073.71794837, 4043.33333292, 4082.82051248, 4103.20512793, 4062.30769189, 4075.25640991, 4119.87179460,12.0
4067.30769189, 4022.94871747, 4092.30769196, 4007.56410208, 4095.64102530, 4087.69230735, 4082.17948684, 4088.20512786, 4060.89743548, 4096.79487145, 4122.69230742, 4075.25640991, 4091.53846119, 4121.79487152,12.0
4074.61538427, 4028.97435849, 4097.82051248, 4007.69230721, 4099.99999966, 4088.58974325, 4083.20512786, 4093.71794837, 4074.35897402, 4110.89743562, 4141.53846133, 4085.64102530, 4099.61538427, 4122.69230742,12.0
4048.33333292, 4009.35897388, 4075.12820478, 3985.64102509, 4073.84615350, 4066.02564061, 4053.58974318, 4072.43589709, 4046.53846113, 4087.69230735, 4118.84615357, 4064.99999959, 4077.56410222, 4119.74358947,12.0
4036.28205080, 4001.66666611, 4070.12820478, 3977.94871740, 4065.25640984, 4063.97435856, 4054.74358933, 4079.10256376, 4040.38461497, 4073.97435863, 4111.92307665, 4055.38461497, 4079.61538427, 4121.15384588,12.0
4046.41025600, 4007.94871747, 4084.87179453, 3982.05128150, 4078.71794837, 4078.20512786, 4074.74358940, 4099.23076889, 4062.82051241, 4085.12820478, 4126.02564075, 4065.12820472, 4092.30769196, 4122.17948691,12.0
4044.10256369, 4004.23076875, 4081.79487145, 3980.12820458, 4077.94871761, 4076.41025607, 4063.84615343, 4081.79487145, 4056.15384574, 4082.69230735, 4111.79487152, 4060.89743548, 4076.53846119, 4120.76923050,12.0
4032.94871747, 3998.46153791, 4068.58974318, 3971.41025586, 4068.33333292, 4071.66666632, 4051.79487138, 4068.71794830, 4043.33333292, 4071.41025607, 4094.87179453, 4051.15384574, 4067.69230728, 4121.66666639,12.0
4029.23076875, 3998.97435842, 4063.58974318, 3965.64102502, 4062.43589702, 4073.71794837, 4062.43589702, 4083.33333299, 4050.76923036, 4069.99999966, 4095.89743555, 4044.35897395, 4074.48717914, 4122.17948691,12.0
4027.05128157, 3997.17948663, 4059.35897395, 3966.92307630, 4057.30769189, 4068.46153805, 4061.41025600, 4082.17948684, 4049.87179446, 4067.30769189, 4093.33333299, 4033.84615336, 4073.46153812, 4119.87179460,12.0
4026.02564054, 3996.28205073, 4057.94871754, 3969.23076861, 4063.58974318, 4067.82051241, 4053.71794830, 4069.10256369, 4040.64102523, 4065.12820472, 4092.05128171, 4034.35897388, 4072.05128171, 4121.02564075,12.0
4035.12820465, 4007.17948670, 4066.53846113, 3977.30769176, 4077.82051248, 4080.89743555, 4066.28205087, 4076.28205094, 4047.82051241, 4075.12820478, 4100.64102530, 4046.15384574, 4075.89743555, 4125.64102537,12.0
4041.53846113, 4019.35897388, 4067.43589702, 3984.61538406, 4079.87179453, 4080.64102530, 4065.89743548, 4079.74358940, 4059.74358933, 4082.17948684, 4101.66666632, 4044.99999959, 4074.35897402, 4121.92307665,12.0
4027.56410208, 4008.58974311, 4051.02564061, 3975.12820458, 4069.74358940, 4061.28205087, 4039.74358933, 4061.41025600, 4051.28205087, 4069.10256369, 4091.66666632, 4029.48717900, 4063.07692266, 4118.58974332,12.0
4013.20512772, 3991.79487124, 4039.61538420, 3959.10256348, 4061.66666625, 4052.56410215, 4033.20512772, 4055.76923036, 4037.05128164, 4054.99999959, 4083.84615350, 4023.33333285, 4057.82051241, 4124.87179460,12.0
4019.74358926, 3999.10256355, 4045.25640984, 3954.35897374, 4051.15384574, 4059.61538420, 4054.87179446, 4073.07692273, 4040.12820472, 4057.69230728, 4083.33333299, 4029.23076875, 4066.15384574, 4127.43589716,12.0
4024.87179439, 4012.17948670, 4057.30769189, 3960.89743528, 4043.71794830, 4061.66666625, 4056.79487138, 4076.79487145, 4048.20512779, 4058.33333292, 4086.41025607, 4033.20512772, 4072.05128171, 4124.35897408,12.0
4010.76923029, 3996.66666611, 4056.41025600, 3960.12820451, 4048.97435856, 4048.33333292, 4030.38461490, 4059.35897395, 4038.84615343, 4044.61538420, 4076.79487145, 4031.02564054, 4062.43589702, 4121.28205101,12.0
4011.41025593, 3987.43589688, 4054.48717907, 3961.41025579, 4060.25640984, 4048.58974318, 4033.46153798, 4056.92307651, 4030.51282003, 4042.43589702, 4068.07692266, 4034.10256362, 4055.64102523, 4121.28205101,12.0
4042.94871754, 4021.66666618, 4078.84615350, 3980.89743535, 4076.66666632, 4081.02564068, 4077.94871761, 4081.28205094, 4051.02564061, 4067.94871754, 4091.66666632, 4058.07692266, 4079.10256376, 4124.87179460,12.0
4053.20512779, 4038.46153805, 4097.30769196, 3987.30769176, 4084.10256376, 4090.76923043, 4090.64102530, 4098.71794837, 4074.48717914, 4083.46153812, 4109.23076896, 4073.71794837, 4094.99999966, 4122.30769203,12.0
4022.43589695, 4005.64102516, 4070.51282017, 3963.84615322, 4062.94871754, 4053.33333292, 4044.35897395, 4077.69230735, 4057.05128164, 4054.48717907, 4074.74358940, 4050.25640984, 4063.07692266, 4119.87179460,12.0
3992.82051227, 3974.87179432, 4033.71794824, 3937.30769162, 4033.71794824, 4029.99999952, 4007.43589695, 4039.35897395, 4019.87179439, 4020.89743541, 4034.48717900, 4017.30769183, 4032.94871747, 4121.28205101,12.0
3996.02564047, 3978.33333278, 4037.30769189, 3937.56410187, 4030.51282003, 4041.28205087, 4014.35897388, 4033.33333285, 4015.38461490, 4024.10256362, 4040.12820472, 4020.12820465, 4047.82051241, 4121.66666639,12.0
4023.58974311, 4006.66666618, 4069.10256369, 3962.30769169, 4048.20512779, 4051.15384574, 4032.56410208, 4056.92307651, 4045.12820472, 4047.17948677, 4071.92307658, 4052.56410215, 4079.87179453, 4124.87179460,12.0
4038.33333292, 4029.10256362, 4084.74358940, 3974.48717894, 4057.56410215, 4052.69230728, 4038.20512779, 4067.82051241, 4061.02564061, 4062.94871754, 4092.30769196, 4065.51282010, 4084.35897402, 4122.56410229,12.0
4028.84615336, 4021.15384567, 4073.46153812, 3965.38461476, 4054.74358933, 4057.69230728, 4038.33333292, 4058.58974318, 4046.92307651, 4059.99999959, 4084.87179453, 4048.84615343, 4070.89743555, 4122.43589716,12.0
4018.33333285, 4003.20512765, 4058.46153805, 3958.20512758, 4055.51282010, 4062.56410215, 4041.15384574, 4057.43589702, 4037.82051241, 4048.33333292, 4064.87179446, 4038.71794830, 4068.97435856, 4126.15384588,12.0
4026.92307644, 4016.53846106, 4063.97435856, 3972.56410201, 4067.69230728, 4071.28205094, 4056.92307651, 4076.15384581, 4056.66666625, 4055.64102523, 4072.56410222, 4050.76923036, 4082.05128171, 4124.10256383,12.0
4033.20512772, 4034.48717900, 4072.69230735, 3987.05128150, 4073.97435863, 4079.74358940, 4071.79487145, 4087.05128171, 4069.61538420, 4072.82051248, 4087.43589709, 4057.82051241, 4095.89743555, 4121.92307665,12.0
4012.82051234, 4014.99999952, 4054.61538420, 3966.66666605, 4066.02564061, 4067.56410215, 4054.23076882, 4066.15384574, 4046.41025600, 4059.99999959, 4066.02564061, 4037.94871754, 4086.53846119, 4117.56410229,12.0
4004.10256362, 3998.97435842, 4042.30769189, 3946.66666605, 4056.28205087, 4054.99999959, 4035.38461490, 4050.51282010, 4034.10256362, 4042.82051241, 4062.30769189, 4030.76923029, 4079.61538427, 4120.38461511,12.0
4012.30769183, 4006.02564054, 4048.58974318, 3949.23076861, 4044.35897395, 4055.76923036, 4039.61538420, 4054.48717907, 4042.94871754, 4047.43589702, 4086.92307658, 4043.20512779, 4095.64102530, 4124.99999973,12.0
4001.53846099, 4008.46153798, 4039.99999959, 3942.17948656, 4037.69230728, 4050.64102523, 4037.17948677, 4046.92307651, 4032.30769183, 4038.20512779, 4072.69230735, 4037.05128164, 4098.46153812, 4117.69230742,12.0
3994.61538406, 4006.66666618, 4034.48717900, 3933.71794803, 4046.92307651, 4037.43589702, 4023.33333285, 4040.12820472, 4018.71794824, 4023.84615336, 4046.92307651, 4028.58974311, 4081.66666632, 4117.82051255,12.0
4010.25640977, 4010.64102516, 4052.17948677, 3944.48717887, 4058.58974318, 4040.76923036, 4031.02564054, 4052.05128164, 4031.28205080, 4038.97435856, 4060.25640984, 4046.15384574, 4085.38461504, 4121.15384588,12.0
4020.89743541, 4016.79487131, 4065.76923036, 3957.43589681, 4061.53846113, 4059.48717907, 4052.30769189, 4065.64102523, 4047.43589702, 4059.99999959, 4076.02564068, 4063.07692266, 4110.38461511, 4119.35897408,12.0
4020.12820465, 4024.10256362, 4063.46153805, 3959.23076861, 4059.23076882, 4058.33333292, 4052.94871754, 4072.17948684, 4047.94871754, 4060.25640984, 4076.79487145, 4063.07692266, 4114.74358947, 4122.17948691,12.0
4027.82051234, 4029.99999952, 4069.74358940, 3962.94871733, 4066.41025600, 4058.07692266, 4057.94871754, 4080.38461504, 4054.48717907, 4062.94871754, 4088.97435863, 4072.82051248, 4109.35897408, 4124.74358947,12.0
4036.41025593, 4032.43589695, 4084.48717914, 3968.71794810, 4077.05128171, 4073.84615350, 4072.30769196, 4076.79487145, 4058.97435856, 4069.48717907, 4093.71794837, 4088.20512786, 4118.20512793, 4122.69230742,12.0
4036.92307651, 4037.69230728, 4089.23076889, 3969.35897374, 4074.99999966, 4072.43589709, 4062.43589702, 4068.71794830, 4050.89743548, 4066.02564061, 4093.46153812, 4094.10256376, 4127.43589716, 4119.99999973,12.0
4030.51282003, 4029.48717900, 4079.35897402, 3960.25640963, 4061.28205087, 4050.51282010, 4033.46153798, 4066.28205087, 4037.30769189, 4054.87179446, 4094.10256376, 4087.94871761, 4120.12820485, 4120.51282024,12.0
4018.97435849, 4013.58974311, 4065.76923036, 3949.99999938, 4053.58974318, 4043.33333292, 4025.12820465, 4056.66666625, 4026.02564054, 4041.28205087, 4071.53846119, 4075.38461504, 4102.30769196, 4122.05128178,12.0
4024.48717900, 4027.94871747, 4071.15384581, 3959.87179425, 4062.69230728, 4062.17948677, 4050.76923036, 4061.02564061, 4038.46153805, 4049.74358933, 4067.43589702, 4079.99999966, 4105.38461511, 4121.53846126,12.0
4050.51282010, 4055.51282010, 4092.17948684, 3981.53846099, 4084.99999966, 4082.94871761, 4080.76923043, 4092.30769196, 4068.20512779, 4081.66666632, 4103.97435870, 4101.28205094, 4133.97435870, 4123.84615357,12.0
4063.46153805, 4060.51282010, 4102.94871767, 3993.33333278, 4101.02564068, 4092.17948684, 4095.51282017, 4114.99999973, 4087.43589709, 4102.05128171, 4125.25640998, 4114.10256383, 4152.56410236, 4119.99999973,12.0
4056.15384574, 4055.51282010, 4099.23076889, 3994.61538406, 4090.38461504, 4091.66666632, 4098.20512786, 4105.64102537, 4082.69230735, 4093.58974325, 4109.99999973, 4106.92307665, 4143.20512800, 4111.92307665,12.0
4063.20512779, 4069.10256369, 4109.35897408, 4002.94871740, 4093.71794837, 4098.58974325, 4108.84615357, 4109.23076896, 4083.33333299, 4096.02564068, 4111.79487152, 4111.15384588, 4149.99999980, 4118.07692280,12.0
4085.89743555, 4083.97435863, 4127.17948691, 4022.30769183, 4125.38461511, 4110.38461511, 4119.61538434, 4130.51282024, 4097.94871761, 4117.94871767, 4137.56410236, 4132.43589716, 4173.58974345, 4124.23076896,12.0
4089.35897402, 4080.64102530, 4120.12820485, 4032.43589695, 4132.94871767, 4108.58974332, 4110.38461511, 4119.35897408, 4094.99999966, 4115.38461511, 4134.35897408, 4129.48717921, 4165.76923056, 4119.74358947,12.0
4088.33333299, 4082.56410222, 4111.53846126, 4026.15384567, 4123.33333306, 4109.87179460, 4104.10256383, 4106.79487152, 4087.69230735, 4102.30769196, 4116.28205101, 4118.33333306, 4152.69230749, 4121.79487152,12.0
4105.25640998, 4096.41025607, 4127.69230742, 4019.74358926, 4135.12820485, 4116.28205101, 4109.99999973, 4120.51282024, 4093.20512786, 4112.05128178, 4128.20512793, 4133.46153819, 4168.84615371, 4123.46153819,12.0
4118.33333306, 4094.35897402, 4142.94871774, 4022.43589695, 4146.41025621, 4111.53846126, 4103.33333306, 4114.35897408, 4092.43589709, 4121.53846126, 4144.99999980, 4145.25641005, 4177.69230756, 4122.17948691,12.0
4107.94871767, 4077.56410222, 4135.89743569, 4017.43589695, 4137.17948697, 4103.33333306, 4090.89743555, 4087.94871761, 4075.12820478, 4108.97435870, 4128.58974332, 4127.69230742, 4158.46153826, 4124.87179460,12.0
4102.43589709, 4078.97435863, 4133.20512793, 4010.12820465, 4132.30769203, 4108.71794844, 4095.51282017, 4090.51282017, 4069.48717907, 4103.58974332, 4121.15384588, 4121.53846126, 4158.07692287, 4125.12820485,12.0
4115.89743562, 4092.94871761, 4146.79487159, 4020.89743541, 4138.33333313, 4117.17948691, 4109.74358947, 4110.12820485, 4083.46153812, 4116.02564075, 4138.20512800, 4137.56410236, 4183.33333320, 4119.35897408,12.0
4124.10256383, 4095.89743555, 4150.51282031, 4033.58974311, 4141.92307672, 4117.69230742, 4118.07692280, 4117.56410229, 4093.97435863, 4127.43589716, 4142.56410236, 4144.61538441, 4192.94871781, 4116.79487152,12.0
4125.25640998, 4094.10256376, 4145.89743569, 4034.87179439, 4144.35897415, 4117.94871767, 4119.48717921, 4117.94871767, 4094.61538427, 4131.92307665, 4143.20512800, 4146.15384595, 4192.82051269, 4124.48717921,12.0
4123.58974332, 4088.84615350, 4143.46153826, 4031.53846106, 4144.74358954, 4117.43589716, 4114.10256383, 4112.69230742, 4088.71794837, 4127.82051255, 4142.05128185, 4146.28205108, 4193.84615371, 4124.99999973,12.0
4122.30769203, 4091.66666632, 4142.94871774, 4035.89743541, 4145.76923056, 4119.99999973, 4117.82051255, 4111.02564075, 4081.66666632, 4124.35897408, 4129.35897408, 4141.15384595, 4184.61538448, 4117.56410229,12.0
4127.17948691, 4107.30769203, 4147.82051262, 4049.87179446, 4149.23076903, 4125.12820485, 4126.28205101, 4117.05128178, 4078.20512786, 4123.84615357, 4127.05128178, 4139.87179467, 4181.28205115, 4118.84615357,12.0
4125.64102537, 4099.87179453, 4147.69230749, 4050.38461497, 4147.94871774, 4122.56410229, 4120.89743562, 4126.41025614, 4087.94871761, 4126.02564075, 4138.07692287, 4139.87179467, 4192.56410243, 4124.10256383,12.0
4108.46153819, 4072.30769196, 4131.15384588, 4029.23076875, 4134.10256383, 4110.76923050, 4104.10256383, 4120.64102537, 4090.38461504, 4126.15384588, 4132.05128178, 4128.84615357, 4189.48717935, 4126.79487152,12.0
4087.43589709, 4064.23076882, 4111.66666639, 4014.99999952, 4120.64102537, 4097.30769196, 4083.71794837, 4090.51282017, 4060.51282010, 4106.28205101, 4109.61538434, 4109.23076896, 4166.79487159, 4122.56410229,12.0
4083.07692273, 4069.23076882, 4109.87179460, 4019.99999952, 4117.05128178, 4088.97435863, 4071.92307658, 4075.12820478, 4043.07692266, 4090.25640991, 4106.15384588, 4103.58974332, 4160.38461518, 4117.82051255,12.0
4094.87179453, 4070.25640991, 4120.89743562, 4028.84615336, 4111.53846126, 4088.58974325, 4078.71794837, 4091.28205094, 4058.20512779, 4106.28205101, 4120.51282024, 4117.56410229, 4172.94871781, 4119.99999973,12.0
4103.33333306, 4075.51282017, 4126.15384588, 4032.43589695, 4109.99999973, 4095.25640991, 4087.82051248, 4098.58974325, 4062.30769189, 4120.25640998, 4123.20512793, 4125.12820485, 4173.07692294, 4118.20512793,12.0
4101.66666632, 4081.92307658, 4122.69230742, 4032.94871747, 4122.94871767, 4102.43589709, 4090.25640991, 4088.33333299, 4051.53846113, 4112.69230742, 4117.94871767, 4122.17948691, 4168.84615371, 4117.56410229,12.0
4104.61538434, 4081.02564068, 4121.66666639, 4033.46153798, 4127.94871767, 4104.99999973, 4095.12820478, 4091.41025607, 4054.10256369, 4113.07692280, 4124.10256383, 4125.12820485, 4174.99999986, 4122.69230742,12.0
4112.17948691, 4076.92307658, 4119.87179460, 4031.53846106, 4121.41025614, 4104.99999973, 4109.48717921, 4114.74358947, 4066.79487138, 4121.92307665, 4128.97435870, 4124.23076896, 4171.66666653, 4122.43589716,12.0
4112.82051255, 4075.76923043, 4116.66666639, 4028.46153798, 4123.97435870, 4112.82051255, 4124.35897408, 4131.53846126, 4074.23076889, 4124.87179460, 4128.46153819, 4122.69230742, 4168.07692287, 4121.15384588,12.0
4108.20512793, 4075.64102530, 4118.07692280, 4028.07692259, 4123.71794844, 4111.92307665, 4114.99999973, 4116.02564075, 4067.69230728, 4121.41025614, 4133.71794844, 4126.79487152, 4172.69230756, 4120.25640998,12.0
4106.28205101, 4070.12820478, 4116.53846126, 4028.20512772, 4110.12820485, 4089.87179453, 4082.94871761, 4092.05128171, 4055.64102523, 4114.87179460, 4135.38461518, 4119.99999973, 4165.51282031, 4122.82051255,12.0
4108.46153819, 4068.71794830, 4113.46153819, 4027.94871747, 4102.43589709, 4078.46153812, 4067.17948677, 4093.07692273, 4056.15384574, 4110.12820485, 4128.46153819, 4109.99999973, 4158.20512800, 4124.99999973,12.0
4104.35897408, 4072.56410222, 4112.30769203, 4026.02564054, 4104.48717921, 4090.12820478, 4075.89743555, 4095.12820478, 4059.99999959, 4106.53846126, 4120.89743562, 4110.89743562, 4161.79487159, 4119.23076896,12.0
4101.66666632, 4076.15384581, 4114.61538434, 4029.74358926, 4112.30769203, 4099.74358940, 4084.99999966, 4088.97435863, 4057.05128164, 4107.05128178, 4125.51282024, 4118.46153819, 4165.38461518, 4119.87179460,12.0
4114.99999973, 4083.84615350, 4126.66666639, 4042.05128164, 4125.76923050, 4101.79487145, 4094.74358940, 4099.10256376, 4062.56410215, 4120.38461511, 4143.97435877, 4131.79487152, 4172.94871781, 4121.79487152,12.0
4126.15384588, 4086.53846119, 4135.64102544, 4046.41025600, 4128.84615357, 4106.66666639, 4102.43589709, 4110.64102537, 4068.97435856, 4128.71794844, 4149.61538441, 4140.38461518, 4178.97435884, 4120.25640998,12.0
4121.66666639, 4081.79487145, 4130.76923050, 4038.58974318, 4121.66666639, 4111.28205101, 4102.30769196, 4108.46153819, 4066.66666625, 4121.28205101, 4138.97435877, 4135.76923056, 4172.82051269, 4122.43589716,12.0
4121.02564075, 4087.69230735, 4128.71794844, 4038.33333292, 4129.74358947, 4114.10256383, 4110.64102537, 4112.94871767, 4069.61538420, 4120.38461511, 4141.66666646, 4131.02564075, 4169.48717935, 4120.38461511,12.0
4128.07692280, 4094.48717914, 4133.33333306, 4043.97435856, 4143.07692287, 4121.28205101, 4128.71794844, 4125.25640998, 4078.71794837, 4127.43589716, 4149.61538441, 4132.05128178, 4171.53846140, 4121.66666639,12.0
4124.74358947, 4083.84615350, 4122.56410229, 4034.74358926, 4133.46153819, 4124.74358947, 4132.17948691, 4129.74358947, 4082.94871761, 4122.56410229, 4136.92307672, 4125.38461511, 4164.35897415, 4123.20512793,12.0
4113.84615357, 4072.05128171, 4106.92307665, 4020.64102516, 4120.76923050, 4111.79487152, 4110.89743562, 4116.15384588, 4070.76923043, 4111.02564075, 4118.58974332, 4112.30769203, 4153.97435877, 4119.61538434,12.0
4108.58974332, 4074.74358940, 4106.02564075, 4023.46153798, 4117.43589716, 4093.58974325, 4087.82051248, 4094.61538427, 4050.51282010, 4105.25640998, 4115.89743562, 4107.56410229, 4151.92307672, 4121.53846126,12.0
4109.35897408, 4076.02564068, 4108.33333306, 4026.92307644, 4101.02564068, 4090.64102530, 4082.43589709, 4082.94871761, 4044.61538420, 4101.79487145, 4115.12820485, 4105.38461511, 4149.10256390, 4121.15384588,12.0
4108.97435870, 4070.25640991, 4106.02564075, 4017.43589695, 4092.94871761, 4093.84615350, 4084.61538427, 4089.87179453, 4052.69230728, 4098.20512786, 4110.25640998, 4102.05128171, 4143.97435877, 4119.23076896,12.0
4109.48717921, 4071.66666632, 4108.71794844, 4016.15384567, 4114.61538434, 4098.33333299, 4090.89743555, 4102.30769196, 4059.74358933, 4106.79487152, 4117.43589716, 4108.33333306, 4148.84615364, 4121.15384588,12.0
4115.38461511, 4079.87179453, 4122.94871767, 4026.02564054, 4130.25640998, 4107.43589716, 4101.79487145, 4108.07692280, 4065.12820472, 4119.10256383, 4132.30769203, 4121.28205101, 4157.43589723, 4123.07692280,12.0
4119.61538434, 4079.61538427, 4130.64102537, 4031.66666618, 4123.07692280, 4108.97435870, 4106.66666639, 4114.48717921, 4068.97435856, 4119.48717921, 4132.56410229, 4124.99999973, 4156.28205108, 4125.25640998,12.0
4120.38461511, 4079.35897402, 4123.20512793, 4038.71794830, 4117.17948691, 4107.94871767, 4111.92307665, 4118.07692280, 4066.92307651, 4118.33333306, 4128.58974332, 4121.15384588, 4153.97435877, 4121.02564075,12.0
4118.33333306, 4085.25640991, 4116.66666639, 4046.41025600, 4117.56410229, 4111.53846126, 4123.58974332, 4124.23076896, 4074.10256376, 4125.76923050, 4136.79487159, 4118.84615357, 4154.99999980, 4117.94871767,12.0
4111.53846126, 4079.48717914, 4112.56410229, 4043.46153805, 4112.30769203, 4105.89743562, 4117.43589716, 4129.10256383, 4077.56410222, 4123.84615357, 4131.28205101, 4114.23076896, 4150.51282031, 4122.69230742,12.0
4107.43589716, 4069.61538420, 4107.82051255, 4041.41025600, 4106.53846126, 4102.94871767, 4105.38461511, 4117.56410229, 4062.56410215, 4111.41025614, 4116.41025614, 4111.15384588, 4147.30769210, 4123.46153819,12.0
4106.41025614, 4074.99999966, 4106.15384588, 4044.87179446, 4107.30769203, 4109.35897408, 4110.25640998, 4100.89743555, 4054.87179446, 4108.07692280, 4116.02564075, 4112.30769203, 4147.05128185, 4123.46153819,12.0
4093.84615350, 4070.12820478, 4099.99999966, 4033.46153798, 4102.94871767, 4096.79487145, 4096.15384581, 4091.92307658, 4051.92307651, 4104.35897408, 4108.07692280, 4102.69230742, 4132.94871767, 4119.74358947,12.0
4080.38461504, 4051.66666625, 4087.82051248, 4017.82051234, 4084.74358940, 4075.51282017, 4067.30769189, 4087.94871761, 4038.46153805, 4089.23076889, 4085.64102530, 4088.46153812, 4119.61538434, 4117.56410229,12.0
4086.28205094, 4056.66666625, 4092.43589709, 4024.74358926, 4084.35897402, 4077.05128171, 4071.79487145, 4085.64102530, 4036.66666618, 4088.58974325, 4081.28205094, 4093.71794837, 4123.46153819, 4122.05128178,12.0
4093.97435863, 4070.89743555, 4105.76923050, 4037.69230728, 4103.71794844, 4090.89743555, 4093.97435863, 4092.82051248, 4054.99999959, 4101.15384581, 4094.87179453, 4103.46153819, 4126.41025614, 4118.58974332,12.0
4091.92307658, 4069.99999966, 4105.25640998, 4038.07692266, 4102.56410229, 4096.15384581, 4096.02564068, 4097.69230735, 4061.02564061, 4100.51282017, 4103.58974332, 4103.33333306, 4128.46153819, 4119.74358947,12.0
4097.30769196, 4073.84615350, 4107.43589716, 4038.84615343, 4099.87179453, 4092.30769196, 4099.48717914, 4103.71794844, 4058.71794830, 4104.74358947, 4110.89743562, 4108.46153819, 4135.12820485, 4119.48717921,12.0
4114.99999973, 4087.05128171, 4124.10256383, 4049.35897395, 4115.38461511, 4098.71794837, 4122.94871767, 4121.66666639, 4069.74358940, 4123.20512793, 4118.58974332, 4121.53846126, 4138.07692287, 4114.99999973,12.0
4129.23076896, 4095.64102530, 4141.15384595, 4058.33333292, 4116.28205101, 4115.51282024, 4135.64102544, 4128.58974332, 4074.74358940, 4124.87179460, 4126.15384588, 4134.48717921, 4145.51282031, 4122.82051255,12.0
4115.64102537, 4088.07692273, 4131.15384588, 4047.94871754, 4100.64102530, 4112.56410229, 4117.94871767, 4115.51282024, 4065.51282010, 4109.74358947, 4123.20512793, 4130.38461511, 4144.99999980, 4123.07692280,12.0
4081.15384581, 4063.97435856, 4099.87179453, 4027.94871747, 4082.94871761, 4081.66666632, 4077.43589709, 4087.17948684, 4038.33333292, 4086.92307658, 4091.53846119, 4101.79487145, 4118.71794844, 4121.15384588,12.0
4067.69230728, 4051.53846113, 4088.20512786, 4022.56410208, 4077.82051248, 4066.79487138, 4055.76923036, 4068.84615343, 4017.30769183, 4072.30769196, 4072.17948684, 4081.28205094, 4102.30769196, 4119.87179460,12.0
4080.12820478, 4066.66666625, 4103.97435870, 4031.66666618, 4091.15384581, 4083.58974325, 4074.61538427, 4079.35897402, 4030.64102516, 4083.84615350, 4091.66666632, 4091.92307658, 4114.35897408, 4116.53846126,12.0
4086.15384581, 4074.99999966, 4112.94871767, 4035.64102516, 4087.56410222, 4089.87179453, 4091.92307658, 4091.92307658, 4041.28205087, 4096.02564068, 4103.97435870, 4103.46153819, 4122.17948691, 4122.94871767,12.0
4086.53846119, 4067.82051241, 4111.41025614, 4031.79487131, 4075.51282017, 4083.71794837, 4090.38461504, 4093.71794837, 4036.41025593, 4094.61538427, 4099.23076889, 4103.58974332, 4117.56410229, 4120.51282024,12.0
4104.23076896, 4081.41025607, 4128.20512793, 4044.87179446, 4106.79487152, 4097.82051248, 4107.30769203, 4108.20512793, 4051.66666625, 4109.23076896, 4113.71794844, 4120.51282024, 4123.58974332, 4119.35897408,12.0
4111.66666639, 4094.10256376, 4136.92307672, 4058.07692266, 4136.28205108, 4117.69230742, 4133.84615357, 4126.92307665, 4071.66666632, 4122.30769203, 4124.35897408, 4130.12820485, 4128.07692280, 4121.15384588,12.0
4094.35897402, 4076.02564068, 4119.99999973, 4046.66666625, 4109.48717921, 4109.10256383, 4123.07692280, 4119.61538434, 4066.02564061, 4111.41025614, 4114.35897408, 4113.46153819, 4119.87179460, 4115.51282024,12.0
4096.79487145, 4072.17948684, 4124.35897408, 4043.71794830, 4092.82051248, 4096.41025607, 4111.66666639, 4115.89743562, 4068.71794830, 4114.99999973, 4120.64102537, 4116.79487152, 4124.48717921, 4119.35897408,12.0
4110.25640998, 4086.53846119, 4136.02564082, 4049.74358933, 4109.99999973, 4108.07692280, 4133.07692280, 4130.89743562, 4083.33333299, 4128.46153819, 4128.84615357, 4127.43589716, 4128.71794844, 4119.87179460,12.0
4099.87179453, 4080.76923043, 4119.87179460, 4037.56410215, 4106.15384588, 4110.89743562, 4131.79487152, 4123.33333306, 4072.56410222, 4113.46153819, 4110.38461511, 4109.23076896, 4110.89743562, 4119.99999973,12.0
4077.17948684, 4061.15384574, 4096.02564068, 4018.58974311, 4083.71794837, 4087.94871761, 4088.33333299, 4091.15384581, 4044.35897395, 4086.02564068, 4083.58974325, 4084.74358940, 4093.07692273, 4124.61538434,12.0
4061.28205087, 4048.97435856, 4082.82051248, 4009.10256362, 4071.79487145, 4071.28205094, 4057.43589702, 4069.99999966, 4025.76923029, 4073.84615350, 4072.05128171, 4071.53846119, 4086.02564068, 4119.10256383,12.0
4055.51282010, 4047.43589702, 4076.66666632, 4007.82051234, 4071.15384581, 4078.46153812, 4063.46153805, 4071.53846119, 4030.25640977, 4077.69230735, 4075.38461504, 4070.64102530, 4084.23076889, 4120.12820485,12.0
4058.20512779, 4053.71794830, 4080.89743555, 4011.02564054, 4079.61538427, 4089.87179453, 4079.23076889, 4080.89743555, 4042.82051241, 4085.76923043, 4082.17948684, 4079.35897402, 4087.30769196, 4121.53846126,12.0
4067.69230728, 4061.28205087, 4091.79487145, 4015.38461490, 4091.53846119, 4093.71794837, 4093.07692273, 4089.10256376, 4048.20512779, 4089.10256376, 4086.15384581, 4086.02564068, 4092.56410222, 4120.89743562,12.0
4074.87179453, 4066.02564061, 4100.12820478, 4016.79487131, 4094.74358940, 4099.87179453, 4106.41025614, 4100.25640991, 4056.41025600, 4090.89743555, 4091.28205094, 4088.97435863, 4095.38461504, 4125.51282024,12.0
4068.07692266, 4064.74358933, 4097.17948684, 4011.15384567, 4090.64102530, 4104.87179460, 4109.61538434, 4106.28205101, 4063.71794830, 4092.30769196, 4090.64102530, 4085.38461504, 4074.74358940, 4119.87179460,12.0
4055.89743548, 4058.07692266, 4085.25640991, 4004.35897388, 4084.10256376, 4101.02564068, 4105.89743562, 4103.58974332, 4060.64102523, 4084.74358940, 4078.46153812, 4077.69230735, 4042.17948677, 4120.25640998,12.0
4067.30769189, 4068.71794830, 4097.17948684, 4017.05128157, 4095.64102530, 4106.53846126, 4116.66666639, 4117.69230742, 4072.17948684, 4094.99999966, 4093.46153812, 4093.71794837, 4039.61538420, 4124.23076896,12.0
4083.33333299, 4079.61538427, 4115.89743562, 4030.12820465, 4108.84615357, 4113.20512793, 4127.56410229, 4131.53846126, 4084.35897402, 4113.71794844, 4114.74358947, 4108.33333306, 4021.53846106, 4119.87179460,12.0
4073.46153812, 4066.15384574, 4102.56410229, 4018.07692259, 4087.05128171, 4103.07692280, 4112.69230742, 4108.71794844, 4059.99999959, 4096.15384581, 4093.20512786, 4089.74358940, 3957.94871733, 4120.12820485,12.0
4072.30769196, 4067.17948677, 4100.38461504, 4014.87179439, 4075.51282017, 4099.48717914, 4099.35897402, 4088.71794837, 4043.71794830, 4082.69230735, 4083.71794837, 4091.15384581, 3929.99999931, 4122.56410229,12.0
4093.46153812, 4086.66666632, 4125.89743562, 4035.12820465, 4104.99999973, 4107.43589716, 4103.97435870, 4101.92307658, 4062.56410215, 4102.05128171, 4112.69230742, 4122.94871767, 3953.46153784, 4127.69230742,12.0
4101.92307658, 4089.74358940, 4134.10256383, 4040.12820472, 4123.58974332, 4109.74358947, 4108.07692280, 4106.92307665, 4071.02564068, 4111.66666639, 4122.43589716, 4130.64102537, 3961.15384553, 4124.61538434,12.0
4106.53846126, 4091.92307658, 4134.61538434, 4028.97435849, 4121.28205101, 4115.76923050, 4116.02564075, 4101.15384581, 4072.17948684, 4113.84615357, 4121.28205101, 4129.48717921, 3960.12820451, 4116.79487152,12.0
4129.99999973, 4110.38461511, 4158.07692287, 4036.92307651, 4134.87179460, 4132.17948691, 4132.82051255, 4114.99999973, 4094.10256376, 4136.41025621, 4147.17948697, 4152.30769210, 3983.33333278, 4122.56410229,12.0
4142.69230749, 4116.66666639, 4165.51282031, 4046.41025600, 4145.76923056, 4131.92307665, 4135.38461518, 4131.53846126, 4111.92307665, 4149.74358954, 4156.02564082, 4159.23076903, 3993.84615329, 4124.35897408,12.0
4149.35897415, 4119.10256383, 4161.41025621, 4048.97435856, 4147.05128185, 4136.79487159, 4152.94871774, 4147.43589723, 4122.30769203, 4154.23076903, 4149.48717928, 4153.33333313, 3990.51281996, 4119.99999973,12.0
4172.56410243, 4136.02564082, 4183.20512807, 4066.41025600, 4167.82051262, 4171.28205115, 4204.74358968, 4173.97435884, 4147.30769210, 4174.23076910, 4168.33333320, 4173.33333320, 4006.41025593, 4122.17948691,12.0
4168.71794858, 4126.28205101, 4182.82051269, 4069.23076882, 4168.20512807, 4165.76923056, 4195.38461525, 4168.84615371, 4142.30769210, 4167.30769210, 4163.20512800, 4167.69230749, 4012.82051234, 4122.17948691,12.0
4135.89743569, 4091.15384581, 4148.20512800, 4044.61538420, 4124.99999973, 4116.66666639, 4125.89743562, 4130.64102537, 4101.41025607, 4131.28205101, 4128.33333306, 4127.30769203, 3996.79487124, 4121.41025614,12.0
4125.51282024, 4078.71794837, 4133.20512793, 4027.82051234, 4099.99999966, 4105.25640998, 4108.97435870, 4114.87179460, 4089.10256376, 4118.33333306, 4119.99999973, 4116.66666639, 3992.82051227, 4119.10256383,12.0
4134.87179460, 4088.58974325, 4139.10256390, 4030.76923029, 4117.56410229, 4126.92307665, 4134.61538434, 4123.97435870, 4103.71794844, 4124.61538434, 4122.56410229, 4126.02564075, 4008.58974311, 4114.87179460,12.0
4133.20512793, 4092.94871761, 4140.25641005, 4036.66666618, 4133.20512793, 4129.74358947, 4133.84615357, 4125.25640998, 4105.38461511, 4127.05128178, 4111.02564075, 4120.76923050, 4024.61538413, 4122.69230742,12.0
4132.17948691, 4093.58974325, 4142.05128185, 4041.66666625, 4132.05128178, 4130.38461511, 4128.33333306, 4123.46153819, 4103.20512793, 4130.64102537, 4116.53846126, 4123.33333306, 4036.15384567, 4127.30769203,12.0
4142.05128185, 4103.71794844, 4150.12820492, 4049.35897395, 4136.15384595, 4138.33333313, 4137.56410236, 4129.61538434, 4109.87179460, 4138.07692287, 4134.48717921, 4137.05128185, 4043.46153805, 4119.61538434,12.0
4147.82051262, 4114.87179460, 4155.38461518, 4056.41025600, 4145.89743569, 4134.61538434, 4141.15384595, 4131.28205101, 4111.02564075, 4144.48717928, 4137.56410236, 4141.02564082, 4048.46153805, 4119.10256383,12.0
4153.58974339, 4120.38461511, 4162.17948697, 4064.23076882, 4151.28205108, 4137.43589723, 4152.69230749, 4142.69230749, 4117.05128178, 4156.28205108, 4140.89743569, 4147.69230749, 4057.30769189, 4123.46153819,12.0
4163.07692287, 4122.69230742, 4172.56410243, 4072.94871761, 4151.15384595, 4147.30769210, 4167.82051262, 4160.38461518, 4132.30769203, 4166.92307672, 4151.41025621, 4158.84615364, 4066.41025600, 4123.20512793,12.0
4157.69230749, 4117.05128178, 4170.38461525, 4070.89743555, 4140.25641005, 4137.05128185, 4154.48717928, 4143.07692287, 4120.25640998, 4158.84615364, 4147.94871774, 4151.53846133, 4064.10256369, 4118.58974332,12.0
4145.64102544, 4106.53846126, 4163.20512800, 4061.41025600, 4126.92307665, 4119.99999973, 4131.41025614, 4121.28205101, 4106.15384588, 4147.17948697, 4137.30769210, 4146.02564082, 4059.74358933, 4118.97435870,12.0
4147.05128185, 4099.35897402, 4166.53846133, 4056.66666625, 4120.76923050, 4117.69230742, 4129.99999973, 4136.53846133, 4118.97435870, 4146.66666646, 4136.15384595, 4157.17948697, 4068.20512779, 4122.82051255,12.0
4151.92307672, 4098.33333299, 4171.79487166, 4058.58974318, 4121.92307665, 4119.35897408, 4136.02564082, 4144.10256390, 4121.79487152, 4147.56410236, 4140.89743569, 4159.99999980, 4082.43589709, 4118.33333306,12.0
4149.61538441, 4102.30769196, 4172.43589730, 4064.35897395, 4124.35897408, 4114.35897408, 4126.66666639, 4120.89743562, 4104.99999973, 4142.05128185, 4140.25641005, 4157.69230749, 4091.92307658, 4120.51282024,12.0
4145.38461518, 4104.99999973, 4168.58974345, 4067.82051241, 4122.56410229, 4114.10256383, 4122.94871767, 4113.46153819, 4100.64102530, 4135.76923056, 4129.74358947, 4152.82051262, 4092.17948684, 4126.66666639,12.0
4145.12820492, 4102.56410229, 4166.41025621, 4067.05128164, 4127.94871767, 4122.17948691, 4134.35897408, 4127.56410229, 4110.38461511, 4137.17948697, 4123.58974332, 4140.89743569, 4090.76923043, 4118.71794844,12.0
4148.84615364, 4103.97435870, 4171.28205115, 4067.94871754, 4136.66666646, 4125.25640998, 4141.15384595, 4132.56410229, 4113.33333306, 4141.41025621, 4129.87179460, 4142.82051262, 4098.33333299, 4116.92307665,12.0
4148.84615364, 4101.41025607, 4170.38461525, 4063.97435856, 4129.48717921, 4116.53846126, 4133.97435870, 4127.82051255, 4107.82051255, 4136.15384595, 4129.99999973, 4151.15384595, 4103.97435870, 4126.15384588,12.0
4145.89743569, 4093.97435863, 4164.48717928, 4057.17948677, 4116.28205101, 4110.64102537, 4131.02564075, 4126.41025614, 4103.97435870, 4126.79487152, 4123.58974332, 4146.92307672, 4101.53846119, 4126.28205101,12.0
4158.20512800, 4106.53846126, 4175.76923063, 4066.53846113, 4130.12820485, 4130.25640998, 4158.20512800, 4145.89743569, 4124.74358947, 4144.10256390, 4140.64102544, 4155.64102544, 4115.89743562, 4120.89743562,12.0
4163.58974339, 4119.48717921, 4178.33333320, 4073.46153812, 4145.64102544, 4143.71794851, 4169.87179474, 4162.05128185, 4144.35897415, 4164.87179467, 4156.66666646, 4165.12820492, 4130.51282024, 4119.99999973,12.0
4135.89743569, 4099.74358940, 4149.10256390, 4056.28205087, 4122.82051255, 4115.25640998, 4128.33333306, 4135.76923056, 4120.38461511, 4143.20512800, 4126.79487152, 4137.17948697, 4110.38461511, 4122.94871767,12.0
4121.53846126, 4090.25640991, 4139.99999980, 4049.74358933, 4107.56410229, 4101.41025607, 4110.51282024, 4113.71794844, 4103.84615357, 4124.87179460, 4106.66666639, 4120.51282024, 4097.17948684, 4120.76923050,12.0
4137.43589723, 4108.71794844, 4159.74358954, 4063.84615343, 4122.94871767, 4121.92307665, 4132.05128178, 4124.99999973, 4120.76923050, 4139.10256390, 4130.64102537, 4137.56410236, 4111.53846126, 4114.35897408,12.0
4141.66666646, 4107.82051255, 4161.15384595, 4063.97435856, 4129.87179460, 4122.56410229, 4126.53846126, 4128.97435870, 4128.07692280, 4144.74358954, 4137.56410236, 4136.53846133, 4115.64102537, 4114.61538434,12.0
4125.38461511, 4087.82051248, 4146.41025621, 4049.23076882, 4119.10256383, 4107.05128178, 4106.66666639, 4117.56410229, 4120.76923050, 4135.38461518, 4116.28205101, 4120.12820485, 4104.23076896, 4118.97435870,12.0
4119.74358947, 4083.58974325, 4140.76923056, 4047.17948677, 4110.38461511, 4110.64102537, 4107.94871767, 4107.69230742, 4114.74358947, 4134.87179460, 4112.69230742, 4124.48717921, 4105.12820485, 4124.99999973,12.0
4130.12820485, 4092.05128171, 4141.28205108, 4057.05128164, 4113.46153819, 4121.53846126, 4119.87179460, 4109.10256383, 4116.92307665, 4138.58974339, 4119.61538434, 4135.51282031, 4113.07692280, 4120.76923050,12.0
4136.41025621, 4095.12820478, 4138.97435877, 4061.15384574, 4121.66666639, 4121.79487152, 4132.94871767, 4127.30769203, 4129.10256383, 4140.25641005, 4116.15384588, 4135.12820485, 4112.17948691, 4117.17948691,12.0
4137.43589723, 4094.10256376, 4137.43589723, 4059.23076882, 4122.43589716, 4120.51282024, 4137.43589723, 4139.48717928, 4134.74358947, 4141.53846133, 4115.12820485, 4135.89743569, 4112.17948691, 4124.23076896,12.0
4139.61538441, 4094.87179453, 4140.38461518, 4060.25640984, 4120.38461511, 4122.05128178, 4132.69230742, 4126.92307665, 4124.99999973, 4134.61538434, 4117.43589716, 4137.82051262, 4111.15384588, 4119.48717921,12.0
4138.46153826, 4094.23076889, 4140.76923056, 4062.43589702, 4122.05128178, 4120.25640998, 4132.43589716, 4113.58974332, 4117.69230742, 4126.66666639, 4113.58974332, 4132.82051255, 4106.41025614, 4114.23076896,12.0
4121.02564075, 4085.64102530, 4125.38461511, 4051.66666625, 4108.97435870, 4106.28205101, 4116.41025614, 4107.30769203, 4106.79487152, 4116.15384588, 4099.48717914, 4119.48717921, 4100.12820478, 4120.64102537,12.0
4108.58974332, 4079.10256376, 4112.43589716, 4041.53846113, 4096.53846119, 4097.69230735, 4099.99999966, 4107.94871767, 4101.28205094, 4111.28205101, 4094.10256376, 4112.43589716, 4100.76923043, 4124.23076896,12.0
4124.10256383, 4089.48717914, 4125.25640998, 4055.51282010, 4108.97435870, 4108.07692280, 4115.76923050, 4123.71794844, 4120.51282024, 4124.23076896, 4110.51282024, 4123.07692280, 4112.30769203, 4122.17948691,12.0
4132.05128178, 4094.35897402, 4132.05128178, 4063.84615343, 4113.71794844, 4110.51282024, 4122.94871767, 4123.71794844, 4124.87179460, 4127.94871767, 4116.92307665, 4125.51282024, 4112.30769203, 4118.58974332,12.0
4123.07692280, 4086.92307658, 4124.35897408, 4057.56410215, 4105.64102537, 4105.12820485, 4111.02564075, 4110.89743562, 4109.35897408, 4120.38461511, 4111.02564075, 4119.35897408, 4105.64102537, 4120.76923050,12.0
4124.48717921, 4089.35897402, 4126.41025614, 4061.28205087, 4112.69230742, 4107.94871767, 4113.33333306, 4115.89743562, 4113.46153819, 4127.94871767, 4113.84615357, 4125.12820485, 4108.97435870, 4121.79487152,12.0
4128.84615357, 4094.99999966, 4129.74358947, 4064.61538420, 4122.05128178, 4109.23076896, 4123.46153819, 4125.38461511, 4131.15384588, 4139.87179467, 4115.25640998, 4130.51282024, 4114.10256383, 4116.53846126,12.0
4130.12820485, 4094.74358940, 4131.53846126, 4061.41025600, 4121.92307665, 4116.41025614, 4131.79487152, 4126.92307665, 4138.84615364, 4144.35897415, 4114.48717921, 4131.79487152, 4117.43589716, 4116.79487152,12.0
4137.56410236, 4095.51282017, 4138.58974339, 4058.97435856, 4119.87179460, 4123.46153819, 4139.61538441, 4128.97435870, 4137.94871774, 4148.84615364, 4121.79487152, 4138.58974339, 4122.05128178, 4122.05128178,12.0
4134.35897408, 4092.05128171, 4136.79487159, 4051.92307651, 4112.43589716, 4110.51282024, 4128.46153819, 4123.07692280, 4131.66666639, 4139.99999980, 4118.33333306, 4137.17948697, 4118.97435870, 4123.58974332,12.0
4118.07692280, 4080.64102530, 4123.71794844, 4041.02564061, 4100.51282017, 4096.66666632, 4104.99999973, 4102.94871767, 4116.28205101, 4120.12820485, 4098.46153812, 4121.79487152, 4109.23076896, 4122.17948691,12.0
4121.15384588, 4082.82051248, 4126.53846126, 4043.33333292, 4104.87179460, 4107.17948691, 4114.35897408, 4103.46153819, 4112.30769203, 4119.23076896, 4096.92307658, 4119.35897408, 4109.74358947, 4120.51282024,12.0
4137.69230749, 4099.61538427, 4142.94871774, 4057.05128164, 4118.84615357, 4118.58974332, 4135.12820485, 4123.58974332, 4124.87179460, 4129.74358947, 4111.53846126, 4132.30769203, 4118.71794844, 4122.69230742,12.0
4127.56410229, 4091.79487145, 4136.53846133, 4053.84615343, 4108.07692280, 4104.23076896, 4111.66666639, 4114.23076896, 4119.74358947, 4119.35897408, 4103.20512793, 4125.25640998, 4111.79487152, 4118.84615357,12.0
4110.25640998, 4073.71794837, 4121.92307665, 4043.46153805, 4092.69230735, 4090.76923043, 4084.74358940, 4096.41025607, 4102.17948684, 4102.30769196, 4088.33333299, 4110.25640998, 4099.35897402, 4115.51282024,12.0
4120.89743562, 4086.79487145, 4132.94871767, 4053.20512779, 4105.76923050, 4101.41025607, 4106.02564075, 4114.87179460, 4115.12820485, 4112.30769203, 4099.74358940, 4122.69230742, 4110.25640998, 4119.23076896,12.0
4126.66666639, 4098.33333299, 4138.46153826, 4064.23076882, 4117.82051255, 4109.87179460, 4121.02564075, 4123.84615357, 4131.53846126, 4127.43589716, 4111.79487152, 4128.58974332, 4118.97435870, 4114.87179460,12.0
4106.28205101, 4077.69230735, 4115.64102537, 4052.94871754, 4100.12820478, 4096.41025607, 4096.53846119, 4092.43589709, 4113.07692280, 4114.87179460, 4099.74358940, 4105.89743562, 4105.12820485, 4116.02564075,12.0
4093.97435863, 4064.61538420, 4105.12820485, 4038.46153805, 4083.97435863, 4088.20512786, 4088.33333299, 4079.23076889, 4100.25640991, 4103.07692280, 4091.15384581, 4094.74358940, 4096.28205094, 4124.10256383,12.0
4095.38461504, 4070.25640991, 4107.94871767, 4035.25640977, 4088.07692273, 4094.35897402, 4097.69230735, 4096.41025607, 4108.33333306, 4107.56410229, 4085.38461504, 4099.74358940, 4096.66666632, 4122.82051255,12.0
4090.12820478, 4068.46153805, 4099.99999966, 4035.51282003, 4089.48717914, 4089.23076889, 4092.56410222, 4101.92307658, 4107.17948691, 4104.87179460, 4071.66666632, 4096.41025607, 4091.66666632, 4122.94871767,12.0
4092.17948684, 4071.02564068, 4101.66666632, 4040.12820472, 4090.76923043, 4091.28205094, 4103.58974332, 4103.58974332, 4104.87179460, 4103.33333306, 4079.48717914, 4098.84615350, 4093.07692273, 4122.43589716,12.0
4096.92307658, 4076.66666632, 4105.76923050, 4041.79487138, 4092.43589709, 4105.12820485, 4118.97435870, 4106.66666639, 4107.17948691, 4106.02564075, 4089.99999966, 4101.79487145, 4097.17948684, 4116.66666639,12.0
4083.71794837, 4068.58974318, 4092.43589709, 4032.94871747, 4083.58974325, 4098.33333299, 4102.17948684, 4098.84615350, 4100.89743555, 4094.87179453, 4073.84615350, 4086.53846119, 4091.15384581, 4117.69230742,12.0
4084.23076889, 4071.41025607, 4094.99999966, 4038.07692266, 4084.48717914, 4091.41025607, 4099.10256376, 4103.71794844, 4111.15384588, 4094.99999966, 4074.87179453, 4088.58974325, 4093.58974325, 4124.48717921,12.0
4102.17948684, 4086.02564068, 4114.23076896, 4050.89743548, 4092.43589709, 4098.33333299, 4114.87179460, 4115.51282024, 4127.94871767, 4109.10256383, 4096.92307658, 4109.23076896, 4101.02564068, 4124.48717921,12.0
4106.41025614, 4087.30769196, 4119.23076896, 4046.28205087, 4088.58974325, 4097.56410222, 4106.41025614, 4104.48717921, 4116.66666639, 4104.10256383, 4100.12820478, 4112.30769203, 4099.74358940, 4117.69230742,12.0
4113.33333306, 4092.82051248, 4127.82051255, 4048.97435856, 4094.99999966, 4100.51282017, 4108.97435870, 4108.46153819, 4119.74358947, 4109.48717921, 4107.30769203, 4121.28205101, 4110.89743562, 4118.07692280,12.0
4122.43589716, 4101.92307658, 4140.64102544, 4061.92307651, 4108.97435870, 4108.46153819, 4127.56410229, 4131.41025614, 4145.76923056, 4130.64102537, 4122.56410229, 4136.02564082, 4125.76923050, 4122.56410229,12.0
4114.61538434, 4092.82051248, 4133.33333306, 4054.74358933, 4098.46153812, 4100.76923043, 4118.84615357, 4119.35897408, 4138.46153826, 4122.69230742, 4110.38461511, 4123.71794844, 4116.15384588, 4120.89743562,12.0
4106.92307665, 4083.97435863, 4119.10256383, 4044.61538420, 4091.15384581, 4098.97435863, 4111.15384588, 4094.61538427, 4113.07692280, 4106.92307665, 4093.97435863, 4105.51282024, 4102.56410229, 4122.69230742,12.0
4103.58974332, 4085.64102530, 4109.48717921, 4046.41025600, 4104.74358947, 4108.07692280, 4121.41025614, 4104.87179460, 4119.35897408, 4115.25640998, 4098.58974325, 4103.84615357, 4101.28205094, 4123.46153819,12.0
4092.94871761, 4083.71794837, 4101.02564068, 4043.97435856, 4105.51282024, 4098.07692273, 4114.35897408, 4118.20512793, 4131.66666639, 4120.25640998, 4096.41025607, 4098.97435863, 4097.30769196, 4121.02564075,12.0
4082.69230735, 4078.20512786, 4092.56410222, 4034.74358926, 4097.56410222, 4088.07692273, 4103.58974332, 4107.17948691, 4121.02564075, 4106.53846126, 4080.89743555, 4089.74358940, 4092.94871761, 4118.71794844,12.0
4075.76923043, 4069.48717907, 4079.10256376, 4023.97435849, 4093.71794837, 4095.25640991, 4103.58974332, 4092.94871761, 4105.25640998, 4092.69230735, 4068.84615343, 4082.94871761, 4085.76923043, 4114.74358947,12.0
4072.82051248, 4066.41025600, 4074.61538427, 4020.38461490, 4091.92307658, 4099.87179453, 4095.25640991, 4089.61538427, 4100.38461504, 4089.74358940, 4063.07692266, 4080.12820478, 4076.79487145, 4120.12820485,12.0
4083.46153812, 4077.82051248, 4091.15384581, 4032.82051234, 4098.20512786, 4100.51282017, 4095.12820478, 4098.97435863, 4112.94871767, 4100.38461504, 4071.02564068, 4092.56410222, 4083.97435863, 4125.25640998,12.0
4093.71794837, 4085.64102530, 4107.30769203, 4044.87179446, 4102.17948684, 4101.15384581, 4103.20512793, 4107.82051255, 4124.61538434, 4110.51282024, 4088.97435863, 4109.87179460, 4100.64102530, 4121.28205101,12.0
4097.17948684, 4087.30769196, 4114.10256383, 4050.89743548, 4097.82051248, 4098.46153812, 4095.12820478, 4099.23076889, 4119.61538434, 4106.66666639, 4100.38461504, 4119.99999973, 4107.94871767, 4120.76923050,12.0
4106.66666639, 4095.25640991, 4122.43589716, 4059.87179446, 4098.97435863, 4100.89743555, 4095.38461504, 4098.84615350, 4120.12820485, 4108.58974332, 4105.89743562, 4127.69230742, 4111.15384588, 4122.94871767,12.0
4115.12820485, 4101.66666632, 4132.30769203, 4068.58974318, 4107.94871767, 4109.74358947, 4115.89743562, 4117.82051255, 4139.48717928, 4125.25640998, 4118.58974332, 4134.35897408, 4120.76923050, 4123.46153819,12.0
4123.07692280, 4109.48717921, 4144.61538441, 4077.30769196, 4123.71794844, 4120.51282024, 4134.48717921, 4132.94871767, 4158.71794851, 4142.94871774, 4140.89743569, 4147.17948697, 4131.53846126, 4119.23076896,12.0
4127.82051255, 4117.17948691, 4147.05128185, 4081.53846119, 4134.48717921, 4127.05128178, 4133.46153819, 4126.41025614, 4153.71794851, 4145.25641005, 4142.94871774, 4150.76923056, 4128.07692280, 4114.99999973,12.0
4129.61538434, 4121.28205101, 4142.05128185, 4084.87179453, 4134.48717921, 4124.23076896, 4124.10256383, 4121.28205101, 4149.10256390, 4142.56410236, 4133.33333306, 4144.87179467, 4123.84615357, 4119.87179460,12.0
4137.56410236, 4128.33333306, 4148.97435877, 4091.15384581, 4135.64102544, 4125.89743562, 4128.71794844, 4130.76923050, 4167.94871774, 4153.97435877, 4142.69230749, 4149.23076903, 4133.58974332, 4121.41025614,12.0
4140.76923056, 4128.84615357, 4149.48717928, 4087.30769196, 4139.48717928, 4135.76923056, 4138.97435877, 4128.58974332, 4169.48717935, 4157.30769210, 4144.87179467, 4148.46153826, 4133.84615357, 4120.51282024,12.0
4137.05128185, 4120.76923050, 4134.35897408, 4078.46153812, 4144.74358954, 4138.97435877, 4138.33333313, 4123.97435870, 4152.43589723, 4147.43589723, 4125.25640998, 4133.20512793, 4121.92307665, 4122.30769203,12.0
4147.17948697, 4126.66666639, 4138.71794851, 4087.82051248, 4159.23076903, 4143.07692287, 4145.76923056, 4136.53846133, 4166.92307672, 4155.64102544, 4123.97435870, 4135.38461518, 4130.12820485, 4118.07692280,12.0
4167.69230749, 4141.79487159, 4160.76923056, 4106.02564075, 4173.97435884, 4157.05128185, 4165.51282031, 4150.76923056, 4193.97435884, 4175.51282038, 4143.33333313, 4156.15384595, 4149.99999980, 4117.69230742,12.0
4169.87179474, 4139.10256390, 4161.66666646, 4104.99999973, 4174.10256397, 4162.05128185, 4170.89743576, 4152.30769210, 4190.12820499, 4174.35897422, 4143.58974339, 4156.28205108, 4144.35897415, 4122.43589716,12.0
4167.82051262, 4133.84615357, 4158.33333313, 4101.92307658, 4166.92307672, 4154.87179467, 4168.20512807, 4156.66666646, 4183.58974345, 4167.30769210, 4133.58974332, 4149.23076903, 4132.56410229, 4123.97435870,12.0
4173.97435884, 4137.69230749, 4165.38461518, 4105.76923050, 4158.07692287, 4152.05128185, 4171.79487166, 4162.17948697, 4191.41025628, 4171.28205115, 4133.97435870, 4154.87179467, 4137.17948697, 4122.17948691,12.0
4174.10256397, 4135.51282031, 4166.41025621, 4102.17948684, 4152.69230749, 4154.87179467, 4170.12820499, 4157.17948697, 4191.92307679, 4173.33333320, 4138.33333313, 4154.10256390, 4141.15384595, 4118.58974332,12.0
4184.74358961, 4140.12820492, 4177.17948704, 4107.17948691, 4162.43589723, 4159.35897415, 4172.17948704, 4162.94871774, 4198.97435884, 4182.30769217, 4154.35897415, 4161.02564082, 4149.35897415, 4120.12820485,12.0
4198.97435884, 4151.15384595, 4190.64102551, 4118.20512793, 4171.02564089, 4158.46153826, 4173.58974345, 4167.05128185, 4206.02564096, 4192.17948704, 4165.89743569, 4174.61538448, 4157.30769210, 4120.64102537,12.0
4188.84615371, 4143.46153826, 4180.89743576, 4114.61538434, 4159.87179467, 4143.58974339, 4148.84615364, 4148.46153826, 4186.28205115, 4175.76923063, 4151.28205108, 4166.41025621, 4147.30769210, 4118.71794844,12.0
4176.28205115, 4130.89743562, 4170.51282038, 4106.66666639, 4145.25641005, 4131.28205101, 4126.53846126, 4130.51282024, 4161.41025621, 4156.53846133, 4134.23076896, 4151.15384595, 4138.07692287, 4118.84615357,12.0
4188.33333320, 4141.66666646, 4181.66666653, 4115.76923050, 4153.58974339, 4140.76923056, 4143.97435877, 4137.05128185, 4166.92307672, 4164.99999980, 4143.46153826, 4159.10256390, 4145.38461518, 4119.10256383,12.0
4193.46153833, 4151.92307672, 4186.28205115, 4124.99999973, 4167.43589723, 4152.17948697, 4163.07692287, 4148.07692287, 4184.87179474, 4173.71794858, 4151.02564082, 4167.17948697, 4148.20512800, 4122.82051255,12.0
4177.69230756, 4143.46153826, 4175.64102551, 4118.71794844, 4166.28205108, 4151.15384595, 4158.71794851, 4149.61538441, 4185.38461525, 4164.35897415, 4136.66666646, 4155.12820492, 4141.15384595, 4122.43589716,12.0
4174.35897422, 4143.46153826, 4178.84615371, 4117.94871767, 4169.61538448, 4153.58974339, 4162.82051262, 4156.15384595, 4184.74358961, 4167.43589723, 4136.41025621, 4153.07692287, 4140.12820492, 4117.82051255,12.0
4186.28205115, 4155.38461518, 4191.02564089, 4128.58974332, 4177.94871781, 4163.20512800, 4182.17948704, 4160.38461518, 4190.76923063, 4178.07692294, 4151.02564082, 4166.79487159, 4145.25641005, 4122.69230742,12.0
4189.10256397, 4155.76923056, 4188.58974345, 4131.66666639, 4176.41025628, 4162.69230749, 4184.61538448, 4156.53846133, 4193.33333320, 4175.64102551, 4151.15384595, 4168.84615371, 4145.76923056, 4121.28205101,12.0
4182.56410243, 4149.74358954, 4178.07692294, 4125.51282024, 4171.53846140, 4154.48717928, 4167.30769210, 4157.30769210, 4201.15384609, 4181.92307679, 4147.17948697, 4162.56410236, 4147.30769210, 4115.89743562,12.0
4176.28205115, 4144.23076903, 4171.41025628, 4119.23076896, 4163.20512800, 4149.10256390, 4152.05128185, 4154.74358954, 4203.84615378, 4188.33333320, 4151.15384595, 4161.53846133, 4148.20512800, 4119.48717921,12.0
4167.94871774, 4132.17948691, 4162.94871774, 4113.46153819, 4149.74358954, 4143.33333313, 4145.89743569, 4140.38461518, 4183.20512807, 4169.61538448, 4144.48717928, 4151.66666646, 4138.07692287, 4121.53846126,12.0
4161.92307672, 4125.76923050, 4156.92307672, 4110.38461511, 4145.12820492, 4141.02564082, 4144.35897415, 4134.23076896, 4168.07692287, 4156.02564082, 4132.94871767, 4140.51282031, 4132.56410229, 4120.89743562,12.0
4157.94871774, 4126.92307665, 4151.02564082, 4104.10256383, 4142.30769210, 4134.48717921, 4134.99999973, 4137.05128185, 4173.58974345, 4161.15384595, 4129.23076896, 4137.43589723, 4131.79487152, 4119.10256383,12.0
4148.07692287, 4121.28205101, 4141.92307672, 4096.66666632, 4133.33333306, 4126.02564075, 4126.53846126, 4130.64102537, 4171.41025628, 4157.69230749, 4124.99999973, 4130.64102537, 4124.87179460, 4118.07692280,12.0
4144.99999980, 4119.10256383, 4143.71794851, 4100.38461504, 4134.61538434, 4132.56410229, 4138.97435877, 4129.99999973, 4165.51282031, 4153.84615364, 4125.76923050, 4132.05128178, 4128.46153819, 4121.02564075,12.0
4147.82051262, 4127.05128178, 4147.94871774, 4104.35897408, 4141.41025621, 4141.66666646, 4153.71794851, 4145.12820492, 4173.84615371, 4164.23076903, 4131.02564075, 4141.41025621, 4139.87179467, 4122.17948691,12.0
4150.38461518, 4136.41025621, 4146.66666646, 4108.71794844, 4147.30769210, 4140.89743569, 4156.02564082, 4154.23076903, 4184.99999986, 4168.20512807, 4132.82051255, 4145.12820492, 4140.38461518, 4120.64102537,12.0
4158.84615364, 4144.74358954, 4152.94871774, 4122.82051255, 4162.82051262, 4151.02564082, 4163.20512800, 4152.94871774, 4187.82051269, 4169.61538448, 4138.46153826, 4150.76923056, 4140.89743569, 4118.46153819,12.0
4158.84615364, 4144.74358954, 4152.94871774, 4122.82051255, 4162.82051262, 4151.02564082, 4163.20512800, 4152.94871774, 4187.82051269, 4169.61538448, 4138.46153826, 4150.76923056, 4140.89743569, 4118.46153819,12.0
4161.41025621, 4141.92307672, 4155.89743569, 4122.56410229, 4167.43589723, 4157.69230749, 4159.87179467, 4144.48717928, 4179.74358961, 4172.56410243, 4138.84615364, 4155.51282031, 4142.82051262, 4120.51282024,12.0
4151.53846133, 4135.76923056, 4145.89743569, 4107.43589716, 4157.17948697, 4140.76923056, 4138.07692287, 4131.41025614, 4168.20512807, 4164.87179467, 4129.74358947, 4146.92307672, 4138.71794851, 4122.30769203,12.0
4146.02564082, 4139.99999980, 4141.15384595, 4108.58974332, 4157.94871774, 4134.35897408, 4133.71794844, 4132.43589716, 4169.23076910, 4156.66666646, 4123.97435870, 4140.25641005, 4137.17948697, 4114.99999973,12.0
4147.43589723, 4140.51282031, 4144.61538441, 4115.12820485, 4157.94871774, 4138.71794851, 4135.76923056, 4137.43589723, 4174.35897422, 4155.25641005, 4122.17948691, 4144.23076903, 4135.12820485, 4115.25640998,12.0
4145.64102544, 4131.41025614, 4144.35897415, 4109.61538434, 4149.61538441, 4129.35897408, 4124.10256383, 4126.15384588, 4162.69230749, 4153.07692287, 4118.20512793, 4141.41025621, 4128.33333306, 4123.58974332,12.0
4146.53846133, 4132.69230742, 4149.23076903, 4111.66666639, 4150.25641005, 4124.61538434, 4128.71794844, 4116.79487152, 4148.46153826, 4149.61538441, 4116.41025614, 4141.28205108, 4125.51282024, 4122.30769203,12.0
4156.28205108, 4144.74358954, 4160.25641005, 4124.35897408, 4154.87179467, 4139.35897415, 4153.33333313, 4134.61538434, 4160.76923056, 4156.92307672, 4127.82051255, 4154.10256390, 4133.33333306, 4119.48717921,12.0
4163.71794851, 4147.30769210, 4163.33333313, 4125.38461511, 4153.97435877, 4153.71794851, 4168.33333320, 4159.74358954, 4185.89743576, 4170.64102551, 4141.53846133, 4159.74358954, 4143.20512800, 4122.43589716,12.0
4166.15384595, 4144.48717928, 4163.20512800, 4117.05128178, 4155.89743569, 4157.17948697, 4174.99999986, 4162.30769210, 4187.17948704, 4172.94871781, 4142.94871774, 4157.17948697, 4147.43589723, 4122.43589716,12.0
4161.02564082, 4141.41025621, 4156.15384595, 4110.38461511, 4154.87179467, 4150.89743569, 4169.23076910, 4150.64102544, 4172.43589730, 4160.89743569, 4132.56410229, 4154.23076903, 4145.12820492, 4120.12820485,12.0
4151.15384595, 4137.82051262, 4143.07692287, 4106.41025614, 4146.79487159, 4142.30769210, 4152.69230749, 4144.99999980, 4168.33333320, 4152.43589723, 4123.58974332, 4145.12820492, 4139.74358954, 4120.12820485,12.0
4140.12820492, 4133.07692280, 4136.66666646, 4102.43589709, 4140.38461518, 4139.35897415, 4143.20512800, 4136.53846133, 4161.53846133, 4148.58974339, 4118.97435870, 4133.07692280, 4133.71794844, 4120.76923050,12.0
4132.05128178, 4126.02564075, 4134.61538434, 4098.97435863, 4136.41025621, 4133.71794844, 4131.92307665, 4124.10256383, 4151.02564082, 4138.46153826, 4113.33333306, 4130.12820485, 4127.56410229, 4121.02564075,12.0
4134.74358947, 4126.15384588, 4136.28205108, 4104.10256383, 4135.51282031, 4132.05128178, 4121.53846126, 4126.28205101, 4157.30769210, 4142.05128185, 4113.84615357, 4135.76923056, 4132.82051255, 4120.25640998,12.0
4140.12820492, 4128.71794844, 4141.41025621, 4108.33333306, 4138.20512800, 4136.15384595, 4128.33333306, 4132.56410229, 4163.07692287, 4152.56410236, 4116.28205101, 4138.71794851, 4139.48717928, 4118.84615357,12.0
4139.35897415, 4125.89743562, 4144.23076903, 4102.05128171, 4134.23076896, 4131.66666639, 4136.28205108, 4123.20512793, 4150.25641005, 4142.94871774, 4116.15384588, 4136.53846133, 4135.76923056, 4120.12820485,12.0
4141.28205108, 4126.02564075, 4146.92307672, 4100.25640991, 4132.17948691, 4132.69230742, 4137.82051262, 4124.10256383, 4149.87179467, 4139.87179467, 4124.48717921, 4142.56410236, 4140.12820492, 4119.35897408,12.0
4157.05128185, 4138.71794851, 4162.43589723, 4113.07692280, 4147.43589723, 4148.07692287, 4153.20512800, 4150.76923056, 4178.97435884, 4167.30769210, 4147.17948697, 4162.43589723, 4157.05128185, 4116.79487152,12.0
4169.61538448, 4147.17948697, 4177.17948704, 4122.69230742, 4155.76923056, 4148.84615364, 4162.43589723, 4162.17948697, 4192.05128192, 4182.69230756, 4160.25641005, 4173.20512807, 4161.92307672, 4122.94871767,12.0
4162.05128185, 4140.76923056, 4169.35897422, 4116.15384588, 4142.30769210, 4134.99999973, 4146.15384595, 4140.64102544, 4169.35897422, 4168.07692287, 4148.33333313, 4166.79487159, 4154.74358954, 4125.51282024,12.0
4155.38461518, 4138.33333313, 4157.30769210, 4110.38461511, 4136.53846133, 4135.25640998, 4137.56410236, 4121.53846126, 4151.92307672, 4158.33333313, 4139.74358954, 4164.23076903, 4153.97435877, 4118.58974332,12.0
4155.76923056, 4139.74358954, 4156.79487159, 4112.82051255, 4145.51282031, 4141.02564082, 4143.71794851, 4124.61538434, 4157.05128185, 4157.30769210, 4145.12820492, 4164.99999980, 4154.23076903, 4116.41025614,12.0
4144.23076903, 4132.30769203, 4150.76923056, 4109.99999973, 4141.53846133, 4131.79487152, 4133.97435870, 4130.89743562, 4157.30769210, 4148.97435877, 4138.97435877, 4152.56410236, 4145.64102544, 4117.30769203,12.0
4125.25640998, 4123.58974332, 4135.38461518, 4099.35897402, 4124.87179460, 4115.38461511, 4110.51282024, 4116.92307665, 4141.92307672, 4134.35897408, 4118.58974332, 4135.76923056, 4134.48717921, 4122.30769203,12.0
4118.84615357, 4123.07692280, 4127.82051255, 4093.71794837, 4117.82051255, 4116.41025614, 4106.53846126, 4105.38461511, 4132.43589716, 4129.48717921, 4111.92307665, 4131.66666639, 4133.33333306, 4125.51282024,12.0
4125.12820485, 4123.84615357, 4128.58974332, 4094.10256376, 4122.69230742, 4125.51282024, 4120.25640998, 4116.28205101, 4137.69230749, 4138.84615364, 4119.48717921, 4133.07692280, 4137.69230749, 4116.15384588,12.0
4131.02564075, 4126.66666639, 4129.99999973, 4096.66666632, 4130.12820485, 4123.84615357, 4127.43589716, 4124.87179460, 4140.89743569, 4141.92307672, 4119.74358947, 4131.92307665, 4135.51282031, 4116.66666639,12.0
4131.15384588, 4132.69230742, 4132.43589716, 4099.61538427, 4134.87179460, 4126.79487152, 4129.87179460, 4123.84615357, 4140.51282031, 4135.89743569, 4115.25640998, 4129.87179460, 4130.64102537, 4120.25640998,12.0
4130.64102537, 4132.82051255, 4132.05128178, 4101.02564068, 4139.48717928, 4139.23076903, 4137.69230749, 4135.12820485, 4149.87179467, 4143.58974339, 4124.61538434, 4134.87179460, 4136.02564082, 4108.84615357,12.0
4133.71794844, 4130.51282024, 4130.76923050, 4102.05128171, 4143.07692287, 4140.51282031, 4142.69230749, 4137.94871774, 4152.17948697, 4152.94871774, 4129.99999973, 4141.92307672, 4142.56410236, 4114.48717921,12.0
4132.43589716, 4129.99999973, 4133.97435870, 4099.48717914, 4139.23076903, 4132.30769203, 4139.10256390, 4122.17948691, 4141.15384595, 4144.74358954, 4115.51282024, 4138.07692287, 4135.38461518, 4123.46153819,12.0
4125.76923050, 4125.51282024, 4138.33333313, 4097.56410222, 4133.20512793, 4129.23076896, 4132.17948691, 4117.82051255, 4137.05128185, 4137.30769210, 4111.02564075, 4134.48717921, 4131.02564075, 4116.02564075,12.0
4119.10256383, 4117.82051255, 4132.30769203, 4091.53846119, 4124.35897408, 4123.07692280, 4120.76923050, 4115.89743562, 4131.41025614, 4135.25640998, 4114.99999973, 4132.30769203, 4133.58974332, 4117.94871767,12.0
4111.92307665, 4111.92307665, 4120.76923050, 4083.07692273, 4108.84615357, 4116.41025614, 4117.56410229, 4110.64102537, 4119.87179460, 4126.02564075, 4105.25640998, 4126.92307665, 4129.74358947, 4128.07692280,12.0
4109.74358947, 4111.53846126, 4122.30769203, 4089.35897402, 4105.25640998, 4119.10256383, 4126.53846126, 4117.82051255, 4118.84615357, 4116.79487152, 4100.38461504, 4130.25640998, 4129.10256383, 4127.56410229,12.0
4119.10256383, 4121.53846126, 4135.12820485, 4100.64102530, 4122.94871767, 4127.05128178, 4137.56410236, 4121.53846126, 4124.74358947, 4121.02564075, 4114.23076896, 4141.41025621, 4137.56410236, 4117.69230742,12.0
4124.74358947, 4126.53846126, 4136.41025621, 4098.20512786, 4134.48717921, 4132.17948691, 4137.94871774, 4112.43589716, 4121.79487152, 4126.15384588, 4118.33333306, 4140.76923056, 4138.46153826, 4121.15384588,12.0
4107.43589716, 4112.43589716, 4119.10256383, 4085.38461504, 4122.05128178, 4122.94871767, 4118.84615357, 4101.53846119, 4109.10256383, 4112.69230742, 4099.23076889, 4121.53846126, 4126.15384588, 4124.10256383,12.0
4094.99999966, 4104.99999973, 4112.82051255, 4081.41025607, 4110.25640998, 4112.05128178, 4108.07692280, 4104.61538434, 4105.64102537, 4102.30769196, 4090.12820478, 4113.46153819, 4120.38461511, 4113.58974332,12.0
4105.12820485, 4114.10256383, 4124.48717921, 4085.76923043, 4114.23076896, 4114.10256383, 4121.53846126, 4118.97435870, 4121.02564075, 4115.12820485, 4098.20512786, 4128.33333306, 4126.15384588, 4116.53846126,12.0
4109.10256383, 4117.82051255, 4126.79487152, 4086.92307658, 4121.92307665, 4123.71794844, 4135.76923056, 4120.64102537, 4128.07692280, 4123.33333306, 4102.17948684, 4134.48717921, 4127.30769203, 4122.30769203,12.0
4104.10256383, 4116.66666639, 4122.82051255, 4089.87179453, 4126.28205101, 4127.69230742, 4138.58974339, 4112.94871767, 4120.12820485, 4118.58974332, 4103.46153819, 4125.25640998, 4126.15384588, 4121.66666639,12.0
4105.89743562, 4117.05128178, 4120.38461511, 4090.12820478, 4121.66666639, 4123.20512793, 4131.92307665, 4121.02564075, 4122.17948691, 4122.56410229, 4105.89743562, 4122.30769203, 4131.02564075, 4121.02564075,12.0
4098.07692273, 4107.56410229, 4106.66666639, 4077.82051248, 4112.05128178, 4116.41025614, 4119.23076896, 4126.53846126, 4123.84615357, 4122.05128178, 4098.84615350, 4118.71794844, 4126.28205101, 4113.71794844,12.0
4082.69230735, 4099.99999966, 4092.69230735, 4068.20512779, 4106.66666639, 4110.25640998, 4106.41025614, 4105.25640998, 4104.23076896, 4104.48717921, 4085.25640991, 4109.10256383, 4114.74358947, 4112.43589716,12.0
4082.17948684, 4103.33333306, 4092.43589709, 4069.74358940, 4104.10256383, 4106.53846126, 4098.71794837, 4088.33333299, 4092.69230735, 4094.87179453, 4082.56410222, 4106.79487152, 4111.28205101, 4119.87179460,12.0
4082.17948684, 4096.79487145, 4089.99999966, 4067.05128164, 4098.07692273, 4101.15384581, 4088.97435863, 4090.51282017, 4098.97435863, 4095.12820478, 4079.99999966, 4101.28205094, 4111.02564075, 4123.97435870,12.0
4084.61538427, 4094.61538427, 4093.20512786, 4068.07692266, 4098.20512786, 4103.84615357, 4094.74358940, 4095.51282017, 4105.89743562, 4101.79487145, 4083.46153812, 4101.66666632, 4118.58974332, 4119.74358947,12.0
4098.58974325, 4107.17948691, 4104.23076896, 4076.02564068, 4107.82051255, 4116.79487152, 4118.07692280, 4102.82051255, 4113.84615357, 4116.28205101, 4097.82051248, 4114.87179460, 4129.87179460, 4113.97435870,12.0
4105.89743562, 4115.64102537, 4104.74358947, 4078.71794837, 4114.87179460, 4122.56410229, 4126.66666639, 4116.92307665, 4122.94871767, 4124.35897408, 4103.84615357, 4119.74358947, 4132.56410229, 4118.84615357,12.0
4101.53846119, 4114.23076896, 4101.02564068, 4077.56410222, 4115.25640998, 4117.43589716, 4117.56410229, 4122.82051255, 4125.38461511, 4121.79487152, 4102.17948684, 4118.33333306, 4131.41025614, 4122.43589716,12.0
4106.02564075, 4121.79487152, 4110.89743562, 4084.74358940, 4120.25640998, 4124.74358947, 4126.41025614, 4123.97435870, 4131.79487152, 4125.38461511, 4108.97435870, 4129.35897408, 4135.89743569, 4118.33333306,12.0
4124.48717921, 4140.51282031, 4132.30769203, 4103.58974332, 4134.74358947, 4146.02564082, 4155.25641005, 4143.97435877, 4150.76923056, 4145.38461518, 4123.97435870, 4148.33333313, 4147.17948697, 4120.25640998,12.0
4137.05128185, 4144.48717928, 4141.02564082, 4113.71794844, 4144.10256390, 4147.56410236, 4158.46153826, 4156.92307672, 4159.74358954, 4158.46153826, 4133.20512793, 4155.76923056, 4155.12820492, 4122.56410229,12.0
4143.97435877, 4143.84615364, 4141.79487159, 4116.92307665, 4148.97435877, 4139.10256390, 4139.23076903, 4141.79487159, 4156.41025621, 4158.84615364, 4141.02564082, 4158.07692287, 4159.61538441, 4120.38461511,12.0
4152.56410236, 4151.53846133, 4152.43589723, 4125.38461511, 4148.07692287, 4144.99999980, 4142.56410236, 4129.99999973, 4154.48717928, 4160.64102544, 4147.43589723, 4161.66666646, 4161.79487159, 4122.05128178,12.0
4153.46153826, 4151.02564082, 4157.56410236, 4128.84615357, 4143.97435877, 4152.17948697, 4157.82051262, 4143.84615364, 4157.17948697, 4163.97435877, 4147.56410236, 4159.10256390, 4158.84615364, 4122.17948691,12.0
4156.79487159, 4151.66666646, 4158.20512800, 4134.87179460, 4157.43589723, 4148.71794851, 4157.56410236, 4153.07692287, 4165.76923056, 4167.30769210, 4156.41025621, 4166.41025621, 4161.66666646, 4119.48717921,12.0
4171.92307679, 4163.58974339, 4167.94871774, 4147.56410236, 4179.10256397, 4153.07692287, 4156.02564082, 4142.43589723, 4166.92307672, 4173.71794858, 4169.35897422, 4184.87179474, 4172.43589730, 4117.17948691,12.0
4177.17948704, 4166.92307672, 4170.51282038, 4149.87179467, 4179.48717935, 4165.25641005, 4164.87179467, 4140.12820492, 4162.82051262, 4178.84615371, 4168.71794858, 4185.89743576, 4174.10256397, 4117.69230742,12.0
4169.48717935, 4160.89743569, 4163.07692287, 4147.17948697, 4171.28205115, 4160.12820492, 4164.87179467, 4153.46153826, 4167.56410236, 4174.61538448, 4161.92307672, 4174.74358961, 4169.23076910, 4121.15384588,12.0
4170.12820499, 4164.74358954, 4167.56410236, 4154.48717928, 4175.76923063, 4151.41025621, 4159.61538441, 4160.76923056, 4175.12820499, 4173.33333320, 4168.46153833, 4176.66666653, 4175.38461525, 4121.79487152,12.0
4164.10256390, 4160.12820492, 4165.12820492, 4149.87179467, 4165.51282031, 4152.30769210, 4156.28205108, 4147.82051262, 4165.25641005, 4172.05128192, 4163.07692287, 4169.99999986, 4173.58974345, 4119.99999973,12.0
4152.30769210, 4148.58974339, 4148.71794851, 4136.41025621, 4151.28205108, 4150.12820492, 4152.56410236, 4138.58974339, 4154.23076903, 4164.74358954, 4144.87179467, 4155.64102544, 4161.41025621, 4116.15384588,12.0
4152.30769210, 4147.94871774, 4143.71794851, 4136.53846133, 4154.87179467, 4142.56410236, 4146.66666646, 4137.43589723, 4153.46153826, 4159.74358954, 4140.64102544, 4156.28205108, 4159.23076903, 4118.71794844,12.0
4154.10256390, 4150.25641005, 4146.92307672, 4142.17948697, 4155.25641005, 4146.28205108, 4145.89743569, 4137.43589723, 4151.53846133, 4156.66666646, 4143.97435877, 4159.23076903, 4161.41025621, 4124.48717921,12.0
4150.51282031, 4147.94871774, 4147.43589723, 4141.02564082, 4150.89743569, 4156.79487159, 4154.23076903, 4142.05128185, 4151.66666646, 4154.87179467, 4146.41025621, 4154.61538441, 4160.25641005, 4118.20512793,12.0
4155.64102544, 4151.92307672, 4156.02564082, 4142.30769210, 4160.12820492, 4154.61538441, 4157.05128185, 4143.58974339, 4154.61538441, 4158.71794851, 4155.64102544, 4162.69230749, 4167.94871774, 4117.17948691,12.0
4166.92307672, 4162.05128185, 4171.53846140, 4152.05128185, 4167.05128185, 4148.46153826, 4152.43589723, 4142.56410236, 4156.28205108, 4169.74358961, 4172.82051269, 4179.10256397, 4179.48717935, 4122.82051255,12.0
4164.99999980, 4163.84615364, 4173.71794858, 4153.46153826, 4153.71794851, 4151.02564082, 4149.74358954, 4142.43589723, 4154.10256390, 4169.74358961, 4178.58974345, 4177.05128192, 4176.92307679, 4119.10256383,12.0
4154.23076903, 4155.12820492, 4160.51282031, 4143.58974339, 4146.41025621, 4149.23076903, 4141.66666646, 4136.53846133, 4144.35897415, 4155.76923056, 4165.38461518, 4161.66666646, 4168.97435884, 4118.33333306,12.0
4149.61538441, 4152.30769210, 4153.58974339, 4139.35897415, 4154.23076903, 4139.87179467, 4131.41025614, 4129.48717921, 4134.87179460, 4149.87179467, 4152.94871774, 4153.58974339, 4166.66666646, 4122.30769203,12.0
4157.05128185, 4162.30769210, 4164.87179467, 4151.92307672, 4160.12820492, 4141.66666646, 4141.53846133, 4137.82051262, 4141.53846133, 4158.71794851, 4159.10256390, 4163.97435877, 4172.82051269, 4123.33333306,12.0
4156.41025621, 4162.43589723, 4165.64102544, 4156.28205108, 4155.76923056, 4147.56410236, 4154.61538441, 4146.66666646, 4149.61538441, 4161.28205108, 4164.87179467, 4169.23076910, 4173.46153833, 4121.02564075,12.0
4136.66666646, 4143.07692287, 4140.89743569, 4135.64102544, 4140.51282031, 4133.58974332, 4138.58974339, 4138.84615364, 4139.48717928, 4145.25641005, 4142.30769210, 4147.56410236, 4157.56410236, 4118.33333306,12.0
4134.99999973, 4143.20512800, 4136.02564082, 4131.53846126, 4135.89743569, 4128.33333306, 4128.07692280, 4138.07692287, 4133.71794844, 4137.30769210, 4129.74358947, 4140.64102544, 4155.89743569, 4123.07692280,12.0
4146.92307672, 4153.84615364, 4149.48717928, 4139.61538441, 4140.76923056, 4137.05128185, 4134.99999973, 4136.79487159, 4132.94871767, 4138.97435877, 4142.43589723, 4151.02564082, 4162.17948697, 4121.41025614,12.0
4138.20512800, 4139.35897415, 4142.94871774, 4130.38461511, 4131.92307665, 4129.35897408, 4129.87179460, 4119.99999973, 4120.25640998, 4131.53846126, 4139.99999980, 4142.30769210, 4151.15384595, 4113.71794844,12.0
4128.84615357, 4131.28205101, 4133.46153819, 4123.71794844, 4123.97435870, 4123.46153819, 4124.23076896, 4117.05128178, 4116.92307665, 4128.58974332, 4128.71794844, 4132.43589716, 4146.66666646, 4116.66666639,12.0
4145.51282031, 4151.02564082, 4144.74358954, 4137.43589723, 4138.46153826, 4138.46153826, 4137.94871774, 4135.51282031, 4135.12820485, 4146.02564082, 4142.82051262, 4148.97435877, 4163.33333313, 4122.43589716,12.0
4159.35897415, 4161.66666646, 4156.41025621, 4146.79487159, 4156.28205108, 4147.94871774, 4148.84615364, 4143.58974339, 4144.61538441, 4159.23076903, 4160.25641005, 4165.64102544, 4174.10256397, 4118.84615357,12.0
4142.82051262, 4145.64102544, 4141.53846133, 4132.82051255, 4148.07692287, 4133.71794844, 4134.35897408, 4124.87179460, 4126.28205101, 4143.20512800, 4144.35897415, 4154.35897415, 4159.74358954, 4112.17948691,12.0
4134.10256383, 4136.02564082, 4128.97435870, 4125.38461511, 4126.53846126, 4127.17948691, 4132.56410229, 4122.05128178, 4117.94871767, 4130.64102537, 4131.92307665, 4144.74358954, 4148.97435877, 4121.15384588,12.0
4150.76923056, 4150.25641005, 4146.79487159, 4139.74358954, 4127.17948691, 4139.23076903, 4156.53846133, 4149.48717928, 4137.82051262, 4149.35897415, 4148.71794851, 4160.51282031, 4165.64102544, 4129.99999973,12.0
4156.41025621, 4157.05128185, 4161.28205108, 4149.23076903, 4143.71794851, 4138.58974339, 4153.20512800, 4151.53846133, 4143.58974339, 4160.51282031, 4154.99999980, 4172.69230756, 4178.71794858, 4118.20512793,12.0
4144.23076903, 4147.17948697, 4148.33333313, 4140.89743569, 4143.33333313, 4121.66666639, 4121.92307665, 4123.07692280, 4122.30769203, 4144.35897415, 4138.97435877, 4162.17948697, 4164.48717928, 4114.23076896,12.0
4138.84615364, 4142.05128185, 4136.53846133, 4131.53846126, 4133.84615357, 4117.69230742, 4119.23076896, 4117.94871767, 4116.02564075, 4133.97435870, 4132.69230742, 4151.15384595, 4152.30769210, 4117.69230742,12.0
4140.25641005, 4145.76923056, 4138.97435877, 4133.46153819, 4136.15384595, 4131.66666639, 4140.51282031, 4135.12820485, 4129.87179460, 4138.71794851, 4141.02564082, 4153.07692287, 4158.58974339, 4117.82051255,12.0
4147.43589723, 4154.74358954, 4145.25641005, 4140.12820492, 4144.23076903, 4141.53846133, 4149.61538441, 4137.43589723, 4135.25640998, 4143.97435877, 4144.99999980, 4159.35897415, 4164.10256390, 4119.99999973,12.0
4165.64102544, 4167.82051262, 4160.25641005, 4148.58974339, 4159.48717928, 4148.71794851, 4161.41025621, 4137.17948697, 4140.76923056, 4156.28205108, 4154.61538441, 4169.99999986, 4168.58974345, 4115.76923050,12.0
4164.74358954, 4161.15384595, 4157.30769210, 4144.74358954, 4155.51282031, 4141.79487159, 4152.56410236, 4131.53846126, 4135.38461518, 4158.97435877, 4158.58974339, 4168.84615371, 4168.97435884, 4116.92307665,12.0
4147.43589723, 4145.38461518, 4134.87179460, 4131.41025614, 4130.76923050, 4128.58974332, 4130.89743562, 4118.33333306, 4116.41025614, 4143.84615364, 4146.15384595, 4152.05128185, 4159.35897415, 4122.17948691,12.0
4160.76923056, 4164.35897415, 4147.56410236, 4141.28205108, 4149.74358954, 4151.15384595, 4165.38461518, 4140.64102544, 4128.20512793, 4156.53846133, 4158.46153826, 4163.46153826, 4165.25641005, 4117.56410229,12.0
4168.84615371, 4171.28205115, 4162.17948697, 4150.25641005, 4163.84615364, 4159.74358954, 4176.41025628, 4155.51282031, 4142.56410236, 4171.79487166, 4170.25641012, 4177.17948704, 4172.30769217, 4113.84615357,12.0
4127.69230742, 4133.33333306, 4129.74358947, 4124.48717921, 4115.76923050, 4116.53846126, 4108.46153819, 4116.92307665, 4116.92307665, 4141.15384595, 4137.05128185, 4146.41025621, 4149.48717928, 4115.51282024,12.0
4094.61538427, 4113.20512793, 4103.33333306, 4101.66666632, 4094.35897402, 4094.35897402, 4080.12820478, 4091.92307658, 4095.51282017, 4111.92307665, 4109.23076896, 4118.46153819, 4131.41025614, 4117.17948691,12.0
4103.84615357, 4126.02564075, 4113.71794844, 4108.07692280, 4125.51282024, 4120.25640998, 4119.10256383, 4114.48717921, 4110.76923050, 4120.89743562, 4120.12820485, 4127.17948691, 4142.82051262, 4119.74358947,12.0
4118.71794844, 4135.51282031, 4124.61538434, 4121.15384588, 4134.87179460, 4133.71794844, 4132.05128178, 4125.89743562, 4122.94871767, 4137.30769210, 4131.92307665, 4136.02564082, 4152.56410236, 4122.94871767,12.0
4129.61538434, 4146.41025621, 4137.05128185, 4135.76923056, 4136.41025621, 4133.20512793, 4130.12820485, 4121.79487152, 4121.15384588, 4147.17948697, 4140.38461518, 4142.43589723, 4157.82051262, 4123.97435870,12.0
4138.71794851, 4157.17948697, 4151.15384595, 4142.94871774, 4153.58974339, 4140.25641005, 4147.69230749, 4127.82051255, 4123.97435870, 4151.15384595, 4151.15384595, 4157.69230749, 4167.94871774, 4120.89743562,12.0
4124.23076896, 4140.12820492, 4133.20512793, 4122.82051255, 4137.69230749, 4127.05128178, 4129.23076896, 4118.46153819, 4117.94871767, 4132.56410229, 4135.89743569, 4146.53846133, 4157.56410236, 4115.51282024,12.0
4108.46153819, 4126.28205101, 4109.99999973, 4107.17948691, 4115.89743562, 4119.23076896, 4111.02564075, 4106.92307665, 4108.84615357, 4114.10256383, 4115.25640998, 4124.61538434, 4137.17948697, 4117.82051255,12.0
4122.69230742, 4143.71794851, 4118.97435870, 4120.76923050, 4136.41025621, 4144.23076903, 4148.07692287, 4125.12820485, 4118.20512793, 4129.87179460, 4127.94871767, 4133.07692280, 4143.07692287, 4120.12820485,12.0
4129.61538434, 4150.25641005, 4125.25640998, 4127.56410229, 4145.12820492, 4149.35897415, 4156.53846133, 4133.71794844, 4126.15384588, 4143.07692287, 4141.53846133, 4143.71794851, 4154.87179467, 4118.71794844,12.0
4106.15384588, 4129.35897408, 4105.12820485, 4108.46153819, 4120.76923050, 4119.87179460, 4106.15384588, 4109.99999973, 4111.66666639, 4122.69230742, 4128.07692280, 4127.56410229, 4144.48717928, 4119.10256383,12.0
4091.53846119, 4116.79487152, 4092.82051248, 4095.12820478, 4112.05128178, 4106.92307665, 4087.05128171, 4088.46153812, 4095.76923043, 4106.15384588, 4118.58974332, 4114.35897408, 4134.10256383, 4120.51282024,12.0
4103.20512793, 4124.35897408, 4104.99999973, 4103.46153819, 4120.64102537, 4120.12820485, 4108.84615357, 4087.43589709, 4094.61538427, 4115.89743562, 4126.92307665, 4126.02564075, 4141.28205108, 4122.69230742,12.0
4111.79487152, 4127.30769203, 4113.46153819, 4110.76923050, 4114.61538434, 4125.38461511, 4109.23076896, 4095.64102530, 4099.23076889, 4124.74358947, 4134.87179460, 4136.02564082, 4147.69230749, 4118.07692280,12.0
4110.25640998, 4124.61538434, 4110.38461511, 4108.71794844, 4111.92307665, 4120.64102537, 4104.99999973, 4102.69230742, 4104.61538434, 4127.17948691, 4139.87179467, 4134.99999973, 4148.20512800, 4116.79487152,12.0
4114.35897408, 4127.43589716, 4108.84615357, 4107.30769203, 4117.94871767, 4120.25640998, 4117.94871767, 4109.48717921, 4109.23076896, 4135.51282031, 4140.76923056, 4133.33333306, 4153.33333313, 4122.30769203,12.0
4121.92307665, 4134.74358947, 4110.38461511, 4110.38461511, 4121.79487152, 4128.46153819, 4129.23076896, 4118.20512793, 4112.69230742, 4141.02564082, 4138.33333313, 4131.02564075, 4155.64102544, 4119.61538434,12.0
4121.79487152, 4141.15384595, 4108.58974332, 4112.56410229, 4135.51282031, 4140.89743569, 4140.64102544, 4123.33333306, 4117.05128178, 4141.53846133, 4143.07692287, 4131.92307665, 4154.61538441, 4116.28205101,12.0
4116.15384588, 4141.15384595, 4108.33333306, 4114.61538434, 4145.38461518, 4142.56410236, 4144.48717928, 4128.33333306, 4125.51282024, 4146.15384595, 4145.38461518, 4136.02564082, 4155.89743569, 4118.71794844,12.0
4107.17948691, 4131.53846126, 4108.46153819, 4111.79487152, 4129.99999973, 4128.20512793, 4127.17948691, 4125.89743562, 4120.12820485, 4138.46153826, 4126.79487152, 4126.92307665, 4148.46153826, 4121.53846126,12.0
4100.38461504, 4123.46153819, 4102.69230742, 4104.23076896, 4114.87179460, 4120.64102537, 4115.51282024, 4111.28205101, 4095.76923043, 4117.17948691, 4102.69230742, 4108.46153819, 4134.61538434, 4118.71794844,12.0
4101.92307658, 4125.89743562, 4102.30769196, 4103.58974332, 4122.69230742, 4127.17948691, 4124.48717921, 4099.87179453, 4083.07692273, 4108.07692280, 4098.07692273, 4102.56410229, 4132.82051255, 4113.07692280,12.0
4103.07692280, 4125.51282024, 4109.10256383, 4108.97435870, 4127.82051255, 4129.23076896, 4125.89743562, 4103.71794844, 4089.87179453, 4112.05128178, 4106.79487152, 4106.92307665, 4138.71794851, 4116.79487152,12.0
4087.43589709, 4109.23076896, 4099.35897402, 4100.25640991, 4109.99999973, 4115.38461511, 4104.35897408, 4101.92307658, 4090.25640991, 4105.12820485, 4103.97435870, 4101.02564068, 4129.74358947, 4118.84615357,12.0
4074.10256376, 4099.10256376, 4087.94871761, 4089.61538427, 4093.71794837, 4103.46153819, 4091.15384581, 4089.74358940, 4082.30769196, 4096.92307658, 4094.74358940, 4096.66666632, 4122.43589716, 4114.48717921,12.0
4087.17948684, 4113.33333306, 4102.30769196, 4102.17948684, 4102.30769196, 4111.92307665, 4107.43589716, 4090.51282017, 4084.87179453, 4107.69230742, 4102.43589709, 4107.94871767, 4136.15384595, 4118.46153819,12.0
4100.38461504, 4124.99999973, 4112.56410229, 4110.76923050, 4117.69230742, 4125.25640998, 4127.30769203, 4103.71794844, 4090.25640991, 4117.69230742, 4112.69230742, 4114.10256383, 4145.51282031, 4122.56410229,12.0
4102.69230742, 4125.38461511, 4110.38461511, 4108.07692280, 4112.94871767, 4128.33333306, 4134.74358947, 4119.99999973, 4098.84615350, 4120.38461511, 4116.02564075, 4116.79487152, 4150.64102544, 4121.92307665,12.0
4101.41025607, 4121.79487152, 4107.30769203, 4104.23076896, 4101.02564068, 4117.82051255, 4122.30769203, 4116.66666639, 4096.41025607, 4118.84615357, 4115.25640998, 4119.61538434, 4157.82051262, 4118.58974332,12.0
4090.64102530, 4112.82051255, 4097.56410222, 4094.99999966, 4102.69230742, 4108.71794844, 4109.87179460, 4100.64102530, 4079.99999966, 4108.20512793, 4105.12820485, 4112.05128178, 4153.71794851, 4116.15384588,12.0
4088.71794837, 4115.64102537, 4097.56410222, 4093.33333299, 4112.56410229, 4117.43589716, 4125.12820485, 4106.53846126, 4082.30769196, 4107.30769203, 4100.12820478, 4111.53846126, 4152.94871774, 4118.58974332,12.0
4101.28205094, 4127.82051255, 4110.89743562, 4102.43589709, 4112.17948691, 4125.25640998, 4136.53846133, 4120.12820485, 4094.99999966, 4117.17948691, 4105.51282024, 4123.84615357, 4162.05128185, 4119.10256383,12.0
4091.92307658, 4116.66666639, 4105.64102537, 4095.12820478, 4097.56410222, 4108.20512793, 4108.20512793, 4111.92307665, 4084.35897402, 4103.97435870, 4096.79487145, 4115.51282024, 4151.92307672, 4116.41025614,12.0
4061.53846113, 4093.71794837, 4081.79487145, 4074.48717914, 4082.30769196, 4087.94871761, 4080.51282017, 4102.30769196, 4068.20512779, 4078.07692273, 4072.69230735, 4087.43589709, 4128.07692280, 4111.41025614,12.0
4061.28205087, 4098.20512786, 4078.46153812, 4077.43589709, 4087.56410222, 4100.64102530, 4100.38461504, 4112.56410229, 4075.38461504, 4082.30769196, 4072.82051248, 4085.76923043, 4130.38461511, 4110.51282024,12.0
4074.23076889, 4107.30769203, 4083.84615350, 4085.12820478, 4094.61538427, 4113.71794844, 4114.23076896, 4107.69230742, 4077.69230735, 4092.17948684, 4085.38461504, 4098.46153812, 4142.82051262, 4119.61538434,12.0
4060.89743548, 4095.51282017, 4069.23076882, 4068.33333292, 4081.15384581, 4100.89743555, 4093.20512786, 4091.15384581, 4066.41025600, 4081.79487145, 4075.51282017, 4087.69230735, 4133.71794844, 4122.05128178,12.0
4054.23076882, 4092.43589709, 4062.94871754, 4063.58974318, 4076.28205094, 4094.87179453, 4082.69230735, 4089.99999966, 4064.10256369, 4079.48717914, 4068.71794830, 4078.58974325, 4128.33333306, 4117.17948691,12.0
4067.56410215, 4104.23076896, 4078.33333299, 4078.46153812, 4089.87179453, 4101.53846119, 4088.71794837, 4091.92307658, 4063.97435856, 4087.94871761, 4080.25640991, 4088.58974325, 4137.56410236, 4114.48717921,12.0
4069.87179453, 4107.82051255, 4085.51282017, 4082.43589709, 4095.38461504, 4102.94871767, 4093.07692273, 4093.20512786, 4065.51282010, 4092.30769196, 4088.33333299, 4096.79487145, 4142.94871774, 4114.10256383,12.0
4074.61538427, 4115.51282024, 4093.20512786, 4091.02564068, 4101.02564068, 4112.69230742, 4113.97435870, 4112.94871767, 4088.58974325, 4108.97435870, 4098.71794837, 4109.99999973, 4153.71794851, 4118.84615357,12.0
4094.10256376, 4127.05128178, 4106.53846126, 4108.33333306, 4111.41025614, 4128.07692280, 4136.02564082, 4131.28205101, 4113.33333306, 4126.53846126, 4115.76923050, 4125.25640998, 4165.64102544, 4124.10256383,12.0
4098.84615350, 4122.69230742, 4103.46153819, 4107.56410229, 4109.48717921, 4123.84615357, 4119.10256383, 4118.58974332, 4105.51282024, 4118.20512793, 4113.97435870, 4121.15384588, 4160.89743569, 4120.64102537,12.0
4100.25640991, 4125.38461511, 4105.25640998, 4108.07692280, 4116.53846126, 4125.25640998, 4113.58974332, 4109.87179460, 4098.58974325, 4116.79487152, 4112.82051255, 4121.02564075, 4161.66666646, 4117.05128178,12.0
4116.53846126, 4144.35897415, 4124.74358947, 4126.41025614, 4139.87179467, 4146.28205108, 4144.23076903, 4136.02564082, 4124.48717921, 4139.74358954, 4133.33333306, 4138.97435877, 4177.94871781, 4118.71794844,12.0
4121.92307665, 4145.38461518, 4129.99999973, 4135.51282031, 4142.43589723, 4150.51282031, 4151.66666646, 4157.94871774, 4144.87179467, 4148.71794851, 4142.17948697, 4144.35897415, 4183.33333320, 4122.69230742,12.0
4115.25640998, 4130.38461511, 4119.10256383, 4125.64102537, 4127.17948691, 4136.92307672, 4132.69230742, 4142.69230749, 4127.43589716, 4134.10256383, 4129.99999973, 4129.10256383, 4173.84615371, 4124.35897408,12.0
4121.41025614, 4132.56410229, 4117.56410229, 4128.20512793, 4132.43589716, 4140.12820492, 4131.41025614, 4127.82051255, 4115.25640998, 4132.56410229, 4126.53846126, 4125.51282024, 4170.89743576, 4114.87179460,12.0
4138.71794851, 4144.99999980, 4129.61538434, 4146.41025621, 4146.66666646, 4152.69230749, 4150.76923056, 4142.69230749, 4136.66666646, 4151.92307672, 4139.74358954, 4140.51282031, 4182.30769217, 4114.99999973,12.0
4139.23076903, 4140.76923056, 4135.51282031, 4147.56410236, 4134.10256383, 4143.97435877, 4151.66666646, 4146.28205108, 4143.71794851, 4156.02564082, 4144.10256390, 4144.99999980, 4187.30769217, 4125.25640998,12.0
4133.46153819, 4134.48717921, 4129.87179460, 4141.28205108, 4125.89743562, 4137.30769210, 4148.20512800, 4142.30769210, 4137.43589723, 4148.33333313, 4139.23076903, 4138.20512800, 4180.51282038, 4118.84615357,12.0
4150.38461518, 4146.15384595, 4131.53846126, 4154.61538441, 4149.74358954, 4157.82051262, 4172.94871781, 4162.05128185, 4153.71794851, 4156.41025621, 4145.25641005, 4142.56410236, 4183.71794858, 4117.69230742,12.0
4156.41025621, 4150.76923056, 4134.48717921, 4158.71794851, 4157.05128185, 4165.64102544, 4181.79487166, 4162.56410236, 4155.12820492, 4157.94871774, 4143.71794851, 4137.82051262, 4187.82051269, 4127.05128178,12.0
4143.71794851, 4143.07692287, 4129.35897408, 4148.71794851, 4144.74358954, 4153.33333313, 4160.89743569, 4144.61538441, 4139.10256390, 4146.66666646, 4129.99999973, 4125.38461511, 4177.82051269, 4122.05128178,12.0
4148.46153826, 4147.05128185, 4131.28205101, 4153.97435877, 4149.23076903, 4153.20512800, 4155.64102544, 4148.20512800, 4144.48717928, 4146.02564082, 4132.82051255, 4131.28205101, 4169.48717935, 4112.17948691,12.0
4155.64102544, 4152.05128185, 4137.82051262, 4160.64102544, 4150.12820492, 4152.30769210, 4155.38461518, 4147.82051262, 4150.25641005, 4149.48717928, 4147.05128185, 4137.82051262, 4173.07692294, 4117.05128178,12.0
4148.07692287, 4146.02564082, 4134.87179460, 4154.87179467, 4137.43589723, 4138.97435877, 4136.41025621, 4134.99999973, 4138.46153826, 4145.51282031, 4145.51282031, 4132.05128178, 4178.97435884, 4122.56410229,12.0
4146.28205108, 4142.56410236, 4133.20512793, 4153.33333313, 4137.17948697, 4137.05128185, 4129.87179460, 4135.89743569, 4137.05128185, 4143.84615364, 4135.25640998, 4132.94871767, 4177.17948704, 4119.23076896,12.0
4153.71794851, 4150.76923056, 4142.05128185, 4157.94871774, 4146.79487159, 4148.20512800, 4143.71794851, 4142.17948697, 4146.66666646, 4146.41025621, 4134.74358947, 4142.17948697, 4177.30769217, 4119.74358947,12.0
4156.92307672, 4158.84615364, 4151.53846133, 4162.69230749, 4154.48717928, 4149.74358954, 4148.84615364, 4138.33333313, 4148.20512800, 4148.58974339, 4141.53846133, 4146.15384595, 4183.97435884, 4118.46153819,12.0
4162.17948697, 4157.82051262, 4159.23076903, 4170.12820499, 4156.79487159, 4146.15384595, 4149.87179467, 4142.30769210, 4149.23076903, 4152.17948697, 4148.58974339, 4149.74358954, 4188.33333320, 4117.69230742,12.0
4163.71794851, 4152.17948697, 4156.66666646, 4168.46153833, 4146.41025621, 4146.53846133, 4147.82051262, 4149.10256390, 4152.17948697, 4153.07692287, 4150.51282031, 4149.99999980, 4186.92307679, 4122.30769203,12.0
4158.58974339, 4152.05128185, 4151.41025621, 4161.15384595, 4141.41025621, 4149.74358954, 4149.61538441, 4151.79487159, 4155.12820492, 4155.64102544, 4149.87179467, 4146.15384595, 4186.15384602, 4120.64102537,12.0
4155.89743569, 4157.43589723, 4153.84615364, 4164.48717928, 4153.97435877, 4154.35897415, 4167.17948697, 4158.07692287, 4159.10256390, 4157.43589723, 4148.97435877, 4147.56410236, 4183.07692294, 4115.51282024,12.0
4153.58974339, 4155.51282031, 4151.66666646, 4165.89743569, 4155.25641005, 4154.10256390, 4168.58974345, 4152.69230749, 4154.23076903, 4150.25641005, 4146.02564082, 4146.53846133, 4176.02564089, 4120.76923050,12.0
4155.38461518, 4151.28205108, 4150.51282031, 4159.74358954, 4145.25641005, 4151.53846133, 4151.92307672, 4143.07692287, 4152.30769210, 4149.74358954, 4149.61538441, 4146.79487159, 4178.20512807, 4127.56410229,12.0
4157.82051262, 4150.51282031, 4151.66666646, 4157.69230749, 4142.69230749, 4146.53846133, 4146.41025621, 4141.28205108, 4154.99999980, 4153.33333313, 4153.33333313, 4147.05128185, 4179.48717935, 4119.87179460,12.0
4149.23076903, 4146.79487159, 4143.84615364, 4157.17948697, 4142.05128185, 4139.99999980, 4142.05128185, 4133.58974332, 4145.76923056, 4145.89743569, 4143.71794851, 4136.53846133, 4170.38461525, 4113.71794844,12.0
4137.30769210, 4141.02564082, 4133.58974332, 4149.61538441, 4134.87179460, 4136.02564082, 4125.51282024, 4118.46153819, 4131.92307665, 4134.10256383, 4132.94871767, 4127.30769203, 4165.89743569, 4122.69230742,12.0
4136.02564082, 4139.61538441, 4134.48717921, 4141.66666646, 4133.33333306, 4135.12820485, 4121.66666639, 4120.12820485, 4136.02564082, 4134.87179460, 4131.92307665, 4131.41025614, 4168.20512807, 4119.61538434,12.0
4143.20512800, 4143.20512800, 4140.12820492, 4147.17948697, 4138.58974339, 4137.82051262, 4136.66666646, 4139.99999980, 4151.15384595, 4146.15384595, 4139.99999980, 4139.99999980, 4171.92307679, 4113.20512793,12.0
4146.92307672, 4146.28205108, 4141.66666646, 4158.07692287, 4140.38461518, 4144.74358954, 4150.89743569, 4153.20512800, 4159.87179467, 4155.64102544, 4152.17948697, 4144.48717928, 4180.89743576, 4119.61538434,12.0
4145.38461518, 4146.15384595, 4138.97435877, 4155.51282031, 4140.38461518, 4149.35897415, 4162.94871774, 4157.56410236, 4168.07692287, 4158.58974339, 4157.17948697, 4141.41025621, 4184.61538448, 4115.76923050,12.0
4141.92307672, 4146.02564082, 4132.69230742, 4147.82051262, 4139.10256390, 4149.74358954, 4167.43589723, 4159.48717928, 4171.15384602, 4156.15384595, 4147.30769210, 4132.30769203, 4174.61538448, 4113.46153819,12.0
4136.02564082, 4142.94871774, 4128.97435870, 4146.41025621, 4137.17948697, 4150.64102544, 4162.17948697, 4156.02564082, 4162.69230749, 4152.17948697, 4136.53846133, 4124.74358947, 4166.28205108, 4120.51282024,12.0
4127.69230742, 4131.15384588, 4123.33333306, 4143.20512800, 4129.10256383, 4143.20512800, 4146.02564082, 4140.12820492, 4150.89743569, 4140.51282031, 4130.51282024, 4118.58974332, 4162.94871774, 4121.92307665,12.0
4121.28205101, 4124.23076896, 4114.23076896, 4139.23076903, 4110.64102537, 4132.82051255, 4125.12820485, 4120.38461511, 4139.61538441, 4124.10256383, 4121.53846126, 4109.35897408, 4157.05128185, 4121.02564075,12.0
4116.02564075, 4124.87179460, 4108.84615357, 4137.17948697, 4105.76923050, 4134.48717921, 4119.23076896, 4117.82051255, 4134.10256383, 4120.25640998, 4111.92307665, 4100.64102530, 4149.48717928, 4119.74358947,12.0
4111.53846126, 4121.66666639, 4109.35897408, 4137.94871774, 4125.38461511, 4138.07692287, 4124.35897408, 4124.74358947, 4138.33333313, 4124.87179460, 4111.79487152, 4101.15384581, 4146.15384595, 4122.82051255,12.0
4111.66666639, 4122.43589716, 4115.76923050, 4144.10256390, 4138.97435877, 4135.89743569, 4125.89743562, 4128.84615357, 4149.35897415, 4125.51282024, 4120.89743562, 4109.61538434, 4151.15384595, 4125.12820485,12.0
4119.10256383, 4129.74358947, 4122.56410229, 4148.33333313, 4131.66666639, 4136.66666646, 4128.20512793, 4128.33333306, 4152.30769210, 4126.53846126, 4126.66666639, 4115.51282024, 4158.07692287, 4121.66666639,12.0
4127.56410229, 4132.69230742, 4124.87179460, 4146.15384595, 4124.35897408, 4137.82051262, 4134.35897408, 4126.15384588, 4145.25641005, 4132.30769203, 4125.76923050, 4117.17948691, 4161.02564082, 4119.87179460,12.0
4128.33333306, 4131.53846126, 4122.05128178, 4144.48717928, 4125.89743562, 4138.20512800, 4138.46153826, 4131.15384588, 4145.38461518, 4132.69230742, 4122.94871767, 4116.41025614, 4159.48717928, 4120.64102537,12.0
4121.28205101, 4130.38461511, 4118.97435870, 4143.71794851, 4124.10256383, 4137.94871774, 4141.28205108, 4139.74358954, 4153.84615364, 4133.84615357, 4119.48717921, 4113.33333306, 4158.20512800, 4120.76923050,12.0
4116.66666639, 4127.56410229, 4117.69230742, 4138.71794851, 4121.79487152, 4137.94871774, 4142.56410236, 4138.97435877, 4154.61538441, 4138.97435877, 4118.97435870, 4111.79487152, 4157.05128185, 4118.33333306,12.0
4121.53846126, 4129.35897408, 4120.51282024, 4140.38461518, 4124.74358947, 4142.17948697, 4144.48717928, 4139.61538441, 4148.97435877, 4139.35897415, 4126.41025614, 4117.30769203, 4156.41025621, 4117.43589716,12.0
4120.12820485, 4130.12820485, 4122.05128178, 4144.23076903, 4124.10256383, 4137.69230749, 4141.15384595, 4137.94871774, 4141.66666646, 4131.02564075, 4132.05128178, 4121.41025614, 4157.94871774, 4122.30769203,12.0
4113.20512793, 4125.76923050, 4115.76923050, 4136.66666646, 4117.17948691, 4127.05128178, 4131.66666639, 4126.15384588, 4133.46153819, 4123.58974332, 4126.53846126, 4116.53846126, 4153.71794851, 4120.25640998,12.0
4117.94871767, 4130.12820485, 4115.51282024, 4135.51282031, 4119.74358947, 4130.64102537, 4135.64102544, 4129.10256383, 4141.28205108, 4131.28205101, 4129.61538434, 4116.92307665, 4152.05128185, 4115.76923050,12.0
4125.25640998, 4136.53846133, 4118.71794844, 4143.46153826, 4135.12820485, 4142.17948697, 4145.76923056, 4140.64102544, 4153.71794851, 4135.76923056, 4137.30769210, 4122.17948691, 4156.02564082, 4120.51282024,12.0
4116.79487152, 4130.89743562, 4110.38461511, 4138.46153826, 4129.87179460, 4139.99999980, 4134.23076896, 4128.84615357, 4140.76923056, 4119.99999973, 4125.76923050, 4114.35897408, 4148.84615364, 4122.82051255,12.0
4106.41025614, 4123.20512793, 4103.07692280, 4129.23076896, 4107.69230742, 4128.84615357, 4114.35897408, 4107.30769203, 4119.23076896, 4105.25640998, 4112.56410229, 4103.07692280, 4138.20512800, 4119.35897408,12.0
4112.17948691, 4126.92307665, 4109.87179460, 4130.12820485, 4111.53846126, 4126.02564075, 4115.25640998, 4107.82051255, 4120.38461511, 4112.94871767, 4120.51282024, 4107.17948691, 4144.74358954, 4121.66666639,12.0
4115.12820485, 4129.48717921, 4110.64102537, 4127.30769203, 4126.66666639, 4127.05128178, 4120.76923050, 4118.33333306, 4133.07692280, 4122.17948691, 4127.56410229, 4111.02564075, 4152.82051262, 4121.79487152,12.0
4107.82051255, 4125.51282024, 4102.30769196, 4122.05128178, 4123.33333306, 4126.92307665, 4121.66666639, 4124.35897408, 4138.84615364, 4120.12820485, 4119.99999973, 4104.74358947, 4147.43589723, 4118.20512793,12.0
4102.82051255, 4126.41025614, 4100.89743555, 4121.79487152, 4118.07692280, 4126.53846126, 4126.02564075, 4125.12820485, 4139.99999980, 4121.28205101, 4113.84615357, 4100.76923043, 4144.10256390, 4122.56410229,12.0
4103.20512793, 4127.43589716, 4101.92307658, 4119.61538434, 4123.33333306, 4123.46153819, 4122.17948691, 4115.64102537, 4131.92307665, 4122.30769203, 4112.30769203, 4099.87179453, 4145.89743569, 4124.48717921,12.0
4104.61538434, 4124.87179460, 4099.35897402, 4117.82051255, 4121.92307665, 4122.43589716, 4121.28205101, 4114.23076896, 4123.33333306, 4120.25640998, 4109.48717921, 4097.30769196, 4145.25641005, 4114.87179460,12.0
4100.12820478, 4120.25640998, 4095.89743555, 4114.74358947, 4113.46153819, 4126.66666639, 4133.71794844, 4122.82051255, 4125.64102537, 4114.35897408, 4105.12820485, 4096.02564068, 4141.92307672, 4109.35897408,12.0
4092.82051248, 4113.84615357, 4092.30769196, 4105.89743562, 4107.56410229, 4125.51282024, 4126.15384588, 4114.23076896, 4123.97435870, 4107.43589716, 4097.69230735, 4095.89743555, 4134.23076896, 4117.43589716,12.0
4089.35897402, 4109.87179460, 4088.33333299, 4099.61538427, 4102.43589709, 4113.84615357, 4101.79487145, 4094.61538427, 4113.58974332, 4106.66666639, 4094.35897402, 4094.35897402, 4131.02564075, 4123.84615357,12.0
4095.12820478, 4116.66666639, 4092.69230735, 4106.79487152, 4103.84615357, 4112.43589716, 4105.89743562, 4095.64102530, 4108.97435870, 4108.84615357, 4100.76923043, 4100.25640991, 4140.64102544, 4125.25640998,12.0
4099.48717914, 4125.51282024, 4100.51282017, 4118.33333306, 4108.46153819, 4118.84615357, 4118.07692280, 4101.66666632, 4110.89743562, 4104.99999973, 4103.84615357, 4106.66666639, 4145.89743569, 4120.64102537,12.0
4104.35897408, 4133.33333306, 4104.99999973, 4125.38461511, 4115.64102537, 4122.56410229, 4120.12820485, 4111.53846126, 4122.43589716, 4111.66666639, 4111.66666639, 4111.02564075, 4144.61538441, 4115.76923050,12.0
4116.15384588, 4143.33333313, 4116.02564075, 4130.25640998, 4126.28205101, 4131.15384588, 4133.46153819, 4133.97435870, 4140.89743569, 4134.61538434, 4129.74358947, 4125.76923050, 4157.17948697, 4122.56410229,12.0
4122.94871767, 4144.87179467, 4126.28205101, 4130.25640998, 4126.53846126, 4134.35897408, 4140.51282031, 4136.15384595, 4145.25641005, 4146.15384595, 4137.05128185, 4139.23076903, 4170.76923063, 4120.51282024,12.0
4122.94871767, 4138.20512800, 4125.38461511, 4128.97435870, 4119.61538434, 4126.02564075, 4128.20512793, 4123.33333306, 4142.43589723, 4141.28205108, 4132.17948691, 4140.38461518, 4168.20512807, 4117.69230742,12.0
4116.66666639, 4132.69230742, 4113.20512793, 4123.33333306, 4115.25640998, 4119.48717921, 4115.64102537, 4118.71794844, 4138.20512800, 4130.76923050, 4127.05128178, 4130.38461511, 4156.28205108, 4119.99999973,12.0
4100.64102530, 4120.51282024, 4096.15384581, 4110.76923050, 4108.46153819, 4113.20512793, 4106.53846126, 4101.92307658, 4116.92307665, 4109.99999973, 4109.61538434, 4110.12820485, 4136.66666646, 4117.05128178,12.0
4089.61538427, 4111.28205101, 4091.02564068, 4104.74358947, 4098.84615350, 4104.61538434, 4096.53846119, 4081.53846119, 4098.97435863, 4092.56410222, 4086.28205094, 4097.30769196, 4123.33333306, 4122.56410229,12.0
