AF3,F7,F3,FC5,T7,P7,O1,O2,P8,T8,FC6,F4,F8,AF4,Label
4141.15384595, 4125.38461511, 4140.51282031, 4122.56410229, 4124.99999973, 4116.02564075, 4120.25640998, 4124.23076896, 4147.56410236, 4128.84615357, 4114.35897408, 4127.69230742, 4122.17948691, 4119.74358947,10.0
4139.74358954, 4130.64102537, 4138.97435877, 4125.12820485, 4136.02564082, 4119.99999973, 4124.48717921, 4123.84615357, 4148.58974339, 4131.79487152, 4117.82051255, 4125.76923050, 4122.43589716, 4120.25640998,10.0
4132.94871767, 4130.12820485, 4136.92307672, 4126.79487152, 4145.25641005, 4117.82051255, 4121.02564075, 4122.30769203, 4140.76923056, 4132.56410229, 4117.82051255, 4124.61538434, 4125.64102537, 4117.30769203,10.0
4124.61538434, 4123.33333306, 4136.79487159, 4125.89743562, 4136.28205108, 4115.89743562, 4115.38461511, 4121.15384588, 4137.30769210, 4129.87179460, 4116.53846126, 4122.82051255, 4129.74358947, 4121.28205101,10.0
4124.61538434, 4123.33333306, 4136.79487159, 4125.89743562, 4136.28205108, 4115.89743562, 4115.38461511, 4121.15384588, 4137.30769210, 4129.87179460, 4116.53846126, 4122.82051255, 4129.74358947, 4121.28205101,10.0
4122.05128178, 4123.07692280, 4136.92307672, 4125.25640998, 4122.94871767, 4113.20512793, 4112.43589716, 4114.99999973, 4134.10256383, 4127.56410229, 4112.30769203, 4124.48717921, 4128.20512793, 4124.48717921,10.0
4124.99999973, 4128.20512793, 4141.41025621, 4126.02564075, 4129.23076896, 4109.48717921, 4108.84615357, 4105.38461511, 4125.12820485, 4128.07692280, 4112.17948691, 4130.76923050, 4126.66666639, 4121.02564075,10.0
4129.10256383, 4126.92307665, 4143.58974339, 4127.82051255, 4139.23076903, 4113.84615357, 4112.05128178, 4108.46153819, 4129.61538434, 4131.92307665, 4121.02564075, 4133.58974332, 4132.05128178, 4123.84615357,10.0
4129.23076896, 4121.41025614, 4139.99999980, 4126.92307665, 4131.79487152, 4118.97435870, 4115.64102537, 4118.33333306, 4137.56410236, 4130.89743562, 4126.28205101, 4132.94871767, 4135.12820485, 4126.92307665,10.0
4131.53846126, 4126.79487152, 4144.10256390, 4130.12820485, 4125.12820485, 4116.02564075, 4112.82051255, 4117.30769203, 4132.69230742, 4129.74358947, 4125.76923050, 4134.48717921, 4132.30769203, 4124.23076896,10.0
4131.92307665, 4137.05128185, 4152.56410236, 4136.41025621, 4137.05128185, 4114.87179460, 4112.43589716, 4116.15384588, 4133.84615357, 4134.48717921, 4124.87179460, 4136.66666646, 4133.46153819, 4122.30769203,10.0
4128.20512793, 4136.66666646, 4152.94871774, 4134.61538434, 4147.05128185, 4115.76923050, 4117.17948691, 4121.41025614, 4139.23076903, 4134.74358947, 4120.64102537, 4134.48717921, 4135.76923056, 4121.53846126,10.0
4135.25640998, 4133.84615357, 4151.02564082, 4132.17948691, 4136.53846133, 4113.20512793, 4122.82051255, 4127.69230742, 4142.30769210, 4135.64102544, 4118.84615357, 4131.92307665, 4134.99999973, 4121.41025614,10.0
4144.48717928, 4135.25640998, 4152.43589723, 4131.79487152, 4122.56410229, 4110.25640998, 4118.97435870, 4127.94871767, 4145.89743569, 4144.61538441, 4124.10256383, 4135.25640998, 4137.82051262, 4120.76923050,10.0
4145.76923056, 4137.30769210, 4152.43589723, 4129.48717921, 4127.43589716, 4110.64102537, 4110.25640998, 4121.41025614, 4140.76923056, 4144.99999980, 4127.05128178, 4141.79487159, 4142.43589723, 4121.66666639,10.0
4147.43589723, 4135.38461518, 4150.64102544, 4129.23076896, 4137.17948697, 4111.92307665, 4112.17948691, 4119.48717921, 4129.87179460, 4135.64102544, 4122.05128178, 4143.97435877, 4139.35897415, 4123.58974332,10.0
4148.20512800, 4129.99999973, 4147.56410236, 4130.12820485, 4132.56410229, 4106.41025614, 4117.17948691, 4117.82051255, 4123.33333306, 4134.48717921, 4119.61538434, 4139.61538441, 4133.58974332, 4122.69230742,10.0
4139.48717928, 4131.28205101, 4140.76923056, 4127.05128178, 4123.20512793, 4101.92307658, 4111.02564075, 4116.53846126, 4117.17948691, 4131.41025614, 4116.15384588, 4134.23076896, 4131.92307665, 4123.84615357,10.0
4133.46153819, 4137.94871774, 4139.61538441, 4127.56410229, 4129.74358947, 4111.79487152, 4110.51282024, 4126.79487152, 4117.30769203, 4125.38461511, 4113.58974332, 4133.97435870, 4135.89743569, 4124.61538434,10.0
4137.94871774, 4138.58974339, 4143.71794851, 4132.56410229, 4137.17948697, 4115.76923050, 4115.76923050, 4133.33333306, 4123.58974332, 4128.20512793, 4116.41025614, 4134.48717921, 4136.79487159, 4122.94871767,10.0
4133.97435870, 4133.33333306, 4142.69230749, 4129.10256383, 4129.61538434, 4101.66666632, 4106.79487152, 4122.05128178, 4121.02564075, 4130.51282024, 4115.89743562, 4127.94871767, 4131.15384588, 4122.05128178,10.0
4120.89743562, 4129.35897408, 4129.87179460, 4124.23076896, 4118.84615357, 4100.12820478, 4096.02564068, 4116.02564075, 4118.84615357, 4123.84615357, 4109.48717921, 4121.02564075, 4125.76923050, 4120.76923050,10.0
4110.38461511, 4123.46153819, 4111.79487152, 4122.69230742, 4116.66666639, 4107.43589716, 4095.89743555, 4117.05128178, 4115.76923050, 4116.15384588, 4100.76923043, 4112.56410229, 4120.38461511, 4121.28205101,10.0
4103.20512793, 4116.15384588, 4109.87179460, 4120.25640998, 4121.79487152, 4101.41025607, 4096.53846119, 4107.69230742, 4104.74358947, 4111.02564075, 4095.38461504, 4104.23076896, 4115.12820485, 4122.56410229,10.0
4102.17948684, 4116.15384588, 4123.58974332, 4119.35897408, 4124.35897408, 4099.48717914, 4095.51282017, 4098.84615350, 4099.87179453, 4103.20512793, 4096.02564068, 4106.41025614, 4115.64102537, 4122.94871767,10.0
4106.02564075, 4118.46153819, 4126.41025614, 4112.69230742, 4117.94871767, 4102.17948684, 4098.20512786, 4104.87179460, 4101.41025607, 4102.69230742, 4102.43589709, 4110.38461511, 4119.74358947, 4123.46153819,10.0
4102.69230742, 4111.53846126, 4113.71794844, 4104.74358947, 4110.76923050, 4097.94871761, 4099.23076889, 4114.87179460, 4105.25640998, 4112.82051255, 4104.35897408, 4103.20512793, 4119.35897408, 4122.30769203,10.0
4093.20512786, 4103.07692280, 4106.41025614, 4106.53846126, 4109.23076896, 4094.99999966, 4093.58974325, 4107.82051255, 4104.48717921, 4107.05128178, 4088.58974325, 4088.97435863, 4108.20512793, 4122.30769203,10.0
4090.38461504, 4103.71794844, 4104.61538434, 4108.07692280, 4106.02564075, 4096.79487145, 4089.87179453, 4101.15384581, 4093.84615350, 4089.10256376, 4072.43589709, 4080.38461504, 4095.76923043, 4122.56410229,10.0
4092.17948684, 4104.87179460, 4093.20512786, 4101.79487145, 4100.12820478, 4096.66666632, 4096.02564068, 4119.61538434, 4092.43589709, 4084.74358940, 4072.94871761, 4078.58974325, 4094.74358940, 4120.51282024,10.0
4095.51282017, 4105.64102537, 4086.92307658, 4102.94871767, 4104.23076896, 4098.46153812, 4103.71794844, 4131.15384588, 4104.23076896, 4091.53846119, 4080.51282017, 4085.64102530, 4106.66666639, 4118.84615357,10.0
4097.94871761, 4109.10256383, 4099.10256376, 4112.82051255, 4110.89743562, 4099.48717914, 4098.07692273, 4112.43589716, 4100.64102530, 4094.87179453, 4084.74358940, 4097.30769196, 4114.61538434, 4118.84615357,10.0
4099.87179453, 4107.43589716, 4106.41025614, 4114.48717921, 4101.28205094, 4091.92307658, 4086.66666632, 4096.53846119, 4085.25640991, 4092.43589709, 4084.61538427, 4101.15384581, 4110.12820485, 4122.43589716,10.0
4100.51282017, 4102.69230742, 4093.97435863, 4108.33333306, 4093.07692273, 4085.89743555, 4085.12820478, 4101.28205094, 4083.71794837, 4089.35897402, 4081.66666632, 4099.99999966, 4106.02564075, 4123.46153819,10.0
4096.41025607, 4100.89743555, 4086.41025607, 4104.99999973, 4099.23076889, 4084.61538427, 4086.53846119, 4104.35897408, 4086.15384581, 4088.07692273, 4084.10256376, 4100.89743555, 4110.64102537, 4120.89743562,10.0
4098.58974325, 4105.25640998, 4099.35897402, 4106.28205101, 4098.84615350, 4086.41025607, 4085.51282017, 4104.61538434, 4084.61538427, 4093.33333299, 4093.07692273, 4104.99999973, 4114.48717921, 4122.94871767,10.0
4106.79487152, 4112.05128178, 4107.05128178, 4108.33333306, 4097.30769196, 4092.30769196, 4089.10256376, 4105.38461511, 4084.35897402, 4096.02564068, 4094.99999966, 4107.82051255, 4114.10256383, 4124.23076896,10.0
4107.82051255, 4113.58974332, 4094.99999966, 4108.71794844, 4102.56410229, 4094.35897402, 4089.61538427, 4096.92307658, 4076.53846119, 4084.23076889, 4087.56410222, 4108.58974332, 4115.25640998, 4121.28205101,10.0
4102.82051255, 4112.82051255, 4090.25640991, 4111.15384588, 4102.69230742, 4091.92307658, 4080.51282017, 4094.35897402, 4073.33333299, 4082.69230735, 4087.94871761, 4112.17948691, 4116.66666639, 4118.84615357,10.0
4103.20512793, 4114.87179460, 4101.02564068, 4114.74358947, 4101.15384581, 4096.53846119, 4073.46153812, 4103.07692280, 4086.02564068, 4102.43589709, 4094.23076889, 4115.76923050, 4115.64102537, 4118.07692280,10.0
4102.43589709, 4114.23076896, 4101.92307658, 4112.05128178, 4106.41025614, 4103.84615357, 4076.28205094, 4101.66666632, 4088.46153812, 4106.02564075, 4090.64102530, 4110.89743562, 4112.56410229, 4121.41025614,10.0
4094.74358940, 4106.79487152, 4090.64102530, 4104.87179460, 4106.41025614, 4095.76923043, 4077.17948684, 4094.74358940, 4086.28205094, 4093.84615350, 4086.02564068, 4105.89743562, 4112.82051255, 4122.17948691,10.0
4092.43589709, 4103.71794844, 4087.56410222, 4104.48717921, 4102.05128171, 4085.38461504, 4074.48717914, 4102.05128171, 4098.46153812, 4106.28205101, 4094.74358940, 4110.51282024, 4122.43589716, 4118.20512793,10.0
4096.92307658, 4106.79487152, 4095.51282017, 4110.76923050, 4107.05128178, 4089.23076889, 4076.02564068, 4106.41025614, 4102.82051255, 4122.69230742, 4101.66666632, 4113.46153819, 4129.23076896, 4120.25640998,10.0
4100.25640991, 4111.41025614, 4105.64102537, 4115.76923050, 4108.84615357, 4095.76923043, 4085.89743555, 4104.48717921, 4097.56410222, 4118.07692280, 4100.76923043, 4115.51282024, 4129.48717921, 4125.38461511,10.0
4100.76923043, 4117.17948691, 4109.48717921, 4119.23076896, 4102.56410229, 4096.28205094, 4091.02564068, 4111.28205101, 4100.12820478, 4116.28205101, 4106.41025614, 4117.94871767, 4127.94871767, 4123.46153819,10.0
4096.53846119, 4118.58974332, 4106.41025614, 4119.35897408, 4105.64102537, 4096.02564068, 4087.43589709, 4108.97435870, 4096.92307658, 4114.35897408, 4107.94871767, 4109.87179460, 4126.79487152, 4119.35897408,10.0
4094.87179453, 4121.92307665, 4106.79487152, 4117.05128178, 4121.66666639, 4104.23076896, 4096.15384581, 4106.28205101, 4094.87179453, 4106.79487152, 4097.05128171, 4104.48717921, 4127.17948691, 4121.28205101,10.0
4097.05128171, 4124.61538434, 4106.53846126, 4118.58974332, 4123.97435870, 4110.38461511, 4104.87179460, 4114.48717921, 4108.20512793, 4111.92307665, 4093.46153812, 4106.79487152, 4128.71794844, 4122.94871767,10.0
4094.99999966, 4116.66666639, 4107.30769203, 4119.99999973, 4108.33333306, 4101.41025607, 4088.20512786, 4107.56410229, 4104.99999973, 4121.28205101, 4104.99999973, 4108.46153819, 4126.41025614, 4119.61538434,10.0
4101.79487145, 4111.66666639, 4117.17948691, 4112.82051255, 4109.48717921, 4096.15384581, 4081.41025607, 4100.12820478, 4095.64102530, 4125.76923050, 4121.28205101, 4118.20512793, 4127.30769203, 4120.76923050,10.0
4115.12820485, 4115.51282024, 4125.38461511, 4104.99999973, 4121.28205101, 4106.53846126, 4102.17948684, 4114.35897408, 4109.48717921, 4132.94871767, 4136.66666646, 4132.43589716, 4138.46153826, 4122.94871767,10.0
4120.64102537, 4117.56410229, 4130.76923050, 4108.97435870, 4117.94871767, 4119.23076896, 4116.66666639, 4126.15384588, 4123.33333306, 4143.71794851, 4149.99999980, 4137.43589723, 4148.33333313, 4121.02564075,10.0
4127.43589716, 4116.53846126, 4139.87179467, 4109.87179460, 4119.61538434, 4121.79487152, 4118.58974332, 4125.38461511, 4119.87179460, 4147.94871774, 4153.20512800, 4139.35897415, 4148.97435877, 4120.76923050,10.0
4138.07692287, 4120.89743562, 4140.51282031, 4102.82051255, 4136.92307672, 4118.33333306, 4122.82051255, 4131.92307665, 4114.87179460, 4145.51282031, 4149.61538441, 4144.99999980, 4146.41025621, 4121.28205101,10.0
4138.58974339, 4120.64102537, 4126.53846126, 4101.66666632, 4138.97435877, 4123.33333306, 4126.66666639, 4140.76923056, 4118.71794844, 4141.66666646, 4146.02564082, 4139.87179467, 4140.38461518, 4124.35897408,10.0
4139.10256390, 4120.25640998, 4123.84615357, 4104.35897408, 4131.66666639, 4138.84615364, 4135.38461518, 4148.07692287, 4135.51282031, 4148.20512800, 4146.41025621, 4136.15384595, 4141.66666646, 4126.53846126,10.0
4154.48717928, 4131.66666639, 4141.41025621, 4108.07692280, 4137.30769210, 4149.99999980, 4150.12820492, 4153.71794851, 4149.48717928, 4158.20512800, 4155.64102544, 4152.17948697, 4152.43589723, 4122.82051255,10.0
4157.17948697, 4130.12820485, 4141.02564082, 4104.74358947, 4135.38461518, 4141.79487159, 4145.64102544, 4141.15384595, 4130.51282024, 4144.74358954, 4153.97435877, 4158.84615364, 4150.89743569, 4119.74358947,10.0
4140.64102544, 4111.92307665, 4115.25640998, 4088.58974325, 4120.51282024, 4117.94871767, 4119.10256383, 4126.66666639, 4108.20512793, 4131.15384588, 4135.76923056, 4143.46153826, 4141.66666646, 4119.61538434,10.0
4138.20512800, 4109.87179460, 4104.87179460, 4081.02564068, 4115.89743562, 4105.76923050, 4104.10256383, 4127.69230742, 4110.76923050, 4139.10256390, 4130.76923050, 4131.41025614, 4141.15384595, 4122.43589716,10.0
4151.92307672, 4124.99999973, 4119.87179460, 4092.17948684, 4125.64102537, 4119.87179460, 4116.66666639, 4138.07692287, 4121.15384588, 4146.15384595, 4140.51282031, 4138.20512800, 4143.84615364, 4123.20512793,10.0
4153.46153826, 4127.05128178, 4125.64102537, 4097.69230735, 4127.69230742, 4132.43589716, 4133.97435870, 4143.46153826, 4130.25640998, 4146.92307672, 4141.92307672, 4147.17948697, 4146.92307672, 4120.51282024,10.0
4147.05128185, 4123.71794844, 4118.33333306, 4095.25640991, 4119.35897408, 4128.20512793, 4134.99999973, 4144.23076903, 4131.41025614, 4147.05128185, 4139.61538441, 4143.58974339, 4148.97435877, 4122.56410229,10.0
4146.66666646, 4126.28205101, 4117.56410229, 4096.15384581, 4119.35897408, 4127.30769203, 4131.41025614, 4141.79487159, 4124.48717921, 4144.74358954, 4139.61538441, 4137.05128185, 4145.38461518, 4124.35897408,10.0
4149.61538441, 4127.82051255, 4125.89743562, 4098.58974325, 4132.05128178, 4134.35897408, 4139.74358954, 4140.76923056, 4127.05128178, 4144.61538441, 4137.05128185, 4138.58974339, 4142.94871774, 4122.43589716,10.0
4156.92307672, 4129.99999973, 4133.58974332, 4102.17948684, 4138.07692287, 4140.38461518, 4144.74358954, 4147.05128185, 4140.89743569, 4149.48717928, 4141.41025621, 4146.15384595, 4147.56410236, 4121.41025614,10.0
4164.48717928, 4130.12820485, 4137.56410236, 4105.38461511, 4130.64102537, 4143.46153826, 4136.92307672, 4146.53846133, 4146.15384595, 4152.43589723, 4147.94871774, 4151.02564082, 4150.89743569, 4121.15384588,10.0
4166.28205108, 4131.79487152, 4140.89743569, 4106.02564075, 4122.17948691, 4137.94871774, 4130.76923050, 4140.89743569, 4145.51282031, 4156.79487159, 4144.48717928, 4152.43589723, 4148.71794851, 4123.33333306,10.0
4157.82051262, 4131.02564075, 4135.76923056, 4102.94871767, 4118.58974332, 4126.53846126, 4128.07692280, 4139.74358954, 4142.56410236, 4154.10256390, 4139.48717928, 4149.23076903, 4144.48717928, 4123.46153819,10.0
4146.15384595, 4120.38461511, 4117.05128178, 4096.28205094, 4120.51282024, 4118.33333306, 4118.84615357, 4136.02564082, 4130.51282024, 4140.12820492, 4136.28205108, 4137.17948697, 4139.48717928, 4118.71794844,10.0
4136.66666646, 4111.79487152, 4100.76923043, 4089.87179453, 4114.74358947, 4113.84615357, 4108.84615357, 4124.48717921, 4112.69230742, 4128.97435870, 4125.89743562, 4119.23076896, 4129.87179460, 4120.38461511,10.0
4127.30769203, 4111.66666639, 4098.97435863, 4087.56410222, 4106.41025614, 4113.71794844, 4103.71794844, 4114.61538434, 4101.53846119, 4123.84615357, 4116.79487152, 4108.46153819, 4121.79487152, 4122.56410229,10.0
4126.66666639, 4112.69230742, 4102.94871767, 4089.87179453, 4106.15384588, 4111.79487152, 4100.25640991, 4118.84615357, 4108.20512793, 4123.33333306, 4121.41025614, 4112.94871767, 4127.94871767, 4121.66666639,10.0
4134.48717921, 4117.05128178, 4111.79487152, 4099.23076889, 4102.82051255, 4106.02564075, 4099.87179453, 4127.69230742, 4115.76923050, 4123.20512793, 4132.30769203, 4124.23076896, 4135.38461518, 4125.51282024,10.0
4137.56410236, 4123.71794844, 4124.48717921, 4111.41025614, 4101.92307658, 4106.53846126, 4101.41025607, 4125.12820485, 4106.02564075, 4117.05128178, 4134.48717921, 4129.10256383, 4129.99999973, 4124.23076896,10.0
4132.30769203, 4119.99999973, 4124.99999973, 4108.97435870, 4112.69230742, 4110.76923050, 4104.99999973, 4115.64102537, 4094.35897402, 4113.84615357, 4125.25640998, 4124.61538434, 4125.51282024, 4121.28205101,10.0
4131.66666639, 4116.41025614, 4124.10256383, 4103.97435870, 4123.33333306, 4109.48717921, 4109.10256383, 4114.99999973, 4102.56410229, 4122.82051255, 4122.56410229, 4123.71794844, 4128.97435870, 4121.66666639,10.0
4137.17948697, 4124.23076896, 4133.20512793, 4112.05128178, 4118.46153819, 4116.79487152, 4118.33333306, 4128.84615357, 4118.58974332, 4132.17948691, 4130.25640998, 4129.74358947, 4133.20512793, 4122.82051255,10.0
4134.87179460, 4124.23076896, 4131.41025614, 4111.53846126, 4107.94871767, 4126.41025614, 4129.10256383, 4142.05128185, 4123.97435870, 4130.64102537, 4130.51282024, 4129.23076896, 4134.10256383, 4126.15384588,10.0
4123.20512793, 4110.25640998, 4117.05128178, 4098.07692273, 4102.05128171, 4112.17948691, 4114.35897408, 4131.02564075, 4114.35897408, 4122.30769203, 4117.69230742, 4117.82051255, 4123.33333306, 4123.71794844,10.0
4115.25640998, 4104.35897408, 4110.64102537, 4098.20512786, 4106.66666639, 4096.28205094, 4089.99999966, 4112.05128178, 4098.58974325, 4120.12820485, 4111.66666639, 4113.58974332, 4116.66666639, 4124.35897408,10.0
4116.41025614, 4106.66666639, 4109.61538434, 4101.28205094, 4106.92307665, 4098.97435863, 4091.66666632, 4114.35897408, 4096.66666632, 4125.12820485, 4115.25640998, 4118.97435870, 4126.28205101, 4125.25640998,10.0
4116.79487152, 4105.38461511, 4106.66666639, 4095.25640991, 4088.46153812, 4104.99999973, 4101.15384581, 4117.82051255, 4097.05128171, 4117.43589716, 4108.33333306, 4114.74358947, 4126.66666639, 4119.87179460,10.0
4113.07692280, 4106.53846126, 4107.69230742, 4094.99999966, 4084.99999966, 4104.87179460, 4097.82051248, 4111.53846126, 4089.87179453, 4108.07692280, 4100.25640991, 4108.97435870, 4117.94871767, 4120.51282024,10.0
4109.35897408, 4108.46153819, 4108.71794844, 4101.53846119, 4099.48717914, 4102.17948684, 4094.35897402, 4113.71794844, 4089.74358940, 4111.66666639, 4102.69230742, 4108.97435870, 4119.61538434, 4120.76923050,10.0
4104.35897408, 4103.97435870, 4106.02564075, 4098.71794837, 4095.64102530, 4096.92307658, 4093.20512786, 4114.48717921, 4092.17948684, 4111.79487152, 4098.33333299, 4102.94871767, 4118.71794844, 4122.43589716,10.0
4096.02564068, 4098.84615350, 4100.51282017, 4090.89743555, 4083.20512786, 4088.97435863, 4088.46153812, 4109.61538434, 4086.02564068, 4102.05128171, 4085.89743555, 4096.28205094, 4110.89743562, 4124.48717921,10.0
4092.69230735, 4100.38461504, 4098.58974325, 4093.46153812, 4088.84615350, 4089.48717914, 4087.05128171, 4118.46153819, 4082.05128171, 4097.94871761, 4082.69230735, 4096.53846119, 4107.69230742, 4122.17948691,10.0
4098.71794837, 4104.35897408, 4102.05128171, 4097.82051248, 4098.33333299, 4097.30769196, 4088.58974325, 4132.30769203, 4085.64102530, 4099.74358940, 4085.76923043, 4099.10256376, 4108.07692280, 4125.12820485,10.0
4099.23076889, 4103.07692280, 4100.76923043, 4096.15384581, 4093.20512786, 4096.02564068, 4083.20512786, 4125.38461511, 4085.38461504, 4098.33333299, 4084.23076889, 4096.28205094, 4105.64102537, 4125.12820485,10.0
4092.82051248, 4097.94871761, 4095.51282017, 4091.15384581, 4088.07692273, 4092.43589709, 4076.15384581, 4103.58974332, 4080.89743555, 4096.41025607, 4083.97435863, 4090.76923043, 4103.46153819, 4122.30769203,10.0
4089.99999966, 4096.66666632, 4095.51282017, 4090.89743555, 4088.07692273, 4095.76923043, 4073.71794837, 4088.84615350, 4070.51282017, 4088.84615350, 4086.79487145, 4090.89743555, 4103.20512793, 4122.56410229,10.0
4067.43589702, 4086.92307658, 4078.07692273, 4086.53846119, 4071.02564068, 4078.84615350, 4054.87179446, 4111.66666639, 4056.15384574, 4061.15384574, 4054.48717907, 4079.10256376, 4083.07692273, 4123.84615357,10.0
4075.12820478, 4091.66666632, 4087.94871761, 4093.46153812, 4079.87179453, 4083.20512786, 4060.12820472, 4110.25640998, 4053.97435856, 4064.74358933, 4061.02564061, 4081.28205094, 4092.94871761, 4122.30769203,10.0
4073.71794837, 4083.46153812, 4081.15384581, 4092.82051248, 4074.99999966, 4084.74358940, 4070.12820478, 4103.20512793, 4061.41025600, 4066.92307651, 4059.10256369, 4077.82051248, 4094.23076889, 4120.38461511,10.0
4063.46153805, 4077.43589709, 4069.99999966, 4081.79487145, 4065.89743548, 4078.71794837, 4071.02564068, 4090.64102530, 4058.46153805, 4056.66666625, 4050.38461497, 4070.51282017, 4085.25640991, 4125.25640998,10.0
4058.84615343, 4078.71794837, 4067.30769189, 4073.58974325, 4058.84615343, 4071.79487145, 4065.89743548, 4085.38461504, 4054.87179446, 4056.92307651, 4046.41025600, 4069.48717907, 4085.89743555, 4124.99999973,10.0
4060.25640984, 4075.64102530, 4068.71794830, 4072.69230735, 4055.64102523, 4073.46153812, 4063.46153805, 4086.66666632, 4059.10256369, 4066.41025600, 4040.51282010, 4068.84615343, 4086.02564068, 4121.02564075,10.0
4063.07692266, 4076.15384581, 4072.69230735, 4079.74358940, 4065.25640984, 4077.69230735, 4063.58974318, 4085.89743555, 4059.35897395, 4064.74358933, 4035.38461490, 4066.28205087, 4079.74358940, 4120.64102537,10.0
4068.20512779, 4086.41025607, 4076.79487145, 4092.69230735, 4075.89743555, 4076.41025607, 4064.87179446, 4090.64102530, 4054.74358933, 4060.51282010, 4039.99999959, 4068.20512779, 4081.53846119, 4120.51282024,10.0
4068.71794830, 4086.66666632, 4077.94871761, 4094.61538427, 4074.48717914, 4075.38461504, 4067.82051241, 4096.28205094, 4059.87179446, 4068.58974318, 4048.07692266, 4071.41025607, 4089.10256376, 4120.76923050,10.0
4055.25640984, 4073.33333299, 4073.46153812, 4083.84615350, 4065.25640984, 4073.20512786, 4060.89743548, 4083.07692273, 4059.48717907, 4068.46153805, 4047.30769189, 4061.28205087, 4082.17948684, 4120.64102537,10.0
4043.33333292, 4069.48717907, 4063.33333292, 4081.66666632, 4059.35897395, 4069.99999966, 4054.23076882, 4074.87179453, 4046.15384574, 4055.25640984, 4040.38461497, 4047.69230728, 4070.64102530, 4123.33333306,10.0
4047.30769189, 4073.07692273, 4063.20512779, 4087.94871761, 4063.46153805, 4079.48717914, 4063.97435856, 4084.61538427, 4042.43589702, 4053.71794830, 4041.92307651, 4055.51282010, 4075.51282017, 4124.99999973,10.0
4051.79487138, 4067.69230728, 4068.20512779, 4086.79487145, 4060.76923036, 4076.79487145, 4058.20512779, 4077.94871761, 4042.69230728, 4050.38461497, 4046.15384574, 4062.56410215, 4079.74358940, 4123.46153819,10.0
4052.56410215, 4067.43589702, 4066.41025600, 4084.48717914, 4049.61538420, 4058.46153805, 4039.10256369, 4077.69230735, 4041.41025600, 4047.69230728, 4049.74358933, 4058.33333292, 4078.20512786, 4123.58974332,10.0
4057.05128164, 4077.43589709, 4068.33333292, 4089.74358940, 4048.33333292, 4059.87179446, 4043.97435856, 4095.12820478, 4046.66666625, 4059.74358933, 4052.43589702, 4061.41025600, 4082.17948684, 4122.43589716,10.0
4059.74358933, 4080.38461504, 4071.53846119, 4095.38461504, 4057.05128164, 4072.69230735, 4058.33333292, 4085.51282017, 4044.48717907, 4062.17948677, 4045.76923036, 4063.84615343, 4082.17948684, 4122.05128178,10.0
4053.20512779, 4076.28205094, 4064.23076882, 4090.76923043, 4055.89743548, 4068.84615343, 4055.64102523, 4069.10256369, 4041.66666625, 4050.38461497, 4035.12820465, 4058.97435856, 4073.07692273, 4122.05128178,10.0
4051.92307651, 4078.84615350, 4062.43589702, 4089.87179453, 4047.17948677, 4068.97435856, 4057.69230728, 4082.82051248, 4061.28205087, 4051.02564061, 4036.28205080, 4059.87179446, 4070.76923043, 4120.12820485,10.0
4060.12820472, 4083.97435863, 4070.64102530, 4098.71794837, 4057.17948677, 4084.23076889, 4073.97435863, 4091.02564068, 4073.07692273, 4061.02564061, 4042.43589702, 4063.33333292, 4077.17948684, 4120.38461511,10.0
4061.66666625, 4084.23076889, 4071.66666632, 4103.84615357, 4076.66666632, 4088.07692273, 4080.51282017, 4090.64102530, 4068.84615343, 4062.05128164, 4042.82051241, 4062.05128164, 4078.84615350, 4121.66666639,10.0
4059.99999959, 4086.66666632, 4069.99999966, 4102.17948684, 4077.43589709, 4084.61538427, 4079.87179453, 4104.48717921, 4073.20512786, 4062.69230728, 4047.17948677, 4065.76923036, 4080.12820478, 4123.20512793,10.0
4066.28205087, 4090.51282017, 4082.30769196, 4106.28205101, 4073.97435863, 4098.71794837, 4094.74358940, 4102.30769196, 4074.61538427, 4072.30769196, 4055.89743548, 4078.46153812, 4087.30769196, 4122.05128178,10.0
4070.25640991, 4087.17948684, 4091.02564068, 4112.56410229, 4078.71794837, 4105.12820485, 4098.58974325, 4086.92307658, 4061.79487138, 4075.89743555, 4057.17948677, 4084.10256376, 4090.12820478, 4122.05128178,10.0
4054.61538420, 4075.76923043, 4076.41025607, 4101.28205094, 4066.41025600, 4077.05128171, 4062.56410215, 4078.07692273, 4049.74358933, 4057.69230728, 4045.51282010, 4068.71794830, 4076.28205094, 4124.74358947,10.0
4032.94871747, 4063.07692266, 4056.66666625, 4084.87179453, 4046.02564061, 4055.51282010, 4034.74358926, 4072.69230735, 4047.30769189, 4043.71794830, 4027.94871747, 4045.64102523, 4062.30769189, 4123.46153819,10.0
4032.69230721, 4062.17948677, 4054.61538420, 4085.51282017, 4047.94871754, 4070.51282017, 4049.10256369, 4086.02564068, 4054.48717907, 4054.61538420, 4023.33333285, 4043.71794830, 4065.64102523, 4123.20512793,10.0
4044.99999959, 4072.17948684, 4061.66666625, 4091.28205094, 4059.10256369, 4083.58974325, 4062.56410215, 4101.79487145, 4062.30769189, 4062.69230728, 4034.99999952, 4055.12820472, 4071.79487145, 4125.12820485,10.0
4049.99999959, 4082.30769196, 4070.76923043, 4093.71794837, 4070.38461504, 4081.79487145, 4060.25640984, 4089.23076889, 4061.92307651, 4061.53846113, 4044.74358933, 4059.87179446, 4073.97435863, 4123.71794844,10.0
4051.66666625, 4082.17948684, 4078.58974325, 4095.51282017, 4076.28205094, 4086.66666632, 4064.61538420, 4071.41025607, 4058.71794830, 4062.94871754, 4040.64102523, 4059.35897395, 4074.35897402, 4122.05128178,10.0
4050.51282010, 4070.12820478, 4074.10256376, 4090.51282017, 4062.94871754, 4080.76923043, 4059.10256369, 4068.20512779, 4053.33333292, 4058.97435856, 4031.92307644, 4054.99999959, 4067.94871754, 4121.79487152,10.0
4052.94871754, 4071.28205094, 4071.15384581, 4091.02564068, 4058.46153805, 4070.89743555, 4053.84615343, 4075.12820478, 4056.92307651, 4058.97435856, 4038.97435856, 4058.07692266, 4069.35897395, 4123.07692280,10.0
4061.15384574, 4084.87179453, 4080.64102530, 4102.82051255, 4069.74358940, 4081.02564068, 4066.92307651, 4089.35897402, 4076.79487145, 4072.82051248, 4056.41025600, 4069.74358940, 4084.35897402, 4121.02564075,10.0
4058.46153805, 4081.79487145, 4079.48717914, 4102.17948684, 4063.97435856, 4085.89743555, 4068.20512779, 4081.41025607, 4077.82051248, 4074.74358940, 4058.07692266, 4066.53846113, 4086.41025607, 4117.82051255,10.0
4051.66666625, 4070.76923043, 4065.51282010, 4088.97435863, 4051.53846113, 4073.46153812, 4058.71794830, 4066.79487138, 4058.71794830, 4062.30769189, 4047.94871754, 4051.66666625, 4076.41025607, 4122.56410229,10.0
4051.66666625, 4070.64102530, 4062.94871754, 4087.17948684, 4051.79487138, 4065.89743548, 4057.05128164, 4084.10256376, 4055.51282010, 4059.10256369, 4047.69230728, 4050.76923036, 4077.69230735, 4124.74358947,10.0
4049.35897395, 4072.94871761, 4067.94871754, 4094.10256376, 4058.71794830, 4070.89743555, 4052.56410215, 4089.87179453, 4061.53846113, 4061.53846113, 4051.66666625, 4054.48717907, 4082.05128171, 4121.15384588,10.0
4039.99999959, 4069.48717907, 4060.38461497, 4092.94871761, 4059.10256369, 4070.12820478, 4044.61538420, 4061.02564061, 4053.97435856, 4057.17948677, 4041.41025600, 4043.33333292, 4073.58974325, 4121.15384588,10.0
4034.61538413, 4069.99999966, 4046.79487138, 4090.64102530, 4053.33333292, 4065.38461497, 4044.74358933, 4046.66666625, 4043.71794830, 4050.38461497, 4029.23076875, 4033.84615336, 4064.48717907, 4122.56410229,10.0
4034.87179439, 4074.10256376, 4044.48717907, 4095.25640991, 4059.35897395, 4069.61538420, 4047.82051241, 4056.41025600, 4040.64102523, 4048.33333292, 4032.56410208, 4034.87179439, 4064.74358933, 4122.82051255,10.0
4035.25640977, 4073.20512786, 4051.79487138, 4098.58974325, 4068.46153805, 4074.99999966, 4049.48717907, 4063.84615343, 4046.53846113, 4054.23076882, 4041.66666625, 4041.02564061, 4067.43589702, 4120.64102537,10.0
4039.74358933, 4071.79487145, 4061.28205087, 4099.87179453, 4060.76923036, 4070.51282017, 4052.17948677, 4071.28205094, 4059.23076882, 4059.99999959, 4045.12820472, 4049.87179446, 4069.87179453, 4121.15384588,10.0
4041.79487138, 4073.20512786, 4063.71794830, 4101.92307658, 4049.74358933, 4064.99999959, 4051.66666625, 4072.30769196, 4056.66666625, 4054.99999959, 4042.94871754, 4051.53846113, 4067.94871754, 4123.33333306,10.0
4041.92307651, 4078.84615350, 4063.58974318, 4105.38461511, 4064.61538420, 4072.17948684, 4054.74358933, 4070.12820478, 4048.58974318, 4055.12820472, 4048.46153805, 4052.56410215, 4069.23076882, 4121.79487152,10.0
4049.74358933, 4083.97435863, 4070.38461504, 4108.20512793, 4079.87179453, 4076.53846119, 4057.17948677, 4079.99999966, 4062.05128164, 4068.58974318, 4062.69230728, 4062.17948677, 4079.23076889, 4123.07692280,10.0
4053.20512779, 4082.94871761, 4074.35897402, 4104.61538434, 4070.12820478, 4073.84615350, 4053.46153805, 4078.84615350, 4072.69230735, 4076.15384581, 4070.12820478, 4070.25640991, 4085.25640991, 4124.61538434,10.0
4049.61538420, 4079.35897402, 4076.28205094, 4101.92307658, 4063.84615343, 4078.58974325, 4057.94871754, 4068.84615343, 4067.30769189, 4073.20512786, 4068.58974318, 4066.79487138, 4082.30769196, 4123.07692280,10.0
4060.89743548, 4087.05128171, 4083.58974325, 4108.71794844, 4076.79487145, 4088.71794837, 4072.69230735, 4081.02564068, 4075.51282017, 4080.89743555, 4071.79487145, 4065.76923036, 4086.15384581, 4122.43589716,10.0
4083.58974325, 4105.25640998, 4097.17948684, 4123.84615357, 4097.05128171, 4098.84615350, 4088.33333299, 4112.05128178, 4098.84615350, 4100.38461504, 4088.20512786, 4080.89743555, 4101.02564068, 4122.56410229,10.0
4091.79487145, 4110.64102537, 4107.69230742, 4132.94871767, 4108.07692280, 4109.10256383, 4098.46153812, 4127.82051255, 4110.25640998, 4106.79487152, 4096.79487145, 4090.64102530, 4106.28205101, 4123.46153819,10.0
4092.56410222, 4107.82051255, 4104.10256383, 4130.76923050, 4109.48717921, 4114.35897408, 4100.51282017, 4115.89743562, 4107.69230742, 4103.71794844, 4091.79487145, 4084.99999966, 4103.07692280, 4121.79487152,10.0
4104.35897408, 4117.56410229, 4103.58974332, 4135.38461518, 4108.33333306, 4118.46153819, 4111.28205101, 4108.84615357, 4111.15384588, 4113.07692280, 4095.38461504, 4090.89743555, 4106.28205101, 4119.61538434,10.0
4114.99999973, 4122.56410229, 4112.69230742, 4139.87179467, 4111.28205101, 4118.07692280, 4118.20512793, 4124.87179460, 4113.07692280, 4120.51282024, 4101.28205094, 4099.48717914, 4108.07692280, 4121.79487152,10.0
4108.33333306, 4108.46153819, 4106.66666639, 4129.35897408, 4112.17948691, 4101.02564068, 4092.69230735, 4129.23076896, 4102.30769196, 4107.94871767, 4092.94871761, 4085.64102530, 4099.74358940, 4124.10256383,10.0
4099.23076889, 4101.15384581, 4091.41025607, 4121.02564075, 4097.43589709, 4089.10256376, 4070.89743555, 4107.82051255, 4091.15384581, 4095.89743555, 4084.61538427, 4074.99999966, 4089.23076889, 4122.82051255,10.0
4103.97435870, 4109.48717921, 4098.46153812, 4128.97435870, 4092.43589709, 4101.02564068, 4089.61538427, 4098.97435863, 4091.02564068, 4096.53846119, 4094.35897402, 4086.41025607, 4089.87179453, 4121.02564075,10.0
4106.92307665, 4111.66666639, 4109.87179460, 4138.33333313, 4103.58974332, 4108.07692280, 4102.05128171, 4103.46153819, 4093.58974325, 4096.02564068, 4103.71794844, 4092.69230735, 4097.94871761, 4123.33333306,10.0
4102.17948684, 4107.56410229, 4107.30769203, 4134.99999973, 4097.69230735, 4099.61538427, 4088.33333299, 4098.97435863, 4090.76923043, 4095.51282017, 4102.94871767, 4088.46153812, 4099.48717914, 4127.94871767,10.0
4108.97435870, 4111.53846126, 4117.30769203, 4135.64102544, 4092.17948684, 4104.87179460, 4089.99999966, 4102.17948684, 4095.64102530, 4104.10256383, 4111.02564075, 4096.66666632, 4099.48717914, 4126.53846126,10.0
4121.02564075, 4120.38461511, 4131.53846126, 4147.30769210, 4108.58974332, 4117.30769203, 4108.71794844, 4117.30769203, 4106.53846126, 4117.30769203, 4121.92307665, 4107.56410229, 4104.48717921, 4123.71794844,10.0
4116.92307665, 4120.89743562, 4121.79487152, 4150.64102544, 4113.97435870, 4110.25640998, 4110.64102537, 4117.43589716, 4107.94871767, 4117.82051255, 4116.79487152, 4101.53846119, 4105.89743562, 4124.48717921,10.0
4104.35897408, 4113.46153819, 4106.02564075, 4141.79487159, 4101.66666632, 4100.12820478, 4096.15384581, 4103.71794844, 4099.23076889, 4102.69230742, 4103.58974332, 4090.64102530, 4098.84615350, 4123.07692280,10.0
4102.94871767, 4111.41025614, 4105.64102537, 4142.17948697, 4108.84615357, 4106.66666639, 4093.20512786, 4103.46153819, 4096.92307658, 4102.17948684, 4107.05128178, 4090.51282017, 4095.25640991, 4122.17948691,10.0
4107.69230742, 4118.20512793, 4111.53846126, 4155.64102544, 4128.71794844, 4119.61538434, 4107.69230742, 4114.48717921, 4109.74358947, 4123.33333306, 4122.05128178, 4098.97435863, 4101.79487145, 4122.82051255,10.0
4107.05128178, 4119.61538434, 4109.61538434, 4160.12820492, 4126.15384588, 4117.43589716, 4105.76923050, 4106.15384588, 4113.20512793, 4127.56410229, 4122.17948691, 4100.76923043, 4106.15384588, 4124.48717921,10.0
4101.66666632, 4110.89743562, 4102.82051255, 4151.41025621, 4107.69230742, 4102.56410229, 4084.10256376, 4088.46153812, 4099.61538427, 4112.43589716, 4112.17948691, 4091.41025607, 4102.69230742, 4124.35897408,10.0
4099.74358940, 4106.79487152, 4108.20512793, 4147.30769210, 4104.35897408, 4101.15384581, 4081.41025607, 4091.79487145, 4097.05128171, 4113.97435870, 4113.97435870, 4090.89743555, 4099.99999966, 4119.48717921,10.0
4108.58974332, 4114.35897408, 4123.33333306, 4154.35897415, 4113.07692280, 4114.87179460, 4098.46153812, 4105.64102537, 4108.20512793, 4123.71794844, 4123.97435870, 4107.69230742, 4106.66666639, 4120.76923050,10.0
4109.35897408, 4111.79487152, 4119.74358947, 4153.46153826, 4099.87179453, 4112.17948691, 4096.41025607, 4105.38461511, 4108.33333306, 4117.43589716, 4123.84615357, 4111.79487152, 4113.07692280, 4124.48717921,10.0
4098.84615350, 4100.38461504, 4108.71794844, 4143.07692287, 4086.41025607, 4095.38461504, 4083.20512786, 4095.76923043, 4099.10256376, 4112.69230742, 4118.46153819, 4097.69230735, 4107.43589716, 4122.30769203,10.0
4099.35897402, 4103.84615357, 4115.38461511, 4143.46153826, 4101.41025607, 4097.56410222, 4086.53846119, 4095.64102530, 4097.69230735, 4117.05128178, 4119.48717921, 4094.10256376, 4104.35897408, 4119.23076896,10.0
4106.15384588, 4116.41025614, 4120.25640998, 4155.12820492, 4112.82051255, 4113.07692280, 4098.07692273, 4104.61538434, 4104.23076896, 4118.46153819, 4123.58974332, 4099.35897402, 4109.87179460, 4121.41025614,10.0
4107.69230742, 4120.89743562, 4112.17948691, 4162.17948697, 4108.07692280, 4120.25640998, 4104.23076896, 4109.48717921, 4109.74358947, 4118.97435870, 4124.10256383, 4099.74358940, 4111.15384588, 4127.94871767,10.0
4104.10256383, 4116.79487152, 4105.89743562, 4156.41025621, 4110.25640998, 4115.51282024, 4098.46153812, 4103.97435870, 4100.76923043, 4112.43589716, 4120.38461511, 4097.82051248, 4105.12820485, 4126.15384588,10.0
4099.10256376, 4110.12820485, 4103.97435870, 4147.56410236, 4108.71794844, 4106.15384588, 4086.53846119, 4094.61538427, 4085.25640991, 4098.33333299, 4116.28205101, 4093.07692273, 4101.28205094, 4121.02564075,10.0
4099.99999966, 4111.15384588, 4103.20512793, 4148.46153826, 4098.33333299, 4109.10256383, 4089.74358940, 4095.38461504, 4089.35897402, 4103.71794844, 4114.48717921, 4090.38461504, 4103.33333306, 4122.94871767,10.0
4101.79487145, 4116.53846126, 4105.76923050, 4153.84615364, 4104.23076896, 4115.64102537, 4097.94871761, 4102.43589709, 4106.15384588, 4123.33333306, 4113.33333306, 4094.61538427, 4108.20512793, 4123.20512793,10.0
4104.48717921, 4117.94871767, 4112.69230742, 4158.84615364, 4120.89743562, 4114.99999973, 4101.53846119, 4110.76923050, 4114.99999973, 4130.76923050, 4114.48717921, 4100.64102530, 4117.69230742, 4122.43589716,10.0
4113.58974332, 4119.23076896, 4122.56410229, 4160.76923056, 4124.10256383, 4119.35897408, 4110.25640998, 4115.25640998, 4113.20512793, 4127.94871767, 4119.48717921, 4105.38461511, 4121.41025614, 4123.71794844,10.0
4116.79487152, 4116.02564075, 4123.84615357, 4157.94871774, 4117.69230742, 4122.56410229, 4113.58974332, 4111.92307665, 4106.02564075, 4120.25640998, 4119.74358947, 4109.23076896, 4117.56410229, 4123.20512793,10.0
4113.97435870, 4113.33333306, 4122.56410229, 4159.99999980, 4119.74358947, 4123.97435870, 4115.89743562, 4116.28205101, 4113.07692280, 4119.87179460, 4120.25640998, 4110.12820485, 4115.89743562, 4122.17948691,10.0
4115.76923050, 4120.38461511, 4131.28205101, 4166.92307672, 4121.15384588, 4130.76923050, 4125.25640998, 4125.89743562, 4123.07692280, 4129.74358947, 4127.69230742, 4110.38461511, 4118.84615357, 4121.02564075,10.0
4116.02564075, 4122.43589716, 4132.43589716, 4165.64102544, 4115.76923050, 4127.94871767, 4115.12820485, 4119.74358947, 4109.74358947, 4129.10256383, 4126.66666639, 4110.51282024, 4119.74358947, 4120.38461511,10.0
4111.79487152, 4114.87179460, 4124.10256383, 4159.61538441, 4111.53846126, 4114.48717921, 4097.43589709, 4108.07692280, 4097.94871761, 4120.76923050, 4120.12820485, 4108.20512793, 4118.33333306, 4121.79487152,10.0
4111.92307665, 4113.58974332, 4122.69230742, 4156.41025621, 4100.89743555, 4113.58974332, 4103.84615357, 4112.43589716, 4109.10256383, 4125.76923050, 4122.17948691, 4106.41025614, 4117.43589716, 4122.56410229,10.0
4115.25640998, 4117.82051255, 4121.28205101, 4154.48717928, 4099.23076889, 4121.15384588, 4115.51282024, 4121.41025614, 4115.76923050, 4130.64102537, 4123.46153819, 4103.46153819, 4115.89743562, 4123.20512793,10.0
4126.15384588, 4122.56410229, 4122.43589716, 4161.41025621, 4127.17948691, 4128.46153819, 4121.92307665, 4128.07692280, 4119.61538434, 4132.82051255, 4125.89743562, 4108.07692280, 4123.71794844, 4122.56410229,10.0
4142.94871774, 4134.23076896, 4128.71794844, 4179.23076910, 4143.46153826, 4140.51282031, 4132.94871767, 4135.51282031, 4133.46153819, 4145.25641005, 4137.17948697, 4121.66666639, 4131.79487152, 4121.28205101,10.0
4138.71794851, 4139.23076903, 4125.76923050, 4181.92307679, 4123.46153819, 4134.87179460, 4124.61538434, 4127.05128178, 4127.05128178, 4144.48717928, 4136.53846133, 4121.41025614, 4124.10256383, 4121.28205101,10.0
4119.74358947, 4130.12820485, 4118.20512793, 4170.12820499, 4115.64102537, 4117.17948691, 4100.51282017, 4111.92307665, 4110.89743562, 4131.79487152, 4129.87179460, 4115.25640998, 4116.66666639, 4121.28205101,10.0
4119.35897408, 4126.41025614, 4121.02564075, 4170.51282038, 4133.71794844, 4120.51282024, 4100.12820478, 4110.89743562, 4112.17948691, 4132.17948691, 4137.30769210, 4122.69230742, 4120.25640998, 4125.38461511,10.0
4132.17948691, 4132.94871767, 4126.28205101, 4181.41025628, 4141.53846133, 4134.87179460, 4114.23076896, 4108.71794844, 4109.61538434, 4133.84615357, 4140.89743569, 4129.48717921, 4123.58974332, 4126.53846126,10.0
4131.79487152, 4133.46153819, 4124.35897408, 4180.38461525, 4131.02564075, 4130.38461511, 4114.23076896, 4102.82051255, 4100.38461504, 4124.23076896, 4133.58974332, 4122.82051255, 4120.89743562, 4123.20512793,10.0
4123.07692280, 4128.33333306, 4121.66666639, 4171.79487166, 4121.92307665, 4116.02564075, 4107.43589716, 4105.51282024, 4098.07692273, 4118.97435870, 4130.51282024, 4116.66666639, 4117.05128178, 4121.66666639,10.0
4119.10256383, 4126.41025614, 4122.17948691, 4171.28205115, 4124.74358947, 4113.46153819, 4104.35897408, 4108.33333306, 4095.89743555, 4123.58974332, 4130.64102537, 4115.64102537, 4111.79487152, 4122.56410229,10.0
4116.28205101, 4121.66666639, 4123.07692280, 4169.87179474, 4125.76923050, 4116.79487152, 4101.92307658, 4110.38461511, 4096.53846119, 4122.69230742, 4127.69230742, 4114.35897408, 4108.84615357, 4126.66666639,10.0
4108.33333306, 4116.28205101, 4121.02564075, 4165.51282031, 4112.56410229, 4115.64102537, 4097.56410222, 4114.87179460, 4105.38461511, 4115.89743562, 4127.05128178, 4112.69230742, 4111.53846126, 4125.12820485,10.0
4106.53846126, 4119.99999973, 4121.79487152, 4167.30769210, 4101.15384581, 4111.79487152, 4097.94871761, 4113.46153819, 4109.48717921, 4118.58974332, 4130.12820485, 4113.84615357, 4119.23076896, 4122.56410229,10.0
4122.05128178, 4130.25640998, 4132.43589716, 4173.71794858, 4113.46153819, 4118.46153819, 4115.25640998, 4117.30769203, 4114.74358947, 4136.79487159, 4135.64102544, 4123.97435870, 4130.12820485, 4127.43589716,10.0
4130.38461511, 4133.58974332, 4136.79487159, 4177.43589730, 4127.17948691, 4126.79487152, 4127.56410229, 4123.20512793, 4121.15384588, 4147.43589723, 4140.12820492, 4132.17948691, 4130.51282024, 4125.25640998,10.0
4122.94871767, 4132.05128178, 4123.20512793, 4172.82051269, 4122.69230742, 4121.79487152, 4119.48717921, 4116.92307665, 4111.79487152, 4134.35897408, 4135.76923056, 4124.61538434, 4121.79487152, 4119.10256383,10.0
4114.23076896, 4132.17948691, 4105.89743562, 4169.23076910, 4119.74358947, 4119.99999973, 4116.41025614, 4114.61538434, 4105.64102537, 4132.05128178, 4130.12820485, 4114.10256383, 4122.43589716, 4121.41025614,10.0
4109.10256383, 4128.58974332, 4100.38461504, 4169.61538448, 4123.07692280, 4124.48717921, 4118.71794844, 4117.56410229, 4114.10256383, 4142.56410236, 4128.46153819, 4110.51282024, 4123.97435870, 4123.33333306,10.0
4112.94871767, 4126.79487152, 4103.07692280, 4169.48717935, 4122.69230742, 4124.61538434, 4114.10256383, 4112.82051255, 4113.97435870, 4135.76923056, 4129.61538434, 4113.58974332, 4120.12820485, 4121.53846126,10.0
4123.07692280, 4130.76923050, 4107.05128178, 4170.25641012, 4124.99999973, 4121.79487152, 4113.33333306, 4113.46153819, 4110.76923050, 4131.15384588, 4133.07692280, 4119.35897408, 4122.69230742, 4121.15384588,10.0
4125.25640998, 4131.66666639, 4108.84615357, 4169.48717935, 4125.76923050, 4117.05128178, 4109.87179460, 4116.66666639, 4110.51282024, 4137.69230749, 4126.41025614, 4118.97435870, 4124.48717921, 4122.82051255,10.0
4119.35897408, 4129.23076896, 4105.25640998, 4165.51282031, 4117.30769203, 4116.15384588, 4099.48717914, 4108.20512793, 4103.33333306, 4132.05128178, 4115.25640998, 4111.92307665, 4114.99999973, 4123.71794844,10.0
4121.02564075, 4131.41025614, 4105.89743562, 4168.84615371, 4119.74358947, 4126.15384588, 4108.58974332, 4112.05128178, 4107.82051255, 4128.97435870, 4118.71794844, 4115.89743562, 4113.84615357, 4122.69230742,10.0
4129.74358947, 4135.64102544, 4116.02564075, 4176.41025628, 4128.71794844, 4133.46153819, 4127.05128178, 4126.41025614, 4123.97435870, 4136.66666646, 4131.53846126, 4131.28205101, 4129.48717921, 4122.82051255,10.0
4131.66666639, 4132.43589716, 4123.46153819, 4174.10256397, 4123.84615357, 4123.46153819, 4120.76923050, 4120.12820485, 4121.28205101, 4132.56410229, 4136.02564082, 4136.79487159, 4135.76923056, 4122.56410229,10.0
4128.58974332, 4127.82051255, 4122.94871767, 4167.82051262, 4118.58974332, 4115.38461511, 4113.58974332, 4116.66666639, 4114.10256383, 4131.02564075, 4134.48717921, 4132.82051255, 4129.10256383, 4122.69230742,10.0
4127.43589716, 4129.99999973, 4119.99999973, 4168.07692287, 4122.94871767, 4123.46153819, 4128.20512793, 4130.38461511, 4125.38461511, 4144.48717928, 4134.74358947, 4130.89743562, 4128.58974332, 4122.05128178,10.0
4122.56410229, 4129.87179460, 4111.28205101, 4169.48717935, 4122.94871767, 4129.74358947, 4134.87179460, 4130.38461511, 4129.61538434, 4140.38461518, 4132.69230742, 4130.12820485, 4129.48717921, 4120.51282024,10.0
4114.99999973, 4125.64102537, 4103.46153819, 4171.53846140, 4118.84615357, 4127.43589716, 4119.87179460, 4121.02564075, 4119.61538434, 4126.53846126, 4130.12820485, 4126.28205101, 4124.10256383, 4123.20512793,10.0
4113.07692280, 4126.41025614, 4110.64102537, 4177.56410243, 4121.15384588, 4119.23076896, 4107.94871767, 4114.99999973, 4113.58974332, 4128.46153819, 4133.58974332, 4126.02564075, 4122.82051255, 4124.35897408,10.0
4114.23076896, 4133.20512793, 4124.23076896, 4184.48717935, 4126.02564075, 4118.97435870, 4109.87179460, 4102.43589709, 4109.48717921, 4130.51282024, 4139.74358954, 4134.48717921, 4126.41025614, 4122.05128178,10.0
4112.82051255, 4134.23076896, 4122.82051255, 4185.51282038, 4126.02564075, 4130.12820485, 4108.20512793, 4096.53846119, 4104.61538434, 4121.79487152, 4138.20512800, 4136.92307672, 4125.12820485, 4124.74358947,10.0
4107.82051255, 4129.48717921, 4109.61538434, 4184.10256397, 4130.25640998, 4133.58974332, 4102.43589709, 4102.69230742, 4099.99999966, 4115.76923050, 4128.07692280, 4129.23076896, 4120.38461511, 4127.94871767,10.0
4109.74358947, 4134.87179460, 4106.66666639, 4184.87179474, 4140.89743569, 4129.61538434, 4104.99999973, 4103.71794844, 4098.71794837, 4117.30769203, 4126.02564075, 4127.17948691, 4117.43589716, 4126.66666639,10.0
4116.66666639, 4140.89743569, 4112.30769203, 4186.15384602, 4143.33333313, 4127.56410229, 4106.53846126, 4103.33333306, 4105.38461511, 4122.17948691, 4127.56410229, 4127.30769203, 4119.74358947, 4120.76923050,10.0
4116.79487152, 4134.48717921, 4110.51282024, 4186.15384602, 4135.51282031, 4128.71794844, 4103.84615357, 4103.97435870, 4105.89743562, 4122.82051255, 4123.58974332, 4122.30769203, 4121.15384588, 4118.46153819,10.0
4118.84615357, 4129.99999973, 4109.48717921, 4184.35897422, 4136.66666646, 4127.56410229, 4104.48717921, 4101.28205094, 4095.12820478, 4115.64102537, 4121.53846126, 4120.25640998, 4117.30769203, 4124.99999973,10.0
4130.25640998, 4138.07692287, 4119.99999973, 4183.46153833, 4138.33333313, 4128.46153819, 4109.61538434, 4106.53846126, 4106.15384588, 4119.35897408, 4131.28205101, 4130.51282024, 4122.56410229, 4124.87179460,10.0
4139.48717928, 4144.74358954, 4128.20512793, 4190.64102551, 4135.38461518, 4138.58974339, 4121.53846126, 4123.58974332, 4133.33333306, 4142.82051262, 4145.25641005, 4144.10256390, 4137.43589723, 4120.89743562,10.0
4139.74358954, 4142.56410236, 4124.23076896, 4195.51282038, 4143.20512800, 4141.92307672, 4132.82051255, 4135.38461518, 4135.89743569, 4154.74358954, 4147.43589723, 4144.99999980, 4139.74358954, 4122.30769203,10.0
4136.28205108, 4141.53846133, 4123.33333306, 4190.25641012, 4151.28205108, 4135.89743569, 4128.20512793, 4135.51282031, 4127.82051255, 4145.38461518, 4142.43589723, 4139.87179467, 4132.17948691, 4123.58974332,10.0
4135.89743569, 4144.35897415, 4130.76923050, 4186.92307679, 4141.28205108, 4136.02564082, 4121.02564075, 4130.51282024, 4129.10256383, 4140.64102544, 4143.71794851, 4141.92307672, 4132.82051255, 4124.87179460,10.0
4138.97435877, 4144.87179467, 4131.92307665, 4188.97435884, 4137.05128185, 4139.10256390, 4128.07692280, 4127.94871767, 4127.30769203, 4147.05128185, 4151.28205108, 4145.12820492, 4137.82051262, 4122.56410229,10.0
4129.74358947, 4137.43589723, 4118.58974332, 4181.92307679, 4144.99999980, 4131.41025614, 4124.99999973, 4115.51282024, 4110.64102537, 4140.64102544, 4144.61538441, 4135.25640998, 4128.97435870, 4122.43589716,10.0
4110.89743562, 4125.51282024, 4102.94871767, 4167.30769210, 4141.28205108, 4121.15384588, 4104.10256383, 4096.92307658, 4096.02564068, 4119.74358947, 4122.94871767, 4120.89743562, 4110.64102537, 4124.74358947,10.0
4112.30769203, 4127.30769203, 4107.43589716, 4169.74358961, 4135.25640998, 4121.66666639, 4100.38461504, 4099.23076889, 4097.43589709, 4118.84615357, 4122.56410229, 4123.07692280, 4112.94871767, 4122.43589716,10.0
4128.58974332, 4141.79487159, 4122.94871767, 4185.76923063, 4139.74358954, 4132.82051255, 4121.53846126, 4121.92307665, 4113.33333306, 4139.35897415, 4137.69230749, 4133.46153819, 4130.51282024, 4121.15384588,10.0
4122.82051255, 4139.99999980, 4119.61538434, 4184.10256397, 4138.84615364, 4139.61538441, 4127.69230742, 4126.66666639, 4123.07692280, 4143.71794851, 4136.79487159, 4132.82051255, 4131.02564075, 4121.92307665,10.0
4102.56410229, 4122.05128178, 4102.56410229, 4168.97435884, 4132.82051255, 4127.94871767, 4107.69230742, 4105.76923050, 4109.61538434, 4126.79487152, 4125.25640998, 4122.05128178, 4122.05128178, 4121.53846126,10.0
4107.69230742, 4124.99999973, 4101.92307658, 4171.28205115, 4136.02564082, 4118.07692280, 4106.15384588, 4106.02564075, 4106.92307665, 4125.12820485, 4129.99999973, 4127.69230742, 4128.58974332, 4120.38461511,10.0
4126.79487152, 4143.58974339, 4114.74358947, 4182.82051269, 4146.15384595, 4128.97435870, 4129.87179460, 4133.84615357, 4127.82051255, 4145.25641005, 4143.46153826, 4145.89743569, 4139.23076903, 4121.79487152,10.0
4126.53846126, 4139.23076903, 4114.35897408, 4176.66666653, 4138.20512800, 4136.15384595, 4134.74358947, 4141.15384595, 4133.46153819, 4146.53846133, 4135.64102544, 4143.33333313, 4133.58974332, 4123.58974332,10.0
4117.43589716, 4126.66666639, 4104.61538434, 4166.41025621, 4124.74358947, 4129.48717921, 4121.53846126, 4122.94871767, 4118.33333306, 4129.87179460, 4122.05128178, 4132.05128178, 4125.38461511, 4122.43589716,10.0
4117.30769203, 4130.51282024, 4102.56410229, 4170.89743576, 4129.10256383, 4129.10256383, 4121.53846126, 4112.17948691, 4107.82051255, 4123.46153819, 4127.30769203, 4133.58974332, 4124.35897408, 4121.41025614,10.0
4118.58974332, 4134.10256383, 4104.61538434, 4176.41025628, 4128.07692280, 4130.64102537, 4121.66666639, 4113.84615357, 4104.87179460, 4120.51282024, 4132.43589716, 4135.38461518, 4121.79487152, 4124.35897408,10.0
4115.89743562, 4127.56410229, 4102.69230742, 4169.99999986, 4116.79487152, 4120.38461511, 4107.17948691, 4111.15384588, 4101.79487145, 4114.48717921, 4123.20512793, 4130.25640998, 4118.07692280, 4124.23076896,10.0
4114.61538434, 4121.41025614, 4097.05128171, 4163.33333313, 4117.69230742, 4110.12820485, 4096.66666632, 4103.58974332, 4102.30769196, 4112.69230742, 4115.89743562, 4124.74358947, 4115.76923050, 4120.25640998,10.0
4110.64102537, 4118.84615357, 4093.33333299, 4159.10256390, 4119.87179460, 4113.07692280, 4096.92307658, 4103.20512793, 4101.53846119, 4113.58974332, 4116.41025614, 4118.07692280, 4117.30769203, 4120.38461511,10.0
4104.99999973, 4117.05128178, 4092.69230735, 4157.05128185, 4114.48717921, 4116.53846126, 4102.82051255, 4112.05128178, 4104.35897408, 4116.15384588, 4115.25640998, 4111.79487152, 4120.64102537, 4121.79487152,10.0
4105.25640998, 4118.20512793, 4088.33333299, 4159.74358954, 4116.02564075, 4116.79487152, 4107.69230742, 4106.53846126, 4101.15384581, 4117.05128178, 4109.10256383, 4107.43589716, 4119.10256383, 4123.20512793,10.0
4107.94871767, 4121.28205101, 4085.25640991, 4162.69230749, 4121.79487152, 4126.02564075, 4110.38461511, 4096.92307658, 4093.97435863, 4114.23076896, 4110.64102537, 4106.66666639, 4115.89743562, 4124.35897408,10.0
4115.76923050, 4125.89743562, 4097.17948684, 4164.87179467, 4127.94871767, 4136.41025621, 4119.35897408, 4116.53846126, 4111.28205101, 4125.64102537, 4126.15384588, 4118.84615357, 4124.87179460, 4123.97435870,10.0
4122.56410229, 4129.48717921, 4107.17948691, 4166.92307672, 4137.43589723, 4133.71794844, 4126.92307665, 4130.76923050, 4126.28205101, 4138.58974339, 4135.64102544, 4129.35897408, 4138.58974339, 4122.82051255,10.0
4117.30769203, 4127.82051255, 4102.43589709, 4169.48717935, 4136.15384595, 4127.94871767, 4119.74358947, 4115.38461511, 4113.20512793, 4128.71794844, 4130.51282024, 4125.76923050, 4139.74358954, 4121.66666639,10.0
4115.38461511, 4128.46153819, 4108.46153819, 4171.92307679, 4130.38461511, 4133.84615357, 4123.33333306, 4120.38461511, 4109.87179460, 4125.89743562, 4129.61538434, 4125.64102537, 4136.28205108, 4125.38461511,10.0
4121.53846126, 4133.71794844, 4120.38461511, 4173.20512807, 4136.79487159, 4139.35897415, 4137.82051262, 4140.25641005, 4122.05128178, 4137.17948697, 4129.35897408, 4130.76923050, 4132.17948691, 4124.23076896,10.0
4123.20512793, 4133.33333306, 4110.89743562, 4168.46153833, 4139.99999980, 4133.84615357, 4127.69230742, 4125.76923050, 4116.92307665, 4134.99999973, 4120.12820485, 4126.79487152, 4127.05128178, 4121.41025614,10.0
4124.87179460, 4130.89743562, 4102.94871767, 4164.61538441, 4132.05128178, 4130.25640998, 4113.71794844, 4110.64102537, 4109.61538434, 4131.02564075, 4119.10256383, 4121.92307665, 4130.12820485, 4124.23076896,10.0
4136.41025621, 4138.71794851, 4123.84615357, 4173.46153833, 4138.46153826, 4142.69230749, 4131.66666639, 4131.28205101, 4126.15384588, 4140.38461518, 4130.51282024, 4130.51282024, 4137.69230749, 4123.58974332,10.0
4155.12820492, 4155.38461518, 4144.61538441, 4183.71794858, 4163.46153826, 4160.12820492, 4157.43589723, 4152.05128185, 4145.64102544, 4154.61538441, 4143.71794851, 4145.64102544, 4146.92307672, 4122.56410229,10.0
4167.05128185, 4163.33333313, 4143.97435877, 4187.69230756, 4167.43589723, 4156.79487159, 4153.46153826, 4150.89743569, 4151.02564082, 4166.28205108, 4153.07692287, 4156.53846133, 4154.87179467, 4122.82051255,10.0
4168.07692287, 4158.07692287, 4139.74358954, 4188.97435884, 4155.12820492, 4149.87179467, 4145.38461518, 4151.79487159, 4151.53846133, 4170.38461525, 4154.61538441, 4157.56410236, 4155.51282031, 4122.82051255,10.0
4166.53846133, 4153.20512800, 4139.87179467, 4188.84615371, 4163.97435877, 4161.28205108, 4159.23076903, 4154.35897415, 4154.48717928, 4168.84615371, 4155.38461518, 4153.58974339, 4150.76923056, 4123.46153819,10.0
4168.33333320, 4153.97435877, 4137.94871774, 4188.84615371, 4174.48717935, 4165.12820492, 4162.82051262, 4146.92307672, 4157.17948697, 4168.97435884, 4159.23076903, 4157.43589723, 4150.89743569, 4122.17948691,10.0
4173.33333320, 4153.97435877, 4137.30769210, 4192.94871781, 4168.33333320, 4154.74358954, 4151.02564082, 4148.71794851, 4158.20512800, 4168.71794858, 4160.89743569, 4164.10256390, 4154.61538441, 4122.94871767,10.0
4175.25641012, 4151.28205108, 4138.46153826, 4197.56410243, 4162.30769210, 4151.15384595, 4149.74358954, 4153.46153826, 4155.38461518, 4168.97435884, 4160.89743569, 4159.99999980, 4152.05128185, 4123.46153819,10.0
4165.51282031, 4146.92307672, 4130.38461511, 4191.28205115, 4157.30769210, 4148.97435877, 4147.30769210, 4137.43589723, 4138.97435877, 4162.69230749, 4158.33333313, 4149.74358954, 4146.66666646, 4121.79487152,10.0
4155.38461518, 4143.20512800, 4119.10256383, 4182.30769217, 4151.15384595, 4141.92307672, 4137.82051262, 4126.66666639, 4126.92307665, 4150.51282031, 4149.35897415, 4142.82051262, 4142.05128185, 4124.61538434,10.0
4158.20512800, 4142.56410236, 4120.76923050, 4183.33333320, 4157.17948697, 4143.97435877, 4142.56410236, 4139.74358954, 4136.79487159, 4151.02564082, 4144.74358954, 4141.28205108, 4142.82051262, 4126.53846126,10.0
4163.07692287, 4145.12820492, 4126.79487152, 4187.05128192, 4160.12820492, 4146.02564082, 4146.41025621, 4148.20512800, 4144.48717928, 4157.05128185, 4150.12820492, 4145.51282031, 4145.25641005, 4120.89743562,10.0
4156.02564082, 4143.33333313, 4119.23076896, 4179.99999986, 4145.51282031, 4137.05128185, 4130.51282024, 4145.64102544, 4133.97435870, 4148.58974339, 4146.28205108, 4142.30769210, 4139.74358954, 4119.10256383,10.0
4151.15384595, 4140.25641005, 4112.17948691, 4178.58974345, 4146.02564082, 4136.28205108, 4128.33333306, 4148.07692287, 4133.20512793, 4140.38461518, 4140.76923056, 4132.94871767, 4137.17948697, 4123.46153819,10.0
4160.51282031, 4144.10256390, 4120.51282024, 4191.66666653, 4154.74358954, 4146.92307672, 4143.58974339, 4149.99999980, 4151.66666646, 4156.15384595, 4155.12820492, 4136.66666646, 4148.71794851, 4123.33333306,10.0
4166.15384595, 4146.66666646, 4125.76923050, 4195.25641012, 4147.69230749, 4149.74358954, 4141.53846133, 4143.58974339, 4153.97435877, 4170.64102551, 4168.20512807, 4147.56410236, 4154.35897415, 4121.53846126,10.0
4161.28205108, 4141.92307672, 4119.61538434, 4187.30769217, 4146.79487159, 4141.28205108, 4129.74358947, 4135.64102544, 4135.25640998, 4157.56410236, 4156.15384595, 4145.89743569, 4139.61538441, 4124.48717921,10.0
4158.20512800, 4138.71794851, 4118.46153819, 4185.25641012, 4147.17948697, 4134.99999973, 4127.56410229, 4130.76923050, 4128.58974332, 4143.97435877, 4145.64102544, 4141.15384595, 4134.61538434, 4126.02564075,10.0
4160.76923056, 4142.17948697, 4125.89743562, 4188.97435884, 4138.07692287, 4136.02564082, 4133.84615357, 4132.82051255, 4140.12820492, 4156.28205108, 4158.07692287, 4148.46153826, 4147.69230749, 4123.33333306,10.0
4165.38461518, 4151.66666646, 4128.84615357, 4194.48717935, 4152.82051262, 4148.07692287, 4153.33333313, 4151.15384595, 4153.07692287, 4176.15384602, 4172.43589730, 4158.33333313, 4155.76923056, 4124.23076896,10.0
4158.07692287, 4149.10256390, 4113.97435870, 4187.82051269, 4168.46153833, 4152.43589723, 4155.76923056, 4153.20512800, 4152.30769210, 4171.53846140, 4166.53846133, 4154.99999980, 4149.10256390, 4125.25640998,10.0
4148.84615364, 4133.71794844, 4098.20512786, 4171.92307679, 4144.87179467, 4140.25641005, 4135.12820485, 4134.87179460, 4141.15384595, 4156.02564082, 4152.30769210, 4143.71794851, 4140.12820492, 4125.76923050,10.0
4158.58974339, 4134.48717921, 4106.66666639, 4171.41025628, 4129.10256383, 4135.89743569, 4141.28205108, 4149.23076903, 4148.71794851, 4160.38461518, 4155.25641005, 4146.28205108, 4143.33333313, 4124.35897408,10.0
4161.92307672, 4142.05128185, 4114.61538434, 4175.38461525, 4139.61538441, 4138.71794851, 4151.02564082, 4166.53846133, 4162.17948697, 4168.46153833, 4162.82051262, 4151.28205108, 4146.15384595, 4121.92307665,10.0
4147.30769210, 4138.20512800, 4107.56410229, 4171.15384602, 4144.74358954, 4139.99999980, 4133.97435870, 4143.33333313, 4145.76923056, 4155.76923056, 4156.41025621, 4140.89743569, 4139.74358954, 4125.12820485,10.0
4144.61538441, 4138.97435877, 4109.48717921, 4174.10256397, 4151.28205108, 4147.17948697, 4133.20512793, 4127.82051255, 4128.07692280, 4148.58974339, 4151.79487159, 4136.02564082, 4138.84615364, 4123.71794844,10.0
4158.33333313, 4144.61538441, 4121.02564075, 4180.89743576, 4156.53846133, 4149.10256390, 4145.64102544, 4143.71794851, 4137.30769210, 4158.58974339, 4156.92307672, 4145.38461518, 4140.64102544, 4119.10256383,10.0
4164.23076903, 4140.89743569, 4121.28205101, 4175.76923063, 4148.58974339, 4138.46153826, 4134.10256383, 4144.23076903, 4145.38461518, 4152.17948697, 4155.64102544, 4148.07692287, 4137.43589723, 4122.69230742,10.0
4159.48717928, 4135.25640998, 4116.53846126, 4171.41025628, 4138.07692287, 4139.23076903, 4123.71794844, 4128.46153819, 4136.15384595, 4139.99999980, 4147.43589723, 4141.41025621, 4136.41025621, 4124.61538434,10.0
4158.71794851, 4140.38461518, 4116.79487152, 4175.76923063, 4132.43589716, 4147.17948697, 4132.56410229, 4125.64102537, 4129.87179460, 4146.28205108, 4145.76923056, 4140.64102544, 4136.66666646, 4123.84615357,10.0
4163.71794851, 4147.56410236, 4121.28205101, 4182.56410243, 4143.58974339, 4143.84615364, 4136.41025621, 4133.84615357, 4133.33333306, 4149.61538441, 4147.82051262, 4145.25641005, 4133.46153819, 4123.71794844,10.0
4166.79487159, 4149.10256390, 4131.28205101, 4186.79487166, 4160.38461518, 4146.41025621, 4140.25641005, 4143.46153826, 4138.20512800, 4146.41025621, 4151.79487159, 4145.89743569, 4132.30769203, 4122.05128178,10.0
4167.05128185, 4150.51282031, 4137.94871774, 4185.64102551, 4160.64102544, 4157.69230749, 4153.33333313, 4146.53846133, 4139.23076903, 4149.35897415, 4155.76923056, 4146.66666646, 4137.17948697, 4123.46153819,10.0
4165.25641005, 4149.35897415, 4139.35897415, 4183.33333320, 4154.23076903, 4152.82051262, 4152.82051262, 4146.41025621, 4138.46153826, 4148.71794851, 4152.69230749, 4148.33333313, 4140.25641005, 4124.35897408,10.0
4159.23076903, 4144.10256390, 4135.51282031, 4180.12820499, 4152.82051262, 4141.79487159, 4139.48717928, 4147.17948697, 4141.53846133, 4142.56410236, 4145.38461518, 4143.58974339, 4135.12820485, 4122.69230742,10.0
4159.23076903, 4144.10256390, 4135.51282031, 4180.12820499, 4152.82051262, 4141.79487159, 4139.48717928, 4147.17948697, 4141.53846133, 4142.56410236, 4145.38461518, 4143.58974339, 4135.12820485, 4122.69230742,10.0
4160.89743569, 4147.43589723, 4136.28205108, 4183.71794858, 4158.33333313, 4151.15384595, 4150.12820492, 4153.07692287, 4151.66666646, 4150.64102544, 4151.66666646, 4149.61538441, 4138.46153826, 4123.46153819,10.0
4167.69230749, 4157.43589723, 4146.28205108, 4189.48717935, 4163.71794851, 4161.15384595, 4173.58974345, 4162.82051262, 4157.69230749, 4164.48717928, 4165.64102544, 4162.43589723, 4153.84615364, 4122.82051255,10.0
4159.23076903, 4148.46153826, 4138.07692287, 4177.56410243, 4155.38461518, 4149.35897415, 4161.02564082, 4154.87179467, 4141.41025621, 4154.99999980, 4158.71794851, 4149.35897415, 4150.76923056, 4121.53846126,10.0
4143.58974339, 4131.79487152, 4118.97435870, 4164.61538441, 4144.99999980, 4134.99999973, 4136.41025621, 4137.17948697, 4125.38461511, 4140.51282031, 4147.94871774, 4132.30769203, 4137.94871774, 4122.17948691,10.0
4139.87179467, 4136.53846133, 4123.97435870, 4171.53846140, 4149.35897415, 4136.15384595, 4140.76923056, 4139.74358954, 4137.82051262, 4147.17948697, 4157.17948697, 4140.76923056, 4145.38461518, 4121.28205101,10.0
4144.48717928, 4146.53846133, 4139.74358954, 4177.82051269, 4149.23076903, 4140.51282031, 4146.79487159, 4149.23076903, 4149.99999980, 4160.38461518, 4164.99999980, 4154.99999980, 4152.82051262, 4119.35897408,10.0
4150.38461518, 4145.38461518, 4135.64102544, 4175.64102551, 4142.43589723, 4141.79487159, 4146.15384595, 4145.64102544, 4146.92307672, 4164.23076903, 4162.82051262, 4160.25641005, 4148.58974339, 4121.66666639,10.0
4150.76923056, 4140.64102544, 4125.38461511, 4172.17948704, 4141.02564082, 4135.25640998, 4145.89743569, 4139.74358954, 4140.38461518, 4155.38461518, 4161.41025621, 4153.07692287, 4144.87179467, 4126.79487152,10.0
4140.76923056, 4135.89743569, 4123.46153819, 4164.61538441, 4140.76923056, 4124.74358947, 4133.07692280, 4135.12820485, 4131.15384588, 4142.05128185, 4158.84615364, 4139.87179467, 4140.64102544, 4122.17948691,10.0
4135.76923056, 4137.17948697, 4125.64102537, 4163.84615364, 4144.61538441, 4125.64102537, 4124.61538434, 4132.30769203, 4129.87179460, 4144.23076903, 4156.53846133, 4141.53846133, 4136.28205108, 4118.33333306,10.0
4135.89743569, 4139.48717928, 4122.69230742, 4164.48717928, 4144.99999980, 4129.48717921, 4133.46153819, 4131.53846126, 4131.41025614, 4148.58974339, 4148.71794851, 4142.69230749, 4133.97435870, 4123.07692280,10.0
4129.74358947, 4135.51282031, 4111.66666639, 4158.07692287, 4143.84615364, 4131.79487152, 4139.74358954, 4126.02564075, 4125.38461511, 4139.87179467, 4137.05128185, 4129.48717921, 4133.07692280, 4121.15384588,10.0
4125.12820485, 4129.35897408, 4108.84615357, 4154.74358954, 4144.35897415, 4135.89743569, 4139.99999980, 4124.23076896, 4127.05128178, 4136.28205108, 4138.97435877, 4124.23076896, 4134.61538434, 4118.58974332,10.0
4122.94871767, 4127.82051255, 4118.46153819, 4155.89743569, 4135.89743569, 4136.79487159, 4145.38461518, 4144.99999980, 4136.66666646, 4144.35897415, 4147.69230749, 4128.58974332, 4139.48717928, 4120.38461511,10.0
4124.74358947, 4132.30769203, 4123.58974332, 4158.33333313, 4135.12820485, 4138.71794851, 4149.23076903, 4164.87179467, 4138.07692287, 4148.33333313, 4148.97435877, 4132.05128178, 4141.79487159, 4121.79487152,10.0
4128.97435870, 4138.20512800, 4124.35897408, 4162.94871774, 4148.58974339, 4148.71794851, 4148.07692287, 4152.05128185, 4131.53846126, 4145.51282031, 4146.53846133, 4137.30769210, 4140.12820492, 4123.71794844,10.0
4126.28205101, 4136.28205108, 4125.64102537, 4163.46153826, 4150.38461518, 4149.48717928, 4144.35897415, 4135.64102544, 4131.66666639, 4142.56410236, 4142.05128185, 4135.89743569, 4139.23076903, 4123.84615357,10.0
4119.35897408, 4129.23076896, 4114.48717921, 4152.30769210, 4135.12820485, 4139.10256390, 4135.76923056, 4134.61538434, 4131.79487152, 4138.46153826, 4130.89743562, 4121.15384588, 4134.99999973, 4122.94871767,10.0
4121.79487152, 4130.89743562, 4101.66666632, 4151.15384595, 4131.28205101, 4136.28205108, 4130.89743562, 4137.69230749, 4134.48717921, 4139.74358954, 4128.20512793, 4116.53846126, 4130.64102537, 4122.05128178,10.0
4125.64102537, 4134.10256383, 4109.99999973, 4157.43589723, 4137.43589723, 4137.56410236, 4128.07692280, 4141.02564082, 4139.35897415, 4141.53846133, 4135.51282031, 4128.58974332, 4132.82051255, 4120.89743562,10.0
4119.48717921, 4129.99999973, 4121.15384588, 4152.94871774, 4138.07692287, 4133.46153819, 4126.66666639, 4142.43589723, 4137.69230749, 4138.97435877, 4136.53846133, 4133.20512793, 4136.41025621, 4120.51282024,10.0
4119.10256383, 4127.05128178, 4117.69230742, 4150.51282031, 4137.94871774, 4130.89743562, 4129.99999973, 4133.97435870, 4136.79487159, 4142.56410236, 4137.30769210, 4128.07692280, 4136.66666646, 4121.02564075,10.0
4129.87179460, 4129.87179460, 4117.82051255, 4155.12820492, 4140.38461518, 4137.69230749, 4134.87179460, 4132.69230742, 4141.66666646, 4149.99999980, 4146.66666646, 4131.79487152, 4140.38461518, 4123.33333306,10.0
4132.30769203, 4132.82051255, 4119.23076896, 4151.28205108, 4138.58974339, 4140.76923056, 4135.12820485, 4139.74358954, 4140.12820492, 4151.41025621, 4146.28205108, 4135.64102544, 4143.20512800, 4122.94871767,10.0
4122.82051255, 4128.97435870, 4110.89743562, 4145.38461518, 4130.64102537, 4132.69230742, 4127.94871767, 4132.69230742, 4130.76923050, 4142.82051262, 4136.66666646, 4127.82051255, 4139.10256390, 4119.99999973,10.0
4115.89743562, 4123.46153819, 4110.38461511, 4149.61538441, 4129.35897408, 4127.05128178, 4122.82051255, 4127.30769203, 4128.97435870, 4133.20512793, 4137.05128185, 4124.48717921, 4133.07692280, 4121.92307665,10.0
4109.74358947, 4121.92307665, 4119.87179460, 4148.20512800, 4134.87179460, 4128.46153819, 4121.66666639, 4130.25640998, 4127.69230742, 4128.20512793, 4138.07692287, 4127.94871767, 4125.38461511, 4124.35897408,10.0
4108.97435870, 4126.79487152, 4122.05128178, 4145.89743569, 4139.10256390, 4134.48717921, 4127.17948691, 4129.87179460, 4125.38461511, 4130.25640998, 4136.53846133, 4129.87179460, 4124.35897408, 4121.15384588,10.0
4119.48717921, 4133.46153819, 4120.38461511, 4155.38461518, 4138.07692287, 4138.97435877, 4133.20512793, 4132.69230742, 4134.99999973, 4137.05128185, 4141.53846133, 4132.56410229, 4130.64102537, 4120.89743562,10.0
4124.48717921, 4134.87179460, 4125.38461511, 4160.12820492, 4131.92307665, 4137.56410236, 4134.48717921, 4136.15384595, 4140.38461518, 4140.12820492, 4147.30769210, 4136.92307672, 4132.05128178, 4124.10256383,10.0
4116.28205101, 4130.51282024, 4125.12820485, 4152.05128185, 4129.99999973, 4129.99999973, 4124.99999973, 4122.43589716, 4122.30769203, 4134.23076896, 4146.66666646, 4132.94871767, 4127.43589716, 4124.61538434,10.0
4114.35897408, 4128.71794844, 4123.84615357, 4151.53846133, 4138.33333313, 4125.64102537, 4110.12820485, 4106.28205101, 4107.05128178, 4130.25640998, 4148.97435877, 4129.61538434, 4127.56410229, 4121.66666639,10.0
4125.12820485, 4130.64102537, 4126.02564075, 4158.46153826, 4143.20512800, 4125.25640998, 4109.48717921, 4113.58974332, 4119.61538434, 4137.30769210, 4146.28205108, 4134.74358947, 4130.38461511, 4122.43589716,10.0
4123.46153819, 4125.51282024, 4118.20512793, 4150.76923056, 4133.20512793, 4124.87179460, 4117.30769203, 4123.20512793, 4127.05128178, 4138.33333313, 4128.97435870, 4127.30769203, 4125.25640998, 4125.64102537,10.0
4107.82051255, 4117.69230742, 4108.20512793, 4138.97435877, 4122.82051255, 4120.38461511, 4114.23076896, 4114.74358947, 4113.84615357, 4123.97435870, 4121.66666639, 4110.76923050, 4119.23076896, 4124.23076896,10.0
4104.61538434, 4116.28205101, 4106.41025614, 4137.94871774, 4122.69230742, 4112.30769203, 4105.12820485, 4107.56410229, 4105.64102537, 4116.28205101, 4124.87179460, 4106.79487152, 4117.56410229, 4123.84615357,10.0
4112.30769203, 4117.82051255, 4106.28205101, 4139.74358954, 4127.43589716, 4118.58974332, 4108.84615357, 4112.94871767, 4110.89743562, 4122.17948691, 4122.94871767, 4112.56410229, 4117.94871767, 4121.92307665,10.0
4110.89743562, 4119.61538434, 4104.74358947, 4137.94871774, 4127.05128178, 4132.17948691, 4120.25640998, 4120.64102537, 4112.94871767, 4123.46153819, 4119.74358947, 4109.48717921, 4118.07692280, 4120.12820485,10.0
4105.25640998, 4117.94871767, 4100.89743555, 4135.51282031, 4121.41025614, 4129.99999973, 4126.92307665, 4124.61538434, 4111.53846126, 4119.99999973, 4119.87179460, 4102.17948684, 4114.87179460, 4124.23076896,10.0
4104.48717921, 4117.94871767, 4094.74358940, 4135.25640998, 4126.53846126, 4127.56410229, 4131.28205101, 4131.92307665, 4122.43589716, 4124.10256383, 4119.35897408, 4105.64102537, 4116.28205101, 4121.92307665,10.0
4105.38461511, 4123.84615357, 4095.64102530, 4135.38461518, 4133.84615357, 4136.15384595, 4129.35897408, 4136.53846133, 4131.41025614, 4131.79487152, 4120.76923050, 4113.58974332, 4122.69230742, 4119.10256383,10.0
4106.15384588, 4121.66666639, 4102.05128171, 4134.48717921, 4117.69230742, 4135.25640998, 4120.76923050, 4127.56410229, 4127.82051255, 4135.64102544, 4127.94871767, 4115.64102537, 4127.94871767, 4122.43589716,10.0
4107.05128178, 4117.82051255, 4106.28205101, 4135.89743569, 4106.28205101, 4127.05128178, 4119.35897408, 4117.43589716, 4124.23076896, 4133.84615357, 4132.30769203, 4116.28205101, 4130.51282024, 4124.23076896,10.0
4110.25640998, 4125.64102537, 4105.25640998, 4136.41025621, 4128.58974332, 4126.66666639, 4119.74358947, 4112.17948691, 4114.74358947, 4123.97435870, 4129.99999973, 4115.51282024, 4128.71794844, 4124.23076896,10.0
4108.07692280, 4122.56410229, 4097.56410222, 4129.87179460, 4142.56410236, 4123.84615357, 4107.94871767, 4112.43589716, 4102.69230742, 4118.97435870, 4124.48717921, 4109.10256383, 4121.15384588, 4123.20512793,10.0
4098.97435863, 4107.69230742, 4095.51282017, 4122.05128178, 4126.92307665, 4121.02564075, 4102.17948684, 4117.30769203, 4104.61538434, 4120.64102537, 4121.02564075, 4104.61538434, 4113.07692280, 4122.17948691,10.0
4091.15384581, 4109.35897408, 4099.74358940, 4120.38461511, 4114.35897408, 4121.02564075, 4109.23076896, 4116.92307665, 4104.10256383, 4110.51282024, 4115.64102537, 4102.56410229, 4106.79487152, 4121.92307665,10.0
4090.38461504, 4116.66666639, 4098.33333299, 4123.20512793, 4117.56410229, 4117.30769203, 4113.97435870, 4112.69230742, 4092.05128171, 4102.30769196, 4107.05128178, 4100.89743555, 4103.20512793, 4121.66666639,10.0
4102.43589709, 4117.69230742, 4097.43589709, 4124.48717921, 4128.07692280, 4127.43589716, 4122.94871767, 4122.30769203, 4100.76923043, 4115.25640998, 4107.82051255, 4105.64102537, 4108.84615357, 4122.94871767,10.0
4116.53846126, 4124.61538434, 4106.28205101, 4126.53846126, 4140.64102544, 4146.79487159, 4139.61538441, 4140.12820492, 4124.48717921, 4131.15384588, 4118.33333306, 4113.71794844, 4119.10256383, 4123.97435870,10.0
4113.46153819, 4124.87179460, 4106.92307665, 4129.61538434, 4139.35897415, 4139.74358954, 4134.23076896, 4134.10256383, 4120.12820485, 4125.38461511, 4119.23076896, 4113.46153819, 4117.94871767, 4123.07692280,10.0
4106.66666639, 4119.23076896, 4102.69230742, 4131.02564075, 4129.61538434, 4122.05128178, 4115.25640998, 4117.82051255, 4105.25640998, 4116.79487152, 4114.35897408, 4114.35897408, 4113.71794844, 4121.92307665,10.0
4111.79487152, 4120.25640998, 4108.07692280, 4132.56410229, 4132.56410229, 4123.20512793, 4114.35897408, 4116.02564075, 4105.89743562, 4120.89743562, 4119.23076896, 4122.69230742, 4117.69230742, 4122.17948691,10.0
4118.46153819, 4123.71794844, 4114.23076896, 4134.61538434, 4133.71794844, 4129.23076896, 4128.20512793, 4124.87179460, 4115.64102537, 4120.89743562, 4122.69230742, 4124.23076896, 4119.35897408, 4122.17948691,10.0
4120.25640998, 4129.10256383, 4120.25640998, 4134.23076896, 4128.20512793, 4133.07692280, 4136.79487159, 4133.20512793, 4123.46153819, 4119.48717921, 4122.43589716, 4126.66666639, 4119.10256383, 4121.02564075,10.0
4118.33333306, 4131.79487152, 4124.48717921, 4133.97435870, 4130.76923050, 4134.87179460, 4126.41025614, 4128.97435870, 4116.02564075, 4121.28205101, 4127.43589716, 4132.69230742, 4120.64102537, 4121.66666639,10.0
4111.02564075, 4122.94871767, 4120.64102537, 4133.33333306, 4134.87179460, 4130.25640998, 4113.71794844, 4114.99999973, 4102.43589709, 4114.99999973, 4128.71794844, 4126.28205101, 4119.87179460, 4122.94871767,10.0
4106.15384588, 4116.02564075, 4114.99999973, 4131.15384588, 4135.25640998, 4125.25640998, 4116.41025614, 4110.38461511, 4104.48717921, 4109.74358947, 4124.87179460, 4114.10256383, 4117.05128178, 4122.30769203,10.0
4111.53846126, 4120.51282024, 4116.92307665, 4130.64102537, 4134.23076896, 4123.97435870, 4118.84615357, 4124.23076896, 4111.53846126, 4117.17948691, 4122.82051255, 4114.48717921, 4118.07692280, 4123.58974332,10.0
4114.48717921, 4118.58974332, 4118.71794844, 4130.25640998, 4129.74358947, 4119.99999973, 4109.35897408, 4132.43589716, 4107.17948691, 4117.30769203, 4118.97435870, 4118.46153819, 4120.25640998, 4124.35897408,10.0
4117.17948691, 4118.84615357, 4122.94871767, 4133.71794844, 4130.64102537, 4125.38461511, 4117.17948691, 4136.79487159, 4112.17948691, 4117.17948691, 4117.56410229, 4119.87179460, 4120.64102537, 4122.17948691,10.0
4126.79487152, 4129.23076896, 4132.69230742, 4137.30769210, 4136.02564082, 4139.61538441, 4140.51282031, 4145.64102544, 4123.58974332, 4127.30769203, 4121.79487152, 4123.46153819, 4122.30769203, 4121.15384588,10.0
4120.51282024, 4127.30769203, 4130.64102537, 4130.12820485, 4131.15384588, 4135.89743569, 4137.69230749, 4140.38461518, 4114.99999973, 4119.87179460, 4118.97435870, 4116.28205101, 4119.61538434, 4122.82051255,10.0
4107.05128178, 4116.66666639, 4121.28205101, 4126.02564075, 4123.20512793, 4124.23076896, 4125.25640998, 4135.25640998, 4109.61538434, 4109.35897408, 4116.02564075, 4107.69230742, 4117.56410229, 4125.76923050,10.0
4110.89743562, 4116.41025614, 4124.35897408, 4131.79487152, 4128.20512793, 4122.43589716, 4128.84615357, 4137.43589723, 4119.61538434, 4119.74358947, 4121.41025614, 4113.58974332, 4119.48717921, 4123.20512793,10.0
4113.58974332, 4117.69230742, 4126.15384588, 4131.66666639, 4128.71794844, 4120.64102537, 4130.51282024, 4129.74358947, 4117.56410229, 4121.79487152, 4117.30769203, 4117.56410229, 4115.51282024, 4118.58974332,10.0
4106.66666639, 4115.51282024, 4121.41025614, 4129.23076896, 4122.69230742, 4118.97435870, 4126.15384588, 4118.71794844, 4102.17948684, 4106.79487152, 4107.43589716, 4111.15384588, 4107.94871767, 4121.28205101,10.0
4103.07692280, 4114.74358947, 4121.66666639, 4135.89743569, 4122.43589716, 4124.10256383, 4126.41025614, 4116.79487152, 4092.17948684, 4100.89743555, 4107.17948691, 4107.69230742, 4106.92307665, 4122.82051255,10.0
4102.05128171, 4114.10256383, 4120.51282024, 4136.41025621, 4128.84615357, 4128.07692280, 4124.74358947, 4117.05128178, 4093.20512786, 4108.58974332, 4109.74358947, 4108.84615357, 4112.82051255, 4123.71794844,10.0
4108.71794844, 4121.92307665, 4123.97435870, 4136.15384595, 4143.58974339, 4128.97435870, 4124.99999973, 4122.43589716, 4111.02564075, 4124.74358947, 4117.30769203, 4117.17948691, 4125.25640998, 4124.23076896,10.0
4122.05128178, 4133.84615357, 4136.66666646, 4141.41025621, 4140.25641005, 4133.20512793, 4131.92307665, 4133.20512793, 4133.07692280, 4142.69230749, 4132.69230742, 4131.28205101, 4135.25640998, 4120.51282024,10.0
4132.30769203, 4142.05128185, 4143.71794851, 4145.38461518, 4131.02564075, 4142.43589723, 4144.35897415, 4139.35897415, 4139.35897415, 4146.53846133, 4143.71794851, 4135.89743569, 4135.64102544, 4122.56410229,10.0
4150.12820492, 4155.25641005, 4156.41025621, 4155.89743569, 4165.12820492, 4160.38461518, 4171.28205115, 4159.10256390, 4153.46153826, 4156.41025621, 4155.76923056, 4141.79487159, 4145.76923056, 4125.12820485,10.0
4169.48717935, 4163.58974339, 4175.51282038, 4164.35897415, 4195.76923063, 4170.51282038, 4184.35897422, 4177.69230756, 4170.64102551, 4169.74358961, 4166.66666646, 4152.69230749, 4158.71794851, 4122.56410229,10.0
4160.25641005, 4151.53846133, 4166.66666646, 4155.89743569, 4167.30769210, 4156.92307672, 4157.94871774, 4161.28205108, 4153.07692287, 4153.84615364, 4157.17948697, 4146.15384595, 4147.43589723, 4121.41025614,10.0
4148.84615364, 4144.35897415, 4151.15384595, 4152.69230749, 4151.02564082, 4149.35897415, 4148.33333313, 4146.53846133, 4138.84615364, 4143.58974339, 4148.46153826, 4138.84615364, 4137.30769210, 4121.79487152,10.0
4160.51282031, 4154.87179467, 4166.02564082, 4163.58974339, 4179.74358961, 4162.94871774, 4176.28205115, 4156.66666646, 4150.51282031, 4159.61538441, 4157.94871774, 4149.23076903, 4146.66666646, 4122.17948691,10.0
4167.17948697, 4153.97435877, 4175.38461525, 4164.10256390, 4179.87179474, 4162.69230749, 4176.41025628, 4157.94871774, 4150.51282031, 4158.71794851, 4163.84615364, 4153.07692287, 4149.61538441, 4121.79487152,10.0
4164.99999980, 4143.58974339, 4168.84615371, 4155.64102544, 4151.66666646, 4150.12820492, 4152.17948697, 4151.41025621, 4142.82051262, 4143.71794851, 4160.76923056, 4144.99999980, 4144.35897415, 4122.43589716,10.0
4170.25641012, 4148.84615364, 4178.07692294, 4158.58974339, 4155.89743569, 4154.87179467, 4159.23076903, 4157.05128185, 4151.02564082, 4154.35897415, 4164.74358954, 4149.23076903, 4149.99999980, 4120.89743562,10.0
4175.64102551, 4158.58974339, 4190.25641012, 4166.28205108, 4173.46153833, 4166.92307672, 4174.35897422, 4163.71794851, 4159.99999980, 4173.20512807, 4175.51282038, 4159.10256390, 4159.23076903, 4118.07692280,10.0
4179.99999986, 4161.41025621, 4187.94871781, 4168.71794858, 4172.30769217, 4172.43589730, 4178.07692294, 4172.43589730, 4165.64102544, 4176.02564089, 4182.94871781, 4161.02564082, 4162.82051262, 4121.28205101,10.0
4183.84615371, 4163.84615364, 4184.99999986, 4172.82051269, 4173.46153833, 4172.05128192, 4180.76923063, 4173.71794858, 4170.76923063, 4172.17948704, 4181.53846140, 4161.02564082, 4161.66666646, 4123.46153819,10.0
4176.79487166, 4161.41025621, 4177.69230756, 4172.43589730, 4175.51282038, 4160.38461518, 4167.17948697, 4153.46153826, 4158.20512800, 4158.84615364, 4171.53846140, 4155.12820492, 4153.46153826, 4120.25640998,10.0
4174.61538448, 4160.25641005, 4168.20512807, 4167.30769210, 4169.99999986, 4156.53846133, 4154.87179467, 4145.12820492, 4147.05128185, 4149.23076903, 4165.64102544, 4145.89743569, 4144.23076903, 4119.35897408,10.0
4179.61538448, 4164.48717928, 4170.64102551, 4169.61538448, 4176.79487166, 4165.25641005, 4162.94871774, 4151.41025621, 4154.23076903, 4155.12820492, 4164.23076903, 4144.10256390, 4141.28205108, 4120.51282024,10.0
4179.99999986, 4164.35897415, 4171.79487166, 4177.56410243, 4187.94871781, 4163.97435877, 4166.92307672, 4154.87179467, 4160.76923056, 4160.25641005, 4162.17948697, 4147.05128185, 4146.15384595, 4122.05128178,10.0
4180.89743576, 4162.30769210, 4168.20512807, 4178.20512807, 4181.79487166, 4159.87179467, 4165.25641005, 4165.76923056, 4161.41025621, 4160.25641005, 4168.33333320, 4150.38461518, 4156.79487159, 4122.69230742,10.0
4180.51282038, 4163.07692287, 4173.58974345, 4173.58974345, 4179.35897422, 4161.79487159, 4172.56410243, 4175.76923063, 4162.82051262, 4164.74358954, 4176.28205115, 4153.97435877, 4157.94871774, 4121.41025614,10.0
4182.30769217, 4165.89743569, 4183.20512807, 4176.66666653, 4183.58974345, 4162.69230749, 4175.25641012, 4170.64102551, 4161.02564082, 4170.25641012, 4176.79487166, 4156.41025621, 4153.20512800, 4122.82051255,10.0
4191.15384602, 4169.74358961, 4186.41025628, 4180.76923063, 4176.41025628, 4163.58974339, 4173.33333320, 4166.41025621, 4161.92307672, 4174.99999986, 4181.79487166, 4159.61538441, 4162.56410236, 4123.33333306,10.0
4194.48717935, 4168.97435884, 4179.23076910, 4180.25641012, 4175.76923063, 4166.53846133, 4180.51282038, 4173.58974345, 4169.48717935, 4178.84615371, 4187.05128192, 4162.43589723, 4168.07692287, 4122.69230742,10.0
4187.82051269, 4161.92307672, 4169.99999986, 4174.74358961, 4177.56410243, 4164.48717928, 4178.97435884, 4173.97435884, 4170.51282038, 4168.33333320, 4178.20512807, 4162.82051262, 4158.58974339, 4122.05128178,10.0
4187.30769217, 4162.82051262, 4176.92307679, 4171.92307679, 4169.87179474, 4158.84615364, 4166.28205108, 4166.02564082, 4160.76923056, 4158.46153826, 4171.15384602, 4167.05128185, 4157.69230749, 4121.53846126,10.0
4191.28205115, 4166.15384595, 4181.92307679, 4174.61538448, 4169.48717935, 4157.82051262, 4158.97435877, 4157.56410236, 4150.76923056, 4164.74358954, 4173.71794858, 4168.46153833, 4163.71794851, 4124.23076896,10.0
4188.84615371, 4165.64102544, 4172.82051269, 4177.17948704, 4180.89743576, 4160.25641005, 4164.10256390, 4153.58974339, 4151.79487159, 4169.48717935, 4172.56410243, 4163.46153826, 4160.25641005, 4123.07692280,10.0
4185.38461525, 4165.89743569, 4174.99999986, 4179.74358961, 4175.89743576, 4157.94871774, 4163.46153826, 4152.82051262, 4156.15384595, 4165.38461518, 4169.61538448, 4163.20512800, 4154.61538441, 4119.87179460,10.0
4183.33333320, 4161.28205108, 4184.35897422, 4179.10256397, 4160.76923056, 4147.43589723, 4150.12820492, 4151.79487159, 4147.82051262, 4161.92307672, 4171.02564089, 4164.61538441, 4154.23076903, 4120.64102537,10.0
4183.58974345, 4156.15384595, 4181.79487166, 4176.53846140, 4161.66666646, 4146.41025621, 4148.97435877, 4155.51282031, 4142.30769210, 4167.43589723, 4177.82051269, 4163.07692287, 4159.23076903, 4120.76923050,10.0
4184.10256397, 4156.15384595, 4177.30769217, 4172.43589730, 4170.76923063, 4154.99999980, 4163.97435877, 4162.43589723, 4155.25641005, 4174.61538448, 4183.97435884, 4159.10256390, 4165.89743569, 4121.92307665,10.0
4170.25641012, 4151.15384595, 4168.84615371, 4169.74358961, 4166.53846133, 4151.79487159, 4170.51282038, 4169.87179474, 4165.25641005, 4172.56410243, 4176.02564089, 4150.12820492, 4160.38461518, 4124.35897408,10.0
4154.87179467, 4146.41025621, 4154.10256390, 4167.43589723, 4157.69230749, 4144.48717928, 4161.66666646, 4169.23076910, 4162.82051262, 4164.48717928, 4162.94871774, 4142.82051262, 4148.71794851, 4123.33333306,10.0
4159.23076903, 4150.51282031, 4151.53846133, 4167.05128185, 4161.53846133, 4147.43589723, 4159.48717928, 4162.82051262, 4161.15384595, 4160.38461518, 4165.38461518, 4144.99999980, 4151.66666646, 4121.92307665,10.0
4167.05128185, 4153.97435877, 4158.58974339, 4172.30769217, 4166.02564082, 4156.79487159, 4171.79487166, 4165.12820492, 4160.51282031, 4165.89743569, 4177.56410243, 4150.64102544, 4158.20512800, 4121.92307665,10.0
4165.89743569, 4153.46153826, 4158.07692287, 4172.56410243, 4163.97435877, 4158.97435877, 4176.28205115, 4165.25641005, 4156.66666646, 4165.25641005, 4180.64102551, 4148.71794851, 4156.15384595, 4123.33333306,10.0
4162.82051262, 4149.74358954, 4151.41025621, 4164.61538441, 4162.56410236, 4151.28205108, 4163.20512800, 4148.97435877, 4147.05128185, 4156.02564082, 4173.07692294, 4143.84615364, 4150.51282031, 4124.35897408,10.0
4164.61538441, 4150.51282031, 4151.66666646, 4163.71794851, 4167.69230749, 4153.33333313, 4163.58974339, 4145.89743569, 4146.66666646, 4156.41025621, 4168.84615371, 4145.51282031, 4148.58974339, 4122.05128178,10.0
4173.20512807, 4161.02564082, 4164.87179467, 4173.07692294, 4172.43589730, 4162.17948697, 4177.30769217, 4164.48717928, 4159.99999980, 4171.02564089, 4176.41025628, 4150.89743569, 4153.97435877, 4120.89743562,10.0
4173.20512807, 4161.02564082, 4164.87179467, 4173.07692294, 4172.43589730, 4162.17948697, 4177.30769217, 4164.48717928, 4159.99999980, 4171.02564089, 4176.41025628, 4150.89743569, 4153.97435877, 4120.89743562,10.0
4178.46153833, 4160.38461518, 4173.71794858, 4174.87179474, 4157.94871774, 4151.92307672, 4160.38461518, 4156.53846133, 4156.02564082, 4171.66666653, 4181.28205115, 4153.46153826, 4157.17948697, 4122.05128178,10.0
4174.35897422, 4147.94871774, 4169.99999986, 4168.33333320, 4139.48717928, 4137.05128185, 4134.48717921, 4128.20512793, 4130.51282024, 4154.23076903, 4171.02564089, 4151.66666646, 4151.28205108, 4123.71794844,10.0
4169.74358961, 4147.17948697, 4168.97435884, 4163.46153826, 4147.69230749, 4142.30769210, 4138.20512800, 4132.05128178, 4129.48717921, 4150.38461518, 4166.41025621, 4150.25641005, 4145.38461518, 4122.56410229,10.0
4167.82051262, 4152.56410236, 4171.53846140, 4160.64102544, 4166.41025621, 4146.92307672, 4143.71794851, 4148.46153826, 4150.64102544, 4157.43589723, 4173.46153833, 4149.74358954, 4149.74358954, 4120.12820485,10.0
4167.56410236, 4151.66666646, 4168.20512807, 4159.87179467, 4167.82051262, 4146.15384595, 4145.89743569, 4149.61538441, 4153.71794851, 4160.38461518, 4172.05128192, 4149.48717928, 4153.07692287, 4121.02564075,10.0
4167.82051262, 4149.10256390, 4164.74358954, 4158.97435877, 4166.66666646, 4154.48717928, 4158.33333313, 4153.20512800, 4144.74358954, 4158.20512800, 4161.15384595, 4147.94871774, 4144.74358954, 4118.97435870,10.0
4164.48717928, 4148.58974339, 4167.05128185, 4159.61538441, 4169.48717935, 4157.30769210, 4157.69230749, 4158.46153826, 4142.82051262, 4151.92307672, 4156.28205108, 4144.48717928, 4137.43589723, 4120.12820485,10.0
4162.30769210, 4149.99999980, 4165.51282031, 4162.69230749, 4169.35897422, 4150.64102544, 4152.30769210, 4157.05128185, 4145.89743569, 4149.99999980, 4158.20512800, 4143.20512800, 4140.64102544, 4124.10256383,10.0
4164.61538441, 4150.12820492, 4158.33333313, 4159.61538441, 4166.53846133, 4148.58974339, 4161.28205108, 4150.51282031, 4147.43589723, 4153.33333313, 4156.92307672, 4140.89743569, 4141.53846133, 4123.20512793,10.0
4162.69230749, 4148.07692287, 4155.38461518, 4153.46153826, 4168.07692287, 4152.56410236, 4165.64102544, 4146.41025621, 4140.25641005, 4149.74358954, 4152.17948697, 4133.58974332, 4137.94871774, 4122.30769203,10.0
4153.71794851, 4148.07692287, 4157.43589723, 4155.12820492, 4166.66666646, 4148.97435877, 4158.71794851, 4151.15384595, 4127.56410229, 4143.07692287, 4147.94871774, 4128.33333306, 4139.10256390, 4121.92307665,10.0
4152.94871774, 4150.51282031, 4161.02564082, 4155.38461518, 4150.51282031, 4143.58974339, 4158.07692287, 4160.76923056, 4127.56410229, 4140.76923056, 4152.17948697, 4136.79487159, 4142.17948697, 4122.82051255,10.0
4158.97435877, 4150.12820492, 4167.30769210, 4153.58974339, 4142.43589723, 4147.05128185, 4154.35897415, 4159.35897415, 4136.66666646, 4136.41025621, 4159.87179467, 4149.23076903, 4140.64102544, 4123.71794844,10.0
4155.76923056, 4147.17948697, 4171.92307679, 4156.41025621, 4154.35897415, 4148.71794851, 4140.25641005, 4139.48717928, 4134.99999973, 4140.25641005, 4160.25641005, 4150.12820492, 4140.64102544, 4123.07692280,10.0
4151.41025621, 4146.28205108, 4168.58974345, 4154.87179467, 4163.20512800, 4148.46153826, 4142.82051262, 4136.02564082, 4130.76923050, 4150.25641005, 4157.82051262, 4148.07692287, 4143.58974339, 4124.87179460,10.0
4151.15384595, 4145.12820492, 4165.76923056, 4151.41025621, 4154.87179467, 4149.99999980, 4151.02564082, 4154.99999980, 4132.17948691, 4147.17948697, 4157.56410236, 4150.12820492, 4143.84615364, 4124.23076896,10.0
4149.35897415, 4145.12820492, 4171.15384602, 4154.35897415, 4149.23076903, 4150.38461518, 4144.74358954, 4158.97435877, 4132.56410229, 4142.17948697, 4155.51282031, 4149.48717928, 4145.38461518, 4120.76923050,10.0
4150.64102544, 4147.30769210, 4170.89743576, 4154.99999980, 4155.38461518, 4143.58974339, 4148.58974339, 4149.35897415, 4139.99999980, 4148.20512800, 4150.12820492, 4148.97435877, 4148.07692287, 4121.53846126,10.0
4148.20512800, 4141.79487159, 4157.69230749, 4146.53846133, 4153.58974339, 4137.69230749, 4160.51282031, 4149.87179467, 4152.69230749, 4151.28205108, 4147.94871774, 4150.12820492, 4144.23076903, 4121.41025614,10.0
4136.53846133, 4129.35897408, 4146.15384595, 4136.79487159, 4139.61538441, 4138.97435877, 4151.66666646, 4154.99999980, 4141.02564082, 4142.82051262, 4146.15384595, 4139.74358954, 4135.51282031, 4119.87179460,10.0
4133.07692280, 4126.41025614, 4148.20512800, 4135.12820485, 4133.58974332, 4145.64102544, 4145.76923056, 4166.53846133, 4122.94871767, 4137.05128185, 4143.07692287, 4128.20512793, 4136.66666646, 4122.94871767,10.0
4145.89743569, 4138.07692287, 4158.58974339, 4144.61538441, 4142.43589723, 4154.61538441, 4164.48717928, 4181.92307679, 4133.33333306, 4143.84615364, 4148.33333313, 4136.79487159, 4147.56410236, 4123.58974332,10.0
4150.38461518, 4144.74358954, 4158.46153826, 4148.07692287, 4144.74358954, 4147.69230749, 4159.48717928, 4162.30769210, 4139.74358954, 4145.64102544, 4149.48717928, 4144.10256390, 4145.25641005, 4122.82051255,10.0
4139.35897415, 4135.76923056, 4146.53846133, 4137.05128185, 4136.92307672, 4130.76923050, 4131.79487152, 4127.69230742, 4121.15384588, 4133.46153819, 4140.25641005, 4134.10256383, 4133.46153819, 4124.10256383,10.0
4135.64102544, 4128.33333306, 4142.69230749, 4133.97435870, 4135.12820485, 4129.99999973, 4133.20512793, 4126.79487152, 4108.84615357, 4128.84615357, 4133.20512793, 4127.69230742, 4131.28205101, 4124.10256383,10.0
4141.92307672, 4134.48717921, 4152.94871774, 4144.87179467, 4143.71794851, 4139.87179467, 4147.82051262, 4138.58974339, 4122.43589716, 4135.25640998, 4134.74358947, 4134.99999973, 4137.82051262, 4121.79487152,10.0
4144.23076903, 4140.64102544, 4160.76923056, 4149.87179467, 4142.17948697, 4138.33333313, 4139.10256390, 4137.56410236, 4135.51282031, 4133.46153819, 4137.56410236, 4139.87179467, 4139.35897415, 4121.92307665,10.0
4135.76923056, 4131.41025614, 4151.41025621, 4139.35897415, 4122.56410229, 4123.84615357, 4113.33333306, 4123.20512793, 4121.15384588, 4124.99999973, 4131.02564075, 4129.99999973, 4130.38461511, 4122.69230742,10.0
4129.87179460, 4125.51282024, 4139.61538441, 4136.66666646, 4123.71794844, 4120.12820485, 4103.33333306, 4112.43589716, 4107.30769203, 4117.56410229, 4126.41025614, 4122.05128178, 4127.17948691, 4119.87179460,10.0
4136.92307672, 4131.66666639, 4139.74358954, 4149.61538441, 4146.79487159, 4135.64102544, 4124.87179460, 4123.07692280, 4118.20512793, 4115.76923050, 4131.02564075, 4128.71794844, 4135.25640998, 4121.15384588,10.0
4142.30769210, 4134.35897408, 4138.20512800, 4147.69230749, 4145.76923056, 4144.61538441, 4141.92307672, 4131.79487152, 4126.53846126, 4129.48717921, 4132.69230742, 4132.30769203, 4136.15384595, 4123.97435870,10.0
4135.51282031, 4127.82051255, 4127.17948691, 4129.10256383, 4134.23076896, 4132.17948691, 4130.64102537, 4128.46153819, 4126.66666639, 4142.56410236, 4128.07692280, 4125.12820485, 4130.64102537, 4121.66666639,10.0
4126.66666639, 4121.28205101, 4120.89743562, 4121.66666639, 4137.17948697, 4128.46153819, 4125.64102537, 4134.87179460, 4132.56410229, 4138.97435877, 4125.76923050, 4117.69230742, 4131.15384588, 4122.69230742,10.0
4123.33333306, 4119.99999973, 4122.82051255, 4125.64102537, 4135.64102544, 4138.58974339, 4143.71794851, 4143.46153826, 4132.05128178, 4135.51282031, 4126.66666639, 4114.74358947, 4133.46153819, 4124.35897408,10.0
4124.23076896, 4116.02564075, 4119.61538434, 4123.46153819, 4128.84615357, 4138.58974339, 4150.38461518, 4137.56410236, 4124.99999973, 4136.15384595, 4126.66666639, 4114.10256383, 4129.99999973, 4122.43589716,10.0
4126.79487152, 4111.92307665, 4115.89743562, 4122.30769203, 4127.56410229, 4132.05128178, 4136.79487159, 4128.33333306, 4123.20512793, 4128.33333306, 4128.33333306, 4117.05128178, 4127.30769203, 4123.71794844,10.0
4128.33333306, 4116.02564075, 4122.56410229, 4129.10256383, 4132.43589716, 4133.20512793, 4132.82051255, 4130.25640998, 4120.76923050, 4125.89743562, 4129.74358947, 4122.69230742, 4132.05128178, 4125.12820485,10.0
4133.20512793, 4127.94871767, 4128.84615357, 4134.74358947, 4142.82051262, 4141.02564082, 4143.84615364, 4139.23076903, 4124.74358947, 4137.56410236, 4133.20512793, 4131.41025614, 4140.64102544, 4123.58974332,10.0
4136.53846133, 4133.58974332, 4127.56410229, 4138.46153826, 4139.35897415, 4144.10256390, 4144.35897415, 4141.53846133, 4137.56410236, 4141.92307672, 4137.43589723, 4138.58974339, 4144.35897415, 4121.15384588,10.0
4134.87179460, 4131.15384588, 4131.02564075, 4141.92307672, 4129.87179460, 4137.82051262, 4132.69230742, 4136.92307672, 4133.97435870, 4138.33333313, 4133.33333306, 4136.92307672, 4138.97435877, 4121.28205101,10.0
4134.61538434, 4134.35897408, 4136.66666646, 4141.41025621, 4142.43589723, 4135.64102544, 4131.02564075, 4140.38461518, 4118.84615357, 4140.89743569, 4128.46153819, 4137.17948697, 4134.74358947, 4124.35897408,10.0
4130.76923050, 4137.69230749, 4132.94871767, 4141.66666646, 4156.53846133, 4133.07692280, 4132.30769203, 4145.76923056, 4121.66666639, 4141.28205108, 4130.25640998, 4141.53846133, 4135.76923056, 4125.38461511,10.0
4124.23076896, 4134.35897408, 4124.87179460, 4145.25641005, 4150.38461518, 4132.56410229, 4135.25640998, 4139.48717928, 4130.64102537, 4133.71794844, 4130.64102537, 4136.92307672, 4133.33333306, 4124.99999973,10.0
4126.02564075, 4133.33333306, 4125.25640998, 4144.74358954, 4147.17948697, 4144.23076903, 4150.38461518, 4138.46153826, 4131.28205101, 4132.17948691, 4127.94871767, 4132.17948691, 4131.15384588, 4122.69230742,10.0
4125.38461511, 4132.30769203, 4123.07692280, 4139.87179467, 4137.43589723, 4141.66666646, 4147.82051262, 4137.17948697, 4128.58974332, 4128.33333306, 4118.46153819, 4132.82051255, 4126.02564075, 4122.05128178,10.0
4111.79487152, 4119.87179460, 4111.92307665, 4133.20512793, 4120.51282024, 4118.84615357, 4119.23076896, 4122.43589716, 4119.23076896, 4117.56410229, 4106.92307665, 4126.79487152, 4117.17948691, 4121.53846126,10.0
4101.41025607, 4110.76923050, 4109.74358947, 4126.79487152, 4121.41025614, 4117.94871767, 4113.46153819, 4121.02564075, 4107.30769203, 4117.30769203, 4106.41025614, 4121.02564075, 4116.28205101, 4118.20512793,10.0
4109.35897408, 4119.61538434, 4117.17948691, 4128.58974332, 4128.71794844, 4137.94871774, 4135.12820485, 4140.38461518, 4111.79487152, 4119.48717921, 4114.35897408, 4127.69230742, 4123.58974332, 4120.64102537,10.0
4121.15384588, 4127.17948691, 4124.23076896, 4135.38461518, 4124.48717921, 4140.89743569, 4140.76923056, 4144.74358954, 4124.35897408, 4120.12820485, 4118.84615357, 4133.20512793, 4129.61538434, 4125.12820485,10.0
4118.46153819, 4122.05128178, 4126.15384588, 4133.46153819, 4120.38461511, 4131.02564075, 4127.56410229, 4133.97435870, 4123.58974332, 4130.25640998, 4117.94871767, 4125.51282024, 4126.15384588, 4123.07692280,10.0
4106.92307665, 4114.23076896, 4118.33333306, 4121.41025614, 4127.82051255, 4129.99999973, 4124.35897408, 4136.28205108, 4119.48717921, 4130.38461511, 4111.28205101, 4114.35897408, 4119.74358947, 4120.51282024,10.0
4109.10256383, 4118.33333306, 4119.99999973, 4122.43589716, 4137.43589723, 4139.35897415, 4140.25641005, 4147.17948697, 4125.12820485, 4125.51282024, 4111.66666639, 4121.79487152, 4125.51282024, 4120.12820485,10.0
4130.12820485, 4138.33333313, 4143.84615364, 4142.05128185, 4141.53846133, 4149.74358954, 4159.74358954, 4150.89743569, 4134.48717921, 4140.38461518, 4127.94871767, 4145.12820492, 4140.51282031, 4122.17948691,10.0
4139.61538441, 4147.30769210, 4155.38461518, 4150.25641005, 4142.30769210, 4150.76923056, 4159.87179467, 4145.12820492, 4136.41025621, 4146.15384595, 4135.12820485, 4152.82051262, 4142.69230749, 4123.71794844,10.0
4126.53846126, 4132.30769203, 4142.05128185, 4137.82051262, 4137.82051262, 4138.71794851, 4139.35897415, 4133.07692280, 4127.56410229, 4125.12820485, 4123.84615357, 4139.99999980, 4130.64102537, 4122.30769203,10.0
4117.94871767, 4122.82051255, 4133.58974332, 4130.89743562, 4126.15384588, 4127.17948691, 4127.94871767, 4127.82051255, 4119.48717921, 4114.48717921, 4116.41025614, 4131.41025614, 4126.79487152, 4121.66666639,10.0
4115.38461511, 4123.46153819, 4129.87179460, 4132.30769203, 4119.99999973, 4126.92307665, 4126.41025614, 4124.87179460, 4111.15384588, 4119.48717921, 4116.79487152, 4131.66666639, 4127.30769203, 4121.15384588,10.0
4110.76923050, 4120.12820485, 4122.17948691, 4131.15384588, 4126.53846126, 4129.10256383, 4120.64102537, 4117.17948691, 4100.89743555, 4120.64102537, 4117.94871767, 4131.92307665, 4123.97435870, 4121.53846126,10.0
4113.46153819, 4117.69230742, 4119.23076896, 4129.10256383, 4119.35897408, 4124.10256383, 4118.97435870, 4121.28205101, 4099.87179453, 4118.71794844, 4118.71794844, 4131.28205101, 4123.46153819, 4123.07692280,10.0
4110.76923050, 4118.71794844, 4114.74358947, 4124.99999973, 4109.87179460, 4117.56410229, 4117.82051255, 4127.30769203, 4101.92307658, 4110.64102537, 4113.71794844, 4124.35897408, 4122.30769203, 4120.76923050,10.0
4102.43589709, 4123.20512793, 4112.05128178, 4124.61538434, 4126.02564075, 4122.05128178, 4121.53846126, 4136.15384595, 4107.17948691, 4114.87179460, 4111.53846126, 4122.05128178, 4125.38461511, 4119.61538434,10.0
4113.33333306, 4129.48717921, 4121.53846126, 4131.92307665, 4137.94871774, 4131.53846126, 4139.23076903, 4160.38461518, 4126.41025614, 4136.92307672, 4124.35897408, 4137.43589723, 4138.07692287, 4121.53846126,10.0
4123.20512793, 4125.89743562, 4127.43589716, 4135.51282031, 4129.99999973, 4132.43589716, 4145.64102544, 4162.17948697, 4133.71794844, 4143.20512800, 4135.38461518, 4146.53846133, 4143.58974339, 4124.23076896,10.0
4110.25640998, 4117.43589716, 4119.48717921, 4132.94871767, 4125.89743562, 4124.87179460, 4126.53846126, 4131.15384588, 4116.79487152, 4130.25640998, 4129.23076896, 4133.58974332, 4133.46153819, 4124.10256383,10.0
4099.23076889, 4114.61538434, 4108.58974332, 4131.15384588, 4120.25640998, 4121.15384588, 4111.41025614, 4116.15384588, 4105.12820485, 4121.79487152, 4116.28205101, 4119.35897408, 4125.64102537, 4118.58974332,10.0
4100.12820478, 4113.84615357, 4103.97435870, 4124.61538434, 4102.43589709, 4119.74358947, 4113.84615357, 4127.69230742, 4102.94871767, 4117.17948691, 4104.87179460, 4113.33333306, 4122.94871767, 4118.71794844,10.0
4096.53846119, 4112.94871767, 4105.51282024, 4119.10256383, 4102.56410229, 4112.05128178, 4108.20512793, 4128.46153819, 4103.20512793, 4110.12820485, 4099.61538427, 4108.07692280, 4114.61538434, 4122.69230742,10.0
4091.79487145, 4110.51282024, 4107.05128178, 4122.30769203, 4122.05128178, 4107.43589716, 4099.61538427, 4118.84615357, 4108.07692280, 4111.41025614, 4100.38461504, 4109.61538434, 4111.15384588, 4121.79487152,10.0
4094.61538427, 4106.28205101, 4104.23076896, 4123.97435870, 4124.61538434, 4115.64102537, 4103.58974332, 4118.33333306, 4105.76923050, 4111.15384588, 4101.15384581, 4113.71794844, 4117.43589716, 4122.05128178,10.0
4099.23076889, 4108.71794844, 4105.38461511, 4123.71794844, 4117.05128178, 4125.38461511, 4113.58974332, 4124.48717921, 4106.41025614, 4112.43589716, 4103.46153819, 4114.10256383, 4122.05128178, 4123.46153819,10.0
4109.35897408, 4123.58974332, 4116.53846126, 4131.15384588, 4131.79487152, 4129.74358947, 4125.25640998, 4135.64102544, 4126.66666639, 4127.43589716, 4112.94871767, 4124.99999973, 4127.82051255, 4123.33333306,10.0
4119.48717921, 4133.71794844, 4123.97435870, 4137.56410236, 4142.94871774, 4131.92307665, 4131.53846126, 4135.51282031, 4134.74358947, 4132.17948691, 4121.66666639, 4136.41025621, 4131.53846126, 4121.15384588,10.0
4124.99999973, 4130.64102537, 4125.25640998, 4136.66666646, 4129.61538434, 4134.48717921, 4136.66666646, 4132.94871767, 4125.51282024, 4131.66666639, 4128.84615357, 4135.64102544, 4133.46153819, 4121.28205101,10.0
4133.07692280, 4131.66666639, 4130.76923050, 4139.87179467, 4129.48717921, 4140.89743569, 4142.17948697, 4151.28205108, 4137.05128185, 4146.28205108, 4138.71794851, 4139.48717928, 4139.10256390, 4123.97435870,10.0
4145.12820492, 4145.64102544, 4141.53846133, 4148.97435877, 4156.66666646, 4153.33333313, 4147.82051262, 4170.64102551, 4157.43589723, 4163.58974339, 4150.38461518, 4155.76923056, 4146.15384595, 4121.41025614,10.0
4162.82051262, 4160.12820492, 4150.64102544, 4155.89743569, 4174.35897422, 4166.28205108, 4158.20512800, 4172.43589730, 4155.64102544, 4164.74358954, 4161.28205108, 4165.89743569, 4150.38461518, 4119.74358947,10.0
4176.41025628, 4162.30769210, 4156.15384595, 4157.05128185, 4167.94871774, 4166.15384595, 4163.07692287, 4169.35897422, 4149.23076903, 4161.53846133, 4167.17948697, 4167.94871774, 4155.25641005, 4123.46153819,10.0
4174.99999986, 4158.58974339, 4158.71794851, 4154.74358954, 4163.58974339, 4153.46153826, 4149.61538441, 4163.46153826, 4155.64102544, 4166.15384595, 4168.07692287, 4168.71794858, 4156.53846133, 4125.38461511,10.0
4166.15384595, 4151.53846133, 4153.97435877, 4146.15384595, 4161.53846133, 4144.74358954, 4133.33333306, 4149.99999980, 4151.92307672, 4166.66666646, 4161.66666646, 4160.89743569, 4151.41025621, 4124.74358947,10.0
4160.12820492, 4144.87179467, 4147.56410236, 4141.53846133, 4154.99999980, 4146.28205108, 4138.97435877, 4145.76923056, 4141.02564082, 4163.84615364, 4154.48717928, 4153.58974339, 4152.17948697, 4122.17948691,10.0
4156.66666646, 4143.58974339, 4142.43589723, 4146.15384595, 4149.99999980, 4147.82051262, 4146.28205108, 4147.30769210, 4141.28205108, 4160.51282031, 4154.99999980, 4150.64102544, 4153.07692287, 4120.38461511,10.0
4159.23076903, 4147.43589723, 4139.23076903, 4151.53846133, 4152.43589723, 4150.12820492, 4145.76923056, 4147.17948697, 4149.10256390, 4165.12820492, 4157.94871774, 4149.48717928, 4150.89743569, 4122.30769203,10.0
4167.17948697, 4150.89743569, 4147.30769210, 4157.05128185, 4164.48717928, 4157.43589723, 4154.61538441, 4154.10256390, 4157.82051262, 4175.25641012, 4166.41025621, 4154.74358954, 4157.69230749, 4122.43589716,10.0
4168.20512807, 4147.30769210, 4155.12820492, 4157.82051262, 4172.56410243, 4162.05128185, 4164.35897415, 4157.94871774, 4155.38461518, 4172.69230756, 4173.33333320, 4158.71794851, 4160.25641005, 4121.02564075,10.0
4159.99999980, 4145.76923056, 4150.12820492, 4151.53846133, 4169.23076910, 4164.23076903, 4166.92307672, 4156.79487159, 4147.56410236, 4166.79487159, 4170.12820499, 4156.28205108, 4153.46153826, 4120.38461511,10.0
4154.74358954, 4146.66666646, 4145.76923056, 4146.92307672, 4159.23076903, 4162.43589723, 4158.58974339, 4153.84615364, 4149.10256390, 4165.51282031, 4162.82051262, 4153.33333313, 4150.89743569, 4120.12820485,10.0
4156.92307672, 4143.97435877, 4150.89743569, 4145.64102544, 4150.89743569, 4159.10256390, 4149.35897415, 4144.23076903, 4150.12820492, 4162.30769210, 4156.79487159, 4150.12820492, 4148.97435877, 4121.53846126,10.0
4158.07692287, 4139.23076903, 4155.12820492, 4145.12820492, 4154.74358954, 4159.48717928, 4151.15384595, 4136.53846133, 4140.64102544, 4154.35897415, 4152.05128185, 4148.20512800, 4139.23076903, 4121.41025614,10.0
4162.69230749, 4143.33333313, 4160.64102544, 4147.05128185, 4161.66666646, 4163.20512800, 4158.33333313, 4142.56410236, 4137.94871774, 4147.69230749, 4155.38461518, 4154.48717928, 4140.12820492, 4123.20512793,10.0
4171.92307679, 4150.64102544, 4168.58974345, 4152.43589723, 4157.56410236, 4162.43589723, 4156.41025621, 4152.43589723, 4152.69230749, 4154.61538441, 4163.58974339, 4163.07692287, 4154.23076903, 4125.64102537,10.0
4173.20512807, 4151.41025621, 4169.35897422, 4154.48717928, 4157.17948697, 4157.17948697, 4148.33333313, 4153.97435877, 4159.87179467, 4170.51282038, 4166.41025621, 4166.92307672, 4159.23076903, 4124.10256383,10.0
4169.74358961, 4150.51282031, 4164.48717928, 4152.82051262, 4162.94871774, 4155.76923056, 4144.35897415, 4147.43589723, 4148.97435877, 4173.71794858, 4168.07692287, 4164.74358954, 4151.79487159, 4124.74358947,10.0
4171.02564089, 4151.28205108, 4166.15384595, 4152.94871774, 4159.74358954, 4154.99999980, 4141.79487159, 4137.69230749, 4136.41025621, 4161.15384595, 4172.05128192, 4163.33333313, 4147.30769210, 4124.87179460,10.0
4175.89743576, 4156.41025621, 4176.92307679, 4159.87179467, 4161.41025621, 4154.48717928, 4143.84615364, 4136.41025621, 4134.74358947, 4157.69230749, 4172.05128192, 4171.92307679, 4149.87179467, 4124.74358947,10.0
4175.38461525, 4158.97435877, 4178.33333320, 4165.76923056, 4168.71794858, 4154.99999980, 4148.20512800, 4137.05128185, 4137.82051262, 4159.99999980, 4168.84615371, 4174.10256397, 4150.25641005, 4123.46153819,10.0
4162.17948697, 4152.05128185, 4162.30769210, 4159.23076903, 4159.48717928, 4158.33333313, 4151.66666646, 4133.46153819, 4134.35897408, 4150.64102544, 4160.51282031, 4163.33333313, 4142.69230749, 4121.15384588,10.0
4148.58974339, 4145.64102544, 4150.25641005, 4149.61538441, 4149.74358954, 4158.58974339, 4156.28205108, 4139.35897415, 4132.30769203, 4144.74358954, 4152.17948697, 4159.23076903, 4138.84615364, 4123.20512793,10.0
4148.33333313, 4144.35897415, 4155.76923056, 4147.43589723, 4154.87179467, 4148.58974339, 4152.30769210, 4146.53846133, 4137.69230749, 4147.69230749, 4152.05128185, 4164.23076903, 4139.35897415, 4123.84615357,10.0
4152.82051262, 4143.33333313, 4164.87179467, 4147.17948697, 4154.61538441, 4143.46153826, 4143.58974339, 4139.87179467, 4134.48717921, 4147.56410236, 4156.02564082, 4161.92307672, 4137.69230749, 4121.53846126,10.0
4159.23076903, 4146.79487159, 4169.87179474, 4150.25641005, 4149.99999980, 4149.23076903, 4144.87179467, 4142.05128185, 4133.20512793, 4149.61538441, 4164.10256390, 4163.97435877, 4144.35897415, 4119.87179460,10.0
4166.79487159, 4152.94871774, 4172.69230756, 4155.51282031, 4146.28205108, 4151.92307672, 4151.02564082, 4154.10256390, 4149.10256390, 4158.84615364, 4174.23076910, 4176.28205115, 4156.92307672, 4119.99999973,10.0
4163.07692287, 4147.30769210, 4170.51282038, 4153.07692287, 4146.15384595, 4152.05128185, 4144.23076903, 4144.99999980, 4152.69230749, 4161.66666646, 4174.23076910, 4175.89743576, 4153.33333313, 4122.56410229,10.0
4151.79487159, 4138.46153826, 4165.25641005, 4145.64102544, 4145.51282031, 4148.58974339, 4127.05128178, 4123.71794844, 4129.99999973, 4146.53846133, 4167.94871774, 4165.38461518, 4142.56410236, 4121.92307665,10.0
4148.46153826, 4137.17948697, 4156.15384595, 4142.05128185, 4137.30769210, 4136.53846133, 4117.43589716, 4117.56410229, 4113.58974332, 4129.99999973, 4161.79487159, 4159.99999980, 4141.02564082, 4120.12820485,10.0
4156.02564082, 4143.33333313, 4156.79487159, 4147.69230749, 4141.66666646, 4133.71794844, 4126.66666639, 4129.99999973, 4125.38461511, 4140.89743569, 4160.38461518, 4159.87179467, 4145.12820492, 4121.15384588,10.0
4163.71794851, 4151.02564082, 4172.82051269, 4158.58974339, 4158.71794851, 4146.92307672, 4146.02564082, 4148.71794851, 4146.28205108, 4162.69230749, 4168.84615371, 4163.07692287, 4149.99999980, 4121.41025614,10.0
4161.15384595, 4148.46153826, 4170.76923063, 4155.12820492, 4159.87179467, 4149.87179467, 4152.82051262, 4148.33333313, 4141.41025621, 4156.15384595, 4172.82051269, 4161.02564082, 4151.28205108, 4122.69230742,10.0
4152.17948697, 4141.66666646, 4153.58974339, 4143.20512800, 4150.51282031, 4144.87179467, 4146.92307672, 4136.53846133, 4127.56410229, 4143.07692287, 4166.15384595, 4153.58974339, 4151.28205108, 4123.71794844,10.0
4157.43589723, 4149.23076903, 4159.61538441, 4148.58974339, 4157.30769210, 4152.82051262, 4148.97435877, 4151.92307672, 4144.99999980, 4156.92307672, 4167.17948697, 4159.10256390, 4157.05128185, 4122.05128178,10.0
4165.64102544, 4152.43589723, 4170.76923063, 4155.76923056, 4156.02564082, 4151.79487159, 4153.07692287, 4165.51282031, 4154.61538441, 4159.74358954, 4167.30769210, 4163.33333313, 4153.84615364, 4122.43589716,10.0
4156.79487159, 4135.89743569, 4157.43589723, 4144.10256390, 4135.76923056, 4132.94871767, 4142.94871774, 4140.76923056, 4123.71794844, 4138.46153826, 4153.33333313, 4148.20512800, 4141.28205108, 4124.48717921,10.0
4151.41025621, 4130.12820485, 4147.82051262, 4133.71794844, 4135.25640998, 4131.15384588, 4138.97435877, 4125.12820485, 4112.94871767, 4138.84615364, 4150.38461518, 4141.15384595, 4140.76923056, 4123.46153819,10.0
4156.53846133, 4140.12820492, 4156.53846133, 4141.41025621, 4148.97435877, 4145.76923056, 4152.05128185, 4145.76923056, 4132.05128178, 4155.12820492, 4164.10256390, 4148.71794851, 4150.25641005, 4121.28205101,10.0
4154.87179467, 4138.46153826, 4159.74358954, 4145.64102544, 4146.15384595, 4144.48717928, 4153.07692287, 4154.61538441, 4135.12820485, 4154.74358954, 4166.53846133, 4147.56410236, 4152.69230749, 4123.07692280,10.0
4147.69230749, 4131.79487152, 4151.92307672, 4137.17948697, 4132.94871767, 4132.43589716, 4134.10256383, 4137.43589723, 4127.43589716, 4143.71794851, 4157.43589723, 4140.51282031, 4144.74358954, 4124.99999973,10.0
4139.23076903, 4128.33333306, 4141.92307672, 4131.92307665, 4125.12820485, 4126.28205101, 4115.51282024, 4123.46153819, 4123.84615357, 4138.07692287, 4150.76923056, 4134.87179460, 4133.07692280, 4121.41025614,10.0
4134.61538434, 4127.69230742, 4146.02564082, 4136.92307672, 4129.35897408, 4128.97435870, 4113.71794844, 4123.46153819, 4117.94871767, 4136.02564082, 4150.25641005, 4131.53846126, 4131.02564075, 4122.05128178,10.0
4133.46153819, 4132.17948691, 4151.28205108, 4137.82051262, 4139.99999980, 4134.61538434, 4118.97435870, 4128.20512793, 4116.02564075, 4130.51282024, 4145.25641005, 4132.43589716, 4133.20512793, 4126.28205101,10.0
4125.12820485, 4133.20512793, 4136.41025621, 4128.46153819, 4134.61538434, 4133.07692280, 4120.12820485, 4133.07692280, 4121.28205101, 4120.89743562, 4134.48717921, 4124.10256383, 4123.71794844, 4125.12820485,10.0
4118.33333306, 4127.17948691, 4127.56410229, 4121.53846126, 4121.28205101, 4128.71794844, 4128.46153819, 4140.38461518, 4119.99999973, 4115.51282024, 4128.46153819, 4114.10256383, 4118.46153819, 4121.28205101,10.0
4116.28205101, 4119.23076896, 4131.15384588, 4116.28205101, 4123.20512793, 4125.25640998, 4126.66666639, 4134.35897408, 4104.99999973, 4115.25640998, 4127.17948691, 4113.71794844, 4122.17948691, 4120.51282024,10.0
4113.46153819, 4114.87179460, 4123.97435870, 4111.15384588, 4124.99999973, 4119.23076896, 4109.48717921, 4123.58974332, 4099.87179453, 4114.87179460, 4124.99999973, 4111.41025614, 4119.48717921, 4124.48717921,10.0
4118.07692280, 4122.69230742, 4118.20512793, 4117.43589716, 4127.17948691, 4118.07692280, 4114.48717921, 4139.87179467, 4118.97435870, 4124.99999973, 4133.33333306, 4116.28205101, 4125.51282024, 4124.61538434,10.0
4126.02564075, 4130.38461511, 4124.99999973, 4126.92307665, 4137.43589723, 4125.25640998, 4133.84615357, 4153.33333313, 4126.28205101, 4135.76923056, 4145.51282031, 4129.23076896, 4135.76923056, 4119.10256383,10.0
4125.51282024, 4124.74358947, 4124.99999973, 4121.53846126, 4134.74358947, 4129.99999973, 4134.35897408, 4134.87179460, 4112.56410229, 4123.71794844, 4136.66666646, 4124.48717921, 4125.38461511, 4119.61538434,10.0
4121.41025614, 4119.48717921, 4120.12820485, 4113.71794844, 4116.92307665, 4129.10256383, 4128.71794844, 4121.66666639, 4110.38461511, 4108.33333306, 4122.82051255, 4113.07692280, 4112.17948691, 4122.69230742,10.0
4117.17948691, 4121.28205101, 4116.15384588, 4116.15384588, 4112.94871767, 4123.97435870, 4122.69230742, 4124.99999973, 4112.05128178, 4109.10256383, 4121.02564075, 4114.61538434, 4114.48717921, 4123.58974332,10.0
4107.69230742, 4115.64102537, 4106.02564075, 4112.69230742, 4115.76923050, 4116.79487152, 4109.35897408, 4118.20512793, 4104.10256383, 4109.87179460, 4117.17948691, 4112.43589716, 4112.56410229, 4122.82051255,10.0
4106.02564075, 4113.20512793, 4104.87179460, 4110.64102537, 4113.20512793, 4117.17948691, 4104.87179460, 4110.89743562, 4107.69230742, 4111.02564075, 4117.30769203, 4111.92307665, 4110.51282024, 4122.30769203,10.0
4114.61538434, 4119.74358947, 4115.51282024, 4119.99999973, 4122.82051255, 4122.05128178, 4112.17948691, 4120.64102537, 4116.53846126, 4118.46153819, 4127.30769203, 4121.92307665, 4119.10256383, 4125.51282024,10.0
4117.05128178, 4121.66666639, 4120.76923050, 4123.07692280, 4136.02564082, 4128.58974332, 4123.07692280, 4133.84615357, 4113.58974332, 4118.97435870, 4131.79487152, 4127.56410229, 4121.79487152, 4123.46153819,10.0
4112.69230742, 4121.66666639, 4122.17948691, 4118.58974332, 4129.61538434, 4130.51282024, 4125.76923050, 4140.38461518, 4107.82051255, 4114.35897408, 4123.33333306, 4123.33333306, 4116.79487152, 4119.35897408,10.0
4112.43589716, 4121.28205101, 4119.61538434, 4116.02564075, 4115.38461511, 4119.87179460, 4116.28205101, 4143.84615364, 4105.76923050, 4114.48717921, 4119.61538434, 4116.92307665, 4118.71794844, 4122.30769203,10.0
4114.99999973, 4118.97435870, 4114.10256383, 4114.48717921, 4120.12820485, 4117.17948691, 4114.87179460, 4149.61538441, 4106.15384588, 4108.71794844, 4124.74358947, 4115.38461511, 4123.58974332, 4122.05128178,10.0
4117.69230742, 4121.53846126, 4117.69230742, 4114.48717921, 4130.38461511, 4129.87179460, 4129.61538434, 4155.89743569, 4112.69230742, 4104.74358947, 4127.05128178, 4117.17948691, 4122.05128178, 4120.51282024,10.0
4122.56410229, 4127.05128178, 4119.87179460, 4115.64102537, 4125.38461511, 4128.58974332, 4135.12820485, 4154.10256390, 4121.02564075, 4117.43589716, 4121.41025614, 4116.41025614, 4120.12820485, 4123.71794844,10.0
4126.15384588, 4128.97435870, 4112.30769203, 4114.61538434, 4125.38461511, 4116.02564075, 4127.30769203, 4152.94871774, 4124.48717921, 4129.74358947, 4119.10256383, 4116.92307665, 4119.99999973, 4124.99999973,10.0
4128.20512793, 4130.38461511, 4113.84615357, 4118.84615357, 4128.33333306, 4117.30769203, 4123.97435870, 4150.76923056, 4123.58974332, 4127.05128178, 4123.58974332, 4121.28205101, 4119.87179460, 4123.71794844,10.0
4132.30769203, 4135.25640998, 4123.20512793, 4126.66666639, 4120.12820485, 4124.48717921, 4131.02564075, 4141.53846133, 4121.66666639, 4126.79487152, 4129.87179460, 4129.23076896, 4123.97435870, 4121.79487152,10.0
4133.84615357, 4136.92307672, 4116.28205101, 4126.15384588, 4121.02564075, 4125.12820485, 4136.79487159, 4135.12820485, 4122.30769203, 4133.84615357, 4132.69230742, 4132.82051255, 4127.69230742, 4121.41025614,10.0
4122.94871767, 4132.56410229, 4102.05128171, 4121.53846126, 4136.15384595, 4115.76923050, 4116.53846126, 4126.28205101, 4114.35897408, 4126.15384588, 4124.35897408, 4122.05128178, 4119.23076896, 4123.07692280,10.0
4102.43589709, 4119.61538434, 4093.84615350, 4113.46153819, 4127.56410229, 4101.92307658, 4081.79487145, 4104.87179460, 4093.20512786, 4105.38461511, 4112.17948691, 4104.87179460, 4105.89743562, 4122.05128178,10.0
4092.30769196, 4107.30769203, 4086.28205094, 4103.71794844, 4102.69230742, 4097.05128171, 4079.61538427, 4094.74358940, 4080.38461504, 4095.89743555, 4107.82051255, 4097.30769196, 4100.12820478, 4121.53846126,10.0
4099.23076889, 4107.43589716, 4091.02564068, 4101.53846119, 4103.07692280, 4100.51282017, 4100.12820478, 4105.89743562, 4089.87179453, 4102.82051255, 4109.48717921, 4101.53846119, 4102.56410229, 4122.43589716,10.0
4108.07692280, 4109.74358947, 4104.23076896, 4102.17948684, 4108.46153819, 4101.28205094, 4099.87179453, 4109.61538434, 4098.58974325, 4105.76923050, 4112.94871767, 4109.10256383, 4104.74358947, 4122.82051255,10.0
4109.35897408, 4109.23076896, 4111.92307665, 4102.30769196, 4099.10256376, 4104.48717921, 4097.43589709, 4111.66666639, 4098.58974325, 4100.89743555, 4112.56410229, 4114.35897408, 4105.51282024, 4121.79487152,10.0
4112.82051255, 4114.48717921, 4118.33333306, 4107.94871767, 4100.76923043, 4115.25640998, 4120.76923050, 4126.28205101, 4109.23076896, 4110.51282024, 4114.35897408, 4117.17948691, 4114.35897408, 4119.48717921,10.0
4118.07692280, 4123.33333306, 4125.12820485, 4113.46153819, 4105.89743562, 4121.15384588, 4133.84615357, 4133.46153819, 4124.10256383, 4129.87179460, 4124.23076896, 4119.10256383, 4123.33333306, 4120.38461511,10.0
4119.23076896, 4125.12820485, 4127.17948691, 4112.82051255, 4109.61538434, 4117.94871767, 4127.69230742, 4132.17948691, 4130.64102537, 4139.48717928, 4137.56410236, 4126.53846126, 4127.69230742, 4121.66666639,10.0
4123.46153819, 4118.71794844, 4129.35897408, 4110.64102537, 4119.48717921, 4117.30769203, 4130.89743562, 4138.46153826, 4132.05128178, 4135.76923056, 4137.94871774, 4133.58974332, 4132.94871767, 4123.07692280,10.0
4126.53846126, 4117.17948691, 4134.10256383, 4107.43589716, 4125.51282024, 4120.25640998, 4132.05128178, 4144.61538441, 4128.84615357, 4128.97435870, 4130.38461511, 4131.02564075, 4133.07692280, 4123.46153819,10.0
4118.46153819, 4123.33333306, 4130.89743562, 4110.51282024, 4123.84615357, 4116.28205101, 4118.97435870, 4135.51282031, 4120.89743562, 4126.79487152, 4132.05128178, 4129.87179460, 4126.41025614, 4118.97435870,10.0
4112.69230742, 4129.48717921, 4125.38461511, 4118.33333306, 4122.05128178, 4113.33333306, 4112.56410229, 4128.33333306, 4113.84615357, 4126.28205101, 4134.99999973, 4133.07692280, 4124.23076896, 4120.12820485,10.0
4109.74358947, 4124.61538434, 4118.84615357, 4113.71794844, 4121.28205101, 4114.48717921, 4105.51282024, 4128.71794844, 4110.12820485, 4122.56410229, 4123.20512793, 4124.99999973, 4122.30769203, 4124.99999973,10.0
4101.79487145, 4115.89743562, 4107.69230742, 4103.84615357, 4122.05128178, 4109.23076896, 4092.43589709, 4123.33333306, 4103.84615357, 4115.12820485, 4106.66666639, 4110.12820485, 4111.92307665, 4123.97435870,10.0
4100.25640991, 4114.99999973, 4106.15384588, 4099.74358940, 4114.74358947, 4107.30769203, 4097.05128171, 4118.58974332, 4104.23076896, 4111.02564075, 4105.64102537, 4105.76923050, 4104.61538434, 4121.41025614,10.0
4106.02564075, 4118.58974332, 4118.58974332, 4101.66666632, 4109.23076896, 4116.92307665, 4115.51282024, 4125.25640998, 4119.23076896, 4114.48717921, 4117.30769203, 4113.33333306, 4111.66666639, 4121.28205101,10.0
4112.94871767, 4126.41025614, 4134.48717921, 4112.17948691, 4129.35897408, 4127.05128178, 4128.07692280, 4133.46153819, 4129.48717921, 4119.87179460, 4128.58974332, 4127.05128178, 4125.25640998, 4122.05128178,10.0
4119.99999973, 4129.10256383, 4138.97435877, 4116.15384588, 4139.10256390, 4126.41025614, 4135.25640998, 4131.15384588, 4121.15384588, 4124.35897408, 4133.46153819, 4131.92307665, 4128.84615357, 4122.82051255,10.0
4119.61538434, 4122.94871767, 4135.76923056, 4104.87179460, 4118.07692280, 4124.35897408, 4139.87179467, 4133.97435870, 4123.20512793, 4127.94871767, 4133.71794844, 4122.94871767, 4127.94871767, 4123.46153819,10.0
4114.99999973, 4120.89743562, 4134.23076896, 4099.61538427, 4116.92307665, 4127.69230742, 4140.25641005, 4147.17948697, 4142.05128185, 4133.71794844, 4134.48717921, 4120.25640998, 4130.76923050, 4123.46153819,10.0
4107.43589716, 4118.07692280, 4123.84615357, 4100.12820478, 4121.92307665, 4118.58974332, 4128.33333306, 4140.76923056, 4130.25640998, 4125.38461511, 4128.46153819, 4119.99999973, 4122.43589716, 4120.25640998,10.0
4095.89743555, 4109.10256383, 4109.10256383, 4089.10256376, 4100.64102530, 4102.82051255, 4112.05128178, 4114.61538434, 4098.84615350, 4103.71794844, 4115.89743562, 4107.56410229, 4109.35897408, 4119.23076896,10.0
4092.69230735, 4108.46153819, 4112.30769203, 4083.58974325, 4094.74358940, 4106.53846126, 4115.64102537, 4105.12820485, 4098.58974325, 4102.05128171, 4113.58974332, 4103.58974332, 4113.84615357, 4122.05128178,10.0
4101.41025607, 4116.41025614, 4125.12820485, 4091.92307658, 4112.30769203, 4116.41025614, 4125.76923050, 4112.05128178, 4113.71794844, 4110.12820485, 4117.30769203, 4113.97435870, 4121.79487152, 4123.71794844,10.0
4108.84615357, 4119.35897408, 4125.25640998, 4096.28205094, 4115.89743562, 4115.89743562, 4121.92307665, 4112.30769203, 4114.74358947, 4106.53846126, 4116.79487152, 4115.76923050, 4117.69230742, 4124.10256383,10.0
4111.02564075, 4121.15384588, 4125.64102537, 4101.53846119, 4111.41025614, 4116.28205101, 4114.87179460, 4108.97435870, 4114.61538434, 4110.89743562, 4122.43589716, 4113.71794844, 4117.69230742, 4123.20512793,10.0
4111.66666639, 4122.30769203, 4129.61538434, 4108.58974332, 4115.51282024, 4115.64102537, 4109.23076896, 4107.17948691, 4116.02564075, 4121.41025614, 4128.20512793, 4118.33333306, 4122.43589716, 4122.94871767,10.0
4105.89743562, 4117.82051255, 4121.79487152, 4102.17948684, 4114.99999973, 4108.33333306, 4101.02564068, 4092.94871761, 4101.53846119, 4107.82051255, 4119.87179460, 4118.07692280, 4115.64102537, 4121.79487152,10.0
4105.64102537, 4120.25640998, 4122.17948691, 4101.53846119, 4116.92307665, 4112.43589716, 4108.07692280, 4092.94871761, 4102.30769196, 4101.28205094, 4115.51282024, 4120.25640998, 4114.35897408, 4120.64102537,10.0
