AF3,F7,F3,FC5,T7,P7,O1,O2,P8,T8,FC6,F4,F8,AF4,Label
4121.41025614, 4122.05128178, 4125.25640998, 3968.58974297, 4122.17948691, 4106.53846126, 4084.87179453, 4103.46153819, 4139.23076903, 4130.89743562, 4100.76923043, 4120.25640998, 4130.25640998, 4183.33333320,8.57
4123.46153819, 4128.97435870, 4127.17948691, 3959.23076861, 4122.82051255, 4089.35897402, 4078.46153812, 4098.07692273, 4133.33333306, 4129.35897408, 4102.82051255, 4127.69230742, 4133.71794844, 4187.82051269,8.57
4121.28205101, 4128.71794844, 4123.97435870, 3951.79487117, 4122.17948691, 4089.61538427, 4078.71794837, 4096.15384581, 4127.69230742, 4128.84615357, 4101.02564068, 4119.74358947, 4133.97435870, 4184.74358961,8.57
4125.38461511, 4128.84615357, 4129.23076896, 3939.48717887, 4122.43589716, 4086.92307658, 4064.61538420, 4080.25640991, 4114.23076896, 4130.51282024, 4098.58974325, 4126.41025614, 4138.33333313, 4189.74358961,8.57
4122.82051255, 4128.46153819, 4127.05128178, 3942.94871733, 4121.02564075, 4079.23076889, 4061.92307651, 4071.79487145, 4109.48717921, 4129.99999973, 4098.33333299, 4124.99999973, 4134.61538434, 4188.07692294,8.57
4123.33333306, 4126.28205101, 4125.12820485, 3961.02564040, 4118.71794844, 4091.92307658, 4075.89743555, 4084.10256376, 4123.07692280, 4130.64102537, 4102.56410229, 4123.33333306, 4131.53846126, 4188.71794858,8.57
4131.28205101, 4129.23076896, 4130.51282024, 3967.94871733, 4121.15384588, 4111.92307665, 4083.84615350, 4101.92307658, 4139.99999980, 4130.76923050, 4102.56410229, 4134.48717921, 4134.99999973, 4195.64102551,8.57
4122.56410229, 4124.61538434, 4123.84615357, 3959.10256348, 4123.71794844, 4106.92307665, 4071.28205094, 4095.89743555, 4134.99999973, 4128.46153819, 4096.28205094, 4127.05128178, 4130.12820485, 4188.46153833,8.57
4119.74358947, 4124.35897408, 4122.94871767, 3952.17948656, 4121.53846126, 4087.82051248, 4050.25640984, 4069.61538420, 4113.33333306, 4132.17948691, 4101.28205094, 4130.76923050, 4135.12820485, 4190.25641012,8.57
4121.79487152, 4126.79487152, 4123.97435870, 3956.28205066, 4118.71794844, 4075.25640991, 4040.25640984, 4051.79487138, 4098.33333299, 4136.53846133, 4105.12820485, 4128.07692280, 4139.23076903, 4192.69230756,8.57
4120.89743562, 4123.20512793, 4122.56410229, 3963.71794810, 4120.25640998, 4069.74358940, 4039.99999959, 4052.56410215, 4096.15384581, 4132.69230742, 4099.99999966, 4119.87179460, 4134.23076896, 4193.07692294,8.57
4125.89743562, 4124.99999973, 4127.43589716, 3959.10256348, 4121.02564075, 4066.66666625, 4037.30769189, 4058.71794830, 4094.87179453, 4130.25640998, 4100.25640991, 4132.30769203, 4135.89743569, 4198.58974345,8.57
4120.76923050, 4124.74358947, 4123.20512793, 3956.41025579, 4117.17948691, 4070.51282017, 4042.05128164, 4062.30769189, 4091.66666632, 4130.76923050, 4100.64102530, 4124.99999973, 4134.10256383, 4194.23076910,8.57
4120.89743562, 4126.02564075, 4120.89743562, 3974.23076868, 4117.17948691, 4090.64102530, 4067.94871754, 4078.58974325, 4105.89743562, 4129.35897408, 4098.97435863, 4123.58974332, 4132.82051255, 4193.20512807,8.57
4119.74358947, 4127.82051255, 4120.12820485, 3978.20512765, 4121.53846126, 4095.64102530, 4075.64102530, 4085.64102530, 4122.82051255, 4128.97435870, 4098.71794837, 4128.97435870, 4132.82051255, 4190.51282038,8.57
4114.61538434, 4123.20512793, 4117.43589716, 3955.12820451, 4122.43589716, 4068.07692266, 4039.74358933, 4048.84615343, 4093.84615350, 4130.25640998, 4097.30769196, 4119.23076896, 4131.02564075, 4189.74358961,8.57
4121.66666639, 4124.99999973, 4121.41025614, 3940.64102502, 4122.43589716, 4053.58974318, 4015.76923029, 4018.20512772, 4063.58974318, 4132.05128178, 4097.69230735, 4123.46153819, 4133.33333306, 4196.53846140,8.57
4118.97435870, 4123.20512793, 4118.71794844, 3936.66666598, 4123.71794844, 4057.30769189, 4026.79487131, 4033.07692259, 4084.61538427, 4132.30769203, 4095.25640991, 4120.12820485, 4130.38461511, 4189.35897422,8.57
4115.76923050, 4121.92307665, 4121.53846126, 3934.87179418, 4123.58974332, 4053.58974318, 4031.53846106, 4048.33333292, 4104.74358947, 4131.15384588, 4094.23076889, 4121.53846126, 4131.41025614, 4188.58974345,8.57
4117.94871767, 4123.97435870, 4125.38461511, 3942.30769169, 4121.66666639, 4051.92307651, 4023.46153798, 4046.41025600, 4094.48717914, 4131.28205101, 4094.23076889, 4124.10256383, 4132.56410229, 4187.56410243,8.57
4117.43589716, 4119.48717921, 4122.17948691, 3952.05128143, 4119.99999973, 4055.12820472, 4029.35897388, 4051.53846113, 4093.07692273, 4129.10256383, 4091.92307658, 4113.20512793, 4128.97435870, 4180.76923063,8.57
4123.46153819, 4123.84615357, 4127.30769203, 3956.28205066, 4120.12820485, 4054.23076882, 4038.97435856, 4052.43589702, 4104.87179460, 4127.30769203, 4093.84615350, 4122.94871767, 4134.74358947, 4188.20512807,8.57
4119.23076896, 4125.38461511, 4123.07692280, 3955.38461476, 4122.30769203, 4057.82051241, 4039.35897395, 4044.99999959, 4094.23076889, 4128.33333306, 4093.46153812, 4119.10256383, 4132.43589716, 4185.64102551,8.57
4119.61538434, 4123.58974332, 4119.61538434, 3951.79487117, 4122.56410229, 4061.92307651, 4042.17948677, 4048.20512779, 4073.71794837, 4130.89743562, 4094.48717914, 4118.84615357, 4131.15384588, 4183.84615371,8.57
4128.07692280, 4127.30769203, 4124.99999973, 3951.92307630, 4121.66666639, 4058.46153805, 4037.05128164, 4052.17948677, 4074.87179453, 4131.92307665, 4095.64102530, 4129.48717921, 4134.61538434, 4187.69230756,8.57
4122.05128178, 4125.76923050, 4126.15384588, 3946.02564040, 4122.82051255, 4056.41025600, 4018.33333285, 4037.82051241, 4064.87179446, 4129.23076896, 4092.17948684, 4117.17948691, 4129.35897408, 4182.43589730,8.57
4123.46153819, 4127.69230742, 4130.76923050, 3937.30769162, 4122.69230742, 4051.28205087, 4009.10256362, 4022.43589695, 4039.74358933, 4129.87179460, 4093.33333299, 4124.10256383, 4134.23076896, 4186.92307679,8.57
4124.23076896, 4127.43589716, 4125.25640998, 3944.35897374, 4119.10256383, 4046.79487138, 4017.43589695, 4030.12820465, 4051.53846113, 4131.53846126, 4092.30769196, 4126.66666639, 4135.89743569, 4185.64102551,8.57
4122.56410229, 4128.07692280, 4122.56410229, 3960.89743528, 4118.46153819, 4059.74358933, 4021.92307644, 4037.17948677, 4075.64102530, 4129.87179460, 4091.41025607, 4121.92307665, 4132.56410229, 4186.28205115,8.57
4128.58974332, 4129.48717921, 4130.38461511, 3965.25640963, 4121.53846126, 4071.02564068, 4017.43589695, 4034.35897388, 4068.84615343, 4128.20512793, 4095.64102530, 4128.97435870, 4134.61538434, 4194.87179474,8.57
4124.48717921, 4121.66666639, 4127.69230742, 3955.89743528, 4122.94871767, 4058.07692266, 4009.61538413, 4036.02564054, 4059.99999959, 4127.17948691, 4094.87179453, 4124.74358947, 4132.05128178, 4190.89743576,8.57
4123.71794844, 4125.38461511, 4124.99999973, 3950.64102502, 4121.28205101, 4038.07692266, 3996.02564047, 4023.84615336, 4051.92307651, 4126.15384588, 4092.56410222, 4131.66666639, 4133.71794844, 4190.12820499,8.57
4123.71794844, 4127.56410229, 4121.28205101, 3955.51281989, 4118.07692280, 4030.12820465, 3989.99999945, 4004.35897388, 4033.58974311, 4127.43589716, 4091.79487145, 4128.97435870, 4131.92307665, 4190.12820499,8.57
4121.79487152, 4122.17948691, 4123.07692280, 3964.10256348, 4119.48717921, 4035.76923029, 3993.07692252, 4007.05128157, 4038.71794830, 4130.12820485, 4093.71794837, 4123.97435870, 4131.41025614, 4192.56410243,8.57
4124.61538434, 4125.89743562, 4126.66666639, 3981.02564047, 4123.58974332, 4050.51282010, 4005.51282003, 4024.23076875, 4060.89743548, 4130.64102537, 4094.74358940, 4133.84615357, 4138.46153826, 4193.46153833,8.57
4119.74358947, 4126.92307665, 4117.82051255, 3992.94871740, 4117.82051255, 4054.87179446, 4023.46153798, 4040.51282010, 4067.94871754, 4130.64102537, 4093.20512786, 4123.84615357, 4134.87179460, 4186.53846140,8.57
4120.12820485, 4127.56410229, 4120.51282024, 3974.48717894, 4113.33333306, 4035.76923029, 4009.74358926, 4033.33333285, 4056.02564061, 4132.94871767, 4096.15384581, 4128.33333306, 4133.71794844, 4194.35897422,8.57
4121.41025614, 4128.07692280, 4122.69230742, 3956.02564040, 4120.51282024, 4024.99999952, 3976.15384560, 4001.92307637, 4040.51282010, 4131.79487152, 4093.97435863, 4132.94871767, 4135.76923056, 4193.07692294,8.57
4122.56410229, 4124.48717921, 4116.79487152, 3964.35897374, 4120.64102537, 4031.92307644, 3976.15384560, 3991.79487124, 4040.12820472, 4129.99999973, 4091.53846119, 4120.89743562, 4134.10256383, 4187.17948704,8.57
4128.58974332, 4126.15384588, 4121.66666639, 3979.99999945, 4115.38461511, 4043.46153805, 4010.38461490, 4022.30769183, 4056.79487138, 4131.15384588, 4095.89743555, 4126.15384588, 4135.25640998, 4195.12820499,8.57
4119.99999973, 4124.23076896, 4121.92307665, 3985.51281996, 4120.12820485, 4054.61538420, 4020.76923029, 4035.25640977, 4062.30769189, 4131.15384588, 4093.20512786, 4122.05128178, 4130.38461511, 4190.89743576,8.57
4118.84615357, 4124.23076896, 4124.10256383, 3984.61538406, 4123.97435870, 4053.84615343, 4001.92307637, 4008.84615336, 4046.92307651, 4131.53846126, 4091.92307658, 4123.84615357, 4131.53846126, 4190.38461525,8.57
4121.92307665, 4124.87179460, 4126.02564075, 3985.51281996, 4119.48717921, 4041.92307651, 3995.76923022, 3997.69230714, 4041.15384574, 4132.69230742, 4093.84615350, 4124.61538434, 4132.43589716, 4192.43589730,8.57
4116.92307665, 4120.12820485, 4121.66666639, 3984.99999945, 4118.58974332, 4036.15384567, 4001.28205073, 4012.82051234, 4042.43589702, 4132.05128178, 4093.58974325, 4113.84615357, 4124.35897408, 4186.53846140,8.57
4123.71794844, 4126.28205101, 4124.99999973, 3983.97435842, 4122.05128178, 4037.94871754, 3992.82051227, 4009.61538413, 4017.56410208, 4131.02564075, 4095.89743555, 4125.25640998, 4127.56410229, 4188.84615371,8.57
4123.71794844, 4127.94871767, 4123.46153819, 3989.10256355, 4120.89743562, 4035.25640977, 3986.66666611, 3998.71794817, 3997.56410201, 4130.51282024, 4093.84615350, 4119.48717921, 4129.61538434, 4187.69230756,8.57
4122.82051255, 4124.87179460, 4126.41025614, 4007.82051234, 4120.64102537, 4040.25640984, 4009.61538413, 4019.10256362, 4020.38461490, 4132.05128178, 4093.33333299, 4116.41025614, 4130.64102537, 4189.61538448,8.57
4125.12820485, 4127.43589716, 4130.64102537, 4024.35897388, 4122.56410229, 4053.20512779, 4025.12820465, 4032.82051234, 4036.41025593, 4131.92307665, 4096.02564068, 4126.92307665, 4132.43589716, 4188.33333320,8.57
4120.25640998, 4124.87179460, 4123.46153819, 4016.28205080, 4120.51282024, 4044.35897395, 4004.35897388, 4012.82051234, 4014.99999952, 4131.02564075, 4094.61538427, 4118.07692280, 4127.82051255, 4181.28205115,8.57
4125.12820485, 4125.25640998, 4126.79487152, 4005.76923029, 4119.35897408, 4021.41025593, 3983.20512765, 4003.20512765, 4007.94871747, 4133.20512793, 4094.10256376, 4122.30769203, 4133.07692280, 4191.02564089,8.57
4123.46153819, 4126.79487152, 4126.41025614, 4022.69230721, 4122.30769203, 4020.89743541, 3990.25640970, 4013.46153798, 4025.64102516, 4132.30769203, 4095.25640991, 4122.69230742, 4133.46153819, 4191.28205115,8.57
4121.79487152, 4128.71794844, 4123.71794844, 4038.33333292, 4122.30769203, 4036.92307651, 3998.71794817, 4010.25640977, 4021.79487131, 4127.94871767, 4100.25640991, 4123.71794844, 4131.66666639, 4188.20512807,8.57
4127.69230742, 4130.38461511, 4127.30769203, 4022.69230721, 4121.02564075, 4036.66666618, 3990.76923022, 3995.51281996, 3990.64102509, 4129.61538434, 4101.66666632, 4130.64102537, 4135.12820485, 4193.71794858,8.57
4122.82051255, 4125.25640998, 4124.48717921, 4012.43589695, 4122.43589716, 4030.25640977, 3990.76923022, 4004.99999952, 3994.61538406, 4132.94871767, 4097.43589709, 4120.12820485, 4129.61538434, 4188.84615371,8.57
4123.71794844, 4126.79487152, 4126.79487152, 4017.05128157, 4120.64102537, 4031.79487131, 3993.58974304, 4016.53846106, 4032.17948670, 4131.92307665, 4100.12820478, 4130.64102537, 4131.28205101, 4190.25641012,8.57
4122.82051255, 4124.99999973, 4125.25640998, 4026.79487131, 4117.69230742, 4048.20512779, 4005.38461490, 4018.07692259, 4051.92307651, 4130.89743562, 4101.02564068, 4134.10256383, 4133.46153819, 4191.66666653,8.57
4121.02564075, 4123.07692280, 4123.20512793, 4043.33333292, 4119.87179460, 4058.07692266, 4015.12820465, 4026.28205080, 4053.33333292, 4132.94871767, 4096.92307658, 4124.48717921, 4131.41025614, 4190.64102551,8.57
4127.82051255, 4131.28205101, 4127.30769203, 4034.35897388, 4122.82051255, 4030.12820465, 3992.05128150, 4011.66666618, 4037.69230728, 4133.46153819, 4096.28205094, 4134.74358947, 4135.76923056, 4192.82051269,8.57
4122.30769203, 4128.97435870, 4123.07692280, 4022.30769183, 4120.51282024, 4013.97435849, 3989.61538406, 4005.38461490, 4039.35897395, 4129.23076896, 4094.99999966, 4128.20512793, 4134.74358947, 4190.25641012,8.57
4121.66666639, 4123.84615357, 4126.53846126, 4051.53846113, 4116.28205101, 4048.71794830, 4028.46153798, 4034.10256362, 4066.66666625, 4128.33333306, 4095.76923043, 4125.89743562, 4136.28205108, 4195.89743576,8.57
4125.51282024, 4125.51282024, 4125.51282024, 4079.10256376, 4116.53846126, 4071.92307658, 4026.15384567, 4027.56410208, 4062.69230728, 4131.02564075, 4099.23076889, 4128.33333306, 4135.89743569, 4192.94871781,8.57
4121.53846126, 4122.94871767, 4118.97435870, 4063.58974318, 4117.56410229, 4050.89743548, 3990.51281996, 3995.89743535, 4038.46153805, 4131.28205101, 4097.30769196, 4121.28205101, 4131.28205101, 4189.87179474,8.57
4124.99999973, 4125.64102537, 4126.28205101, 4047.43589702, 4119.10256383, 4044.35897395, 4005.64102516, 4019.99999952, 4050.51282010, 4129.87179460, 4093.84615350, 4129.48717921, 4133.71794844, 4197.43589730,8.57
4120.25640998, 4124.48717921, 4123.07692280, 4063.71794830, 4120.64102537, 4072.43589709, 4040.25640984, 4051.79487138, 4069.61538420, 4129.87179460, 4096.41025607, 4123.97435870, 4131.53846126, 4189.61538448,8.57
4116.53846126, 4121.53846126, 4118.58974332, 4074.23076889, 4121.79487152, 4078.71794837, 4032.43589695, 4039.61538420, 4067.17948677, 4132.43589716, 4102.30769196, 4124.23076896, 4131.66666639, 4189.35897422,8.57
4119.10256383, 4126.15384588, 4122.43589716, 4052.30769189, 4125.76923050, 4037.82051241, 3994.48717894, 4011.02564054, 4051.15384574, 4132.82051255, 4099.74358940, 4127.30769203, 4133.33333306, 4193.46153833,8.57
4116.02564075, 4124.87179460, 4120.64102537, 4054.10256369, 4122.82051255, 4021.02564054, 3988.46153791, 4001.79487124, 4041.28205087, 4130.89743562, 4097.56410222, 4112.82051255, 4129.87179460, 4188.46153833,8.57
4123.46153819, 4126.15384588, 4124.23076896, 4087.17948684, 4117.56410229, 4048.58974318, 4018.84615336, 4024.10256362, 4067.43589702, 4131.92307665, 4103.33333306, 4121.92307665, 4133.33333306, 4193.07692294,8.57
4122.05128178, 4126.02564075, 4122.30769203, 4092.82051248, 4119.23076896, 4058.07692266, 4028.33333285, 4040.38461497, 4089.35897402, 4132.82051255, 4100.51282017, 4121.02564075, 4133.46153819, 4188.97435884,8.57
4118.46153819, 4123.71794844, 4122.05128178, 4083.20512786, 4118.58974332, 4044.23076882, 4012.05128157, 4030.76923029, 4074.99999966, 4131.53846126, 4100.12820478, 4116.15384588, 4133.07692280, 4186.92307679,8.57
4126.02564075, 4127.69230742, 4126.41025614, 4088.07692273, 4117.56410229, 4043.33333292, 4008.71794824, 4022.82051234, 4055.76923036, 4132.43589716, 4102.94871767, 4123.46153819, 4131.92307665, 4189.87179474,8.57
4119.48717921, 4122.82051255, 4119.35897408, 4101.28205094, 4122.17948691, 4065.38461497, 4033.46153798, 4034.35897388, 4059.48717907, 4132.05128178, 4098.33333299, 4113.46153819, 4125.25640998, 4182.94871781,8.57
4121.02564075, 4125.25640998, 4124.99999973, 4108.46153819, 4125.12820485, 4072.82051248, 4051.02564061, 4061.02564061, 4091.53846119, 4131.15384588, 4100.25640991, 4121.41025614, 4132.69230742, 4186.66666653,8.57
4123.84615357, 4128.97435870, 4129.74358947, 4100.51282017, 4123.33333306, 4063.84615343, 4049.35897395, 4085.76923043, 4116.28205101, 4129.10256383, 4103.71794844, 4124.48717921, 4135.25640998, 4186.41025628,8.57
4116.53846126, 4123.71794844, 4125.25640998, 4090.51282017, 4124.48717921, 4062.17948677, 4038.07692266, 4061.79487138, 4089.99999966, 4128.33333306, 4103.46153819, 4118.46153819, 4131.15384588, 4186.53846140,8.57
4121.79487152, 4128.84615357, 4126.53846126, 4093.46153812, 4125.38461511, 4062.17948677, 4025.89743541, 4020.12820465, 4058.71794830, 4132.56410229, 4102.43589709, 4127.56410229, 4134.23076896, 4195.12820499,8.57
4122.56410229, 4128.46153819, 4121.66666639, 4100.76923043, 4116.53846126, 4063.84615343, 4026.66666618, 4042.05128164, 4082.43589709, 4132.56410229, 4101.41025607, 4120.12820485, 4129.48717921, 4186.66666653,8.57
4124.74358947, 4128.07692280, 4124.48717921, 4092.82051248, 4113.20512793, 4062.30769189, 4022.82051234, 4060.38461497, 4093.71794837, 4130.25640998, 4106.28205101, 4125.25640998, 4131.53846126, 4186.53846140,8.57
4126.53846126, 4130.38461511, 4129.35897408, 4076.15384581, 4122.56410229, 4049.35897395, 4002.43589688, 4015.12820465, 4050.89743548, 4131.79487152, 4105.25640998, 4130.38461511, 4132.43589716, 4190.51282038,8.57
4122.56410229, 4124.23076896, 4124.99999973, 4071.02564068, 4120.89743562, 4039.10256369, 3991.02564047, 3988.58974304, 4024.48717900, 4132.82051255, 4100.51282017, 4122.94871767, 4128.20512793, 4186.41025628,8.57
4129.87179460, 4126.02564075, 4126.53846126, 4088.97435863, 4115.12820485, 4059.99999959, 4026.41025593, 4032.82051234, 4058.71794830, 4130.12820485, 4104.23076896, 4134.23076896, 4136.92307672, 4191.92307679,8.57
4123.71794844, 4124.87179460, 4123.46153819, 4114.23076896, 4116.92307665, 4082.30769196, 4066.28205087, 4068.71794830, 4093.20512786, 4128.58974332, 4107.30769203, 4126.53846126, 4137.82051262, 4190.12820499,8.57
4119.61538434, 4124.10256383, 4123.58974332, 4119.74358947, 4116.53846126, 4065.64102523, 4052.82051241, 4057.30769189, 4082.69230735, 4131.66666639, 4106.53846126, 4124.87179460, 4135.38461518, 4189.48717935,8.57
4124.35897408, 4125.89743562, 4125.76923050, 4116.15384588, 4116.92307665, 4049.74358933, 4034.48717900, 4056.41025600, 4081.92307658, 4132.94871767, 4104.87179460, 4132.05128178, 4134.10256383, 4192.05128192,8.57
4116.02564075, 4116.92307665, 4117.82051255, 4130.38461511, 4118.20512793, 4065.76923036, 4057.17948677, 4073.84615350, 4107.56410229, 4132.69230742, 4104.87179460, 4120.89743562, 4129.99999973, 4191.28205115,8.57
4122.69230742, 4120.12820485, 4123.07692280, 4137.17948697, 4118.97435870, 4069.99999966, 4056.92307651, 4055.38461497, 4097.43589709, 4132.05128178, 4108.20512793, 4130.25640998, 4136.15384595, 4199.23076910,8.57
4123.58974332, 4125.89743562, 4124.35897408, 4118.97435870, 4120.76923050, 4051.41025600, 4032.56410208, 4043.33333292, 4081.53846119, 4130.51282024, 4106.66666639, 4126.53846126, 4132.69230742, 4192.82051269,8.57
4116.02564075, 4122.94871767, 4121.15384588, 4104.87179460, 4121.02564075, 4051.02564061, 4046.41025600, 4078.20512786, 4107.17948691, 4131.41025614, 4105.64102537, 4119.23076896, 4126.15384588, 4189.87179474,8.57
4121.79487152, 4126.28205101, 4126.15384588, 4105.51282024, 4119.87179460, 4073.46153812, 4063.33333292, 4092.56410222, 4118.71794844, 4131.79487152, 4106.66666639, 4129.74358947, 4129.87179460, 4196.02564089,8.57
4114.87179460, 4123.20512793, 4120.38461511, 4111.66666639, 4118.07692280, 4086.41025607, 4052.30769189, 4069.23076882, 4095.38461504, 4127.69230742, 4104.99999973, 4118.97435870, 4127.69230742, 4187.17948704,8.57
4120.51282024, 4127.17948691, 4124.61538434, 4120.89743562, 4119.48717921, 4083.84615350, 4054.61538420, 4066.02564061, 4088.97435863, 4127.30769203, 4107.69230742, 4122.82051255, 4132.05128178, 4190.64102551,8.57
4125.38461511, 4130.51282024, 4126.28205101, 4127.94871767, 4121.79487152, 4091.28205094, 4076.02564068, 4090.64102530, 4109.74358947, 4129.87179460, 4106.79487152, 4123.97435870, 4133.07692280, 4190.64102551,8.57
4116.53846126, 4122.30769203, 4120.51282024, 4121.41025614, 4121.53846126, 4097.94871761, 4062.17948677, 4079.23076889, 4094.35897402, 4129.23076896, 4104.99999973, 4117.69230742, 4126.53846126, 4183.58974345,8.57
4125.64102537, 4126.28205101, 4128.71794844, 4121.41025614, 4122.17948691, 4095.38461504, 4042.43589702, 4050.76923036, 4068.71794830, 4130.38461511, 4109.99999973, 4127.43589716, 4128.07692280, 4188.71794858,8.57
4121.92307665, 4126.66666639, 4124.74358947, 4135.25640998, 4118.97435870, 4101.28205094, 4057.94871754, 4068.58974318, 4099.99999966, 4131.41025614, 4111.41025614, 4115.64102537, 4126.02564075, 4183.97435884,8.57
4124.99999973, 4132.43589716, 4131.92307665, 4139.99999980, 4118.46153819, 4063.46153805, 4075.38461504, 4086.53846119, 4105.12820485, 4131.53846126, 4112.82051255, 4133.46153819, 4133.33333306, 4193.58974345,8.57
4119.35897408, 4127.17948691, 4121.92307665, 4154.87179467, 4119.74358947, 4082.82051248, 4103.97435870, 4132.43589716, 4143.20512800, 4129.10256383, 4109.99999973, 4122.82051255, 4130.64102537, 4188.07692294,8.57
4131.28205101, 4126.66666639, 4127.56410229, 4157.82051262, 4122.17948691, 4098.07692273, 4095.51282017, 4106.41025614, 4118.84615357, 4129.99999973, 4111.02564075, 4132.05128178, 4135.12820485, 4197.17948704,8.57
4129.35897408, 4126.66666639, 4128.20512793, 4142.30769210, 4121.28205101, 4082.17948684, 4080.38461504, 4072.43589709, 4092.56410222, 4131.28205101, 4109.10256383, 4128.07692280, 4132.56410229, 4195.12820499,8.57
4119.48717921, 4119.99999973, 4121.02564075, 4159.99999980, 4118.46153819, 4101.02564068, 4112.30769203, 4125.12820485, 4133.33333306, 4128.58974332, 4109.23076896, 4126.15384588, 4130.89743562, 4191.92307679,8.57
4130.12820485, 4126.92307665, 4126.28205101, 4177.05128192, 4120.76923050, 4117.69230742, 4113.33333306, 4141.28205108, 4143.20512800, 4128.84615357, 4110.51282024, 4133.84615357, 4133.71794844, 4193.71794858,8.57
4118.97435870, 4125.76923050, 4122.17948691, 4160.38461518, 4119.87179460, 4091.92307658, 4082.05128171, 4100.38461504, 4110.64102537, 4132.69230742, 4106.41025614, 4123.71794844, 4130.76923050, 4187.94871781,8.57
4118.58974332, 4127.69230742, 4124.74358947, 4143.97435877, 4119.74358947, 4084.48717914, 4085.51282017, 4111.02564075, 4120.12820485, 4132.94871767, 4108.33333306, 4134.61538434, 4136.41025621, 4196.53846140,8.57
4125.89743562, 4128.07692280, 4123.07692280, 4142.43589723, 4121.15384588, 4114.35897408, 4107.17948691, 4135.38461518, 4137.94871774, 4130.76923050, 4110.25640998, 4130.64102537, 4134.35897408, 4197.56410243,8.57
4119.48717921, 4119.35897408, 4117.05128178, 4143.07692287, 4119.23076896, 4128.46153819, 4108.97435870, 4129.23076896, 4129.61538434, 4131.79487152, 4109.99999973, 4122.30769203, 4132.05128178, 4194.23076910,8.57
4121.28205101, 4121.92307665, 4123.20512793, 4135.25640998, 4120.76923050, 4105.25640998, 4094.35897402, 4122.43589716, 4122.05128178, 4131.79487152, 4110.76923050, 4130.76923050, 4137.82051262, 4193.97435884,8.57
4117.43589716, 4121.66666639, 4121.92307665, 4137.05128185, 4121.66666639, 4101.92307658, 4115.64102537, 4141.15384595, 4142.43589723, 4131.41025614, 4109.61538434, 4119.99999973, 4130.89743562, 4185.51282038,8.57
4120.89743562, 4125.38461511, 4125.25640998, 4156.66666646, 4121.53846126, 4129.48717921, 4145.64102544, 4157.17948697, 4164.10256390, 4134.10256383, 4110.76923050, 4124.10256383, 4130.89743562, 4191.15384602,8.57
4121.02564075, 4127.43589716, 4123.07692280, 4174.10256397, 4121.66666639, 4141.28205108, 4139.48717928, 4156.28205108, 4165.76923056, 4133.46153819, 4110.25640998, 4121.53846126, 4135.38461518, 4191.79487166,8.57
4116.28205101, 4122.94871767, 4119.48717921, 4179.99999986, 4120.12820485, 4140.25641005, 4140.51282031, 4158.33333313, 4158.97435877, 4131.15384588, 4111.41025614, 4115.51282024, 4133.97435870, 4187.82051269,8.57
4123.84615357, 4128.84615357, 4128.71794844, 4173.71794858, 4121.66666639, 4149.35897415, 4156.15384595, 4165.12820492, 4154.23076903, 4132.82051255, 4113.07692280, 4125.51282024, 4131.02564075, 4192.56410243,8.57
4116.79487152, 4126.15384588, 4123.71794844, 4165.38461518, 4118.97435870, 4154.10256390, 4148.33333313, 4171.28205115, 4161.53846133, 4130.89743562, 4110.89743562, 4113.33333306, 4125.25640998, 4186.28205115,8.57
4121.28205101, 4127.69230742, 4125.12820485, 4146.66666646, 4117.05128178, 4129.61538434, 4121.15384588, 4144.74358954, 4142.17948697, 4128.20512793, 4111.53846126, 4119.35897408, 4131.15384588, 4187.69230756,8.57
4126.92307665, 4130.25640998, 4129.10256383, 4140.64102544, 4123.58974332, 4121.79487152, 4133.84615357, 4130.25640998, 4118.58974332, 4131.02564075, 4107.56410229, 4124.87179460, 4130.25640998, 4184.48717935,8.57
4116.15384588, 4120.76923050, 4123.46153819, 4180.51282038, 4122.17948691, 4159.74358954, 4180.64102551, 4183.07692294, 4161.92307672, 4132.05128178, 4105.25640998, 4116.28205101, 4125.51282024, 4180.25641012,8.57
4124.35897408, 4127.05128178, 4128.71794844, 4203.71794865, 4122.05128178, 4171.02564089, 4182.30769217, 4213.84615378, 4205.89743583, 4130.25640998, 4111.66666639, 4127.43589716, 4135.51282031, 4190.51282038,8.57
4122.69230742, 4127.17948691, 4125.12820485, 4166.53846133, 4125.64102537, 4142.05128185, 4149.87179467, 4184.61538448, 4181.28205115, 4132.43589716, 4110.12820485, 4121.28205101, 4133.20512793, 4183.33333320,8.57
4121.02564075, 4123.58974332, 4124.99999973, 4144.61538441, 4120.89743562, 4148.71794851, 4154.99999980, 4182.82051269, 4164.10256390, 4134.35897408, 4109.23076896, 4125.89743562, 4132.05128178, 4184.35897422,8.57
4128.33333306, 4128.07692280, 4129.48717921, 4176.92307679, 4119.87179460, 4182.56410243, 4184.74358961, 4212.05128199, 4195.64102551, 4131.79487152, 4112.56410229, 4130.64102537, 4134.99999973, 4190.25641012,8.57
4121.53846126, 4124.35897408, 4122.56410229, 4186.28205115, 4121.28205101, 4173.07692294, 4177.30769217, 4197.82051269, 4203.33333327, 4132.69230742, 4112.30769203, 4117.94871767, 4129.99999973, 4187.30769217,8.57
4127.30769203, 4128.46153819, 4128.07692280, 4148.84615364, 4123.71794844, 4139.35897415, 4147.17948697, 4161.92307672, 4170.76923063, 4136.66666646, 4113.58974332, 4131.66666639, 4134.87179460, 4196.92307679,8.57
4124.48717921, 4127.17948691, 4127.82051255, 4140.12820492, 4121.66666639, 4139.99999980, 4147.43589723, 4165.25641005, 4164.61538441, 4132.56410229, 4112.82051255, 4130.64102537, 4131.66666639, 4192.30769217,8.57
4119.87179460, 4124.61538434, 4123.84615357, 4171.66666653, 4116.92307665, 4166.92307672, 4172.43589730, 4181.92307679, 4183.84615371, 4127.30769203, 4115.51282024, 4131.02564075, 4127.94871767, 4187.69230756,8.57
4125.51282024, 4128.20512793, 4126.15384588, 4183.07692294, 4119.99999973, 4184.10256397, 4189.61538448, 4193.20512807, 4195.51282038, 4128.58974332, 4118.46153819, 4134.99999973, 4134.74358947, 4190.38461525,8.57
4118.84615357, 4122.43589716, 4120.25640998, 4171.02564089, 4121.79487152, 4187.94871781, 4190.25641012, 4212.94871788, 4210.76923070, 4130.64102537, 4114.87179460, 4120.64102537, 4133.71794844, 4187.82051269,8.57
4123.33333306, 4125.64102537, 4123.71794844, 4158.71794851, 4122.69230742, 4175.12820499, 4172.82051269, 4201.66666660, 4198.58974345, 4133.07692280, 4115.76923050, 4131.66666639, 4133.20512793, 4195.64102551,8.57
4122.30769203, 4125.76923050, 4122.69230742, 4145.76923056, 4121.79487152, 4148.46153826, 4152.82051262, 4173.20512807, 4163.71794851, 4132.56410229, 4113.46153819, 4128.07692280, 4130.64102537, 4190.64102551,8.57
4117.69230742, 4122.82051255, 4120.38461511, 4152.43589723, 4117.43589716, 4146.53846133, 4166.28205108, 4194.99999986, 4175.76923063, 4130.12820485, 4113.33333306, 4123.71794844, 4133.07692280, 4189.99999986,8.57
4123.71794844, 4127.05128178, 4122.56410229, 4175.25641012, 4119.10256383, 4171.28205115, 4198.71794858, 4231.02564096, 4211.53846147, 4133.97435870, 4118.20512793, 4132.05128178, 4135.51282031, 4197.56410243,8.57
4115.76923050, 4121.02564075, 4116.28205101, 4167.82051262, 4121.41025614, 4177.17948704, 4191.02564089, 4227.56410250, 4208.46153840, 4134.99999973, 4114.23076896, 4118.46153819, 4125.76923050, 4190.38461525,8.57
4116.92307665, 4124.23076896, 4123.20512793, 4134.99999973, 4120.89743562, 4152.30769210, 4145.12820492, 4203.84615378, 4176.02564089, 4130.25640998, 4112.69230742, 4123.07692280, 4129.99999973, 4192.94871781,8.57
4117.30769203, 4125.51282024, 4124.35897408, 4138.71794851, 4120.89743562, 4151.41025621, 4116.66666639, 4184.35897422, 4156.79487159, 4128.33333306, 4114.48717921, 4122.17948691, 4132.17948691, 4191.53846140,8.57
4116.79487152, 4121.53846126, 4120.51282024, 4171.15384602, 4120.38461511, 4183.71794858, 4120.38461511, 4196.02564089, 4179.23076910, 4131.28205101, 4115.25640998, 4119.23076896, 4129.99999973, 4190.64102551,8.57
4122.17948691, 4126.15384588, 4123.71794844, 4171.53846140, 4118.97435870, 4190.12820499, 4122.94871767, 4223.71794865, 4207.43589737, 4132.43589716, 4116.28205101, 4127.05128178, 4133.46153819, 4194.10256397,8.57
4113.46153819, 4120.64102537, 4118.33333306, 4148.58974339, 4119.48717921, 4163.20512800, 4104.61538434, 4210.76923070, 4189.23076910, 4130.64102537, 4115.89743562, 4113.33333306, 4127.69230742, 4183.71794858,8.57
4119.61538434, 4121.15384588, 4123.97435870, 4138.46153826, 4123.07692280, 4148.97435877, 4088.84615350, 4182.82051269, 4163.33333313, 4131.28205101, 4117.56410229, 4120.12820485, 4129.87179460, 4187.94871781,8.57
4121.66666639, 4122.30769203, 4125.51282024, 4140.51282031, 4123.33333306, 4169.10256397, 4108.58974332, 4196.53846140, 4176.28205115, 4131.66666639, 4114.99999973, 4122.17948691, 4128.58974332, 4188.33333320,8.57
4117.05128178, 4119.74358947, 4123.46153819, 4142.94871774, 4121.41025614, 4188.20512807, 4128.46153819, 4213.46153840, 4185.12820499, 4130.64102537, 4113.71794844, 4113.71794844, 4124.35897408, 4183.07692294,8.57
4126.92307665, 4127.17948691, 4129.35897408, 4146.92307672, 4125.25640998, 4184.10256397, 4111.92307665, 4204.48717942, 4174.48717935, 4131.79487152, 4116.66666639, 4123.84615357, 4131.15384588, 4187.05128192,8.57
4123.46153819, 4125.12820485, 4124.48717921, 4148.20512800, 4126.41025614, 4173.07692294, 4108.07692280, 4212.82051275, 4188.33333320, 4132.05128178, 4113.58974332, 4118.20512793, 4128.07692280, 4180.89743576,8.57
4122.17948691, 4122.56410229, 4127.82051255, 4132.05128178, 4122.05128178, 4153.07692287, 4104.61538434, 4214.99999993, 4192.17948704, 4131.28205101, 4112.56410229, 4123.71794844, 4128.07692280, 4183.97435884,8.57
4122.30769203, 4123.97435870, 4127.56410229, 4121.28205101, 4122.05128178, 4146.15384595, 4077.56410222, 4196.15384602, 4165.12820492, 4129.48717921, 4112.69230742, 4124.48717921, 4129.23076896, 4183.58974345,8.57
4121.79487152, 4124.74358947, 4124.87179460, 4126.15384588, 4123.33333306, 4163.33333313, 4106.15384588, 4192.69230756, 4153.58974339, 4128.07692280, 4113.84615357, 4117.43589716, 4129.10256383, 4183.46153833,8.57
4128.58974332, 4127.43589716, 4132.56410229, 4128.46153819, 4121.66666639, 4174.10256397, 4169.61538448, 4196.28205115, 4163.33333313, 4131.66666639, 4116.53846126, 4133.20512793, 4136.79487159, 4194.99999986,8.57
4120.76923050, 4124.99999973, 4122.56410229, 4127.43589716, 4118.07692280, 4169.87179474, 4150.25641005, 4185.89743576, 4166.41025621, 4133.58974332, 4113.07692280, 4125.25640998, 4129.23076896, 4186.15384602,8.57
4122.56410229, 4129.61538434, 4121.66666639, 4131.66666639, 4118.33333306, 4170.12820499, 4091.28205094, 4188.33333320, 4175.89743576, 4131.02564075, 4114.99999973, 4124.10256383, 4128.33333306, 4186.79487166,8.57
4126.53846126, 4128.84615357, 4128.71794844, 4138.33333313, 4123.33333306, 4183.07692294, 4097.05128171, 4203.46153840, 4197.05128192, 4128.46153819, 4118.07692280, 4130.12820485, 4136.53846133, 4193.71794858,8.57
4119.48717921, 4121.41025614, 4126.02564075, 4133.46153819, 4123.97435870, 4185.51282038, 4117.69230742, 4193.07692294, 4189.35897422, 4128.20512793, 4115.76923050, 4121.79487152, 4131.28205101, 4189.10256397,8.57
4128.84615357, 4129.23076896, 4128.46153819, 4118.58974332, 4123.46153819, 4161.66666646, 4094.74358940, 4172.17948704, 4165.12820492, 4132.69230742, 4116.15384588, 4133.58974332, 4133.07692280, 4194.99999986,8.57
4127.17948691, 4127.56410229, 4121.02564075, 4101.92307658, 4122.17948691, 4147.43589723, 4076.66666632, 4157.56410236, 4152.94871774, 4134.10256383, 4110.25640998, 4126.02564075, 4134.61538434, 4194.10256397,8.57
4124.23076896, 4124.99999973, 4119.99999973, 4099.87179453, 4120.76923050, 4164.23076903, 4085.12820478, 4155.89743569, 4153.84615364, 4131.15384588, 4106.92307665, 4122.69230742, 4131.41025614, 4192.82051269,8.57
4127.17948691, 4129.35897408, 4124.23076896, 4120.51282024, 4122.82051255, 4178.97435884, 4107.43589716, 4190.64102551, 4177.17948704, 4131.53846126, 4111.28205101, 4131.02564075, 4128.58974332, 4192.82051269,8.57
4117.17948691, 4121.79487152, 4117.94871767, 4127.69230742, 4122.56410229, 4168.20512807, 4117.17948691, 4212.69230763, 4190.51282038, 4134.10256383, 4111.66666639, 4117.30769203, 4128.07692280, 4192.43589730,8.57
4122.30769203, 4123.84615357, 4123.46153819, 4122.05128178, 4121.66666639, 4166.28205108, 4109.10256383, 4190.25641012, 4181.66666653, 4134.23076896, 4110.76923050, 4126.92307665, 4133.84615357, 4201.41025634,8.57
4120.25640998, 4125.12820485, 4122.17948691, 4141.02564082, 4119.61538434, 4194.87179474, 4123.58974332, 4197.94871781, 4206.92307686, 4131.02564075, 4108.46153819, 4127.82051255, 4128.97435870, 4191.28205115,8.57
4115.89743562, 4121.02564075, 4121.02564075, 4147.94871774, 4119.87179460, 4202.30769224, 4133.46153819, 4226.41025634, 4230.76923070, 4128.97435870, 4108.33333306, 4119.61538434, 4128.71794844, 4186.53846140,8.57
4123.33333306, 4124.23076896, 4126.28205101, 4110.25640998, 4123.33333306, 4169.74358961, 4111.28205101, 4208.20512814, 4200.64102551, 4131.28205101, 4109.74358947, 4124.23076896, 4133.33333306, 4193.07692294,8.57
4118.58974332, 4120.89743562, 4118.58974332, 4084.99999966, 4122.69230742, 4153.33333313, 4101.92307658, 4184.74358961, 4178.46153833, 4132.82051255, 4106.28205101, 4115.76923050, 4128.71794844, 4187.30769217,8.57
4121.41025614, 4123.58974332, 4121.41025614, 4101.02564068, 4121.92307665, 4176.15384602, 4110.12820485, 4203.07692301, 4196.53846140, 4131.53846126, 4107.43589716, 4121.53846126, 4132.56410229, 4189.48717935,8.57
4118.58974332, 4123.97435870, 4120.89743562, 4119.87179460, 4122.94871767, 4197.43589730, 4141.28205108, 4219.61538455, 4200.64102551, 4131.53846126, 4109.61538434, 4116.02564075, 4128.71794844, 4183.71794858,8.57
4118.07692280, 4123.20512793, 4120.38461511, 4133.84615357, 4122.43589716, 4196.66666653, 4232.43589737, 4213.33333327, 4194.35897422, 4130.89743562, 4110.38461511, 4113.46153819, 4123.97435870, 4182.30769217,8.57
4127.17948691, 4127.56410229, 4129.74358947, 4141.28205108, 4121.02564075, 4193.84615371, 4295.25641033, 4205.38461532, 4202.94871788, 4128.20512793, 4109.23076896, 4129.10256383, 4131.41025614, 4189.74358961,8.57
4119.23076896, 4121.79487152, 4125.89743562, 4131.28205101, 4119.99999973, 4187.82051269, 4243.46153847, 4192.30769217, 4194.10256397, 4126.79487152, 4104.35897408, 4118.07692280, 4126.79487152, 4180.12820499,8.57
4121.28205101, 4126.15384588, 4129.23076896, 4132.05128178, 4122.56410229, 4180.12820499, 4193.58974345, 4183.33333320, 4191.28205115, 4129.74358947, 4107.30769203, 4122.17948691, 4128.07692280, 4185.64102551,8.57
4123.20512793, 4128.58974332, 4128.97435870, 4150.89743569, 4123.71794844, 4201.53846147, 4233.33333327, 4204.35897429, 4224.99999993, 4131.02564075, 4111.92307665, 4124.61538434, 4132.05128178, 4189.10256397,8.57
4120.51282024, 4123.07692280, 4126.15384588, 4152.17948697, 4120.89743562, 4224.87179481, 4265.12820513, 4222.56410250, 4229.74358968, 4128.20512793, 4110.76923050, 4119.48717921, 4129.48717921, 4186.53846140,8.57
4127.69230742, 4127.56410229, 4130.89743562, 4132.43589716, 4119.23076896, 4200.76923063, 4237.43589744, 4213.58974352, 4200.25641012, 4128.58974332, 4109.48717921, 4131.92307665, 4134.87179460, 4193.58974345,8.57
4123.58974332, 4124.61538434, 4124.87179460, 4126.66666639, 4119.74358947, 4174.23076910, 4217.17948711, 4210.76923070, 4198.84615371, 4130.64102537, 4106.41025614, 4122.56410229, 4132.17948691, 4188.71794858,8.57
4125.76923050, 4125.12820485, 4126.92307665, 4126.41025614, 4120.89743562, 4182.43589730, 4226.66666660, 4201.92307686, 4193.58974345, 4130.38461511, 4106.66666639, 4126.66666639, 4132.30769203, 4192.69230756,8.57
4124.23076896, 4126.92307665, 4125.38461511, 4108.84615357, 4122.69230742, 4181.41025628, 4224.48717942, 4162.30769210, 4152.30769210, 4129.61538434, 4104.48717921, 4132.56410229, 4133.33333306, 4195.25641012,8.57
4121.15384588, 4122.94871767, 4119.99999973, 4107.94871767, 4122.56410229, 4173.71794858, 4213.84615378, 4164.99999980, 4156.41025621, 4131.02564075, 4103.97435870, 4123.33333306, 4129.35897408, 4189.61538448,8.57
4132.82051255, 4125.76923050, 4125.51282024, 4127.69230742, 4121.28205101, 4192.17948704, 4224.74358968, 4217.43589737, 4208.97435891, 4131.66666639, 4111.66666639, 4132.82051255, 4133.97435870, 4194.10256397,8.57
4124.48717921, 4121.41025614, 4122.05128178, 4135.64102544, 4120.64102537, 4213.20512814, 4240.12820513, 4224.61538455, 4221.53846147, 4128.84615357, 4111.79487152, 4123.07692280, 4132.17948691, 4192.82051269,8.57
4122.30769203, 4122.56410229, 4124.10256383, 4125.51282024, 4121.53846126, 4207.17948711, 4235.89743590, 4194.74358961, 4198.97435884, 4128.07692280, 4108.20512793, 4122.30769203, 4133.84615357, 4193.97435884,8.57
4126.66666639, 4128.33333306, 4124.48717921, 4102.94871767, 4119.87179460, 4182.05128192, 4222.82051275, 4190.38461525, 4186.15384602, 4128.07692280, 4105.76923050, 4129.23076896, 4134.87179460, 4190.64102551,8.57
4117.43589716, 4122.05128178, 4118.20512793, 4091.28205094, 4117.05128178, 4170.89743576, 4216.66666660, 4194.23076910, 4183.07692294, 4126.15384588, 4104.61538434, 4119.23076896, 4129.35897408, 4190.12820499,8.57
4122.43589716, 4124.61538434, 4124.87179460, 4101.02564068, 4120.64102537, 4184.87179474, 4212.43589737, 4183.46153833, 4174.48717935, 4125.89743562, 4109.48717921, 4130.64102537, 4132.43589716, 4201.41025634,8.57
4121.41025614, 4125.89743562, 4120.64102537, 4101.02564068, 4123.33333306, 4189.61538448, 4202.69230763, 4175.38461525, 4154.74358954, 4124.74358947, 4107.69230742, 4126.79487152, 4129.35897408, 4191.28205115,8.57
4119.99999973, 4124.23076896, 4120.25640998, 4086.66666632, 4121.79487152, 4171.15384602, 4203.46153840, 4190.64102551, 4158.97435877, 4125.12820485, 4105.51282024, 4120.64102537, 4130.51282024, 4190.89743576,8.57
4119.74358947, 4125.76923050, 4124.48717921, 4096.02564068, 4120.51282024, 4168.97435884, 4221.92307686, 4207.43589737, 4187.17948704, 4129.87179460, 4107.30769203, 4127.30769203, 4134.10256383, 4199.35897422,8.57
4110.76923050, 4120.51282024, 4117.05128178, 4126.02564075, 4119.99999973, 4196.28205115, 4230.51282045, 4217.94871788, 4206.41025634, 4129.10256383, 4107.17948691, 4116.66666639, 4126.66666639, 4189.23076910,8.57
4121.41025614, 4124.23076896, 4123.71794844, 4115.12820485, 4123.07692280, 4190.76923063, 4190.12820499, 4205.12820506, 4186.53846140, 4125.25640998, 4108.07692280, 4122.56410229, 4128.33333306, 4190.25641012,8.57
4122.05128178, 4123.97435870, 4123.84615357, 4080.51282017, 4123.46153819, 4160.64102544, 4157.69230749, 4176.28205115, 4150.25641005, 4125.25640998, 4104.48717921, 4118.84615357, 4129.61538434, 4186.66666653,8.57
4117.94871767, 4121.79487152, 4121.92307665, 4097.69230735, 4121.53846126, 4181.28205115, 4189.61538448, 4196.15384602, 4167.94871774, 4128.71794844, 4104.35897408, 4114.35897408, 4129.87179460, 4184.74358961,8.57
4126.53846126, 4128.07692280, 4130.51282024, 4125.25640998, 4123.58974332, 4206.79487173, 4215.12820506, 4243.58974359, 4222.69230763, 4130.64102537, 4108.84615357, 4126.02564075, 4132.56410229, 4190.64102551,8.57
4118.46153819, 4126.02564075, 4125.51282024, 4107.82051255, 4122.94871767, 4189.87179474, 4217.94871788, 4250.51282052, 4241.92307693, 4130.89743562, 4105.64102537, 4114.99999973, 4125.25640998, 4184.61538448,8.57
4118.46153819, 4126.92307665, 4126.53846126, 4088.20512786, 4119.48717921, 4185.51282038, 4230.89743583, 4223.33333327, 4203.46153840, 4131.53846126, 4104.35897408, 4119.48717921, 4127.56410229, 4187.30769217,8.57
4122.94871767, 4124.87179460, 4125.25640998, 4095.38461504, 4121.92307665, 4205.89743583, 4207.30769224, 4206.79487173, 4170.12820499, 4131.02564075, 4106.28205101, 4123.84615357, 4131.79487152, 4184.35897422,8.57
4120.64102537, 4122.56410229, 4120.64102537, 4078.33333299, 4126.28205101, 4188.84615371, 4124.87179460, 4192.17948704, 4172.94871781, 4131.79487152, 4106.28205101, 4121.02564075, 4129.99999973, 4182.94871781,8.57
4123.97435870, 4129.61538434, 4126.28205101, 4034.99999952, 4125.51282024, 4153.97435877, 4073.07692273, 4166.79487159, 4167.56410236, 4130.89743562, 4104.23076896, 4135.64102544, 4133.33333306, 4194.23076910,8.57
4119.10256383, 4124.48717921, 4121.92307665, 4023.07692259, 4121.79487152, 4158.07692287, 4088.97435863, 4160.76923056, 4161.79487159, 4129.61538434, 4101.66666632, 4125.12820485, 4128.84615357, 4189.23076910,8.57
4124.74358947, 4127.05128178, 4125.12820485, 4034.99999952, 4121.79487152, 4170.12820499, 4099.99999966, 4164.10256390, 4165.76923056, 4134.87179460, 4105.76923050, 4124.48717921, 4130.89743562, 4189.10256397,8.57
4124.99999973, 4131.79487152, 4126.66666639, 4043.07692266, 4122.82051255, 4175.51282038, 4103.84615357, 4181.92307679, 4182.05128192, 4136.66666646, 4104.35897408, 4129.87179460, 4133.84615357, 4190.64102551,8.57
4117.05128178, 4122.94871767, 4122.56410229, 4032.43589695, 4122.30769203, 4181.41025628, 4108.20512793, 4198.84615371, 4188.07692294, 4134.48717921, 4099.23076889, 4122.43589716, 4129.61538434, 4189.35897422,8.57
4128.97435870, 4125.89743562, 4128.46153819, 4008.07692259, 4123.20512793, 4170.38461525, 4103.97435870, 4176.28205115, 4160.12820492, 4136.02564082, 4101.66666632, 4134.23076896, 4135.25640998, 4196.41025628,8.57
4125.38461511, 4127.17948691, 4122.82051255, 4009.87179439, 4122.82051255, 4166.66666646, 4122.94871767, 4180.25641012, 4165.51282031, 4137.05128185, 4101.66666632, 4129.74358947, 4134.35897408, 4190.38461525,8.57
4119.61538434, 4124.99999973, 4124.99999973, 4030.64102516, 4121.15384588, 4186.53846140, 4151.79487159, 4219.35897429, 4211.28205122, 4136.66666646, 4101.92307658, 4131.41025614, 4133.84615357, 4191.02564089,8.57
4123.71794844, 4125.38461511, 4129.74358947, 4019.35897388, 4121.28205101, 4185.38461525, 4136.79487159, 4201.66666660, 4205.38461532, 4136.66666646, 4103.33333306, 4135.25640998, 4134.74358947, 4193.84615371,8.57
4120.51282024, 4121.79487152, 4121.15384588, 3989.35897381, 4121.15384588, 4158.33333313, 4090.76923043, 4150.76923056, 4155.51282031, 4134.99999973, 4099.23076889, 4120.76923050, 4130.25640998, 4189.74358961,8.57
4124.23076896, 4127.05128178, 4121.92307665, 3996.28205073, 4122.82051255, 4154.23076903, 4073.46153812, 4152.17948697, 4154.35897415, 4135.51282031, 4097.05128171, 4130.76923050, 4136.41025621, 4194.23076910,8.57
4117.94871767, 4126.28205101, 4121.41025614, 4013.97435849, 4121.02564075, 4160.51282031, 4077.82051248, 4171.15384602, 4174.35897422, 4137.05128185, 4095.64102530, 4127.94871767, 4132.82051255, 4188.20512807,8.57
4117.82051255, 4123.97435870, 4122.56410229, 4003.33333278, 4117.56410229, 4152.43589723, 4077.30769196, 4155.64102544, 4156.53846133, 4136.02564082, 4097.17948684, 4125.38461511, 4128.97435870, 4190.76923063,8.57
4124.35897408, 4125.12820485, 4122.05128178, 3992.56410201, 4118.97435870, 4151.02564082, 4068.97435856, 4137.69230749, 4143.71794851, 4135.51282031, 4097.94871761, 4130.89743562, 4132.17948691, 4194.87179474,8.57
4116.15384588, 4120.12820485, 4115.76923050, 4002.56410201, 4120.89743562, 4156.41025621, 4068.84615343, 4140.38461518, 4152.82051262, 4135.12820485, 4096.28205094, 4117.17948691, 4129.10256383, 4185.89743576,8.57
4117.17948691, 4125.12820485, 4124.61538434, 4013.71794824, 4121.79487152, 4157.30769210, 4080.64102530, 4159.48717928, 4171.28205115, 4133.84615357, 4102.82051255, 4122.43589716, 4132.82051255, 4191.15384602,8.57
4112.05128178, 4125.38461511, 4122.43589716, 4007.94871747, 4120.64102537, 4152.56410236, 4076.53846119, 4176.02564089, 4189.87179474, 4134.74358947, 4101.79487145, 4119.74358947, 4130.12820485, 4187.94871781,8.57
4114.74358947, 4120.25640998, 4118.58974332, 3983.46153791, 4121.02564075, 4136.28205108, 4095.76923043, 4155.25641005, 4163.20512800, 4134.87179460, 4094.87179453, 4115.89743562, 4126.92307665, 4183.58974345,8.57
4125.51282024, 4124.61538434, 4127.30769203, 3956.15384553, 4124.61538434, 4119.35897408, 4132.69230742, 4111.79487152, 4095.51282017, 4134.10256383, 4095.25640991, 4124.61538434, 4131.28205101, 4188.07692294,8.57
4115.25640998, 4124.48717921, 4123.84615357, 3963.07692246, 4123.71794844, 4131.15384588, 4126.92307665, 4121.92307665, 4104.74358947, 4132.82051255, 4098.46153812, 4112.43589716, 4126.41025614, 4182.69230756,8.57
4118.33333306, 4129.74358947, 4126.53846126, 3988.33333278, 4121.79487152, 4152.69230749, 4088.46153812, 4159.23076903, 4173.97435884, 4133.58974332, 4103.58974332, 4122.56410229, 4129.35897408, 4187.05128192,8.57
4121.15384588, 4129.99999973, 4125.51282024, 3992.82051227, 4123.20512793, 4160.64102544, 4079.87179453, 4143.46153826, 4166.92307672, 4134.23076896, 4099.48717914, 4125.25640998, 4129.87179460, 4183.58974345,8.57
4117.43589716, 4124.10256383, 4121.28205101, 3982.56410201, 4123.97435870, 4152.05128185, 4078.71794837, 4106.02564075, 4116.15384588, 4134.10256383, 4095.51282017, 4115.38461511, 4125.64102537, 4180.38461525,8.57
4124.48717921, 4129.35897408, 4128.71794844, 3982.56410201, 4122.56410229, 4132.56410229, 4058.07692266, 4122.94871767, 4137.94871774, 4136.79487159, 4099.87179453, 4128.33333306, 4133.20512793, 4188.71794858,8.57
4121.15384588, 4128.33333306, 4125.64102537, 3993.20512765, 4120.89743562, 4126.53846126, 4058.07692266, 4151.66666646, 4172.17948704, 4136.15384595, 4099.61538427, 4122.30769203, 4129.48717921, 4184.10256397,8.57
4124.35897408, 4127.30769203, 4127.56410229, 3990.12820458, 4122.17948691, 4119.99999973, 4059.23076882, 4118.07692280, 4122.82051255, 4133.58974332, 4098.84615350, 4125.89743562, 4127.94871767, 4188.97435884,8.57
4124.61538434, 4125.51282024, 4126.02564075, 3986.02564047, 4123.97435870, 4111.15384588, 4063.46153805, 4091.53846119, 4087.17948684, 4134.74358947, 4100.38461504, 4129.10256383, 4132.56410229, 4188.58974345,8.57
4123.33333306, 4122.05128178, 4121.92307665, 4003.46153791, 4121.79487152, 4122.43589716, 4076.02564068, 4124.48717921, 4132.94871767, 4134.74358947, 4103.07692280, 4121.66666639, 4130.76923050, 4185.64102551,8.57
4132.05128178, 4129.87179460, 4130.64102537, 4016.66666618, 4119.87179460, 4127.69230742, 4054.87179446, 4131.79487152, 4150.89743569, 4131.53846126, 4105.25640998, 4135.25640998, 4132.82051255, 4196.15384602,8.57
4123.46153819, 4126.15384588, 4123.71794844, 4015.89743541, 4119.23076896, 4121.66666639, 4037.56410215, 4100.38461504, 4116.02564075, 4130.12820485, 4100.38461504, 4127.94871767, 4130.64102537, 4190.64102551,8.57
4123.58974332, 4124.87179460, 4124.61538434, 4035.89743541, 4120.64102537, 4134.35897408, 4066.02564061, 4114.99999973, 4127.56410229, 4133.71794844, 4101.66666632, 4129.23076896, 4133.84615357, 4190.76923063,8.57
4128.58974332, 4127.82051255, 4130.12820485, 4065.38461497, 4122.82051255, 4155.25641005, 4096.53846119, 4154.48717928, 4169.48717935, 4135.89743569, 4107.17948691, 4135.25640998, 4133.84615357, 4193.58974345,8.57
4117.94871767, 4120.38461511, 4121.66666639, 4047.17948677, 4122.56410229, 4138.84615364, 4077.69230735, 4136.41025621, 4147.56410236, 4133.84615357, 4105.12820485, 4121.02564075, 4129.87179460, 4190.64102551,8.57
4124.87179460, 4125.25640998, 4121.79487152, 4012.56410208, 4122.69230742, 4104.87179460, 4039.99999959, 4089.10256376, 4095.64102530, 4133.20512793, 4101.66666632, 4132.17948691, 4135.38461518, 4195.64102551,8.57
4126.15384588, 4127.43589716, 4119.87179460, 4035.89743541, 4121.53846126, 4115.64102537, 4051.28205087, 4108.58974332, 4119.35897408, 4134.48717921, 4100.38461504, 4129.23076896, 4131.53846126, 4189.10256397,8.57
4121.41025614, 4123.20512793, 4123.46153819, 4064.61538420, 4121.28205101, 4138.20512800, 4075.38461504, 4150.89743569, 4167.56410236, 4134.74358947, 4102.82051255, 4121.79487152, 4131.41025614, 4192.43589730,8.57
4119.87179460, 4122.82051255, 4126.41025614, 4039.74358933, 4123.97435870, 4118.71794844, 4042.94871754, 4108.20512793, 4131.02564075, 4133.97435870, 4100.64102530, 4126.66666639, 4132.94871767, 4196.92307679,8.57
4111.66666639, 4118.71794844, 4117.43589716, 4021.02564054, 4122.43589716, 4098.84615350, 4016.41025593, 4058.46153805, 4081.02564068, 4134.61538434, 4095.76923043, 4118.07692280, 4126.02564075, 4187.56410243,8.57
4120.12820485, 4123.58974332, 4123.84615357, 4031.15384567, 4121.02564075, 4101.79487145, 4029.48717900, 4070.89743555, 4084.35897402, 4135.76923056, 4099.74358940, 4128.20512793, 4131.28205101, 4191.02564089,8.57
4117.69230742, 4124.10256383, 4123.97435870, 4037.17948677, 4121.41025614, 4094.23076889, 4024.74358926, 4075.38461504, 4088.84615350, 4134.23076896, 4099.10256376, 4121.66666639, 4128.33333306, 4185.51282038,8.57
4115.25640998, 4123.58974332, 4122.05128178, 4059.61538420, 4122.82051255, 4100.76923043, 4035.89743541, 4084.35897402, 4113.20512793, 4134.35897408, 4098.46153812, 4113.84615357, 4124.74358947, 4183.71794858,8.57
4124.99999973, 4127.17948691, 4126.28205101, 4080.76923043, 4125.12820485, 4119.74358947, 4067.17948677, 4116.28205101, 4155.89743569, 4136.28205108, 4101.41025607, 4126.41025614, 4133.58974332, 4190.51282038,8.57
4114.23076896, 4118.46153819, 4119.35897408, 4055.64102523, 4122.30769203, 4096.92307658, 4042.43589702, 4092.82051248, 4129.10256383, 4133.71794844, 4098.33333299, 4115.76923050, 4129.48717921, 4182.69230756,8.57
4117.82051255, 4122.43589716, 4125.89743562, 4046.66666625, 4120.89743562, 4082.30769196, 4016.66666618, 4066.15384574, 4094.23076889, 4133.20512793, 4101.28205094, 4119.74358947, 4128.46153819, 4185.51282038,8.57
4120.89743562, 4127.56410229, 4127.82051255, 4085.12820478, 4123.71794844, 4116.28205101, 4051.53846113, 4097.69230735, 4117.94871767, 4134.87179460, 4103.33333306, 4120.38461511, 4127.56410229, 4183.33333320,8.57
4116.41025614, 4121.41025614, 4121.28205101, 4096.28205094, 4122.17948691, 4124.10256383, 4058.07692266, 4084.99999966, 4103.33333306, 4133.71794844, 4102.69230742, 4116.28205101, 4123.58974332, 4181.41025628,8.57
4124.99999973, 4125.12820485, 4127.94871767, 4083.33333299, 4118.71794844, 4104.35897408, 4034.48717900, 4051.02564061, 4072.30769196, 4133.07692280, 4105.25640998, 4130.38461511, 4131.15384588, 4190.51282038,8.57
4123.07692280, 4127.05128178, 4127.05128178, 4094.87179453, 4121.02564075, 4115.89743562, 4052.94871754, 4089.10256376, 4110.38461511, 4135.76923056, 4103.71794844, 4121.92307665, 4129.35897408, 4182.94871781,8.57
4125.51282024, 4128.97435870, 4127.56410229, 4101.53846119, 4125.38461511, 4122.05128178, 4062.56410215, 4103.33333306, 4129.23076896, 4136.02564082, 4103.20512793, 4123.58974332, 4127.17948691, 4186.15384602,8.57
4123.71794844, 4126.41025614, 4124.23076896, 4086.15384581, 4122.94871767, 4102.56410229, 4039.48717907, 4062.43589702, 4096.15384581, 4133.20512793, 4103.84615357, 4127.69230742, 4129.35897408, 4189.74358961,8.57
4118.33333306, 4122.94871767, 4122.17948691, 4088.84615350, 4119.87179460, 4104.23076896, 4037.94871754, 4074.87179453, 4101.53846119, 4134.48717921, 4104.99999973, 4121.66666639, 4130.64102537, 4183.46153833,8.57
4128.20512793, 4130.25640998, 4132.56410229, 4104.74358947, 4122.43589716, 4108.71794844, 4043.07692266, 4094.48717914, 4113.71794844, 4136.53846133, 4106.02564075, 4133.58974332, 4135.64102544, 4188.97435884,8.57
4121.41025614, 4124.74358947, 4125.76923050, 4108.46153819, 4121.28205101, 4097.43589709, 4039.61538420, 4065.89743548, 4092.56410222, 4133.07692280, 4101.92307658, 4125.76923050, 4132.43589716, 4188.20512807,8.57
4119.48717921, 4125.25640998, 4124.48717921, 4100.51282017, 4118.84615357, 4089.87179453, 4031.92307644, 4042.94871754, 4074.74358940, 4132.43589716, 4101.79487145, 4128.84615357, 4135.12820485, 4192.69230756,8.57
4128.58974332, 4131.02564075, 4128.97435870, 4090.51282017, 4121.79487152, 4088.84615350, 4024.23076875, 4046.66666625, 4075.76923043, 4133.71794844, 4103.20512793, 4138.07692287, 4137.82051262, 4194.35897422,8.57
4121.41025614, 4120.51282024, 4120.64102537, 4087.30769196, 4121.66666639, 4082.82051248, 4031.92307644, 4054.87179446, 4076.92307658, 4133.46153819, 4101.41025607, 4124.35897408, 4131.02564075, 4189.61538448,8.57
4122.94871767, 4123.71794844, 4124.23076896, 4095.38461504, 4120.89743562, 4083.20512786, 4052.30769189, 4064.48717907, 4081.41025607, 4135.64102544, 4103.58974332, 4133.20512793, 4135.12820485, 4198.20512807,8.57
4123.97435870, 4128.71794844, 4123.97435870, 4108.20512793, 4122.17948691, 4106.41025614, 4068.46153805, 4084.23076889, 4107.43589716, 4133.58974332, 4103.07692280, 4128.20512793, 4132.43589716, 4194.23076910,8.57
4125.76923050, 4123.20512793, 4123.71794844, 4108.20512793, 4121.53846126, 4123.84615357, 4069.23076882, 4079.10256376, 4107.43589716, 4129.74358947, 4103.07692280, 4122.05128178, 4128.71794844, 4192.05128192,8.57
4126.28205101, 4125.12820485, 4124.99999973, 4110.25640998, 4120.76923050, 4122.43589716, 4068.97435856, 4061.02564061, 4083.46153812, 4132.30769203, 4105.25640998, 4132.56410229, 4132.30769203, 4195.64102551,8.57
4111.92307665, 4121.92307665, 4117.30769203, 4114.35897408, 4120.38461511, 4108.07692280, 4067.82051241, 4066.92307651, 4089.35897402, 4134.61538434, 4103.07692280, 4118.20512793, 4130.12820485, 4189.99999986,8.57
4121.15384588, 4120.89743562, 4124.61538434, 4099.74358940, 4121.79487152, 4085.64102530, 4054.35897395, 4065.12820472, 4092.17948684, 4136.15384595, 4104.99999973, 4119.99999973, 4132.56410229, 4194.10256397,8.57
4125.64102537, 4120.76923050, 4124.74358947, 4101.79487145, 4121.28205101, 4088.58974325, 4048.07692266, 4043.07692266, 4067.17948677, 4137.05128185, 4106.28205101, 4120.89743562, 4128.84615357, 4187.30769217,8.57
4116.15384588, 4120.89743562, 4121.28205101, 4132.69230742, 4120.12820485, 4121.41025614, 4060.51282010, 4037.17948677, 4065.12820472, 4134.23076896, 4104.10256383, 4114.61538434, 4126.15384588, 4183.20512807,8.57
4123.07692280, 4126.41025614, 4127.82051255, 4137.30769210, 4121.28205101, 4120.25640998, 4058.20512779, 4042.17948677, 4084.35897402, 4130.12820485, 4102.94871767, 4121.66666639, 4132.43589716, 4191.66666653,8.57
4119.99999973, 4121.92307665, 4121.79487152, 4122.69230742, 4122.69230742, 4088.97435863, 4040.38461497, 4039.35897395, 4082.30769196, 4130.51282024, 4102.30769196, 4116.02564075, 4126.66666639, 4184.99999986,8.57
4117.30769203, 4122.82051255, 4123.07692280, 4123.58974332, 4124.61538434, 4089.23076889, 4040.76923036, 4048.07692266, 4066.28205087, 4133.20512793, 4105.76923050, 4122.94871767, 4125.76923050, 4186.66666653,8.57
4116.53846126, 4124.74358947, 4123.71794844, 4119.61538434, 4123.33333306, 4098.58974325, 4045.51282010, 4045.51282010, 4046.02564061, 4133.84615357, 4103.84615357, 4119.23076896, 4126.66666639, 4188.20512807,8.57
4120.51282024, 4123.84615357, 4122.17948691, 4119.48717921, 4120.64102537, 4092.17948684, 4044.35897395, 4030.38461490, 4039.61538420, 4133.97435870, 4102.43589709, 4114.35897408, 4126.53846126, 4185.38461525,8.57
4127.82051255, 4130.51282024, 4127.69230742, 4133.46153819, 4122.82051255, 4093.71794837, 4050.25640984, 4047.69230728, 4051.53846113, 4133.71794844, 4108.46153819, 4132.05128178, 4133.97435870, 4189.35897422,8.57
4116.41025614, 4122.94871767, 4121.66666639, 4128.33333306, 4123.07692280, 4091.41025607, 4047.82051241, 4057.17948677, 4049.87179446, 4130.25640998, 4107.94871767, 4118.84615357, 4127.30769203, 4180.51282038,8.57
4122.17948691, 4122.43589716, 4128.58974332, 4114.74358947, 4120.89743562, 4069.99999966, 4030.12820465, 4021.41025593, 4046.28205087, 4129.10256383, 4106.15384588, 4121.15384588, 4127.05128178, 4185.12820499,8.57
4129.23076896, 4130.12820485, 4132.56410229, 4134.10256383, 4122.30769203, 4073.20512786, 4037.94871754, 4018.46153798, 4082.17948684, 4132.94871767, 4108.97435870, 4133.46153819, 4131.92307665, 4191.66666653,8.57
4119.61538434, 4125.51282024, 4121.92307665, 4146.28205108, 4122.69230742, 4088.71794837, 4051.15384574, 4048.84615343, 4111.02564075, 4133.46153819, 4111.28205101, 4121.28205101, 4129.35897408, 4186.66666653,8.57
4127.17948691, 4128.97435870, 4128.71794844, 4107.56410229, 4122.05128178, 4067.17948677, 4021.28205080, 4024.35897388, 4074.35897402, 4133.58974332, 4108.07692280, 4130.25640998, 4134.87179460, 4191.79487166,8.57
4125.38461511, 4127.94871767, 4128.20512793, 4112.56410229, 4123.46153819, 4076.53846119, 4030.38461490, 4018.71794824, 4071.66666632, 4135.25640998, 4104.10256383, 4128.58974332, 4132.30769203, 4190.76923063,8.57
4122.69230742, 4126.41025614, 4124.99999973, 4169.23076910, 4122.43589716, 4116.53846126, 4073.07692273, 4058.33333292, 4118.46153819, 4133.97435870, 4110.89743562, 4129.48717921, 4131.92307665, 4195.25641012,8.57
4128.84615357, 4129.61538434, 4126.53846126, 4168.33333320, 4121.66666639, 4101.66666632, 4052.05128164, 4045.89743548, 4112.69230742, 4132.69230742, 4111.92307665, 4135.76923056, 4135.64102544, 4193.97435884,8.57
4123.33333306, 4124.10256383, 4120.38461511, 4138.33333313, 4122.82051255, 4063.58974318, 4021.15384567, 4026.02564054, 4091.53846119, 4131.92307665, 4105.89743562, 4123.20512793, 4131.53846126, 4184.99999986,8.57
4126.79487152, 4126.28205101, 4126.02564075, 4145.12820492, 4122.17948691, 4062.82051241, 4036.02564054, 4036.66666618, 4103.46153819, 4130.76923050, 4109.61538434, 4132.94871767, 4134.99999973, 4196.02564089,8.57
4123.71794844, 4125.51282024, 4124.74358947, 4141.53846133, 4119.61538434, 4071.66666632, 4029.48717900, 4004.48717900, 4077.30769196, 4129.10256383, 4108.84615357, 4128.33333306, 4135.25640998, 4193.97435884,8.57
4120.64102537, 4121.92307665, 4119.99999973, 4117.94871767, 4121.66666639, 4065.25640984, 4005.25640977, 3975.51281996, 4034.23076875, 4132.43589716, 4104.23076896, 4121.92307665, 4133.71794844, 4191.53846140,8.57
4126.41025614, 4125.38461511, 4123.58974332, 4125.12820485, 4124.35897408, 4066.79487138, 4023.58974311, 4019.99999952, 4064.87179446, 4136.79487159, 4106.92307665, 4132.05128178, 4134.23076896, 4199.23076910,8.57
4117.30769203, 4121.02564075, 4119.99999973, 4131.28205101, 4119.23076896, 4074.35897402, 4035.64102516, 4034.10256362, 4087.05128171, 4133.58974332, 4105.51282024, 4120.25640998, 4130.76923050, 4192.05128192,8.57
4119.99999973, 4123.07692280, 4121.15384588, 4104.87179460, 4119.48717921, 4075.25640991, 4022.05128157, 4003.71794817, 4056.66666625, 4131.66666639, 4102.82051255, 4124.99999973, 4134.48717921, 4192.17948704,8.57
4119.48717921, 4123.71794844, 4116.28205101, 4107.17948691, 4124.87179460, 4088.46153812, 4041.53846113, 4038.20512779, 4086.02564068, 4134.23076896, 4102.94871767, 4124.10256383, 4129.87179460, 4191.79487166,8.57
4117.30769203, 4119.61538434, 4118.46153819, 4124.10256383, 4123.58974332, 4096.53846119, 4050.51282010, 4059.74358933, 4123.46153819, 4135.25640998, 4106.28205101, 4115.38461511, 4126.66666639, 4190.38461525,8.57
4127.30769203, 4124.74358947, 4127.05128178, 4099.23076889, 4121.15384588, 4073.20512786, 4013.46153798, 4000.25640970, 4074.61538427, 4134.10256383, 4107.43589716, 4121.92307665, 4134.74358947, 4190.38461525,8.57
4118.58974332, 4121.28205101, 4116.15384588, 4084.74358940, 4121.41025614, 4059.87179446, 4009.99999952, 3986.66666611, 4044.99999959, 4133.46153819, 4102.82051255, 4112.43589716, 4128.58974332, 4181.53846140,8.57
4117.56410229, 4120.12820485, 4119.48717921, 4106.53846126, 4123.07692280, 4066.41025600, 4039.99999959, 4029.10256362, 4076.66666632, 4133.20512793, 4105.25640998, 4118.58974332, 4127.17948691, 4187.94871781,8.57
4120.12820485, 4122.82051255, 4126.28205101, 4113.84615357, 4122.05128178, 4060.38461497, 4037.56410215, 4023.46153798, 4078.84615350, 4131.92307665, 4105.64102537, 4117.56410229, 4127.82051255, 4187.69230756,8.57
4119.10256383, 4124.35897408, 4123.97435870, 4105.76923050, 4122.56410229, 4056.02564061, 4027.69230721, 4001.79487124, 4058.71794830, 4131.92307665, 4103.20512793, 4109.23076896, 4124.74358947, 4182.82051269,8.57
4127.30769203, 4129.99999973, 4127.94871767, 4109.74358947, 4125.76923050, 4063.33333292, 4031.28205080, 4013.84615336, 4064.48717907, 4134.99999973, 4107.43589716, 4124.23076896, 4132.69230742, 4189.35897422,8.57
4118.84615357, 4122.30769203, 4122.05128178, 4100.12820478, 4123.97435870, 4052.56410215, 4018.71794824, 4016.92307644, 4070.38461504, 4135.12820485, 4107.30769203, 4117.05128178, 4130.38461511, 4184.23076910,8.57
4120.12820485, 4124.10256383, 4126.41025614, 4074.99999966, 4121.53846126, 4027.17948670, 3999.23076868, 3995.25640970, 4049.74358933, 4134.35897408, 4104.87179460, 4121.53846126, 4127.82051255, 4187.69230756,8.57
4126.02564075, 4130.64102537, 4129.48717921, 4077.17948684, 4122.05128178, 4026.66666618, 4000.89743535, 3980.12820458, 4028.58974311, 4135.12820485, 4103.20512793, 4129.61538434, 4128.46153819, 4186.92307679,8.57
4120.51282024, 4124.74358947, 4122.05128178, 4094.61538427, 4120.25640998, 4045.12820472, 4009.35897388, 3983.84615329, 4036.41025593, 4132.17948691, 4104.61538434, 4120.51282024, 4126.66666639, 4182.56410243,8.57
4124.74358947, 4128.46153819, 4126.79487152, 4093.46153812, 4119.35897408, 4048.33333292, 4009.74358926, 3989.48717894, 4046.28205087, 4129.87179460, 4106.92307665, 4132.94871767, 4133.20512793, 4194.48717935,8.57
4120.51282024, 4126.79487152, 4123.46153819, 4091.79487145, 4121.66666639, 4040.12820472, 4020.76923029, 4002.56410201, 4048.20512779, 4130.38461511, 4105.38461511, 4128.33333306, 4130.51282024, 4189.23076910,8.57
4124.61538434, 4126.28205101, 4124.74358947, 4109.23076896, 4122.43589716, 4042.05128164, 4035.64102516, 4019.99999952, 4059.61538420, 4129.99999973, 4110.64102537, 4124.48717921, 4131.15384588, 4189.74358961,8.57
4129.74358947, 4130.64102537, 4129.87179460, 4114.23076896, 4120.51282024, 4051.66666625, 4034.99999952, 4017.94871747, 4063.20512779, 4130.12820485, 4113.20512793, 4129.99999973, 4134.35897408, 4195.38461525,8.57
4119.87179460, 4124.23076896, 4123.46153819, 4097.69230735, 4120.89743562, 4046.79487138, 4021.66666618, 4002.56410201, 4048.46153805, 4130.12820485, 4108.71794844, 4124.23076896, 4127.69230742, 4188.71794858,8.57
4126.53846126, 4123.07692280, 4127.69230742, 4089.10256376, 4124.74358947, 4022.30769183, 4002.94871740, 3986.15384560, 4039.10256369, 4129.87179460, 4109.35897408, 4135.76923056, 4132.82051255, 4194.61538448,8.57
4124.23076896, 4121.41025614, 4124.35897408, 4098.58974325, 4121.28205101, 4012.94871747, 3996.15384560, 3981.02564047, 4036.79487131, 4130.89743562, 4107.56410229, 4128.58974332, 4134.74358947, 4194.10256397,8.57
4119.23076896, 4123.46153819, 4119.48717921, 4111.28205101, 4116.92307665, 4022.17948670, 4001.02564047, 3986.02564047, 4026.02564054, 4135.64102544, 4107.30769203, 4124.87179460, 4132.94871767, 4196.15384602,8.57
4123.58974332, 4128.84615357, 4121.66666639, 4112.82051255, 4122.05128178, 4016.66666618, 4002.69230714, 3987.69230714, 4024.10256362, 4135.51282031, 4110.12820485, 4135.76923056, 4134.74358947, 4198.07692294,8.57
4116.92307665, 4121.15384588, 4117.94871767, 4114.23076896, 4124.74358947, 4013.58974311, 4007.30769183, 3991.92307637, 4037.94871754, 4131.15384588, 4109.10256383, 4120.64102537, 4131.28205101, 4187.69230756,8.57
4121.92307665, 4121.02564075, 4122.94871767, 4119.35897408, 4124.23076896, 4025.64102516, 4007.56410208, 3988.58974304, 4034.61538413, 4133.46153819, 4109.61538434, 4124.10256383, 4137.43589723, 4193.71794858,8.57
4119.23076896, 4123.20512793, 4118.84615357, 4116.28205101, 4123.46153819, 4029.61538413, 4006.53846106, 3978.20512765, 4017.94871747, 4134.48717921, 4106.53846126, 4123.97435870, 4133.46153819, 4192.43589730,8.57
4114.10256383, 4122.56410229, 4118.07692280, 4106.41025614, 4121.92307665, 4022.17948670, 4008.84615336, 3973.84615329, 4016.53846106, 4130.25640998, 4105.76923050, 4117.56410229, 4125.89743562, 4186.15384602,8.57
4123.71794844, 4125.25640998, 4126.92307665, 4110.64102537, 4123.07692280, 4017.30769183, 3995.12820458, 3974.48717894, 4021.66666618, 4132.05128178, 4111.02564075, 4126.28205101, 4132.94871767, 4190.64102551,8.57
4120.25640998, 4118.84615357, 4119.99999973, 4127.82051255, 4121.66666639, 4020.12820465, 4004.61538413, 3982.82051227, 4026.15384567, 4137.17948697, 4108.71794844, 4114.99999973, 4132.17948691, 4187.17948704,8.57
4121.53846126, 4122.56410229, 4124.23076896, 4127.94871767, 4121.28205101, 4016.53846106, 4036.28205080, 3977.56410201, 4014.74358926, 4135.25640998, 4105.64102537, 4119.61538434, 4131.15384588, 4189.10256397,8.57
4121.53846126, 4122.56410229, 4124.23076896, 4127.94871767, 4121.28205101, 4016.53846106, 4036.28205080, 3977.56410201, 4014.74358926, 4135.25640998, 4105.64102537, 4119.61538434, 4131.15384588, 4189.10256397,8.57
4119.35897408, 4125.76923050, 4125.51282024, 4121.15384588, 4123.33333306, 4011.66666618, 4025.12820465, 3966.92307630, 3996.41025586, 4130.51282024, 4106.28205101, 4121.02564075, 4126.79487152, 4186.41025628,8.57
4117.82051255, 4119.74358947, 4121.53846126, 4141.53846133, 4123.20512793, 4027.94871747, 4000.12820458, 3980.25640970, 4007.56410208, 4132.30769203, 4108.20512793, 4111.02564075, 4124.87179460, 4184.23076910,8.57
4129.87179460, 4127.69230742, 4129.87179460, 4155.25641005, 4122.17948691, 4041.02564061, 3997.69230714, 3980.64102509, 4009.23076875, 4136.28205108, 4108.46153819, 4122.56410229, 4133.20512793, 4189.61538448,8.57
4120.12820485, 4127.43589716, 4122.30769203, 4133.20512793, 4120.76923050, 4025.76923029, 3986.02564047, 3959.74358912, 3991.41025586, 4133.07692280, 4105.89743562, 4113.84615357, 4125.12820485, 4179.61538448,8.57
4119.61538434, 4125.38461511, 4122.30769203, 4120.76923050, 4121.28205101, 4006.66666618, 3967.82051220, 3961.15384553, 3995.12820458, 4131.02564075, 4112.30769203, 4118.46153819, 4125.38461511, 4182.56410243,8.57
4124.74358947, 4128.07692280, 4129.35897408, 4142.05128185, 4122.30769203, 4018.46153798, 3983.46153791, 3984.99999945, 4014.87179439, 4133.46153819, 4114.74358947, 4125.76923050, 4133.58974332, 4187.69230756,8.57
4117.94871767, 4124.99999973, 4126.53846126, 4158.07692287, 4122.69230742, 4043.58974318, 4008.58974311, 3994.23076868, 4021.66666618, 4132.82051255, 4109.74358947, 4114.35897408, 4129.10256383, 4183.20512807,8.57
4126.53846126, 4129.99999973, 4128.58974332, 4147.43589723, 4124.87179460, 4044.35897395, 4006.92307644, 3992.94871740, 4022.43589695, 4133.33333306, 4113.71794844, 4128.58974332, 4129.99999973, 4191.15384602,8.57
4124.61538434, 4124.87179460, 4122.17948691, 4141.79487159, 4124.10256383, 4042.69230728, 4003.07692252, 3993.20512765, 4023.58974311, 4134.87179460, 4115.25640998, 4128.20512793, 4129.61538434, 4187.30769217,8.57
4124.48717921, 4121.28205101, 4122.43589716, 4143.07692287, 4121.53846126, 4040.51282010, 3993.97435842, 3978.84615329, 4003.58974304, 4132.43589716, 4112.30769203, 4128.84615357, 4131.53846126, 4190.12820499,8.57
4128.07692280, 4127.17948691, 4126.28205101, 4134.87179460, 4121.92307665, 4018.58974311, 3977.30769176, 3962.43589681, 3985.89743535, 4129.74358947, 4113.71794844, 4133.33333306, 4132.30769203, 4194.23076910,8.57
4122.69230742, 4124.61538434, 4123.84615357, 4130.64102537, 4121.41025614, 4001.92307637, 3973.20512765, 3963.33333271, 3987.30769176, 4129.23076896, 4118.33333306, 4122.82051255, 4127.30769203, 4186.79487166,8.57
4130.38461511, 4129.74358947, 4131.28205101, 4139.23076903, 4120.38461511, 4013.46153798, 3982.56410201, 3978.20512765, 3997.17948663, 4130.89743562, 4120.51282024, 4132.56410229, 4134.10256383, 4191.66666653,8.57
4125.12820485, 4128.33333306, 4125.25640998, 4139.35897415, 4122.17948691, 4017.05128157, 3978.97435842, 3976.15384560, 3993.33333278, 4131.02564075, 4114.61538434, 4128.20512793, 4133.58974332, 4191.92307679,8.57
4122.30769203, 4122.94871767, 4122.82051255, 4126.41025614, 4123.20512793, 3997.82051227, 3960.38461476, 3947.43589681, 3966.28205066, 4130.12820485, 4113.58974332, 4128.97435870, 4130.89743562, 4197.56410243,8.57
4127.05128178, 4123.84615357, 4127.69230742, 4132.94871767, 4120.64102537, 3999.48717894, 3960.25640963, 3943.84615322, 3967.82051220, 4131.15384588, 4114.87179460, 4134.23076896, 4130.38461511, 4197.69230756,8.57
4116.28205101, 4119.61538434, 4119.48717921, 4151.92307672, 4118.58974332, 4012.82051234, 3976.02564047, 3975.64102509, 4004.61538413, 4131.28205101, 4113.58974332, 4116.92307665, 4126.41025614, 4186.66666653,8.57
4120.25640998, 4122.82051255, 4123.20512793, 4164.35897415, 4122.94871767, 4023.07692259, 4002.43589688, 4004.10256362, 4033.97435849, 4130.25640998, 4116.79487152, 4129.23076896, 4136.15384595, 4196.41025628,8.57
4119.87179460, 4121.92307665, 4122.43589716, 4166.02564082, 4123.97435870, 4029.23076875, 4012.82051234, 3994.48717894, 4021.15384567, 4130.76923050, 4115.89743562, 4127.43589716, 4133.46153819, 4193.07692294,8.57
4116.79487152, 4120.51282024, 4122.43589716, 4149.61538441, 4121.15384588, 4007.43589695, 3983.58974304, 3970.12820451, 3992.56410201, 4131.79487152, 4113.33333306, 4114.10256383, 4125.25640998, 4186.53846140,8.57
4121.92307665, 4124.35897408, 4126.15384588, 4138.97435877, 4121.28205101, 3995.51281996, 3972.17948663, 3969.35897374, 3986.41025586, 4131.53846126, 4113.97435870, 4127.56410229, 4131.92307665, 4194.48717935,8.57
4115.76923050, 4118.58974332, 4117.30769203, 4143.71794851, 4119.87179460, 4017.05128157, 3982.56410201, 3958.97435835, 3973.71794817, 4132.56410229, 4113.07692280, 4122.05128178, 4130.89743562, 4187.69230756,8.57
4120.38461511, 4122.43589716, 4123.84615357, 4146.53846133, 4120.38461511, 4018.84615336, 3973.46153791, 3941.79487117, 3964.23076861, 4135.51282031, 4114.61538434, 4119.61538434, 4130.12820485, 4185.89743576,8.57
4118.97435870, 4123.97435870, 4123.84615357, 4154.74358954, 4122.05128178, 4006.53846106, 3976.02564047, 3959.48717887, 3987.82051227, 4132.69230742, 4113.84615357, 4114.61538434, 4129.48717921, 4185.64102551,8.57
4116.92307665, 4119.23076896, 4118.20512793, 4168.07692287, 4120.76923050, 4016.79487131, 3993.46153791, 3979.35897381, 4006.79487131, 4128.46153819, 4113.71794844, 4111.79487152, 4128.46153819, 4183.07692294,8.57
4127.17948691, 4125.25640998, 4125.51282024, 4159.23076903, 4122.56410229, 4018.20512772, 3991.28205073, 3979.99999945, 4002.43589688, 4131.41025614, 4117.69230742, 4126.15384588, 4132.94871767, 4185.51282038,8.57
4119.48717921, 4123.58974332, 4122.69230742, 4156.79487159, 4125.76923050, 4021.15384567, 3999.48717894, 3990.89743535, 4010.64102516, 4132.30769203, 4115.51282024, 4114.61538434, 4127.56410229, 4181.66666653,8.57
4120.64102537, 4125.51282024, 4126.15384588, 4178.84615371, 4126.15384588, 4032.82051234, 4012.94871747, 3992.56410201, 4022.82051234, 4129.61538434, 4115.89743562, 4118.46153819, 4130.25640998, 4187.17948704,8.57
4123.07692280, 4127.82051255, 4123.84615357, 4173.84615371, 4125.12820485, 4013.71794824, 3993.20512765, 3972.56410201, 4007.43589695, 4130.89743562, 4118.46153819, 4124.74358947, 4133.97435870, 4184.35897422,8.57
4119.23076896, 4122.82051255, 4120.12820485, 4145.25641005, 4125.89743562, 3995.38461483, 3976.92307637, 3965.12820451, 3983.84615329, 4131.53846126, 4116.79487152, 4115.51282024, 4127.30769203, 4180.12820499,8.57
4126.66666639, 4127.94871767, 4131.41025614, 4148.46153826, 4126.66666639, 4011.53846106, 3983.58974304, 3961.02564040, 3970.25640963, 4129.99999973, 4116.53846126, 4128.46153819, 4130.38461511, 4190.51282038,8.57
4119.74358947, 4125.12820485, 4125.51282024, 4167.69230749, 4122.94871767, 4022.05128157, 3983.71794817, 3953.07692246, 3973.58974304, 4131.41025614, 4116.53846126, 4123.71794844, 4130.89743562, 4185.25641012,8.57
4122.69230742, 4124.87179460, 4123.71794844, 4167.43589723, 4120.38461511, 4018.84615336, 3983.07692252, 3964.23076861, 3992.05128150, 4133.84615357, 4119.48717921, 4124.10256383, 4131.41025614, 4189.74358961,8.57
4129.61538434, 4130.51282024, 4129.48717921, 4174.99999986, 4122.94871767, 4028.71794824, 3999.35897381, 3992.43589688, 4012.56410208, 4132.43589716, 4120.64102537, 4130.38461511, 4130.51282024, 4195.89743576,8.57
4119.74358947, 4124.10256383, 4125.38461511, 4189.10256397, 4122.30769203, 4029.61538413, 4010.64102516, 4003.46153791, 4017.43589695, 4132.17948691, 4120.12820485, 4119.61538434, 4128.71794844, 4186.02564089,8.57
4125.51282024, 4124.10256383, 4129.74358947, 4176.53846140, 4120.64102537, 4020.89743541, 4005.12820465, 3994.23076868, 4009.35897388, 4132.94871767, 4122.69230742, 4129.61538434, 4134.99999973, 4189.61538448,8.57
4124.74358947, 4122.30769203, 4123.84615357, 4168.07692287, 4121.15384588, 4025.89743541, 3996.15384560, 3982.05128150, 4003.84615329, 4131.41025614, 4116.92307665, 4126.53846126, 4131.28205101, 4188.33333320,8.57
4125.25640998, 4123.07692280, 4121.15384588, 4176.28205115, 4120.64102537, 4016.79487131, 3980.76923022, 3962.56410194, 3986.28205073, 4133.97435870, 4114.99999973, 4125.89743562, 4133.58974332, 4192.17948704,8.57
4130.76923050, 4126.79487152, 4126.15384588, 4173.84615371, 4119.10256383, 4000.25640970, 3972.43589688, 3954.87179425, 3980.25640970, 4135.64102544, 4119.48717921, 4132.56410229, 4138.97435877, 4197.82051269,8.57
4121.66666639, 4121.02564075, 4119.48717921, 4159.99999980, 4119.74358947, 4002.94871740, 3971.41025586, 3963.46153784, 3995.12820458, 4129.61538434, 4116.79487152, 4118.71794844, 4129.74358947, 4192.17948704,8.57
4123.84615357, 4125.76923050, 4122.43589716, 4166.66666646, 4124.35897408, 4017.17948670, 3974.35897381, 3968.07692246, 3994.61538406, 4127.69230742, 4116.41025614, 4129.35897408, 4129.99999973, 4196.15384602,8.57
4117.94871767, 4126.53846126, 4122.56410229, 4193.97435884, 4124.48717921, 4030.76923029, 3993.46153791, 3973.07692252, 3992.69230714, 4132.05128178, 4119.35897408, 4130.51282024, 4132.82051255, 4190.76923063,8.57
4114.74358947, 4122.94871767, 4122.17948691, 4201.53846147, 4122.56410229, 4031.02564054, 3999.87179432, 3974.74358919, 4001.92307637, 4133.07692280, 4122.56410229, 4121.02564075, 4132.56410229, 4189.61538448,8.57
4124.48717921, 4126.66666639, 4123.71794844, 4195.76923063, 4123.58974332, 4027.05128157, 3987.17948663, 3975.12820458, 4006.53846106, 4131.02564075, 4122.69230742, 4126.79487152, 4132.05128178, 4192.69230756,8.57
4116.15384588, 4121.79487152, 4115.64102537, 4189.87179474, 4122.56410229, 4026.02564054, 4000.25640970, 3981.92307637, 4005.25640977, 4130.64102537, 4117.56410229, 4116.41025614, 4125.76923050, 4183.33333320,8.57
4116.28205101, 4122.94871767, 4122.43589716, 4177.17948704, 4124.23076896, 4014.23076875, 4026.53846106, 3977.94871740, 3995.76923022, 4132.69230742, 4119.87179460, 4119.99999973, 4132.17948691, 4189.61538448,8.57
4116.53846126, 4121.66666639, 4121.02564075, 4183.84615371, 4126.79487152, 4013.07692259, 4034.10256362, 3985.51281996, 3999.48717894, 4132.43589716, 4120.89743562, 4120.64102537, 4133.84615357, 4192.05128192,8.57
4115.76923050, 4117.17948691, 4116.41025614, 4194.48717935, 4125.25640998, 4031.02564054, 4026.66666618, 4007.43589695, 4017.30769183, 4131.02564075, 4119.61538434, 4115.76923050, 4128.46153819, 4185.64102551,8.57
4124.35897408, 4125.38461511, 4127.82051255, 4174.48717935, 4124.10256383, 4033.46153798, 4004.74358926, 3992.17948663, 4007.30769183, 4132.17948691, 4120.76923050, 4124.48717921, 4132.30769203, 4187.69230756,8.57
4115.89743562, 4122.82051255, 4122.94871767, 4174.48717935, 4123.97435870, 4035.76923029, 4007.17948670, 3988.58974304, 4006.79487131, 4131.66666639, 4119.87179460, 4111.41025614, 4126.66666639, 4184.87179474,8.57
4119.61538434, 4124.48717921, 4123.07692280, 4199.74358961, 4122.69230742, 4037.82051241, 4019.99999952, 4003.46153791, 4018.33333285, 4131.41025614, 4119.87179460, 4119.35897408, 4128.58974332, 4189.35897422,8.57
4124.23076896, 4130.25640998, 4127.43589716, 4187.94871781, 4123.58974332, 4013.58974311, 3994.74358919, 3972.82051227, 3984.74358919, 4129.87179460, 4118.20512793, 4126.53846126, 4132.30769203, 4186.66666653,8.57
4117.82051255, 4124.99999973, 4122.43589716, 4193.07692294, 4124.48717921, 4017.05128157, 3994.99999945, 3977.17948663, 3990.89743535, 4129.23076896, 4119.74358947, 4113.84615357, 4127.30769203, 4182.94871781,8.57
4126.92307665, 4127.82051255, 4123.84615357, 4218.97435891, 4123.07692280, 4037.56410215, 4023.46153798, 4018.58974311, 4044.35897395, 4133.58974332, 4124.10256383, 4128.33333306, 4131.79487152, 4192.30769217,8.57
4123.33333306, 4123.84615357, 4119.48717921, 4208.20512814, 4123.20512793, 4034.48717900, 4027.17948670, 4013.20512772, 4045.76923036, 4132.82051255, 4121.92307665, 4124.61538434, 4130.51282024, 4184.74358961,8.57
4122.43589716, 4122.43589716, 4125.51282024, 4198.20512807, 4127.05128178, 4028.33333285, 4022.17948670, 4005.25640977, 4031.02564054, 4129.74358947, 4123.33333306, 4123.97435870, 4131.92307665, 4188.97435884,8.57
4128.97435870, 4129.35897408, 4129.99999973, 4194.99999986, 4128.58974332, 4017.94871747, 4009.87179439, 4004.99999952, 4023.58974311, 4132.30769203, 4123.84615357, 4133.58974332, 4134.74358947, 4194.99999986,8.57
4124.23076896, 4123.97435870, 4122.17948691, 4177.43589730, 4127.17948691, 4004.99999952, 3997.94871740, 3987.82051227, 3998.07692252, 4132.43589716, 4120.12820485, 4126.28205101, 4131.28205101, 4187.43589730,8.57
4128.84615357, 4125.12820485, 4128.20512793, 4169.61538448, 4125.76923050, 4007.82051234, 4014.87179439, 3987.56410201, 3994.48717894, 4132.05128178, 4122.69230742, 4133.58974332, 4135.12820485, 4193.20512807,8.57
4124.23076896, 4126.92307665, 4124.99999973, 4175.76923063, 4121.15384588, 4017.05128157, 4028.71794824, 3992.94871740, 4015.76923029, 4134.74358947, 4123.20512793, 4126.15384588, 4131.41025614, 4190.51282038,8.57
4123.20512793, 4126.53846126, 4123.71794844, 4175.64102551, 4121.15384588, 4018.07692259, 4017.43589695, 3980.12820458, 4005.64102516, 4134.48717921, 4123.46153819, 4126.66666639, 4132.43589716, 4190.89743576,8.57
4127.94871767, 4127.43589716, 4127.30769203, 4176.79487166, 4126.53846126, 4024.48717900, 4030.25640977, 3989.10256355, 3996.02564047, 4131.53846126, 4124.99999973, 4135.64102544, 4137.05128185, 4193.84615371,8.57
4122.17948691, 4123.46153819, 4119.35897408, 4173.20512807, 4123.20512793, 4021.92307644, 4041.53846113, 3999.61538406, 4008.07692259, 4130.89743562, 4119.61538434, 4121.28205101, 4130.76923050, 4191.02564089,8.57
4126.53846126, 4125.76923050, 4121.02564075, 4152.43589723, 4120.89743562, 3997.94871740, 4004.74358926, 3966.53846092, 3986.79487124, 4131.53846126, 4117.69230742, 4131.02564075, 4132.82051255, 4198.58974345,8.57
4120.38461511, 4121.53846126, 4117.30769203, 4159.10256390, 4125.25640998, 4008.97435849, 3997.69230714, 3965.76923015, 3978.46153791, 4131.79487152, 4119.48717921, 4130.76923050, 4132.30769203, 4189.99999986,8.57
4118.97435870, 4120.51282024, 4119.35897408, 4189.23076910, 4127.30769203, 4043.46153805, 4036.28205080, 4010.64102516, 4017.17948670, 4131.15384588, 4123.33333306, 4120.51282024, 4131.41025614, 4188.07692294,8.57
4126.53846126, 4127.05128178, 4127.30769203, 4189.61538448, 4125.51282024, 4036.66666618, 4039.61538420, 4023.58974311, 4035.51282003, 4130.38461511, 4124.61538434, 4126.15384588, 4134.87179460, 4196.79487166,8.57
4113.20512793, 4121.15384588, 4118.20512793, 4174.74358961, 4123.97435870, 4015.76923029, 4025.64102516, 4002.56410201, 4014.87179439, 4131.79487152, 4120.12820485, 4115.76923050, 4126.66666639, 4187.43589730,8.57
4115.76923050, 4122.43589716, 4121.66666639, 4179.74358961, 4126.02564075, 4026.92307644, 4044.61538420, 3984.48717894, 3996.79487124, 4133.07692280, 4122.05128178, 4120.64102537, 4129.35897408, 4189.35897422,8.57
4120.89743562, 4123.58974332, 4122.17948691, 4178.46153833, 4126.15384588, 4032.17948670, 4032.56410208, 3984.74358919, 3993.58974304, 4131.41025614, 4124.10256383, 4119.10256383, 4132.56410229, 4189.74358961,8.57
4118.33333306, 4123.84615357, 4118.84615357, 4151.15384595, 4125.76923050, 4013.71794824, 4002.82051227, 3987.05128150, 3988.58974304, 4132.69230742, 4121.53846126, 4111.02564075, 4127.94871767, 4185.51282038,8.57
4123.07692280, 4128.07692280, 4123.58974332, 4138.71794851, 4129.10256383, 4011.28205080, 4099.61538427, 3980.89743535, 3990.51281996, 4136.15384595, 4119.87179460, 4122.43589716, 4130.12820485, 4190.76923063,8.57
4117.43589716, 4120.51282024, 4119.23076896, 4148.07692287, 4126.15384588, 4016.66666618, 4228.97435891, 3982.94871740, 3999.74358919, 4132.94871767, 4117.43589716, 4114.48717921, 4126.53846126, 4187.17948704,8.57
4124.48717921, 4124.10256383, 4126.28205101, 4156.53846133, 4121.66666639, 4015.64102516, 4163.58974339, 3984.23076868, 3987.94871740, 4130.25640998, 4120.89743562, 4119.99999973, 4128.84615357, 4189.48717935,8.57
4125.38461511, 4127.17948691, 4125.76923050, 4158.07692287, 4123.07692280, 4021.28205080, 4014.48717900, 3982.17948663, 3980.12820458, 4132.30769203, 4121.28205101, 4119.23076896, 4129.10256383, 4183.84615371,8.57
4117.56410229, 4119.74358947, 4118.84615357, 4166.28205108, 4124.99999973, 4033.46153798, 4000.38461483, 3999.35897381, 4015.25640977, 4133.84615357, 4119.23076896, 4106.41025614, 4125.76923050, 4179.23076910,8.57
4127.82051255, 4126.28205101, 4129.10256383, 4193.84615371, 4125.12820485, 4052.56410215, 4048.97435856, 4025.38461490, 4053.97435856, 4135.12820485, 4124.48717921, 4125.89743562, 4131.53846126, 4192.43589730,8.57
4125.64102537, 4126.66666639, 4128.58974332, 4199.61538448, 4125.89743562, 4056.02564061, 4026.41025593, 4016.15384567, 4035.12820465, 4132.82051255, 4125.38461511, 4125.38461511, 4126.53846126, 4188.33333320,8.57
4126.79487152, 4126.92307665, 4128.20512793, 4163.97435877, 4128.71794844, 4032.05128157, 3978.20512765, 3981.28205073, 3986.66666611, 4128.97435870, 4123.71794844, 4124.35897408, 4127.94871767, 4189.35897422,8.57
4126.79487152, 4130.64102537, 4126.66666639, 4147.94871774, 4126.15384588, 4021.79487131, 3975.89743535, 3974.48717894, 3973.20512765, 4129.74358947, 4120.76923050, 4128.97435870, 4132.05128178, 4194.35897422,8.57
4120.12820485, 4123.33333306, 4122.69230742, 4165.12820492, 4121.79487152, 4037.69230728, 3998.84615329, 3993.46153791, 3991.02564047, 4131.15384588, 4121.02564075, 4121.41025614, 4125.51282024, 4189.23076910,8.57
4130.76923050, 4126.53846126, 4131.41025614, 4175.38461525, 4124.35897408, 4061.53846113, 4014.99999952, 4010.76923029, 4011.15384567, 4131.79487152, 4127.82051255, 4132.43589716, 4129.74358947, 4193.71794858,8.57
4126.53846126, 4125.89743562, 4124.74358947, 4177.94871781, 4126.15384588, 4084.23076889, 4025.76923029, 4021.15384567, 4021.41025593, 4132.30769203, 4127.17948691, 4127.56410229, 4130.89743562, 4190.25641012,8.57
4122.43589716, 4121.66666639, 4121.79487152, 4176.41025628, 4123.97435870, 4076.92307658, 4018.97435849, 4015.38461490, 4009.23076875, 4131.79487152, 4125.76923050, 4127.69230742, 4130.51282024, 4191.02564089,8.57
4125.76923050, 4123.84615357, 4126.66666639, 4171.02564089, 4124.23076896, 4057.94871754, 4010.51282003, 4007.43589695, 4003.07692252, 4132.69230742, 4127.17948691, 4133.20512793, 4133.46153819, 4192.30769217,8.57
4119.99999973, 4122.05128178, 4120.12820485, 4174.61538448, 4125.51282024, 4064.99999959, 4018.20512772, 4011.15384567, 4012.69230721, 4132.56410229, 4126.15384588, 4119.61538434, 4131.92307665, 4189.99999986,8.57
4128.20512793, 4128.33333306, 4123.71794844, 4178.84615371, 4124.99999973, 4066.79487138, 4016.66666618, 4014.23076875, 4011.53846106, 4131.66666639, 4127.05128178, 4131.15384588, 4136.92307672, 4199.35897422,8.57
4122.82051255, 4125.89743562, 4120.51282024, 4179.74358961, 4123.33333306, 4048.58974318, 4010.64102516, 4015.51282003, 4007.94871747, 4132.17948691, 4125.51282024, 4130.25640998, 4133.20512793, 4192.56410243,8.57
4115.51282024, 4118.71794844, 4118.46153819, 4181.79487166, 4124.87179460, 4042.30769189, 4019.23076875, 4013.33333285, 4008.71794824, 4133.20512793, 4124.74358947, 4120.38461511, 4128.58974332, 4190.12820499,8.57
4123.71794844, 4124.61538434, 4123.07692280, 4182.94871781, 4128.20512793, 4063.97435856, 4018.33333285, 4007.94871747, 4005.12820465, 4132.56410229, 4124.99999973, 4128.20512793, 4133.97435870, 4198.07692294,8.57
4119.10256383, 4124.48717921, 4114.87179460, 4184.23076910, 4124.61538434, 4083.20512786, 4018.07692259, 4000.89743535, 3999.87179432, 4130.51282024, 4123.46153819, 4118.20512793, 4128.07692280, 4191.02564089,8.57
4121.15384588, 4124.23076896, 4120.64102537, 4173.97435884, 4122.30769203, 4059.74358933, 4041.53846113, 3991.66666611, 3999.87179432, 4132.05128178, 4125.89743562, 4121.79487152, 4127.30769203, 4193.33333320,8.57
4117.94871767, 4122.82051255, 4121.53846126, 4167.05128185, 4127.30769203, 4037.82051241, 4057.94871754, 4000.76923022, 4015.64102516, 4133.33333306, 4125.25640998, 4123.71794844, 4129.35897408, 4190.12820499,8.57
4117.43589716, 4123.07692280, 4115.76923050, 4182.43589730, 4128.33333306, 4058.58974318, 4042.17948677, 4026.66666618, 4036.66666618, 4133.07692280, 4125.64102537, 4117.69230742, 4127.82051255, 4184.87179474,8.57
4128.46153819, 4129.48717921, 4123.46153819, 4186.53846140, 4125.12820485, 4065.89743548, 4023.20512772, 4029.61538413, 4032.30769183, 4132.56410229, 4131.53846126, 4126.66666639, 4130.76923050, 4191.02564089,8.57
4117.30769203, 4122.17948691, 4122.05128178, 4172.94871781, 4124.61538434, 4049.87179446, 4044.23076882, 4013.46153798, 4016.15384567, 4131.53846126, 4128.58974332, 4112.94871767, 4125.38461511, 4184.99999986,8.57
4118.84615357, 4120.76923050, 4123.07692280, 4172.94871781, 4128.20512793, 4051.92307651, 4065.89743548, 4006.15384567, 4012.69230721, 4134.10256383, 4124.99999973, 4114.48717921, 4128.46153819, 4186.28205115,8.57
4124.87179460, 4123.84615357, 4122.43589716, 4191.92307679, 4127.56410229, 4066.53846113, 4072.82051248, 4022.17948670, 4027.30769183, 4136.66666646, 4128.46153819, 4122.43589716, 4131.15384588, 4187.43589730,8.57
4118.71794844, 4121.02564075, 4121.15384588, 4191.66666653, 4121.79487152, 4061.66666625, 4086.79487145, 4037.56410215, 4036.92307651, 4135.25640998, 4129.10256383, 4116.53846126, 4127.17948691, 4185.51282038,8.57
4128.07692280, 4128.97435870, 4128.97435870, 4171.66666653, 4122.05128178, 4046.02564061, 4077.05128171, 4018.07692259, 4020.64102516, 4132.30769203, 4126.79487152, 4130.12820485, 4132.30769203, 4193.97435884,8.57
4128.07692280, 4126.66666639, 4122.05128178, 4187.69230756, 4124.87179460, 4063.33333292, 4057.94871754, 4012.94871747, 4026.02564054, 4132.17948691, 4126.92307665, 4123.07692280, 4126.92307665, 4186.28205115,8.57
4126.15384588, 4122.56410229, 4126.41025614, 4209.61538455, 4124.99999973, 4081.79487145, 4050.12820472, 4031.15384567, 4044.74358933, 4131.79487152, 4132.05128178, 4124.10256383, 4128.07692280, 4188.07692294,8.57
4125.76923050, 4126.79487152, 4134.23076896, 4182.05128192, 4124.23076896, 4053.58974318, 4021.15384567, 4008.71794824, 4019.99999952, 4130.64102537, 4129.87179460, 4132.82051255, 4134.87179460, 4192.43589730,8.57
4120.38461511, 4124.61538434, 4125.64102537, 4157.69230749, 4123.71794844, 4029.23076875, 3988.46153791, 3985.51281996, 4003.07692252, 4130.25640998, 4125.25640998, 4117.69230742, 4128.84615357, 4185.12820499,8.57
4129.48717921, 4128.33333306, 4128.33333306, 4184.99999986, 4126.15384588, 4052.43589702, 4015.38461490, 4016.79487131, 4034.35897388, 4131.79487152, 4132.82051255, 4126.02564075, 4131.53846126, 4195.51282038,8.57
4126.02564075, 4125.89743562, 4124.74358947, 4214.23076917, 4127.56410229, 4079.48717914, 4060.89743548, 4046.53846113, 4059.23076882, 4131.41025614, 4135.64102544, 4127.43589716, 4132.05128178, 4194.61538448,8.57
4125.38461511, 4126.66666639, 4123.71794844, 4201.79487173, 4127.56410229, 4073.33333299, 4044.48717907, 4029.99999952, 4045.38461497, 4128.46153819, 4130.89743562, 4126.02564075, 4132.17948691, 4190.38461525,8.57
4132.05128178, 4132.82051255, 4127.69230742, 4178.46153833, 4126.92307665, 4058.20512779, 4012.30769183, 4008.07692259, 4020.76923029, 4128.71794844, 4129.48717921, 4132.82051255, 4134.87179460, 4195.38461525,8.57
4120.38461511, 4123.97435870, 4120.25640998, 4188.20512807, 4123.71794844, 4067.82051241, 4031.53846106, 4017.69230721, 4019.61538413, 4129.61538434, 4130.64102537, 4122.56410229, 4130.12820485, 4192.69230756,8.57
4124.74358947, 4123.97435870, 4125.25640998, 4204.23076917, 4124.10256383, 4083.33333299, 4064.99999959, 4044.48717907, 4044.35897395, 4130.51282024, 4134.35897408, 4132.82051255, 4133.58974332, 4196.02564089,8.57
4124.74358947, 4123.97435870, 4125.25640998, 4204.23076917, 4124.10256383, 4083.33333299, 4064.99999959, 4044.48717907, 4044.35897395, 4130.51282024, 4134.35897408, 4132.82051255, 4133.58974332, 4196.02564089,8.57
4128.58974332, 4126.79487152, 4123.97435870, 4182.43589730, 4125.64102537, 4067.30769189, 4044.48717907, 4036.92307651, 4041.02564061, 4131.15384588, 4132.30769203, 4129.99999973, 4133.71794844, 4191.15384602,8.57
4122.43589716, 4124.35897408, 4120.38461511, 4176.79487166, 4125.89743562, 4056.66666625, 4022.43589695, 4017.17948670, 4029.74358926, 4130.12820485, 4131.15384588, 4119.74358947, 4131.92307665, 4191.79487166,8.57
4123.58974332, 4126.79487152, 4124.48717921, 4204.61538455, 4126.66666639, 4074.74358940, 4042.69230728, 4023.97435849, 4042.94871754, 4130.12820485, 4134.61538434, 4133.07692280, 4136.28205108, 4200.89743576,8.57
4117.05128178, 4122.05128178, 4119.35897408, 4210.51282045, 4124.48717921, 4082.05128171, 4052.05128164, 4030.12820465, 4043.33333292, 4130.76923050, 4133.46153819, 4121.66666639, 4132.43589716, 4193.20512807,8.57
4120.12820485, 4123.20512793, 4124.74358947, 4202.43589737, 4123.46153819, 4075.89743555, 4043.33333292, 4027.69230721, 4041.02564061, 4131.79487152, 4134.23076896, 4119.35897408, 4132.69230742, 4190.76923063,8.57
4117.82051255, 4124.10256383, 4123.46153819, 4198.84615371, 4125.64102537, 4068.07692266, 4042.82051241, 4022.43589695, 4040.12820472, 4131.15384588, 4133.33333306, 4122.30769203, 4130.89743562, 4186.53846140,8.57
4113.84615357, 4120.25640998, 4117.17948691, 4191.92307679, 4127.05128178, 4063.07692266, 4046.02564061, 4017.56410208, 4024.99999952, 4129.61538434, 4132.05128178, 4117.69230742, 4126.79487152, 4184.35897422,8.57
4123.33333306, 4123.84615357, 4125.38461511, 4203.84615378, 4126.66666639, 4084.99999966, 4060.12820472, 4034.74358926, 4037.82051241, 4129.61538434, 4137.17948697, 4124.48717921, 4130.76923050, 4190.51282038,8.57
4116.41025614, 4119.10256383, 4122.56410229, 4219.74358968, 4125.89743562, 4095.25640991, 4073.71794837, 4059.48717907, 4067.69230728, 4129.87179460, 4134.61538434, 4112.94871767, 4126.28205101, 4182.56410243,8.57
4118.07692280, 4124.35897408, 4122.56410229, 4208.07692301, 4127.30769203, 4072.30769196, 4062.05128164, 4057.30769189, 4061.79487138, 4131.15384588, 4132.69230742, 4117.30769203, 4128.07692280, 4184.48717935,8.57
4122.56410229, 4130.51282024, 4122.43589716, 4205.89743583, 4126.79487152, 4084.87179453, 4057.94871754, 4051.28205087, 4053.84615343, 4131.28205101, 4136.02564082, 4121.92307665, 4131.28205101, 4186.41025628,8.57
4118.58974332, 4120.76923050, 4120.51282024, 4211.53846147, 4126.02564075, 4107.43589716, 4066.41025600, 4051.66666625, 4056.53846113, 4131.92307665, 4136.66666646, 4112.69230742, 4127.05128178, 4181.41025628,8.57
4127.56410229, 4124.61538434, 4130.51282024, 4208.33333327, 4128.84615357, 4086.66666632, 4060.64102523, 4047.43589702, 4054.23076882, 4133.97435870, 4137.30769210, 4125.51282024, 4132.56410229, 4188.46153833,8.57
4124.10256383, 4126.92307665, 4124.61538434, 4220.51282045, 4126.02564075, 4081.28205094, 4062.43589702, 4061.28205087, 4075.12820478, 4132.43589716, 4134.48717921, 4119.99999973, 4128.58974332, 4185.38461525,8.57
4125.12820485, 4124.74358947, 4122.05128178, 4227.17948711, 4121.66666639, 4095.51282017, 4063.33333292, 4068.33333292, 4083.84615350, 4132.05128178, 4135.25640998, 4123.07692280, 4126.92307665, 4189.61538448,8.57
4128.97435870, 4125.38461511, 4126.15384588, 4217.17948711, 4124.74358947, 4088.20512786, 4060.38461497, 4052.56410215, 4056.02564061, 4133.20512793, 4138.20512800, 4133.07692280, 4130.64102537, 4191.79487166,8.57
4119.99999973, 4124.35897408, 4122.17948691, 4225.38461532, 4126.15384588, 4090.89743555, 4088.97435863, 4060.38461497, 4052.30769189, 4130.12820485, 4135.64102544, 4119.48717921, 4126.15384588, 4181.53846140,8.57
4127.05128178, 4129.74358947, 4127.30769203, 4225.38461532, 4124.87179460, 4099.23076889, 4101.15384581, 4067.17948677, 4059.48717907, 4128.97435870, 4134.87179460, 4129.48717921, 4133.07692280, 4190.89743576,8.57
4128.46153819, 4124.35897408, 4123.58974332, 4198.97435884, 4124.61538434, 4088.58974325, 4064.48717907, 4031.28205080, 4031.41025593, 4130.64102537, 4130.76923050, 4131.28205101, 4134.61538434, 4190.38461525,8.57
4129.35897408, 4122.82051255, 4125.64102537, 4193.58974345, 4123.97435870, 4085.89743555, 4046.66666625, 4016.92307644, 4018.97435849, 4132.30769203, 4130.12820485, 4127.30769203, 4130.25640998, 4185.76923063,8.57
4132.17948691, 4128.97435870, 4131.53846126, 4217.17948711, 4126.02564075, 4093.07692273, 4065.64102523, 4058.46153805, 4054.10256369, 4132.56410229, 4134.10256383, 4131.79487152, 4132.30769203, 4192.43589730,8.57
4122.05128178, 4121.66666639, 4122.94871767, 4231.92307686, 4128.07692280, 4092.69230735, 4067.30769189, 4076.28205094, 4072.94871761, 4131.15384588, 4134.99999973, 4121.66666639, 4131.02564075, 4191.15384602,8.57
4127.43589716, 4123.20512793, 4124.61538434, 4222.69230763, 4126.28205101, 4087.94871761, 4054.35897395, 4049.99999959, 4046.41025600, 4131.79487152, 4136.02564082, 4131.79487152, 4134.23076896, 4192.94871781,8.57
4124.99999973, 4123.71794844, 4121.92307665, 4218.33333327, 4124.10256383, 4092.56410222, 4063.84615343, 4056.41025600, 4047.69230728, 4131.15384588, 4133.07692280, 4127.56410229, 4131.41025614, 4189.35897422,8.57
4117.43589716, 4120.89743562, 4118.46153819, 4233.07692301, 4123.71794844, 4099.99999966, 4075.89743555, 4086.15384581, 4087.43589709, 4128.20512793, 4132.30769203, 4119.99999973, 4129.61538434, 4193.33333320,8.57
4125.12820485, 4127.94871767, 4122.69230742, 4237.05128206, 4126.92307665, 4100.38461504, 4075.64102530, 4085.12820478, 4092.17948684, 4130.76923050, 4134.35897408, 4133.71794844, 4136.66666646, 4198.97435884,8.57
4121.41025614, 4122.94871767, 4117.94871767, 4225.38461532, 4126.79487152, 4098.07692273, 4072.69230735, 4059.61538420, 4060.25640984, 4132.94871767, 4131.28205101, 4120.76923050, 4132.56410229, 4188.07692294,8.57
4123.97435870, 4122.17948691, 4124.10256383, 4219.23076917, 4124.23076896, 4093.97435863, 4065.51282010, 4045.25640984, 4049.23076882, 4129.10256383, 4133.97435870, 4123.84615357, 4132.94871767, 4193.97435884,8.57
4122.17948691, 4126.02564075, 4122.69230742, 4219.87179481, 4122.94871767, 4094.61538427, 4070.89743555, 4061.92307651, 4063.71794830, 4127.43589716, 4133.71794844, 4128.58974332, 4134.48717921, 4195.12820499,8.57
4116.53846126, 4122.05128178, 4113.33333306, 4213.58974352, 4122.94871767, 4098.71794837, 4083.07692273, 4068.97435856, 4053.58974318, 4129.35897408, 4128.58974332, 4117.94871767, 4130.38461511, 4186.79487166,8.57
4125.51282024, 4124.48717921, 4122.17948691, 4218.84615378, 4125.51282024, 4103.58974332, 4081.92307658, 4051.79487138, 4034.61538413, 4129.61538434, 4133.07692280, 4126.28205101, 4129.99999973, 4191.28205115,8.57
4118.97435870, 4122.30769203, 4121.92307665, 4231.53846147, 4127.56410229, 4096.41025607, 4073.07692273, 4055.64102523, 4056.53846113, 4128.46153819, 4137.30769210, 4118.71794844, 4124.61538434, 4186.53846140,8.57
4119.61538434, 4125.12820485, 4122.17948691, 4214.87179481, 4127.17948691, 4074.99999966, 4061.28205087, 4061.28205087, 4072.05128171, 4130.64102537, 4131.15384588, 4119.48717921, 4129.74358947, 4187.82051269,8.57
4123.33333306, 4127.82051255, 4125.38461511, 4190.51282038, 4124.10256383, 4065.76923036, 4055.64102523, 4046.53846113, 4052.17948677, 4130.64102537, 4124.35897408, 4122.05128178, 4131.02564075, 4187.94871781,8.57
4114.99999973, 4119.48717921, 4123.71794844, 4196.79487166, 4124.99999973, 4072.56410222, 4063.33333292, 4046.92307651, 4042.17948677, 4128.20512793, 4128.71794844, 4110.51282024, 4123.46153819, 4181.92307679,8.57
4122.17948691, 4123.07692280, 4127.05128178, 4221.41025634, 4129.10256383, 4085.38461504, 4076.66666632, 4059.74358933, 4055.76923036, 4131.53846126, 4134.10256383, 4124.10256383, 4132.43589716, 4189.23076910,8.57
4119.99999973, 4126.28205101, 4120.51282024, 4230.89743583, 4126.53846126, 4100.76923043, 4086.66666632, 4069.99999966, 4071.41025607, 4132.56410229, 4128.58974332, 4122.56410229, 4131.79487152, 4186.02564089,8.57
4119.99999973, 4126.79487152, 4125.76923050, 4207.30769224, 4124.61538434, 4094.48717914, 4077.56410222, 4061.02564061, 4051.15384574, 4128.97435870, 4126.66666639, 4121.41025614, 4127.17948691, 4187.43589730,8.57
4124.99999973, 4125.64102537, 4130.38461511, 4184.23076910, 4126.02564075, 4071.28205094, 4052.94871754, 4031.79487131, 4019.87179439, 4128.97435870, 4127.94871767, 4127.05128178, 4131.53846126, 4191.28205115,8.57
4120.76923050, 4121.92307665, 4119.61538434, 4199.10256397, 4124.61538434, 4072.05128171, 4050.25640984, 4034.10256362, 4038.20512779, 4130.12820485, 4127.43589716, 4118.97435870, 4130.51282024, 4185.25641012,8.57
4131.28205101, 4129.99999973, 4126.28205101, 4211.28205122, 4124.99999973, 4076.66666632, 4058.20512779, 4053.46153805, 4054.87179446, 4129.61538434, 4130.64102537, 4131.92307665, 4133.97435870, 4193.33333320,8.57
4127.82051255, 4126.28205101, 4125.51282024, 4196.28205115, 4126.28205101, 4058.84615343, 4050.38461497, 4045.25640984, 4032.56410208, 4129.23076896, 4128.84615357, 4125.89743562, 4132.82051255, 4191.15384602,8.57
4123.97435870, 4122.94871767, 4123.20512793, 4195.51282038, 4124.23076896, 4051.53846113, 4054.48717907, 4043.71794830, 4033.58974311, 4131.15384588, 4129.35897408, 4122.43589716, 4131.92307665, 4189.99999986,8.57
4132.05128178, 4130.64102537, 4129.99999973, 4212.05128199, 4124.48717921, 4070.51282017, 4078.71794837, 4062.94871754, 4060.76923036, 4132.69230742, 4134.35897408, 4139.23076903, 4134.74358947, 4197.56410243,8.57
4124.10256383, 4123.97435870, 4123.58974332, 4216.92307686, 4127.43589716, 4093.46153812, 4095.25640991, 4069.10256369, 4069.61538420, 4128.58974332, 4130.12820485, 4127.56410229, 4131.02564075, 4191.66666653,8.57
4126.92307665, 4124.61538434, 4125.25640998, 4207.69230763, 4128.97435870, 4093.46153812, 4090.38461504, 4065.38461497, 4068.46153805, 4125.12820485, 4130.12820485, 4129.74358947, 4136.28205108, 4193.58974345,8.57
4124.87179460, 4124.99999973, 4124.35897408, 4193.97435884, 4124.61538434, 4083.33333299, 4081.41025607, 4066.79487138, 4062.17948677, 4127.82051255, 4133.07692280, 4129.35897408, 4134.74358947, 4191.66666653,8.57
4121.79487152, 4120.89743562, 4121.15384588, 4188.71794858, 4121.92307665, 4081.41025607, 4077.30769196, 4057.17948677, 4040.64102523, 4130.12820485, 4130.25640998, 4124.10256383, 4129.87179460, 4193.58974345,8.57
4129.35897408, 4126.41025614, 4121.41025614, 4194.10256397, 4125.89743562, 4075.51282017, 4074.35897402, 4048.97435856, 4033.58974311, 4130.12820485, 4128.97435870, 4133.58974332, 4134.99999973, 4198.46153833,8.57
4119.74358947, 4123.07692280, 4115.25640998, 4192.17948704, 4124.48717921, 4064.23076882, 4069.23076882, 4061.41025600, 4047.30769189, 4129.35897408, 4129.61538434, 4118.84615357, 4130.25640998, 4189.61538448,8.57
4120.12820485, 4122.82051255, 4126.02564075, 4181.66666653, 4125.25640998, 4053.71794830, 4048.33333292, 4051.66666625, 4040.25640984, 4127.17948691, 4130.89743562, 4123.07692280, 4131.66666639, 4196.66666653,8.57
4123.07692280, 4123.58974332, 4124.10256383, 4195.76923063, 4128.33333306, 4062.30769189, 4043.58974318, 4032.05128157, 4033.07692259, 4127.56410229, 4128.71794844, 4129.35897408, 4132.69230742, 4195.76923063,8.57
4119.35897408, 4121.15384588, 4114.48717921, 4226.92307686, 4125.89743562, 4086.02564068, 4074.23076889, 4053.20512779, 4057.05128164, 4131.66666639, 4130.12820485, 4116.92307665, 4128.07692280, 4187.43589730,8.57
4123.84615357, 4126.79487152, 4125.38461511, 4225.76923070, 4125.12820485, 4090.89743555, 4091.28205094, 4080.25640991, 4070.51282017, 4131.79487152, 4131.53846126, 4122.30769203, 4133.46153819, 4194.99999986,8.57
4116.92307665, 4122.82051255, 4122.94871767, 4201.15384609, 4124.99999973, 4078.20512786, 4075.25640991, 4069.23076882, 4052.17948677, 4127.30769203, 4127.30769203, 4117.82051255, 4131.41025614, 4187.05128192,8.57
4117.69230742, 4120.64102537, 4118.20512793, 4193.84615371, 4124.87179460, 4071.92307658, 4060.64102523, 4052.56410215, 4043.46153805, 4129.74358947, 4131.15384588, 4121.15384588, 4130.25640998, 4184.23076910,8.57
4118.46153819, 4122.30769203, 4120.64102537, 4196.92307679, 4126.02564075, 4071.41025607, 4068.07692266, 4066.15384574, 4062.17948677, 4132.43589716, 4131.28205101, 4118.84615357, 4129.61538434, 4187.69230756,8.57
4115.25640998, 4119.48717921, 4123.33333306, 4195.38461525, 4126.28205101, 4072.82051248, 4077.56410222, 4077.05128171, 4069.87179453, 4128.97435870, 4126.79487152, 4107.69230742, 4126.02564075, 4183.58974345,8.57
4127.05128178, 4125.38461511, 4127.05128178, 4190.12820499, 4127.94871767, 4078.58974325, 4072.56410222, 4063.46153805, 4056.28205087, 4128.07692280, 4131.28205101, 4124.74358947, 4131.15384588, 4186.66666653,8.57
4121.79487152, 4126.28205101, 4119.35897408, 4186.66666653, 4128.20512793, 4083.58974325, 4072.94871761, 4062.43589702, 4052.05128164, 4130.25640998, 4131.15384588, 4121.28205101, 4127.43589716, 4184.61538448,8.57
4120.38461511, 4125.25640998, 4127.05128178, 4187.05128192, 4127.56410229, 4078.46153812, 4071.53846119, 4066.79487138, 4053.20512779, 4130.89743562, 4130.38461511, 4119.99999973, 4126.79487152, 4188.58974345,8.57
4127.05128178, 4126.41025614, 4131.15384588, 4188.71794858, 4126.66666639, 4069.61538420, 4056.41025600, 4049.10256369, 4048.97435856, 4130.51282024, 4134.35897408, 4125.89743562, 4129.35897408, 4186.66666653,8.57
4119.74358947, 4123.07692280, 4118.33333306, 4200.25641012, 4124.99999973, 4087.17948684, 4072.82051248, 4051.53846113, 4057.94871754, 4129.10256383, 4134.61538434, 4115.51282024, 4125.64102537, 4179.10256397,8.57
4124.35897408, 4128.46153819, 4126.92307665, 4226.28205122, 4125.38461511, 4119.23076896, 4096.66666632, 4084.35897402, 4073.84615350, 4128.07692280, 4137.43589723, 4129.35897408, 4132.30769203, 4190.51282038,8.57
4123.07692280, 4126.79487152, 4128.84615357, 4233.71794865, 4127.17948691, 4115.12820485, 4100.12820478, 4093.84615350, 4068.97435856, 4128.33333306, 4138.46153826, 4127.43589716, 4129.23076896, 4186.79487166,8.57
4124.10256383, 4126.15384588, 4124.87179460, 4208.33333327, 4127.30769203, 4082.05128171, 4149.87179467, 4073.20512786, 4051.15384574, 4129.23076896, 4136.41025621, 4122.56410229, 4126.28205101, 4186.92307679,8.57
4129.61538434, 4130.51282024, 4126.53846126, 4195.12820499, 4127.17948691, 4071.15384581, 4256.53846154, 4057.69230728, 4039.23076882, 4129.35897408, 4134.99999973, 4133.20512793, 4134.99999973, 4196.41025628,8.57
4129.61538434, 4130.51282024, 4126.53846126, 4195.12820499, 4127.17948691, 4071.15384581, 4256.53846154, 4057.69230728, 4039.23076882, 4129.35897408, 4134.99999973, 4133.20512793, 4134.99999973, 4196.41025628,8.57
4121.92307665, 4124.48717921, 4122.05128178, 4213.58974352, 4127.56410229, 4084.87179453, 4293.97435905, 4067.17948677, 4043.58974318, 4128.84615357, 4133.97435870, 4123.71794844, 4132.82051255, 4191.02564089,8.57
4126.79487152, 4128.97435870, 4129.10256383, 4226.41025634, 4127.82051255, 4088.33333299, 4198.97435884, 4080.64102530, 4057.82051241, 4130.64102537, 4135.89743569, 4128.33333306, 4132.56410229, 4193.58974345,8.57
4123.71794844, 4126.92307665, 4126.53846126, 4218.20512814, 4125.12820485, 4085.51282017, 4090.38461504, 4060.38461497, 4053.97435856, 4131.15384588, 4133.58974332, 4125.76923050, 4131.41025614, 4191.66666653,8.57
4119.99999973, 4120.25640998, 4119.35897408, 4198.97435884, 4122.43589716, 4076.28205094, 4049.99999959, 4019.61538413, 4028.20512772, 4130.38461511, 4132.94871767, 4122.94871767, 4131.28205101, 4192.30769217,8.57
4125.76923050, 4126.02564075, 4122.05128178, 4193.20512807, 4123.84615357, 4067.94871754, 4054.99999959, 4020.38461490, 4022.56410208, 4130.89743562, 4135.76923056, 4134.23076896, 4134.10256383, 4197.17948704,8.57
4118.20512793, 4122.94871767, 4119.10256383, 4212.17948711, 4124.99999973, 4083.97435863, 4074.61538427, 4067.56410215, 4065.38461497, 4128.97435870, 4131.41025614, 4121.02564075, 4130.25640998, 4187.05128192,8.57
4122.56410229, 4124.48717921, 4124.10256383, 4214.99999993, 4125.64102537, 4094.87179453, 4072.43589709, 4083.07692273, 4090.12820478, 4127.05128178, 4129.74358947, 4125.12820485, 4135.12820485, 4189.61538448,8.57
4120.89743562, 4125.25640998, 4120.12820485, 4212.94871788, 4126.28205101, 4096.92307658, 4068.46153805, 4074.99999966, 4074.99999966, 4128.20512793, 4133.71794844, 4128.97435870, 4132.94871767, 4190.51282038,8.57
4116.02564075, 4121.41025614, 4116.02564075, 4233.84615385, 4126.92307665, 4110.64102537, 4090.12820478, 4097.94871761, 4082.82051248, 4131.92307665, 4136.92307672, 4120.89743562, 4127.30769203, 4190.12820499,8.57
4125.89743562, 4125.89743562, 4125.89743562, 4234.74358975, 4129.10256383, 4109.87179460, 4091.92307658, 4098.58974325, 4090.64102530, 4133.71794844, 4135.25640998, 4128.07692280, 4132.94871767, 4197.05128192,8.57
4120.12820485, 4122.05128178, 4119.99999973, 4209.35897429, 4128.07692280, 4079.61538427, 4046.15384574, 4047.69230728, 4053.33333292, 4130.64102537, 4129.61538434, 4116.28205101, 4129.99999973, 4190.38461525,8.57
4120.89743562, 4123.97435870, 4120.12820485, 4207.56410250, 4124.99999973, 4070.38461504, 4035.38461490, 4031.92307644, 4029.99999952, 4129.48717921, 4134.23076896, 4118.20512793, 4131.53846126, 4192.56410243,8.57
4120.76923050, 4127.17948691, 4122.30769203, 4230.64102558, 4123.46153819, 4102.05128171, 4076.66666632, 4076.53846119, 4063.33333292, 4129.99999973, 4138.58974339, 4120.51282024, 4132.43589716, 4188.97435884,8.57
4116.02564075, 4123.97435870, 4120.25640998, 4233.71794865, 4126.79487152, 4110.89743562, 4082.69230735, 4086.66666632, 4073.58974325, 4129.23076896, 4135.25640998, 4112.43589716, 4124.99999973, 4180.12820499,8.57
4124.35897408, 4128.46153819, 4127.30769203, 4218.07692301, 4130.25640998, 4089.74358940, 4057.17948677, 4058.84615343, 4048.84615343, 4130.25640998, 4136.02564082, 4127.82051255, 4129.48717921, 4189.61538448,8.57
4117.17948691, 4123.58974332, 4121.41025614, 4212.94871788, 4128.07692280, 4092.69230735, 4056.53846113, 4058.58974318, 4058.71794830, 4129.10256383, 4133.84615357, 4119.61538434, 4127.05128178, 4187.17948704,8.57
4119.99999973, 4124.87179460, 4122.56410229, 4220.38461532, 4128.07692280, 4114.74358947, 4074.99999966, 4084.48717914, 4091.28205094, 4128.71794844, 4133.46153819, 4119.87179460, 4129.10256383, 4186.79487166,8.57
4127.82051255, 4130.25640998, 4126.41025614, 4228.97435891, 4129.87179460, 4127.17948691, 4095.12820478, 4110.38461511, 4105.25640998, 4131.79487152, 4137.30769210, 4130.64102537, 4133.33333306, 4187.05128192,8.57
4120.25640998, 4124.87179460, 4122.56410229, 4225.89743583, 4128.71794844, 4124.99999973, 4101.41025607, 4103.20512793, 4093.71794837, 4131.53846126, 4137.56410236, 4119.48717921, 4123.58974332, 4183.33333320,8.57
4125.51282024, 4129.61538434, 4128.84615357, 4214.10256404, 4128.07692280, 4111.15384588, 4086.02564068, 4077.17948684, 4079.99999966, 4128.84615357, 4138.71794851, 4129.74358947, 4128.71794844, 4193.97435884,8.57
4124.10256383, 4127.82051255, 4123.71794844, 4213.46153840, 4126.15384588, 4112.30769203, 4086.41025607, 4090.64102530, 4087.69230735, 4128.46153819, 4138.71794851, 4129.74358947, 4132.05128178, 4189.48717935,8.57
4124.99999973, 4125.51282024, 4124.61538434, 4220.64102558, 4125.64102537, 4129.74358947, 4103.84615357, 4112.43589716, 4093.71794837, 4131.79487152, 4141.15384595, 4126.53846126, 4130.64102537, 4189.48717935,8.57
4127.69230742, 4131.28205101, 4130.25640998, 4210.12820506, 4128.58974332, 4113.46153819, 4089.99999966, 4083.71794837, 4076.15384581, 4133.20512793, 4140.38461518, 4132.30769203, 4131.79487152, 4195.89743576,8.57
4119.99999973, 4127.05128178, 4123.84615357, 4204.99999993, 4128.84615357, 4082.43589709, 4072.43589709, 4063.07692266, 4066.79487138, 4128.84615357, 4136.79487159, 4121.79487152, 4127.94871767, 4190.38461525,8.57
4129.61538434, 4128.97435870, 4130.38461511, 4216.53846147, 4126.41025614, 4080.64102530, 4087.82051248, 4073.97435863, 4067.82051241, 4127.69230742, 4140.64102544, 4133.97435870, 4132.30769203, 4196.66666653,8.57
4126.41025614, 4126.92307665, 4125.38461511, 4224.61538455, 4124.87179460, 4091.79487145, 4110.12820485, 4090.64102530, 4081.28205094, 4129.87179460, 4136.28205108, 4131.79487152, 4132.56410229, 4192.94871781,8.57
4118.71794844, 4122.05128178, 4118.97435870, 4242.05128206, 4126.41025614, 4105.76923050, 4129.35897408, 4122.56410229, 4114.87179460, 4128.33333306, 4134.35897408, 4121.92307665, 4132.30769203, 4188.20512807,8.57
4127.94871767, 4127.69230742, 4126.79487152, 4256.41025641, 4128.84615357, 4116.28205101, 4139.99999980, 4128.46153819, 4119.48717921, 4127.56410229, 4142.94871774, 4133.71794844, 4135.25640998, 4196.02564089,8.57
4120.89743562, 4124.61538434, 4123.20512793, 4234.48717949, 4128.20512793, 4105.25640998, 4122.56410229, 4100.12820478, 4098.07692273, 4129.74358947, 4140.38461518, 4122.43589716, 4128.97435870, 4194.48717935,8.57
4119.48717921, 4124.61538434, 4124.48717921, 4205.12820506, 4127.43589716, 4079.99999966, 4089.23076889, 4083.84615350, 4082.94871761, 4131.02564075, 4135.12820485, 4126.53846126, 4130.51282024, 4196.02564089,8.57
4120.76923050, 4126.28205101, 4120.12820485, 4207.17948711, 4125.51282024, 4068.46153805, 4075.64102530, 4082.30769196, 4069.35897395, 4129.35897408, 4136.53846133, 4129.23076896, 4131.15384588, 4191.28205115,8.57
4120.12820485, 4123.07692280, 4117.17948691, 4205.51282045, 4125.25640998, 4067.30769189, 4073.20512786, 4078.20512786, 4061.92307651, 4126.92307665, 4138.07692287, 4118.58974332, 4128.97435870, 4190.25641012,8.57
4124.87179460, 4126.15384588, 4128.46153819, 4184.61538448, 4129.61538434, 4064.74358933, 4056.41025600, 4068.71794830, 4057.82051241, 4129.23076896, 4136.66666646, 4126.66666639, 4133.71794844, 4198.46153833,8.57
4115.12820485, 4122.17948691, 4121.66666639, 4180.89743576, 4129.99999973, 4063.07692266, 4045.25640984, 4053.71794830, 4049.10256369, 4131.92307665, 4133.46153819, 4117.43589716, 4130.51282024, 4187.17948704,8.57
4121.02564075, 4124.74358947, 4119.10256383, 4191.79487166, 4128.71794844, 4064.99999959, 4056.66666625, 4055.38461497, 4060.89743548, 4130.64102537, 4136.79487159, 4118.20512793, 4131.66666639, 4184.23076910,8.57
4122.94871767, 4125.51282024, 4122.56410229, 4193.71794858, 4129.87179460, 4074.74358940, 4070.51282017, 4087.43589709, 4088.84615350, 4130.38461511, 4138.07692287, 4120.38461511, 4132.05128178, 4188.46153833,8.57
4114.23076896, 4117.17948691, 4121.66666639, 4191.53846140, 4128.97435870, 4078.84615350, 4062.43589702, 4099.61538427, 4091.41025607, 4132.05128178, 4136.15384595, 4115.51282024, 4126.92307665, 4188.07692294,8.57
4127.17948691, 4123.58974332, 4129.99999973, 4215.38461532, 4128.97435870, 4087.30769196, 4067.30769189, 4100.12820478, 4095.64102530, 4130.64102537, 4139.48717928, 4127.05128178, 4131.02564075, 4192.56410243,8.57
4123.20512793, 4122.69230742, 4125.64102537, 4238.33333334, 4129.48717921, 4108.71794844, 4090.89743555, 4109.10256383, 4102.43589709, 4126.66666639, 4141.02564082, 4115.89743562, 4128.07692280, 4183.46153833,8.57
4119.99999973, 4119.87179460, 4126.79487152, 4220.51282045, 4129.48717921, 4106.41025614, 4079.99999966, 4096.02564068, 4085.76923043, 4126.79487152, 4141.79487159, 4122.05128178, 4129.48717921, 4185.89743576,8.57
4124.87179460, 4124.87179460, 4130.89743562, 4204.61538455, 4129.87179460, 4084.23076889, 4059.23076882, 4081.28205094, 4083.20512786, 4127.94871767, 4140.38461518, 4132.30769203, 4130.25640998, 4187.69230756,8.57
4120.25640998, 4122.69230742, 4126.41025614, 4208.71794865, 4129.48717921, 4077.43589709, 4057.43589702, 4065.89743548, 4077.94871761, 4127.69230742, 4138.58974339, 4115.64102537, 4124.87179460, 4181.02564089,8.57
4126.92307665, 4125.89743562, 4131.92307665, 4198.20512807, 4128.46153819, 4079.48717914, 4044.35897395, 4043.07692266, 4055.38461497, 4128.07692280, 4138.46153826, 4126.92307665, 4134.87179460, 4191.41025628,8.57
4122.82051255, 4124.48717921, 4124.10256383, 4191.79487166, 4126.92307665, 4082.05128171, 4043.33333292, 4055.12820472, 4061.41025600, 4126.66666639, 4134.61538434, 4126.28205101, 4132.56410229, 4189.10256397,8.57
4122.94871767, 4124.99999973, 4123.84615357, 4209.74358968, 4126.28205101, 4094.74358940, 4074.87179453, 4086.02564068, 4078.20512786, 4126.79487152, 4136.66666646, 4121.66666639, 4127.43589716, 4190.25641012,8.57
4127.43589716, 4126.02564075, 4128.33333306, 4214.74358968, 4127.69230742, 4100.51282017, 4084.48717914, 4084.35897402, 4069.23076882, 4129.74358947, 4139.23076903, 4128.84615357, 4133.58974332, 4192.82051269,8.57
4121.41025614, 4118.46153819, 4119.35897408, 4208.07692301, 4128.46153819, 4093.20512786, 4064.99999959, 4074.48717914, 4066.79487138, 4128.97435870, 4135.12820485, 4121.53846126, 4130.51282024, 4185.38461525,8.57
4128.46153819, 4125.64102537, 4126.41025614, 4216.79487173, 4128.33333306, 4093.58974325, 4064.23076882, 4084.48717914, 4080.76923043, 4128.33333306, 4138.33333313, 4134.74358947, 4131.02564075, 4192.94871781,8.57
4124.87179460, 4126.53846126, 4125.64102537, 4230.12820506, 4126.28205101, 4106.41025614, 4082.43589709, 4088.71794837, 4085.89743555, 4129.74358947, 4142.30769210, 4131.41025614, 4130.38461511, 4191.79487166,8.57
4123.20512793, 4121.53846126, 4122.30769203, 4231.53846147, 4126.15384588, 4106.02564075, 4083.97435863, 4083.07692273, 4083.33333299, 4128.97435870, 4143.33333313, 4127.17948691, 4132.17948691, 4192.82051269,8.57
4128.97435870, 4126.66666639, 4127.17948691, 4223.97435891, 4128.07692280, 4094.23076889, 4083.46153812, 4084.48717914, 4081.15384581, 4128.58974332, 4142.05128185, 4138.71794851, 4134.99999973, 4197.05128192,8.57
4117.56410229, 4122.17948691, 4121.79487152, 4221.79487173, 4126.53846126, 4101.66666632, 4109.10256383, 4093.71794837, 4091.41025607, 4128.58974332, 4139.23076903, 4121.53846126, 4126.79487152, 4188.97435884,8.57
4119.61538434, 4121.28205101, 4123.46153819, 4218.07692301, 4125.51282024, 4107.56410229, 4141.79487159, 4088.33333299, 4095.51282017, 4129.10256383, 4142.30769210, 4123.46153819, 4131.53846126, 4194.35897422,8.57
4119.87179460, 4122.05128178, 4120.12820485, 4212.56410250, 4124.61538434, 4097.94871761, 4160.64102544, 4090.51282017, 4091.53846119, 4129.74358947, 4139.74358954, 4126.41025614, 4133.58974332, 4192.56410243,8.57
4118.58974332, 4123.20512793, 4120.38461511, 4217.43589737, 4125.51282024, 4095.76923043, 4152.82051262, 4113.71794844, 4099.35897402, 4129.48717921, 4136.92307672, 4121.92307665, 4126.79487152, 4189.87179474,8.57
4122.82051255, 4126.79487152, 4125.38461511, 4224.99999993, 4129.10256383, 4098.71794837, 4118.58974332, 4110.25640998, 4098.84615350, 4129.48717921, 4142.05128185, 4131.53846126, 4130.64102537, 4194.48717935,8.57
4113.58974332, 4119.74358947, 4115.38461511, 4225.51282045, 4127.43589716, 4096.79487145, 4092.82051248, 4089.10256376, 4091.79487145, 4129.35897408, 4139.48717928, 4118.20512793, 4129.10256383, 4184.87179474,8.57
4123.33333306, 4123.71794844, 4121.53846126, 4221.15384609, 4127.30769203, 4096.79487145, 4094.74358940, 4091.15384581, 4092.69230735, 4129.87179460, 4137.56410236, 4121.79487152, 4130.76923050, 4188.97435884,8.57
4122.30769203, 4123.20512793, 4122.05128178, 4217.82051275, 4128.20512793, 4103.20512793, 4096.79487145, 4096.15384581, 4092.30769196, 4128.33333306, 4139.48717928, 4126.15384588, 4130.25640998, 4190.12820499,8.57
4114.10256383, 4117.94871767, 4118.20512793, 4208.07692301, 4128.20512793, 4098.07692273, 4079.61538427, 4081.02564068, 4077.94871761, 4128.33333306, 4134.61538434, 4115.38461511, 4126.53846126, 4184.74358961,8.57
4128.46153819, 4127.94871767, 4129.23076896, 4193.46153833, 4129.61538434, 4085.64102530, 4071.92307658, 4073.33333299, 4070.25640991, 4131.41025614, 4131.66666639, 4123.33333306, 4131.79487152, 4191.02564089,8.57
4120.76923050, 4124.10256383, 4124.10256383, 4193.46153833, 4128.07692280, 4091.02564068, 4084.99999966, 4082.56410222, 4081.53846119, 4129.35897408, 4134.10256383, 4116.53846126, 4127.17948691, 4184.87179474,8.57
4119.87179460, 4124.74358947, 4127.05128178, 4213.46153840, 4128.33333306, 4109.35897408, 4101.53846119, 4104.74358947, 4099.10256376, 4126.28205101, 4138.84615364, 4121.79487152, 4128.07692280, 4187.17948704,8.57
4126.02564075, 4130.38461511, 4128.84615357, 4225.64102558, 4129.35897408, 4111.15384588, 4111.02564075, 4125.25640998, 4110.89743562, 4126.92307665, 4139.87179467, 4126.41025614, 4129.74358947, 4186.92307679,8.57
4123.20512793, 4122.82051255, 4121.53846126, 4208.97435891, 4127.69230742, 4091.28205094, 4111.92307665, 4106.79487152, 4095.25640991, 4127.43589716, 4137.82051262, 4114.74358947, 4123.97435870, 4180.38461525,8.57
4128.58974332, 4123.58974332, 4129.23076896, 4189.74358961, 4129.10256383, 4083.84615350, 4106.15384588, 4077.56410222, 4072.30769196, 4127.43589716, 4139.23076903, 4129.74358947, 4131.92307665, 4191.28205115,8.57
4119.99999973, 4125.64102537, 4128.58974332, 4192.69230756, 4129.61538434, 4102.56410229, 4112.30769203, 4093.20512786, 4082.69230735, 4126.02564075, 4138.71794851, 4125.38461511, 4130.38461511, 4188.33333320,8.57
4122.05128178, 4129.35897408, 4128.71794844, 4194.61538448, 4127.82051255, 4107.30769203, 4109.10256383, 4110.25640998, 4095.25640991, 4126.41025614, 4139.61538441, 4121.41025614, 4127.17948691, 4187.30769217,8.57
4127.05128178, 4127.94871767, 4128.33333306, 4196.92307679, 4129.35897408, 4108.20512793, 4099.48717914, 4096.02564068, 4088.33333299, 4129.99999973, 4139.35897415, 4129.74358947, 4132.94871767, 4191.66666653,8.57
4121.28205101, 4121.79487152, 4124.23076896, 4215.64102558, 4130.38461511, 4127.05128178, 4112.56410229, 4103.97435870, 4101.53846119, 4130.76923050, 4137.05128185, 4123.46153819, 4131.79487152, 4189.87179474,8.57
4129.61538434, 4130.38461511, 4130.12820485, 4218.46153840, 4129.10256383, 4120.89743562, 4116.02564075, 4117.82051255, 4118.20512793, 4129.99999973, 4138.46153826, 4135.25640998, 4132.43589716, 4195.12820499,8.57
4123.20512793, 4126.66666639, 4121.28205101, 4197.05128192, 4128.20512793, 4096.92307658, 4100.25640991, 4099.99999966, 4100.51282017, 4129.99999973, 4138.07692287, 4127.82051255, 4128.71794844, 4186.79487166,8.57
4122.05128178, 4120.89743562, 4118.97435870, 4176.15384602, 4128.20512793, 4095.64102530, 4089.35897402, 4078.97435863, 4077.94871761, 4130.12820485, 4139.74358954, 4123.20512793, 4131.28205101, 4189.87179474,8.57
4131.28205101, 4129.10256383, 4127.82051255, 4174.74358961, 4127.69230742, 4103.20512793, 4087.43589709, 4081.02564068, 4079.99999966, 4129.23076896, 4139.48717928, 4137.56410236, 4137.94871774, 4198.20512807,8.57
4123.07692280, 4125.64102537, 4122.56410229, 4202.05128199, 4126.66666639, 4118.97435870, 4107.30769203, 4118.71794844, 4109.99999973, 4126.79487152, 4137.05128185, 4123.84615357, 4131.41025614, 4192.05128192,8.57
4123.20512793, 4123.97435870, 4125.12820485, 4209.99999993, 4128.20512793, 4131.92307665, 4120.25640998, 4141.79487159, 4129.87179460, 4129.61538434, 4141.92307672, 4126.28205101, 4132.94871767, 4197.05128192,8.57
4120.38461511, 4122.56410229, 4121.15384588, 4182.69230756, 4128.46153819, 4121.92307665, 4096.79487145, 4108.97435870, 4107.43589716, 4132.82051255, 4138.97435877, 4126.15384588, 4132.43589716, 4189.87179474,8.57
4119.74358947, 4120.38461511, 4119.10256383, 4183.71794858, 4126.53846126, 4118.07692280, 4086.92307658, 4086.66666632, 4084.87179453, 4128.97435870, 4134.23076896, 4120.64102537, 4128.84615357, 4188.33333320,8.57
