AF3,F7,F3,FC5,T7,P7,O1,O2,P8,T8,FC6,F4,F8,AF4,Label
4121.79487152, 4122.05128178, 4116.79487152, 4073.20512786, 4126.53846126, 4221.28205122, 4226.92307686, 4234.74358975, 4204.74358968, 4129.74358947, 4125.25640998, 4126.41025614, 4132.69230742, 4194.74358961,8.57
4127.17948691, 4128.84615357, 4127.05128178, 4078.71794837, 4128.71794844, 4220.12820506, 4231.28205122, 4230.12820506, 4197.82051269, 4132.17948691, 4130.38461511, 4138.58974339, 4137.05128185, 4201.02564096,8.57
4110.51282024, 4116.79487152, 4113.20512793, 4084.35897402, 4126.02564075, 4232.17948711, 4257.82051282, 4261.92307693, 4229.23076917, 4129.99999973, 4117.30769203, 4110.51282024, 4123.58974332, 4185.76923063,8.57
4127.43589716, 4122.69230742, 4126.02564075, 4071.02564068, 4125.25640998, 4218.46153840, 4241.15384616, 4266.53846154, 4232.69230763, 4127.94871767, 4124.48717921, 4128.33333306, 4130.89743562, 4193.20512807,8.57
4121.53846126, 4122.30769203, 4121.53846126, 4043.46153805, 4127.43589716, 4179.10256397, 4195.64102551, 4219.23076917, 4185.89743576, 4128.33333306, 4122.30769203, 4122.17948691, 4129.87179460, 4184.23076910,8.57
4112.30769203, 4116.28205101, 4120.76923050, 4041.02564061, 4127.94871767, 4176.28205115, 4198.20512807, 4208.97435891, 4181.28205115, 4128.20512793, 4117.82051255, 4108.07692280, 4125.89743562, 4180.51282038,8.57
4133.07692280, 4125.64102537, 4137.30769210, 4048.33333292, 4129.10256383, 4193.07692294, 4211.41025634, 4219.23076917, 4199.23076910, 4129.99999973, 4130.89743562, 4132.43589716, 4134.48717921, 4191.15384602,8.57
4118.84615357, 4119.61538434, 4117.82051255, 4027.82051234, 4127.43589716, 4181.92307679, 4187.82051269, 4198.07692294, 4178.20512807, 4131.66666639, 4124.74358947, 4112.30769203, 4123.07692280, 4173.97435884,8.57
4124.35897408, 4125.51282024, 4125.51282024, 4010.12820465, 4126.92307665, 4166.41025621, 4175.38461525, 4186.66666653, 4156.15384595, 4132.17948691, 4131.15384588, 4125.64102537, 4128.46153819, 4186.79487166,8.57
4127.56410229, 4126.66666639, 4129.99999973, 4007.17948670, 4126.53846126, 4158.71794851, 4178.84615371, 4186.02564089, 4150.64102544, 4130.51282024, 4132.17948691, 4130.25640998, 4131.79487152, 4189.35897422,8.57
4119.74358947, 4120.89743562, 4123.33333306, 4008.07692259, 4125.64102537, 4156.53846133, 4177.82051269, 4185.76923063, 4155.76923056, 4129.87179460, 4122.94871767, 4115.89743562, 4124.61538434, 4179.48717935,8.57
4136.02564082, 4132.43589716, 4136.28205108, 4015.64102516, 4128.33333306, 4168.20512807, 4184.74358961, 4201.53846147, 4170.76923063, 4130.89743562, 4132.43589716, 4139.10256390, 4135.76923056, 4197.17948704,8.57
4121.53846126, 4121.41025614, 4120.25640998, 4016.41025593, 4125.89743562, 4169.99999986, 4192.43589730, 4207.43589737, 4179.35897422, 4129.61538434, 4125.76923050, 4119.99999973, 4129.35897408, 4187.69230756,8.57
4127.30769203, 4121.15384588, 4125.51282024, 4007.43589695, 4123.58974332, 4156.15384595, 4187.43589730, 4195.76923063, 4176.53846140, 4130.64102537, 4126.02564075, 4131.66666639, 4129.35897408, 4190.38461525,8.57
4130.25640998, 4127.43589716, 4126.41025614, 4017.82051234, 4123.46153819, 4160.38461518, 4188.84615371, 4202.69230763, 4174.99999986, 4131.15384588, 4128.97435870, 4142.30769210, 4133.71794844, 4194.74358961,8.57
4108.97435870, 4115.76923050, 4109.87179460, 4049.87179446, 4121.53846126, 4187.94871781, 4210.25641019, 4227.94871788, 4180.25641012, 4128.97435870, 4120.64102537, 4114.61538434, 4127.05128178, 4186.66666653,8.57
4126.79487152, 4125.12820485, 4127.30769203, 4056.79487138, 4125.64102537, 4198.97435884, 4216.92307686, 4227.56410250, 4183.71794858, 4130.64102537, 4130.25640998, 4136.02564082, 4136.28205108, 4200.12820499,8.57
4120.25640998, 4123.07692280, 4118.58974332, 4039.48717907, 4125.12820485, 4188.71794858, 4201.41025634, 4213.71794865, 4191.28205115, 4130.51282024, 4123.84615357, 4121.79487152, 4130.12820485, 4188.84615371,8.57
4113.71794844, 4120.89743562, 4116.53846126, 4027.43589695, 4122.69230742, 4171.02564089, 4186.79487166, 4207.17948711, 4189.74358961, 4128.58974332, 4121.15384588, 4117.94871767, 4126.41025614, 4186.41025628,8.57
4122.94871767, 4126.66666639, 4125.51282024, 4019.87179439, 4128.84615357, 4158.71794851, 4186.28205115, 4199.61538448, 4172.56410243, 4129.10256383, 4125.51282024, 4130.76923050, 4129.99999973, 4190.89743576,8.57
4113.97435870, 4117.69230742, 4113.33333306, 4027.94871747, 4130.38461511, 4175.25641012, 4201.41025634, 4209.61538455, 4175.25641012, 4128.07692280, 4117.56410229, 4106.41025614, 4122.30769203, 4177.94871781,8.57
4130.12820485, 4127.82051255, 4129.35897408, 4051.02564061, 4125.89743562, 4209.87179481, 4226.41025634, 4246.15384616, 4216.15384609, 4130.25640998, 4128.97435870, 4128.07692280, 4132.82051255, 4191.02564089,8.57
4124.23076896, 4125.89743562, 4127.56410229, 4042.17948677, 4123.07692280, 4212.94871788, 4227.94871788, 4248.07692308, 4229.74358968, 4132.94871767, 4125.89743562, 4123.07692280, 4128.58974332, 4185.89743576,8.57
4120.12820485, 4121.53846126, 4125.89743562, 4006.15384567, 4126.66666639, 4168.84615371, 4186.28205115, 4198.71794858, 4182.82051269, 4131.41025614, 4123.58974332, 4118.46153819, 4124.74358947, 4184.61538448,8.57
4130.89743562, 4130.89743562, 4133.84615357, 4003.33333278, 4127.17948691, 4141.41025621, 4169.35897422, 4197.43589730, 4171.41025628, 4129.74358947, 4132.17948691, 4135.12820485, 4134.35897408, 4193.07692294,8.57
4117.30769203, 4124.35897408, 4118.97435870, 4015.89743541, 4122.43589716, 4151.66666646, 4183.71794858, 4218.71794865, 4184.74358961, 4128.97435870, 4122.94871767, 4113.33333306, 4127.05128178, 4181.02564089,8.57
4131.79487152, 4130.25640998, 4130.76923050, 4004.61538413, 4126.79487152, 4153.07692287, 4167.17948697, 4181.66666653, 4150.76923056, 4128.97435870, 4130.12820485, 4138.46153826, 4133.84615357, 4195.64102551,8.57
4128.20512793, 4126.66666639, 4125.51282024, 3999.99999945, 4127.56410229, 4153.97435877, 4156.92307672, 4166.28205108, 4141.02564082, 4129.35897408, 4127.69230742, 4137.56410236, 4129.87179460, 4191.66666653,8.57
4119.99999973, 4121.02564075, 4121.02564075, 4002.69230714, 4124.23076896, 4159.35897415, 4169.87179474, 4186.92307679, 4166.41025621, 4129.48717921, 4124.23076896, 4122.17948691, 4125.51282024, 4187.05128192,8.57
4132.69230742, 4128.84615357, 4131.66666639, 3995.64102509, 4127.56410229, 4152.30769210, 4165.51282031, 4175.64102551, 4160.38461518, 4127.94871767, 4134.10256383, 4140.89743569, 4137.43589723, 4198.46153833,8.57
4116.15384588, 4119.10256383, 4113.71794844, 4002.94871740, 4125.38461511, 4152.69230749, 4158.58974339, 4163.46153826, 4145.25641005, 4128.33333306, 4125.38461511, 4122.05128178, 4129.35897408, 4186.15384602,8.57
4123.71794844, 4126.15384588, 4124.23076896, 4017.69230721, 4121.92307665, 4164.74358954, 4165.51282031, 4177.69230756, 4154.10256390, 4133.07692280, 4130.64102537, 4135.89743569, 4132.43589716, 4198.97435884,8.57
4121.53846126, 4126.92307665, 4122.17948691, 4014.87179439, 4122.82051255, 4174.87179474, 4176.02564089, 4194.35897422, 4174.10256397, 4132.69230742, 4127.05128178, 4129.99999973, 4132.05128178, 4195.25641012,8.57
4112.82051255, 4119.48717921, 4112.69230742, 4007.05128157, 4124.61538434, 4178.33333320, 4178.07692294, 4197.05128192, 4176.02564089, 4129.10256383, 4117.05128178, 4111.79487152, 4124.23076896, 4182.56410243,8.57
4127.69230742, 4129.74358947, 4126.66666639, 4012.69230721, 4125.25640998, 4183.97435884, 4172.43589730, 4191.15384602, 4166.53846133, 4131.79487152, 4126.53846126, 4137.43589723, 4132.17948691, 4194.48717935,8.57
4116.02564075, 4121.15384588, 4114.61538434, 4009.48717900, 4123.84615357, 4172.82051269, 4158.97435877, 4183.33333320, 4162.30769210, 4131.79487152, 4119.23076896, 4117.17948691, 4126.66666639, 4187.05128192,8.57
4124.10256383, 4124.35897408, 4125.89743562, 3995.51281996, 4126.41025614, 4135.64102544, 4134.87179460, 4164.10256390, 4143.71794851, 4130.51282024, 4121.79487152, 4119.23076896, 4126.02564075, 4190.25641012,8.57
4121.79487152, 4127.94871767, 4128.07692280, 4021.41025593, 4126.15384588, 4150.76923056, 4149.10256390, 4167.05128185, 4152.82051262, 4131.66666639, 4123.33333306, 4121.28205101, 4124.10256383, 4180.89743576,8.57
4110.38461511, 4119.10256383, 4117.94871767, 4044.35897395, 4122.56410229, 4196.79487166, 4177.43589730, 4178.97435884, 4174.99999986, 4129.35897408, 4117.94871767, 4109.61538434, 4123.58974332, 4175.89743576,8.57
4132.94871767, 4127.82051255, 4133.84615357, 4001.79487124, 4124.61538434, 4162.43589723, 4135.12820485, 4135.12820485, 4126.66666639, 4128.07692280, 4131.28205101, 4137.17948697, 4137.56410236, 4196.02564089,8.57
4120.76923050, 4123.07692280, 4120.76923050, 3989.61538406, 4124.48717921, 4126.53846126, 4105.25640998, 4111.15384588, 4092.43589709, 4129.10256383, 4126.15384588, 4117.82051255, 4127.56410229, 4181.53846140,8.57
4121.53846126, 4127.82051255, 4127.82051255, 4028.33333285, 4124.99999973, 4149.48717928, 4139.23076903, 4156.15384595, 4136.15384595, 4129.48717921, 4126.79487152, 4127.43589716, 4128.58974332, 4187.05128192,8.57
4129.48717921, 4131.02564075, 4133.97435870, 4008.84615336, 4124.48717921, 4135.89743569, 4136.15384595, 4163.07692287, 4141.79487159, 4127.56410229, 4128.71794844, 4141.28205108, 4132.69230742, 4193.71794858,8.57
4118.20512793, 4117.94871767, 4117.05128178, 3969.10256348, 4120.25640998, 4104.48717921, 4100.25640991, 4117.94871767, 4095.76923043, 4127.56410229, 4120.64102537, 4116.28205101, 4125.38461511, 4181.15384602,8.57
4135.76923056, 4128.07692280, 4131.28205101, 3983.97435842, 4123.33333306, 4117.30769203, 4099.23076889, 4104.74358947, 4087.30769196, 4133.07692280, 4134.74358947, 4141.79487159, 4139.99999980, 4196.02564089,8.57
4126.92307665, 4124.10256383, 4123.33333306, 3998.97435842, 4126.41025614, 4125.38461511, 4105.51282024, 4119.23076896, 4106.28205101, 4130.76923050, 4128.84615357, 4131.66666639, 4132.30769203, 4189.35897422,8.57
4122.94871767, 4122.43589716, 4123.33333306, 3986.53846099, 4123.84615357, 4104.35897408, 4091.66666632, 4118.97435870, 4105.64102537, 4123.46153819, 4124.61538434, 4128.71794844, 4125.64102537, 4191.79487166,8.57
4127.30769203, 4127.82051255, 4128.20512793, 3982.05128150, 4122.94871767, 4103.07692280, 4088.84615350, 4105.64102537, 4085.12820478, 4125.12820485, 4130.12820485, 4139.48717928, 4133.71794844, 4196.92307679,8.57
4111.02564075, 4117.56410229, 4112.17948691, 3992.30769176, 4123.58974332, 4114.74358947, 4094.74358940, 4101.41025607, 4076.92307658, 4127.94871767, 4117.69230742, 4108.84615357, 4126.66666639, 4181.41025628,8.57
4123.71794844, 4126.66666639, 4126.53846126, 4002.82051227, 4126.92307665, 4107.05128178, 4088.33333299, 4100.25640991, 4081.02564068, 4125.89743562, 4123.97435870, 4126.28205101, 4132.05128178, 4195.89743576,8.57
4115.12820485, 4124.10256383, 4121.66666639, 3998.07692252, 4126.02564075, 4100.51282017, 4088.97435863, 4103.20512793, 4091.28205094, 4125.51282024, 4123.58974332, 4119.99999973, 4126.92307665, 4191.02564089,8.57
4113.84615357, 4119.74358947, 4120.12820485, 3988.84615329, 4123.33333306, 4103.46153819, 4097.94871761, 4118.58974332, 4110.89743562, 4127.69230742, 4122.30769203, 4115.38461511, 4126.28205101, 4185.64102551,8.57
4128.33333306, 4127.30769203, 4129.61538434, 4008.97435849, 4126.53846126, 4121.79487152, 4114.48717921, 4124.35897408, 4112.05128178, 4127.69230742, 4129.99999973, 4132.05128178, 4133.07692280, 4190.25641012,8.57
4113.20512793, 4117.17948691, 4115.51282024, 4037.17948677, 4126.53846126, 4144.23076903, 4137.56410236, 4124.23076896, 4114.99999973, 4126.41025614, 4121.28205101, 4105.25640998, 4121.53846126, 4176.28205115,8.57
4126.66666639, 4124.99999973, 4131.79487152, 4036.28205080, 4125.89743562, 4142.05128185, 4136.92307672, 4121.79487152, 4133.84615357, 4129.10256383, 4127.05128178, 4127.56410229, 4129.35897408, 4189.10256397,8.57
4126.15384588, 4127.69230742, 4130.12820485, 4022.94871747, 4126.41025614, 4130.25640998, 4119.74358947, 4106.66666639, 4119.61538434, 4129.87179460, 4124.23076896, 4127.94871767, 4129.61538434, 4184.99999986,8.57
4119.99999973, 4121.41025614, 4122.56410229, 4014.23076875, 4124.74358947, 4113.58974332, 4106.41025614, 4088.46153812, 4081.02564068, 4128.71794844, 4119.74358947, 4114.74358947, 4124.61538434, 4181.28205115,8.57
4135.89743569, 4130.64102537, 4135.12820485, 4001.28205073, 4124.61538434, 4085.12820478, 4087.30769196, 4078.20512786, 4075.76923043, 4129.61538434, 4129.87179460, 4141.92307672, 4135.25640998, 4195.12820499,8.57
4119.48717921, 4122.43589716, 4119.23076896, 3997.30769176, 4122.82051255, 4079.10256376, 4079.10256376, 4079.74358940, 4085.76923043, 4128.84615357, 4120.12820485, 4119.74358947, 4126.02564075, 4179.35897422,8.57
4124.87179460, 4124.10256383, 4124.87179460, 4004.87179439, 4122.82051255, 4091.66666632, 4081.15384581, 4075.76923043, 4073.07692273, 4128.58974332, 4125.76923050, 4128.71794844, 4130.38461511, 4187.69230756,8.57
4126.79487152, 4124.48717921, 4124.74358947, 3995.76923022, 4122.43589716, 4090.12820478, 4070.25640991, 4061.28205087, 4065.38461497, 4128.07692280, 4129.48717921, 4135.12820485, 4136.15384595, 4192.56410243,8.57
4116.28205101, 4117.05128178, 4117.94871767, 3974.99999945, 4122.30769203, 4076.28205094, 4055.64102523, 4042.82051241, 4059.35897395, 4125.38461511, 4123.20512793, 4119.23076896, 4129.61538434, 4185.64102551,8.57
4131.02564075, 4131.28205101, 4133.97435870, 3970.25640963, 4126.41025614, 4064.23076882, 4058.33333292, 4045.38461497, 4054.87179446, 4126.79487152, 4134.10256383, 4142.43589723, 4138.07692287, 4198.20512807,8.57
4115.38461511, 4125.76923050, 4117.43589716, 3988.20512765, 4125.12820485, 4085.12820478, 4083.46153812, 4075.38461504, 4071.79487145, 4129.99999973, 4124.48717921, 4122.56410229, 4130.76923050, 4187.43589730,8.57
4116.02564075, 4122.17948691, 4121.66666639, 4001.66666611, 4122.94871767, 4111.15384588, 4091.92307658, 4081.02564068, 4068.07692266, 4130.12820485, 4123.46153819, 4124.35897408, 4128.97435870, 4190.89743576,8.57
4122.56410229, 4126.41025614, 4128.33333306, 3994.61538406, 4122.82051255, 4088.84615350, 4071.15384581, 4063.71794830, 4044.10256369, 4128.20512793, 4128.07692280, 4129.74358947, 4133.71794844, 4192.17948704,8.57
4107.69230742, 4119.35897408, 4112.17948691, 3998.71794817, 4123.20512793, 4067.94871754, 4072.94871761, 4078.33333299, 4064.48717907, 4129.99999973, 4119.48717921, 4107.82051255, 4127.43589716, 4179.87179474,8.57
4124.48717921, 4128.71794844, 4127.56410229, 4018.33333285, 4126.53846126, 4090.89743555, 4097.43589709, 4108.33333306, 4119.61538434, 4132.69230742, 4125.89743562, 4130.51282024, 4132.94871767, 4191.41025628,8.57
4118.84615357, 4122.82051255, 4122.69230742, 4030.25640977, 4123.33333306, 4114.10256383, 4107.05128178, 4117.30769203, 4145.12820492, 4128.84615357, 4120.38461511, 4114.10256383, 4125.51282024, 4182.30769217,8.57
4119.10256383, 4120.38461511, 4121.66666639, 4015.76923029, 4121.66666639, 4098.71794837, 4087.30769196, 4093.97435863, 4100.89743555, 4126.41025614, 4123.33333306, 4115.76923050, 4128.07692280, 4182.82051269,8.57
4129.74358947, 4130.64102537, 4129.87179460, 3999.48717894, 4125.25640998, 4085.38461504, 4072.69230735, 4072.82051248, 4058.33333292, 4127.56410229, 4130.38461511, 4136.53846133, 4132.69230742, 4187.82051269,8.57
4113.46153819, 4121.41025614, 4119.23076896, 4009.10256362, 4123.71794844, 4097.82051248, 4077.82051248, 4074.61538427, 4073.20512786, 4127.05128178, 4119.48717921, 4110.38461511, 4122.56410229, 4176.79487166,8.57
4129.87179460, 4128.33333306, 4133.58974332, 4021.53846106, 4126.66666639, 4105.12820485, 4081.41025607, 4072.82051248, 4074.74358940, 4128.07692280, 4128.97435870, 4130.76923050, 4136.66666646, 4193.20512807,8.57
4125.76923050, 4126.53846126, 4125.12820485, 4012.82051234, 4127.56410229, 4100.89743555, 4084.23076889, 4077.56410222, 4059.35897395, 4128.97435870, 4127.69230742, 4127.69230742, 4133.71794844, 4185.89743576,8.57
4119.10256383, 4120.76923050, 4123.71794844, 4000.25640970, 4121.41025614, 4087.05128171, 4080.76923043, 4089.35897402, 4079.74358940, 4128.71794844, 4124.48717921, 4123.58974332, 4128.58974332, 4185.12820499,8.57
4134.48717921, 4130.64102537, 4138.84615364, 4012.94871747, 4122.43589716, 4081.79487145, 4078.58974325, 4086.41025607, 4097.82051248, 4128.97435870, 4131.41025614, 4147.30769210, 4138.20512800, 4200.76923063,8.57
4116.02564075, 4118.97435870, 4115.76923050, 4025.12820465, 4124.23076896, 4093.71794837, 4083.58974325, 4079.10256376, 4083.46153812, 4127.30769203, 4119.48717921, 4117.56410229, 4125.64102537, 4182.56410243,8.57
4127.43589716, 4124.23076896, 4123.97435870, 4009.10256362, 4124.10256383, 4083.46153812, 4069.23076882, 4068.20512779, 4065.89743548, 4127.56410229, 4128.84615357, 4132.56410229, 4131.79487152, 4192.69230756,8.57
4130.38461511, 4128.58974332, 4127.05128178, 4010.25640977, 4121.53846126, 4071.92307658, 4061.79487138, 4067.17948677, 4072.43589709, 4127.05128178, 4131.02564075, 4134.61538434, 4137.17948697, 4195.76923063,8.57
4113.97435870, 4120.25640998, 4114.87179460, 4025.64102516, 4119.10256383, 4083.20512786, 4075.64102530, 4078.20512786, 4084.48717914, 4124.48717921, 4120.51282024, 4115.64102537, 4129.61538434, 4186.28205115,8.57
4127.05128178, 4128.46153819, 4127.05128178, 4005.64102516, 4124.48717921, 4082.05128171, 4071.79487145, 4073.58974325, 4076.66666632, 4128.84615357, 4128.97435870, 4138.97435877, 4135.76923056, 4197.56410243,8.57
4112.69230742, 4119.48717921, 4114.87179460, 3978.07692252, 4124.48717921, 4063.07692266, 4049.61538420, 4057.30769189, 4061.92307651, 4132.43589716, 4119.99999973, 4114.99999973, 4127.30769203, 4184.10256397,8.57
4115.64102537, 4121.28205101, 4121.53846126, 3982.82051227, 4122.82051255, 4054.23076882, 4038.07692266, 4046.53846113, 4049.99999959, 4132.05128178, 4124.35897408, 4120.51282024, 4129.99999973, 4188.58974345,8.57
4119.99999973, 4125.25640998, 4124.61538434, 3999.99999945, 4124.23076896, 4072.30769196, 4055.64102523, 4053.33333292, 4056.02564061, 4129.48717921, 4128.46153819, 4125.76923050, 4129.87179460, 4188.46153833,8.57
4109.87179460, 4117.30769203, 4114.99999973, 4008.84615336, 4122.56410229, 4085.25640991, 4076.79487145, 4072.30769196, 4075.76923043, 4125.64102537, 4120.64102537, 4105.12820485, 4119.48717921, 4177.82051269,8.57
4132.43589716, 4131.28205101, 4135.89743569, 4023.58974311, 4124.61538434, 4092.82051248, 4090.89743555, 4099.35897402, 4101.79487145, 4126.79487152, 4132.17948691, 4133.46153819, 4131.41025614, 4193.58974345,8.57
4121.79487152, 4127.30769203, 4124.99999973, 4028.84615336, 4122.43589716, 4099.61538427, 4090.51282017, 4101.66666632, 4105.12820485, 4128.33333306, 4124.35897408, 4116.66666639, 4126.66666639, 4179.74358961,8.57
4120.25640998, 4125.38461511, 4124.48717921, 4002.56410201, 4118.46153819, 4064.48717907, 4047.43589702, 4054.99999959, 4059.35897395, 4128.20512793, 4121.28205101, 4116.92307665, 4126.15384588, 4181.66666653,8.57
4130.89743562, 4129.35897408, 4130.64102537, 3992.43589688, 4122.17948691, 4031.66666618, 4020.38461490, 4031.66666618, 4033.07692259, 4127.69230742, 4127.56410229, 4134.10256383, 4131.66666639, 4191.92307679,8.57
4118.46153819, 4122.30769203, 4119.23076896, 4007.43589695, 4124.23076896, 4043.33333292, 4040.89743548, 4047.82051241, 4046.02564061, 4126.66666639, 4124.74358947, 4116.28205101, 4123.07692280, 4180.76923063,8.57
4134.74358947, 4134.61538434, 4134.23076896, 4015.12820465, 4122.56410229, 4060.89743548, 4059.87179446, 4063.07692266, 4059.35897395, 4128.71794844, 4133.46153819, 4137.94871774, 4132.56410229, 4194.61538448,8.57
4126.53846126, 4127.17948691, 4120.89743562, 4017.43589695, 4121.02564075, 4071.02564068, 4066.02564061, 4074.10256376, 4067.43589702, 4129.74358947, 4122.69230742, 4126.15384588, 4130.38461511, 4186.02564089,8.57
4122.82051255, 4121.15384588, 4119.74358947, 4007.43589695, 4125.76923050, 4069.23076882, 4050.25640984, 4053.46153805, 4048.46153805, 4129.99999973, 4123.71794844, 4126.79487152, 4130.51282024, 4187.05128192,8.57
4132.94871767, 4129.10256383, 4131.02564075, 3980.89743535, 4126.66666639, 4039.35897395, 4012.56410208, 4014.48717900, 4015.25640977, 4130.38461511, 4132.17948691, 4143.20512800, 4136.02564082, 4198.97435884,8.57
4117.17948691, 4122.05128178, 4115.12820485, 3977.94871740, 4117.43589716, 4022.05128157, 4010.38461490, 4024.35897388, 4024.99999952, 4129.10256383, 4117.69230742, 4116.92307665, 4125.76923050, 4187.05128192,8.57
4128.84615357, 4129.74358947, 4128.46153819, 4014.23076875, 4121.41025614, 4050.12820472, 4052.17948677, 4065.64102523, 4068.84615343, 4128.07692280, 4125.64102537, 4136.79487159, 4135.89743569, 4199.35897422,8.57
4121.53846126, 4124.74358947, 4123.33333306, 4049.61538420, 4127.82051255, 4089.10256376, 4085.12820478, 4089.48717914, 4100.51282017, 4127.43589716, 4125.25640998, 4124.87179460, 4132.94871767, 4191.15384602,8.57
4114.74358947, 4119.99999973, 4119.35897408, 4058.71794830, 4123.46153819, 4102.82051255, 4091.15384581, 4099.74358940, 4100.38461504, 4128.58974332, 4118.84615357, 4111.15384588, 4124.48717921, 4186.28205115,8.57
4125.64102537, 4127.82051255, 4128.97435870, 4040.12820472, 4122.43589716, 4082.05128171, 4072.17948684, 4091.28205094, 4073.84615350, 4130.76923050, 4125.76923050, 4129.87179460, 4131.28205101, 4194.61538448,8.57
4109.10256383, 4117.05128178, 4114.10256383, 4027.17948670, 4121.66666639, 4062.69230728, 4058.07692266, 4074.23076889, 4061.79487138, 4128.84615357, 4116.92307665, 4105.25640998, 4123.97435870, 4178.46153833,8.57
4124.23076896, 4126.15384588, 4128.33333306, 4040.76923036, 4122.30769203, 4070.64102530, 4069.74358940, 4076.28205094, 4069.48717907, 4127.82051255, 4125.12820485, 4122.69230742, 4131.15384588, 4188.97435884,8.57
4124.23076896, 4126.15384588, 4128.33333306, 4040.76923036, 4122.30769203, 4070.64102530, 4069.74358940, 4076.28205094, 4069.48717907, 4127.82051255, 4125.12820485, 4122.69230742, 4131.15384588, 4188.97435884,8.57
4126.41025614, 4128.58974332, 4126.02564075, 4046.92307651, 4124.48717921, 4080.89743555, 4081.28205094, 4090.76923043, 4084.10256376, 4128.33333306, 4127.05128178, 4122.56410229, 4130.38461511, 4187.43589730,8.57
4116.66666639, 4118.84615357, 4118.33333306, 4034.87179439, 4123.46153819, 4066.79487138, 4067.69230728, 4091.28205094, 4094.48717914, 4127.30769203, 4122.05128178, 4111.41025614, 4125.25640998, 4183.33333320,8.57
4131.15384588, 4127.43589716, 4133.33333306, 4029.61538413, 4123.84615357, 4055.25640984, 4057.56410215, 4085.51282017, 4086.79487145, 4127.43589716, 4130.25640998, 4136.92307672, 4133.97435870, 4191.41025628,8.57
4117.43589716, 4121.92307665, 4119.10256383, 4058.58974318, 4122.69230742, 4095.38461504, 4097.69230735, 4108.07692280, 4097.94871761, 4127.56410229, 4122.30769203, 4115.89743562, 4126.02564075, 4175.25641012,8.57
4126.53846126, 4126.79487152, 4127.69230742, 4077.17948684, 4122.94871767, 4120.25640998, 4117.94871767, 4113.33333306, 4111.02564075, 4128.46153819, 4126.66666639, 4128.97435870, 4133.33333306, 4188.97435884,8.57
4129.48717921, 4127.56410229, 4128.46153819, 4043.20512779, 4124.61538434, 4074.23076889, 4067.05128164, 4068.07692266, 4076.79487145, 4127.82051255, 4124.61538434, 4132.17948691, 4134.48717921, 4192.69230756,8.57
4118.46153819, 4120.89743562, 4116.66666639, 4036.79487131, 4121.92307665, 4059.87179446, 4056.79487138, 4071.41025607, 4069.23076882, 4126.53846126, 4120.25640998, 4117.56410229, 4127.05128178, 4184.87179474,8.57
4133.33333306, 4133.97435870, 4133.07692280, 4079.61538427, 4119.35897408, 4104.23076896, 4111.92307665, 4127.82051255, 4119.87179460, 4127.43589716, 4133.07692280, 4141.79487159, 4136.28205108, 4196.28205115,8.57
4119.35897408, 4122.56410229, 4119.23076896, 4072.94871761, 4119.23076896, 4103.84615357, 4108.46153819, 4116.53846126, 4120.89743562, 4127.82051255, 4120.64102537, 4115.38461511, 4126.53846126, 4185.64102551,8.57
4124.35897408, 4119.35897408, 4117.05128178, 4027.56410208, 4122.56410229, 4064.23076882, 4054.99999959, 4060.89743548, 4063.46153805, 4130.25640998, 4120.89743562, 4122.30769203, 4131.02564075, 4197.94871781,8.57
4129.23076896, 4126.28205101, 4121.02564075, 4043.07692266, 4123.33333306, 4076.02564068, 4071.66666632, 4073.71794837, 4063.84615343, 4130.64102537, 4128.33333306, 4134.10256383, 4137.30769210, 4198.84615371,8.57
4114.35897408, 4119.74358947, 4114.61538434, 4080.51282017, 4122.30769203, 4102.82051255, 4113.71794844, 4114.48717921, 4102.94871767, 4127.17948691, 4123.58974332, 4113.33333306, 4129.61538434, 4180.76923063,8.57
4129.48717921, 4128.71794844, 4127.69230742, 4074.35897402, 4125.51282024, 4094.87179453, 4094.35897402, 4097.43589709, 4088.84615350, 4127.94871767, 4128.46153819, 4136.28205108, 4139.10256390, 4195.76923063,8.57
4114.74358947, 4123.07692280, 4112.56410229, 4070.89743555, 4124.23076896, 4097.82051248, 4079.48717914, 4085.38461504, 4077.43589709, 4129.61538434, 4115.51282024, 4116.02564075, 4128.46153819, 4183.33333320,8.57
4113.97435870, 4122.82051255, 4119.61538434, 4082.30769196, 4123.84615357, 4102.56410229, 4092.82051248, 4106.41025614, 4102.69230742, 4129.99999973, 4121.41025614, 4114.48717921, 4124.48717921, 4180.12820499,8.57
4128.07692280, 4127.05128178, 4131.53846126, 4083.71794837, 4126.41025614, 4093.33333299, 4093.84615350, 4111.92307665, 4111.53846126, 4129.48717921, 4131.66666639, 4129.61538434, 4131.92307665, 4187.82051269,8.57
4112.94871767, 4116.79487152, 4116.79487152, 4081.15384581, 4122.43589716, 4102.05128171, 4091.92307658, 4108.71794844, 4111.28205101, 4125.25640998, 4117.05128178, 4108.33333306, 4123.71794844, 4177.69230756,8.57
4126.28205101, 4129.99999973, 4130.64102537, 4081.41025607, 4122.94871767, 4115.76923050, 4087.30769196, 4096.66666632, 4105.51282024, 4125.64102537, 4124.99999973, 4130.12820485, 4129.87179460, 4191.92307679,8.57
4121.66666639, 4126.79487152, 4123.20512793, 4090.64102530, 4124.99999973, 4119.10256383, 4094.61538427, 4100.12820478, 4098.46153812, 4131.02564075, 4126.53846126, 4117.43589716, 4125.38461511, 4184.48717935,8.57
4118.84615357, 4121.28205101, 4125.38461511, 4097.17948684, 4122.17948691, 4116.66666639, 4109.99999973, 4116.92307665, 4098.84615350, 4131.15384588, 4126.15384588, 4117.94871767, 4125.76923050, 4185.76923063,8.57
4132.82051255, 4131.28205101, 4135.64102544, 4083.97435863, 4121.28205101, 4112.17948691, 4100.76923043, 4107.69230742, 4094.61538427, 4126.41025614, 4133.20512793, 4142.17948697, 4134.48717921, 4196.28205115,8.57
4119.48717921, 4121.79487152, 4116.28205101, 4080.89743555, 4120.38461511, 4112.56410229, 4088.46153812, 4098.71794837, 4092.94871761, 4123.84615357, 4125.12820485, 4118.20512793, 4127.94871767, 4181.28205115,8.57
4131.66666639, 4128.58974332, 4129.74358947, 4091.79487145, 4122.56410229, 4109.10256383, 4089.10256376, 4101.15384581, 4093.07692273, 4127.43589716, 4130.89743562, 4137.05128185, 4139.23076903, 4192.82051269,8.57
4126.53846126, 4128.97435870, 4125.38461511, 4088.58974325, 4122.43589716, 4110.51282024, 4095.64102530, 4106.02564075, 4094.99999966, 4128.84615357, 4123.84615357, 4131.41025614, 4136.28205108, 4189.48717935,8.57
4120.38461511, 4121.15384588, 4119.35897408, 4083.58974325, 4121.15384588, 4123.07692280, 4092.94871761, 4093.71794837, 4085.38461504, 4127.43589716, 4121.92307665, 4123.07692280, 4131.41025614, 4191.41025628,8.57
4134.99999973, 4128.58974332, 4131.15384588, 4082.17948684, 4123.84615357, 4120.64102537, 4087.56410222, 4079.35897402, 4082.05128171, 4128.71794844, 4133.58974332, 4144.23076903, 4139.74358954, 4204.35897429,8.57
4116.53846126, 4117.30769203, 4111.15384588, 4070.12820478, 4120.51282024, 4106.79487152, 4090.64102530, 4089.99999966, 4096.53846119, 4127.82051255, 4119.48717921, 4114.61538434, 4126.66666639, 4187.30769217,8.57
4123.07692280, 4119.48717921, 4118.97435870, 4062.69230728, 4120.76923050, 4101.15384581, 4083.33333299, 4088.07692273, 4084.48717914, 4128.20512793, 4121.79487152, 4127.05128178, 4131.02564075, 4195.76923063,8.57
4120.89743562, 4122.05128178, 4120.76923050, 4076.02564068, 4124.99999973, 4103.33333306, 4076.28205094, 4081.92307658, 4075.38461504, 4128.46153819, 4122.82051255, 4124.87179460, 4132.30769203, 4191.53846140,8.57
4111.66666639, 4117.30769203, 4115.12820485, 4075.64102530, 4123.07692280, 4084.35897402, 4068.33333292, 4085.64102530, 4081.15384581, 4126.92307665, 4119.10256383, 4106.53846126, 4125.12820485, 4181.66666653,8.57
4129.35897408, 4128.33333306, 4130.25640998, 4056.66666625, 4124.10256383, 4074.10256376, 4065.12820472, 4081.53846119, 4068.58974318, 4127.82051255, 4126.66666639, 4126.92307665, 4132.43589716, 4191.15384602,8.57
4113.84615357, 4118.97435870, 4116.92307665, 4064.87179446, 4124.23076896, 4107.56410229, 4089.61538427, 4091.15384581, 4072.17948684, 4127.05128178, 4115.64102537, 4100.76923043, 4123.84615357, 4177.69230756,8.57
4119.61538434, 4123.20512793, 4126.79487152, 4077.82051248, 4121.79487152, 4111.41025614, 4092.94871761, 4099.23076889, 4092.94871761, 4126.79487152, 4124.74358947, 4115.64102537, 4128.84615357, 4186.53846140,8.57
4123.84615357, 4129.87179460, 4129.87179460, 4075.38461504, 4123.58974332, 4092.94871761, 4080.51282017, 4087.82051248, 4091.92307658, 4126.92307665, 4130.25640998, 4126.92307665, 4130.89743562, 4183.97435884,8.57
4114.10256383, 4122.05128178, 4117.43589716, 4080.38461504, 4127.30769203, 4108.58974332, 4090.64102530, 4081.02564068, 4079.10256376, 4126.15384588, 4120.25640998, 4107.43589716, 4123.07692280, 4175.89743576,8.57
4133.97435870, 4132.30769203, 4134.99999973, 4088.71794837, 4128.84615357, 4120.89743562, 4103.84615357, 4099.23076889, 4091.53846119, 4129.10256383, 4129.99999973, 4135.76923056, 4135.25640998, 4195.38461525,8.57
4120.25640998, 4124.23076896, 4124.10256383, 4097.17948684, 4123.58974332, 4127.05128178, 4125.64102537, 4141.92307672, 4128.84615357, 4129.61538434, 4122.56410229, 4121.92307665, 4129.48717921, 4181.66666653,8.57
4124.10256383, 4124.48717921, 4127.17948691, 4100.25640991, 4121.53846126, 4140.64102544, 4142.69230749, 4161.02564082, 4146.02564082, 4127.05128178, 4123.07692280, 4128.84615357, 4129.74358947, 4186.41025628,8.57
4132.94871767, 4131.15384588, 4130.89743562, 4093.07692273, 4124.74358947, 4134.87179460, 4125.38461511, 4133.71794844, 4123.33333306, 4126.53846126, 4130.25640998, 4139.10256390, 4132.69230742, 4194.10256397,8.57
4114.61538434, 4121.41025614, 4116.66666639, 4093.20512786, 4122.94871767, 4120.38461511, 4113.71794844, 4113.84615357, 4104.48717921, 4129.48717921, 4124.10256383, 4114.48717921, 4123.33333306, 4180.25641012,8.57
4131.41025614, 4129.99999973, 4129.99999973, 4094.87179453, 4122.69230742, 4117.82051255, 4121.79487152, 4121.15384588, 4108.84615357, 4131.28205101, 4131.53846126, 4140.89743569, 4135.25640998, 4195.76923063,8.57
4124.99999973, 4124.61538434, 4116.53846126, 4088.46153812, 4121.02564075, 4120.25640998, 4120.25640998, 4120.89743562, 4112.05128178, 4127.56410229, 4124.74358947, 4127.17948691, 4131.92307665, 4191.28205115,8.57
4122.82051255, 4121.53846126, 4120.76923050, 4091.79487145, 4122.43589716, 4127.30769203, 4121.02564075, 4121.28205101, 4114.10256383, 4126.28205101, 4124.87179460, 4121.92307665, 4131.41025614, 4192.17948704,8.57
4130.51282024, 4127.43589716, 4131.66666639, 4095.76923043, 4125.89743562, 4126.92307665, 4125.64102537, 4125.51282024, 4113.07692280, 4127.82051255, 4129.61538434, 4135.38461518, 4137.82051262, 4197.30769217,8.57
4109.23076896, 4117.05128178, 4109.35897408, 4084.87179453, 4120.64102537, 4110.12820485, 4111.15384588, 4113.84615357, 4104.48717921, 4125.76923050, 4115.76923050, 4108.46153819, 4126.92307665, 4182.56410243,8.57
4121.79487152, 4125.51282024, 4124.10256383, 4087.43589709, 4121.15384588, 4112.17948691, 4111.02564075, 4123.33333306, 4115.38461511, 4126.79487152, 4123.58974332, 4128.58974332, 4132.05128178, 4192.94871781,8.57
4119.48717921, 4125.25640998, 4124.74358947, 4099.48717914, 4122.43589716, 4133.71794844, 4131.53846126, 4149.87179467, 4134.23076896, 4129.10256383, 4120.89743562, 4119.61538434, 4126.02564075, 4183.33333320,8.57
4116.02564075, 4123.33333306, 4121.66666639, 4092.69230735, 4121.02564075, 4130.76923050, 4128.07692280, 4142.30769210, 4123.97435870, 4128.07692280, 4117.17948691, 4110.51282024, 4123.33333306, 4184.61538448,8.57
4129.99999973, 4132.43589716, 4131.79487152, 4083.20512786, 4123.07692280, 4118.46153819, 4115.51282024, 4118.46153819, 4101.66666632, 4127.43589716, 4125.89743562, 4132.94871767, 4131.79487152, 4194.48717935,8.57
4115.89743562, 4120.25640998, 4118.58974332, 4083.71794837, 4122.82051255, 4120.76923050, 4119.23076896, 4123.20512793, 4102.30769196, 4127.43589716, 4117.43589716, 4109.87179460, 4122.56410229, 4173.84615371,8.57
4128.07692280, 4127.94871767, 4129.61538434, 4092.43589709, 4124.87179460, 4130.51282024, 4133.33333306, 4144.74358954, 4119.74358947, 4127.69230742, 4127.94871767, 4124.61538434, 4133.33333306, 4187.82051269,8.57
4123.20512793, 4131.28205101, 4122.69230742, 4099.74358940, 4124.48717921, 4148.97435877, 4148.46153826, 4146.66666646, 4126.66666639, 4125.76923050, 4128.07692280, 4122.56410229, 4133.20512793, 4187.43589730,8.57
4117.05128178, 4124.35897408, 4116.92307665, 4084.23076889, 4122.30769203, 4140.51282031, 4124.48717921, 4113.84615357, 4099.35897402, 4125.76923050, 4120.89743562, 4117.56410229, 4128.07692280, 4182.94871781,8.57
4137.56410236, 4132.17948691, 4134.23076896, 4061.92307651, 4124.23076896, 4104.35897408, 4077.43589709, 4078.07692273, 4060.12820472, 4128.58974332, 4131.53846126, 4142.56410236, 4140.12820492, 4198.33333320,8.57
4117.94871767, 4119.99999973, 4116.28205101, 4076.41025607, 4121.53846126, 4119.35897408, 4101.15384581, 4106.15384588, 4078.46153812, 4128.33333306, 4122.17948691, 4112.82051255, 4129.74358947, 4183.46153833,8.57
4126.02564075, 4125.64102537, 4126.92307665, 4094.87179453, 4119.99999973, 4152.56410236, 4149.74358954, 4159.35897415, 4124.48717921, 4127.43589716, 4127.05128178, 4129.99999973, 4133.84615357, 4192.30769217,8.57
4130.51282024, 4128.71794844, 4129.99999973, 4078.97435863, 4120.64102537, 4141.02564082, 4136.79487159, 4160.51282031, 4128.20512793, 4126.02564075, 4128.20512793, 4139.10256390, 4138.07692287, 4194.99999986,8.57
4115.38461511, 4115.64102537, 4116.15384588, 4063.71794830, 4120.51282024, 4119.10256383, 4103.07692280, 4122.82051255, 4099.35897402, 4125.38461511, 4117.56410229, 4118.58974332, 4130.64102537, 4189.23076910,8.57
4131.15384588, 4125.89743562, 4129.35897408, 4073.07692273, 4123.46153819, 4117.82051255, 4102.05128171, 4111.15384588, 4084.99999966, 4128.58974332, 4126.41025614, 4143.07692287, 4139.99999980, 4202.56410250,8.57
4116.92307665, 4121.66666639, 4116.41025614, 4084.35897402, 4123.20512793, 4131.15384588, 4126.53846126, 4140.25641005, 4100.38461504, 4128.97435870, 4120.12820485, 4119.10256383, 4130.25640998, 4187.05128192,8.57
4119.99999973, 4122.56410229, 4121.92307665, 4076.41025607, 4123.97435870, 4131.15384588, 4132.43589716, 4146.41025621, 4104.23076896, 4127.69230742, 4121.66666639, 4119.10256383, 4129.99999973, 4191.53846140,8.57
4123.71794844, 4126.41025614, 4125.38461511, 4062.30769189, 4125.25640998, 4126.28205101, 4126.66666639, 4132.05128178, 4098.71794837, 4128.84615357, 4122.30769203, 4126.92307665, 4132.94871767, 4193.07692294,8.57
4108.58974332, 4118.58974332, 4115.12820485, 4057.05128164, 4124.23076896, 4119.48717921, 4107.43589716, 4114.61538434, 4093.07692273, 4127.43589716, 4115.51282024, 4106.66666639, 4122.69230742, 4181.66666653,8.57
4127.56410229, 4128.84615357, 4132.43589716, 4051.15384574, 4126.41025614, 4101.92307658, 4078.58974325, 4084.10256376, 4079.35897402, 4127.69230742, 4126.79487152, 4127.56410229, 4130.38461511, 4192.43589730,8.57
4119.48717921, 4123.20512793, 4121.15384588, 4052.56410215, 4123.84615357, 4110.64102537, 4098.07692273, 4103.20512793, 4096.02564068, 4129.48717921, 4119.35897408, 4109.23076896, 4126.28205101, 4178.58974345,8.57
4121.66666639, 4125.51282024, 4127.56410229, 4054.48717907, 4121.79487152, 4129.23076896, 4124.61538434, 4140.25641005, 4107.17948691, 4129.61538434, 4122.05128178, 4115.12820485, 4129.61538434, 4183.84615371,8.57
4129.99999973, 4134.74358947, 4136.66666646, 4039.99999959, 4124.10256383, 4113.71794844, 4104.48717921, 4124.23076896, 4080.89743555, 4127.94871767, 4127.82051255, 4131.28205101, 4132.43589716, 4189.10256397,8.57
4117.17948691, 4124.23076896, 4117.30769203, 4037.17948677, 4122.17948691, 4100.12820478, 4092.30769196, 4104.99999973, 4075.38461504, 4125.12820485, 4116.28205101, 4106.92307665, 4123.07692280, 4176.53846140,8.57
4135.89743569, 4131.41025614, 4130.89743562, 4058.33333292, 4123.97435870, 4120.89743562, 4115.51282024, 4126.79487152, 4103.20512793, 4126.53846126, 4129.87179460, 4134.74358947, 4137.17948697, 4198.46153833,8.57
4123.33333306, 4124.48717921, 4123.46153819, 4065.51282010, 4123.84615357, 4133.97435870, 4122.56410229, 4142.43589723, 4115.51282024, 4127.94871767, 4125.64102537, 4126.41025614, 4132.43589716, 4189.87179474,8.57
4120.51282024, 4120.76923050, 4122.43589716, 4049.61538420, 4121.66666639, 4113.84615357, 4093.07692273, 4113.46153819, 4091.92307658, 4128.46153819, 4121.53846126, 4121.92307665, 4128.71794844, 4186.79487166,8.57
4136.53846133, 4131.28205101, 4134.99999973, 4041.66666625, 4124.35897408, 4094.35897402, 4072.30769196, 4085.12820478, 4074.99999966, 4129.74358947, 4132.94871767, 4142.30769210, 4137.82051262, 4198.20512807,8.57
4114.74358947, 4119.74358947, 4118.33333306, 4071.41025607, 4122.69230742, 4122.17948691, 4104.74358947, 4118.97435870, 4110.76923050, 4129.74358947, 4122.05128178, 4113.71794844, 4126.79487152, 4184.10256397,8.57
4126.53846126, 4126.66666639, 4128.97435870, 4093.97435863, 4121.41025614, 4150.51282031, 4129.35897408, 4150.76923056, 4132.82051255, 4131.02564075, 4126.53846126, 4133.84615357, 4134.48717921, 4198.46153833,8.57
4123.58974332, 4125.64102537, 4121.53846126, 4062.56410215, 4120.38461511, 4124.48717921, 4093.97435863, 4113.97435870, 4094.10256376, 4128.97435870, 4124.61538434, 4134.61538434, 4136.66666646, 4194.10256397,8.57
4112.56410229, 4118.58974332, 4115.64102537, 4028.97435849, 4118.97435870, 4094.99999966, 4072.05128171, 4089.99999966, 4074.48717914, 4126.66666639, 4117.05128178, 4119.61538434, 4132.05128178, 4187.94871781,8.57
4125.51282024, 4127.43589716, 4130.76923050, 4035.64102516, 4121.66666639, 4097.30769196, 4087.05128171, 4114.48717921, 4094.35897402, 4128.84615357, 4122.82051255, 4132.69230742, 4137.30769210, 4199.10256397,8.57
4111.41025614, 4117.94871767, 4116.02564075, 4057.05128164, 4122.43589716, 4113.46153819, 4096.41025607, 4119.74358947, 4093.84615350, 4127.94871767, 4114.23076896, 4105.38461511, 4125.76923050, 4181.28205115,8.57
4121.28205101, 4123.58974332, 4125.89743562, 4052.17948677, 4124.99999973, 4125.76923050, 4098.46153812, 4111.79487152, 4088.07692273, 4127.82051255, 4119.48717921, 4119.48717921, 4129.74358947, 4184.74358961,8.57
4118.46153819, 4127.17948691, 4123.97435870, 4023.46153798, 4124.23076896, 4128.84615357, 4104.87179460, 4127.69230742, 4107.82051255, 4130.64102537, 4119.23076896, 4116.41025614, 4129.48717921, 4182.17948704,8.57
4110.51282024, 4121.79487152, 4118.97435870, 4007.05128157, 4121.53846126, 4118.84615357, 4103.46153819, 4130.12820485, 4113.71794844, 4129.61538434, 4116.92307665, 4102.30769196, 4123.58974332, 4180.64102551,8.57
4132.56410229, 4132.05128178, 4136.66666646, 4008.46153798, 4123.84615357, 4113.20512793, 4093.07692273, 4104.10256383, 4093.07692273, 4127.05128178, 4130.25640998, 4135.76923056, 4132.30769203, 4192.69230756,8.57
4118.84615357, 4122.56410229, 4117.17948691, 4001.41025586, 4121.66666639, 4120.89743562, 4090.89743555, 4103.20512793, 4087.69230735, 4126.92307665, 4121.53846126, 4115.64102537, 4121.02564075, 4176.41025628,8.57
4124.99999973, 4125.64102537, 4125.38461511, 3992.56410201, 4122.05128178, 4108.46153819, 4086.15384581, 4107.43589716, 4084.99999966, 4129.61538434, 4127.05128178, 4124.61538434, 4128.07692280, 4189.23076910,8.57
4126.92307665, 4129.87179460, 4133.97435870, 4010.25640977, 4123.97435870, 4093.97435863, 4089.87179453, 4101.66666632, 4083.84615350, 4129.35897408, 4130.51282024, 4133.58974332, 4134.99999973, 4189.61538448,8.57
4113.84615357, 4120.76923050, 4121.41025614, 4022.43589695, 4121.79487152, 4098.46153812, 4099.23076889, 4117.56410229, 4107.05128178, 4129.35897408, 4121.41025614, 4116.02564075, 4127.17948691, 4175.64102551,8.57
4135.12820485, 4133.07692280, 4136.92307672, 4021.53846106, 4122.05128178, 4111.28205101, 4104.99999973, 4141.28205108, 4126.79487152, 4132.94871767, 4135.64102544, 4144.87179467, 4138.84615364, 4196.79487166,8.57
4119.87179460, 4123.97435870, 4122.30769203, 4035.25640977, 4119.35897408, 4133.46153819, 4124.74358947, 4151.28205108, 4120.38461511, 4130.38461511, 4129.61538434, 4124.48717921, 4130.76923050, 4186.92307679,8.57
4121.41025614, 4121.53846126, 4122.30769203, 4033.20512772, 4120.25640998, 4133.97435870, 4121.66666639, 4138.97435877, 4100.89743555, 4127.82051255, 4118.58974332, 4126.92307665, 4130.64102537, 4189.74358961,8.57
4133.71794844, 4130.51282024, 4128.97435870, 4016.53846106, 4123.20512793, 4117.82051255, 4098.07692273, 4122.43589716, 4097.56410222, 4130.38461511, 4106.92307665, 4142.05128185, 4136.79487159, 4198.71794858,8.57
4114.74358947, 4118.84615357, 4113.46153819, 4013.84615336, 4120.89743562, 4102.82051255, 4083.84615350, 4101.02564068, 4090.38461504, 4130.64102537, 4093.84615350, 4113.71794844, 4127.82051255, 4185.89743576,8.57
4127.56410229, 4123.71794844, 4127.82051255, 4009.10256362, 4123.46153819, 4085.64102530, 4067.43589702, 4072.56410222, 4062.69230728, 4130.25640998, 4106.02564075, 4134.74358947, 4136.66666646, 4196.66666653,8.57
4119.99999973, 4119.61538434, 4119.23076896, 4003.58974304, 4123.33333306, 4093.97435863, 4064.87179446, 4076.28205094, 4065.12820472, 4131.53846126, 4099.87179453, 4122.30769203, 4129.87179460, 4187.05128192,8.57
4117.43589716, 4118.20512793, 4120.25640998, 4016.15384567, 4119.74358947, 4117.43589716, 4088.33333299, 4106.02564075, 4096.41025607, 4132.17948691, 4100.12820478, 4115.64102537, 4128.07692280, 4185.89743576,8.57
4126.41025614, 4124.74358947, 4129.61538434, 4027.56410208, 4121.02564075, 4114.99999973, 4103.46153819, 4118.20512793, 4107.94871767, 4130.64102537, 4105.12820485, 4129.61538434, 4134.74358947, 4189.23076910,8.57
4109.23076896, 4115.51282024, 4113.71794844, 4022.43589695, 4120.38461511, 4098.33333299, 4091.66666632, 4104.87179460, 4094.87179453, 4130.38461511, 4093.46153812, 4103.58974332, 4122.43589716, 4175.76923063,8.57
4127.05128178, 4128.71794844, 4131.41025614, 4018.97435849, 4122.69230742, 4103.07692280, 4088.07692273, 4095.25640991, 4088.07692273, 4133.07692280, 4108.20512793, 4127.69230742, 4130.64102537, 4192.94871781,8.57
4123.58974332, 4125.89743562, 4127.05128178, 4023.58974311, 4123.71794844, 4122.30769203, 4106.15384588, 4107.30769203, 4103.33333306, 4131.28205101, 4106.53846126, 4120.89743562, 4130.51282024, 4181.92307679,8.57
4115.51282024, 4117.43589716, 4120.25640998, 4027.56410208, 4120.51282024, 4119.48717921, 4108.46153819, 4118.07692280, 4114.23076896, 4128.20512793, 4095.76923043, 4112.56410229, 4124.48717921, 4176.53846140,8.57
4130.38461511, 4130.25640998, 4134.99999973, 4023.97435849, 4121.92307665, 4100.38461504, 4087.17948684, 4099.87179453, 4097.94871761, 4130.12820485, 4104.48717921, 4141.66666646, 4132.82051255, 4194.99999986,8.57
4116.28205101, 4121.79487152, 4120.51282024, 4022.05128157, 4121.28205101, 4104.61538434, 4085.12820478, 4087.56410222, 4090.76923043, 4128.84615357, 4100.89743555, 4118.71794844, 4127.43589716, 4183.97435884,8.57
4127.94871767, 4126.41025614, 4126.92307665, 4029.87179439, 4118.97435870, 4120.64102537, 4102.05128171, 4102.94871767, 4102.05128171, 4128.84615357, 4106.15384588, 4133.97435870, 4134.61538434, 4192.05128192,8.57
4123.84615357, 4127.94871767, 4120.64102537, 4027.56410208, 4117.94871767, 4108.07692280, 4094.23076889, 4094.74358940, 4082.56410222, 4131.02564075, 4101.79487145, 4133.97435870, 4131.41025614, 4189.23076910,8.57
4114.23076896, 4120.25640998, 4116.41025614, 4025.76923029, 4119.61538434, 4105.12820485, 4091.02564068, 4086.66666632, 4071.15384581, 4127.17948691, 4099.74358940, 4120.89743562, 4126.41025614, 4188.20512807,8.57
4133.33333306, 4130.89743562, 4135.64102544, 4042.69230728, 4124.35897408, 4138.97435877, 4118.46153819, 4115.25640998, 4108.58974332, 4125.38461511, 4113.58974332, 4147.82051262, 4139.23076903, 4202.82051275,8.57
4112.43589716, 4121.41025614, 4113.58974332, 4043.20512779, 4124.23076896, 4139.23076903, 4117.69230742, 4117.43589716, 4118.20512793, 4127.82051255, 4099.99999966, 4118.71794844, 4127.17948691, 4185.64102551,8.57
4116.15384588, 4122.30769203, 4117.17948691, 4019.10256362, 4123.07692280, 4092.56410222, 4078.71794837, 4081.53846119, 4086.41025607, 4130.76923050, 4101.15384581, 4123.46153819, 4131.92307665, 4195.76923063,8.57
4122.94871767, 4124.48717921, 4123.33333306, 4014.99999952, 4122.43589716, 4086.15384581, 4072.94871761, 4072.56410222, 4083.97435863, 4130.76923050, 4107.69230742, 4133.58974332, 4138.71794851, 4197.69230756,8.57
4111.66666639, 4114.23076896, 4114.10256383, 4038.84615343, 4122.30769203, 4121.92307665, 4096.79487145, 4084.48717914, 4100.12820478, 4128.84615357, 4100.38461504, 4112.94871767, 4127.17948691, 4183.33333320,8.57
4129.61538434, 4123.46153819, 4129.99999973, 4056.79487138, 4124.74358947, 4134.61538434, 4108.07692280, 4094.87179453, 4102.56410229, 4128.84615357, 4107.05128178, 4128.84615357, 4133.58974332, 4193.58974345,8.57
4116.28205101, 4118.20512793, 4116.15384588, 4049.61538420, 4119.87179460, 4127.82051255, 4115.64102537, 4117.43589716, 4115.12820485, 4128.33333306, 4098.84615350, 4109.61538434, 4128.84615357, 4180.38461525,8.57
4117.82051255, 4122.94871767, 4120.12820485, 4038.46153805, 4118.84615357, 4123.71794844, 4116.15384588, 4127.69230742, 4130.25640998, 4129.48717921, 4103.33333306, 4119.61538434, 4128.58974332, 4185.89743576,8.57
4128.97435870, 4130.38461511, 4128.07692280, 4042.43589702, 4122.82051255, 4128.97435870, 4115.64102537, 4125.64102537, 4128.33333306, 4129.48717921, 4108.58974332, 4129.74358947, 4129.35897408, 4187.69230756,8.57
4118.58974332, 4117.69230742, 4116.41025614, 4046.66666625, 4120.51282024, 4135.51282031, 4116.02564075, 4121.66666639, 4115.38461511, 4126.41025614, 4096.92307658, 4105.25640998, 4122.17948691, 4173.58974345,8.57
4133.07692280, 4125.89743562, 4132.82051255, 4031.15384567, 4122.05128178, 4118.07692280, 4097.17948684, 4097.30769196, 4096.02564068, 4125.51282024, 4109.35897408, 4134.61538434, 4132.30769203, 4195.25641012,8.57
4121.41025614, 4123.33333306, 4121.28205101, 4026.15384567, 4121.66666639, 4112.94871767, 4096.02564068, 4094.87179453, 4098.20512786, 4128.20512793, 4107.17948691, 4123.71794844, 4121.79487152, 4189.87179474,8.57
4122.82051255, 4124.99999973, 4123.97435870, 4041.53846113, 4120.64102537, 4136.53846133, 4119.74358947, 4119.35897408, 4114.74358947, 4131.53846126, 4104.48717921, 4122.05128178, 4121.53846126, 4187.17948704,8.57
4133.71794844, 4131.28205101, 4136.28205108, 4044.87179446, 4123.58974332, 4146.15384595, 4123.97435870, 4116.15384588, 4120.25640998, 4128.97435870, 4109.35897408, 4141.02564082, 4136.66666646, 4193.97435884,8.57
4114.48717921, 4115.89743562, 4116.66666639, 4035.76923029, 4119.99999973, 4132.94871767, 4113.33333306, 4093.46153812, 4111.15384588, 4125.76923050, 4101.15384581, 4117.17948691, 4130.25640998, 4185.12820499,8.57
4130.12820485, 4128.07692280, 4128.71794844, 4022.69230721, 4119.48717921, 4116.15384588, 4105.38461511, 4081.79487145, 4088.71794837, 4129.61538434, 4113.20512793, 4139.10256390, 4136.79487159, 4202.05128199,8.57
4125.12820485, 4128.20512793, 4123.84615357, 4022.94871747, 4121.28205101, 4118.07692280, 4111.15384588, 4098.46153812, 4097.43589709, 4129.61538434, 4110.38461511, 4128.58974332, 4131.92307665, 4193.20512807,8.57
4119.10256383, 4118.71794844, 4120.51282024, 4033.07692259, 4122.05128178, 4117.17948691, 4109.10256383, 4118.84615357, 4122.56410229, 4128.46153819, 4103.46153819, 4119.23076896, 4126.28205101, 4189.87179474,8.57
4131.66666639, 4128.58974332, 4130.38461511, 4022.43589695, 4122.05128178, 4102.17948684, 4090.38461504, 4111.28205101, 4109.99999973, 4130.89743562, 4110.64102537, 4144.87179467, 4135.76923056, 4202.05128199,8.57
4111.41025614, 4118.46153819, 4110.76923050, 3991.92307637, 4117.17948691, 4092.17948684, 4081.02564068, 4094.23076889, 4082.82051248, 4129.74358947, 4098.58974325, 4117.56410229, 4128.33333306, 4184.61538448,8.57
4122.43589716, 4118.58974332, 4123.97435870, 3984.74358919, 4119.99999973, 4084.87179453, 4079.87179453, 4093.58974325, 4084.10256376, 4131.02564075, 4102.43589709, 4126.41025614, 4133.46153819, 4193.84615371,8.57
4120.76923050, 4120.64102537, 4123.97435870, 4015.89743541, 4124.10256383, 4097.82051248, 4094.48717914, 4113.71794844, 4109.87179460, 4131.66666639, 4103.07692280, 4123.97435870, 4130.76923050, 4190.25641012,8.57
4109.87179460, 4119.61538434, 4114.10256383, 4029.61538413, 4120.89743562, 4109.87179460, 4103.71794844, 4106.41025614, 4093.07692273, 4126.79487152, 4099.35897402, 4108.46153819, 4124.99999973, 4180.12820499,8.57
4128.07692280, 4126.92307665, 4127.82051255, 4004.35897388, 4121.53846126, 4090.64102530, 4081.66666632, 4061.28205087, 4041.28205087, 4128.97435870, 4111.28205101, 4127.17948691, 4134.10256383, 4188.58974345,8.57
4116.92307665, 4117.94871767, 4117.05128178, 3992.17948663, 4120.25640998, 4080.64102530, 4066.92307651, 4051.92307651, 4051.15384574, 4133.71794844, 4104.10256383, 4104.48717921, 4121.92307665, 4175.38461525,8.57
4124.87179460, 4126.15384588, 4128.33333306, 4006.41025593, 4119.87179460, 4093.46153812, 4074.99999966, 4071.28205094, 4083.71794837, 4130.76923050, 4105.89743562, 4118.97435870, 4125.38461511, 4188.07692294,8.57
4126.92307665, 4127.05128178, 4128.07692280, 4015.51282003, 4121.28205101, 4101.28205094, 4090.64102530, 4084.48717914, 4080.51282017, 4127.82051255, 4106.66666639, 4127.43589716, 4129.99999973, 4187.69230756,8.57
4117.69230742, 4118.84615357, 4117.82051255, 4009.35897388, 4120.89743562, 4090.12820478, 4090.38461504, 4101.41025607, 4081.92307658, 4128.97435870, 4104.23076896, 4114.87179460, 4125.25640998, 4178.33333320,8.57
4137.05128185, 4135.64102544, 4137.30769210, 4022.05128157, 4121.15384588, 4091.79487145, 4092.82051248, 4128.07692280, 4111.41025614, 4129.23076896, 4114.99999973, 4141.79487159, 4136.28205108, 4196.79487166,8.57
4121.02564075, 4127.30769203, 4119.48717921, 4046.92307651, 4117.94871767, 4111.92307665, 4113.84615357, 4146.15384595, 4137.05128185, 4126.79487152, 4101.66666632, 4119.99999973, 4129.10256383, 4183.97435884,8.57
4124.23076896, 4123.71794844, 4118.84615357, 4038.07692266, 4119.61538434, 4115.76923050, 4113.97435870, 4131.02564075, 4121.41025614, 4128.07692280, 4107.30769203, 4130.12820485, 4131.79487152, 4187.94871781,8.57
4129.74358947, 4128.97435870, 4127.94871767, 4014.99999952, 4123.07692280, 4100.76923043, 4088.58974325, 4094.35897402, 4075.51282017, 4129.87179460, 4116.66666639, 4140.38461518, 4134.99999973, 4192.17948704,8.57
4111.41025614, 4118.71794844, 4116.79487152, 4016.15384567, 4120.25640998, 4079.99999966, 4067.94871754, 4066.02564061, 4039.87179446, 4125.64102537, 4103.71794844, 4112.82051255, 4126.53846126, 4183.71794858,8.57
4128.71794844, 4129.23076896, 4129.23076896, 4022.05128157, 4120.76923050, 4068.71794830, 4063.84615343, 4052.56410215, 4025.64102516, 4125.64102537, 4111.41025614, 4141.79487159, 4139.61538441, 4204.35897429,8.57
4119.61538434, 4124.23076896, 4117.69230742, 4029.61538413, 4120.64102537, 4094.87179453, 4087.30769196, 4071.15384581, 4049.74358933, 4128.58974332, 4107.43589716, 4125.25640998, 4133.20512793, 4194.87179474,8.57
4118.33333306, 4119.35897408, 4120.25640998, 4039.61538420, 4119.99999973, 4116.92307665, 4102.82051255, 4096.41025607, 4084.99999966, 4128.97435870, 4105.25640998, 4116.28205101, 4129.61538434, 4190.38461525,8.57
4126.28205101, 4125.25640998, 4126.92307665, 4027.17948670, 4120.64102537, 4094.10256376, 4079.48717914, 4082.82051248, 4070.38461504, 4128.07692280, 4108.33333306, 4132.30769203, 4136.53846133, 4193.58974345,8.57
4107.05128178, 4115.76923050, 4111.79487152, 4008.46153798, 4118.07692280, 4072.30769196, 4060.89743548, 4067.82051241, 4043.84615343, 4127.30769203, 4098.84615350, 4110.64102537, 4128.58974332, 4181.92307679,8.57
4123.58974332, 4125.38461511, 4131.15384588, 4012.94871747, 4120.64102537, 4074.99999966, 4067.56410215, 4092.43589709, 4067.56410215, 4130.12820485, 4108.97435870, 4130.51282024, 4134.48717921, 4193.46153833,8.57
4121.02564075, 4124.23076896, 4125.38461511, 4029.61538413, 4123.20512793, 4086.66666632, 4086.41025607, 4130.76923050, 4112.43589716, 4129.35897408, 4105.38461511, 4117.05128178, 4126.79487152, 4182.30769217,8.57
4116.41025614, 4122.05128178, 4121.66666639, 4025.89743541, 4122.43589716, 4086.28205094, 4086.28205094, 4115.38461511, 4104.87179460, 4128.07692280, 4103.84615357, 4109.74358947, 4124.35897408, 4182.56410243,8.57
4127.94871767, 4130.25640998, 4133.71794844, 4006.66666618, 4122.17948691, 4067.69230728, 4056.41025600, 4064.74358933, 4059.87179446, 4130.12820485, 4111.02564075, 4132.30769203, 4133.97435870, 4190.64102551,8.57
4113.33333306, 4119.23076896, 4117.17948691, 4019.61538413, 4120.76923050, 4074.35897402, 4062.17948677, 4071.79487145, 4057.82051241, 4129.99999973, 4098.71794837, 4109.74358947, 4124.23076896, 4174.74358961,8.57
4127.94871767, 4126.66666639, 4128.84615357, 4049.99999959, 4123.07692280, 4105.38461511, 4101.15384581, 4100.25640991, 4080.51282017, 4128.46153819, 4108.07692280, 4132.56410229, 4132.82051255, 4193.33333320,8.57
4123.97435870, 4126.79487152, 4124.23076896, 4045.89743548, 4121.53846126, 4106.79487152, 4099.48717914, 4091.15384581, 4078.07692273, 4126.41025614, 4108.33333306, 4130.76923050, 4132.69230742, 4188.84615371,8.57
4117.69230742, 4120.64102537, 4116.92307665, 4020.51282003, 4119.48717921, 4072.94871761, 4060.51282010, 4061.66666625, 4051.28205087, 4125.76923050, 4104.10256383, 4117.82051255, 4128.71794844, 4179.10256397,8.57
4135.64102544, 4131.28205101, 4131.15384588, 4014.61538413, 4123.46153819, 4054.35897395, 4043.33333292, 4040.38461497, 4034.61538413, 4128.20512793, 4114.99999973, 4145.51282031, 4137.82051262, 4196.53846140,8.57
4114.74358947, 4120.51282024, 4114.48717921, 4028.20512772, 4120.64102537, 4064.99999959, 4054.35897395, 4049.48717907, 4052.05128164, 4128.71794844, 4103.58974332, 4118.97435870, 4126.92307665, 4184.99999986,8.57
4121.66666639, 4123.97435870, 4124.74358947, 4032.05128157, 4119.10256383, 4065.38461497, 4053.71794830, 4073.07692273, 4071.15384581, 4128.84615357, 4107.17948691, 4127.56410229, 4133.97435870, 4192.82051269,8.57
4124.35897408, 4126.28205101, 4124.10256383, 4034.23076875, 4122.17948691, 4064.23076882, 4053.33333292, 4087.69230735, 4076.28205094, 4129.74358947, 4107.56410229, 4133.97435870, 4136.41025621, 4192.82051269,8.57
4111.15384588, 4116.79487152, 4111.53846126, 4053.33333292, 4121.66666639, 4085.64102530, 4076.53846119, 4105.25640998, 4092.30769196, 4129.35897408, 4098.97435863, 4115.89743562, 4128.20512793, 4185.89743576,8.57
4127.05128178, 4127.30769203, 4128.33333306, 4060.12820472, 4120.89743562, 4089.10256376, 4083.20512786, 4108.20512793, 4099.23076889, 4129.48717921, 4108.46153819, 4135.64102544, 4137.56410236, 4199.10256397,8.57
4113.20512793, 4119.87179460, 4114.74358947, 4041.41025600, 4118.84615357, 4067.43589702, 4061.15384574, 4071.15384581, 4064.23076882, 4128.46153819, 4099.23076889, 4113.97435870, 4127.30769203, 4184.48717935,8.57
4118.20512793, 4120.89743562, 4121.66666639, 4023.97435849, 4120.38461511, 4055.64102523, 4044.99999959, 4037.43589702, 4025.76923029, 4128.58974332, 4099.35897402, 4120.25640998, 4127.94871767, 4190.51282038,8.57
4121.41025614, 4124.10256383, 4126.66666639, 4025.89743541, 4121.92307665, 4065.64102523, 4052.43589702, 4044.23076882, 4034.10256362, 4129.23076896, 4099.74358940, 4121.79487152, 4130.64102537, 4189.35897422,8.57
4106.28205101, 4117.17948691, 4112.69230742, 4030.76923029, 4117.94871767, 4076.28205094, 4056.92307651, 4049.35897395, 4050.76923036, 4125.64102537, 4089.74358940, 4101.53846119, 4123.07692280, 4176.66666653,8.57
4125.25640998, 4129.61538434, 4129.10256383, 4024.35897388, 4120.25640998, 4073.20512786, 4048.07692266, 4040.38461497, 4043.20512779, 4125.64102537, 4099.87179453, 4134.74358947, 4135.51282031, 4192.43589730,8.57
4115.51282024, 4123.07692280, 4120.89743562, 4026.02564054, 4122.05128178, 4078.20512786, 4060.51282010, 4058.07692266, 4053.46153805, 4127.43589716, 4095.76923043, 4114.48717921, 4127.56410229, 4177.82051269,8.57
4118.71794844, 4126.15384588, 4124.87179460, 4033.84615336, 4120.12820485, 4078.71794837, 4067.05128164, 4076.92307658, 4072.69230735, 4126.92307665, 4096.53846119, 4114.99999973, 4127.30769203, 4180.89743576,8.57
4129.87179460, 4135.51282031, 4131.15384588, 4041.15384574, 4117.56410229, 4075.38461504, 4061.66666625, 4084.61538427, 4084.87179453, 4126.92307665, 4098.20512786, 4136.92307672, 4138.46153826, 4190.25641012,8.57
4115.51282024, 4121.15384588, 4118.33333306, 4049.35897395, 4115.89743562, 4086.41025607, 4071.79487145, 4099.10256376, 4096.02564068, 4127.69230742, 4087.30769196, 4113.07692280, 4127.43589716, 4177.30769217,8.57
4131.66666639, 4128.33333306, 4135.64102544, 4049.35897395, 4121.15384588, 4086.53846119, 4069.99999966, 4090.76923043, 4086.66666632, 4128.33333306, 4102.05128171, 4137.69230749, 4132.56410229, 4195.12820499,8.57
4122.82051255, 4123.71794844, 4122.43589716, 4039.23076882, 4120.12820485, 4070.89743555, 4051.28205087, 4059.99999959, 4062.30769189, 4125.51282024, 4101.41025607, 4131.92307665, 4134.48717921, 4189.87179474,8.57
4120.25640998, 4120.64102537, 4119.35897408, 4029.35897388, 4117.05128178, 4057.43589702, 4037.30769189, 4039.10256369, 4041.53846113, 4126.53846126, 4096.15384581, 4123.97435870, 4133.46153819, 4188.46153833,8.57
4132.82051255, 4130.51282024, 4132.05128178, 4033.97435849, 4120.25640998, 4068.07692266, 4052.05128164, 4053.84615343, 4047.56410215, 4129.23076896, 4102.17948684, 4139.87179467, 4133.84615357, 4198.58974345,8.57
4112.43589716, 4116.41025614, 4111.79487152, 4046.28205087, 4118.07692280, 4094.48717914, 4080.25640991, 4077.43589709, 4067.05128164, 4127.43589716, 4093.07692273, 4115.76923050, 4121.92307665, 4187.30769217,8.57
4122.82051255, 4121.15384588, 4121.41025614, 4038.58974318, 4119.23076896, 4087.69230735, 4067.30769189, 4056.15384574, 4048.20512779, 4129.23076896, 4098.84615350, 4134.35897408, 4133.84615357, 4199.35897422,8.57
4119.48717921, 4123.07692280, 4119.74358947, 4028.33333285, 4121.15384588, 4067.56410215, 4045.51282010, 4038.97435856, 4034.10256362, 4130.25640998, 4093.71794837, 4126.92307665, 4132.69230742, 4192.82051269,8.57
4113.71794844, 4116.92307665, 4115.51282024, 4038.07692266, 4118.71794844, 4071.53846119, 4058.46153805, 4072.43589709, 4071.66666632, 4128.33333306, 4089.35897402, 4113.33333306, 4124.23076896, 4189.35897422,8.57
4127.56410229, 4123.97435870, 4128.58974332, 4036.79487131, 4120.64102537, 4073.46153812, 4057.05128164, 4078.97435863, 4076.28205094, 4129.10256383, 4100.76923043, 4134.48717921, 4132.94871767, 4197.17948704,8.57
4110.12820485, 4117.82051255, 4113.97435870, 4017.56410208, 4122.43589716, 4053.71794830, 4020.76923029, 4032.43589695, 4021.53846106, 4128.58974332, 4092.69230735, 4112.82051255, 4124.87179460, 4175.64102551,8.57
4121.79487152, 4125.89743562, 4124.48717921, 4027.56410208, 4122.05128178, 4042.05128164, 4014.87179439, 4033.71794824, 4020.12820465, 4127.94871767, 4096.66666632, 4126.92307665, 4129.23076896, 4184.35897422,8.57
4124.35897408, 4124.87179460, 4125.12820485, 4056.79487138, 4118.58974332, 4059.23076882, 4053.33333292, 4087.43589709, 4076.66666632, 4128.71794844, 4096.28205094, 4122.94871767, 4129.23076896, 4182.94871781,8.57
4113.84615357, 4118.58974332, 4120.64102537, 4052.69230728, 4118.58974332, 4067.69230728, 4063.84615343, 4085.12820478, 4076.66666632, 4128.71794844, 4093.58974325, 4108.20512793, 4122.94871767, 4173.97435884,8.57
4131.79487152, 4131.41025614, 4137.05128185, 4043.71794830, 4124.61538434, 4068.97435856, 4055.12820472, 4054.87179446, 4046.02564061, 4130.25640998, 4106.28205101, 4138.07692287, 4131.53846126, 4187.94871781,8.57
4118.84615357, 4122.30769203, 4119.48717921, 4049.61538420, 4122.05128178, 4076.41025607, 4060.12820472, 4067.43589702, 4057.05128164, 4130.25640998, 4096.02564068, 4114.74358947, 4123.97435870, 4178.07692294,8.57
4123.58974332, 4124.23076896, 4124.99999973, 4044.99999959, 4119.10256383, 4069.87179453, 4054.48717907, 4068.97435856, 4062.43589702, 4127.30769203, 4097.43589709, 4122.56410229, 4132.43589716, 4189.99999986,8.57
4125.64102537, 4127.82051255, 4128.46153819, 4042.82051241, 4121.02564075, 4066.53846113, 4048.33333292, 4045.25640984, 4044.48717907, 4126.28205101, 4102.82051255, 4134.61538434, 4136.15384595, 4189.99999986,8.57
4111.79487152, 4116.66666639, 4116.92307665, 4041.15384574, 4119.74358947, 4064.48717907, 4038.07692266, 4031.28205080, 4032.94871747, 4127.56410229, 4097.82051248, 4117.94871767, 4125.89743562, 4176.53846140,8.57
4131.66666639, 4127.56410229, 4133.20512793, 4034.74358926, 4120.12820485, 4053.20512779, 4021.15384567, 4033.71794824, 4035.64102516, 4127.43589716, 4106.15384588, 4142.82051262, 4137.69230749, 4197.17948704,8.57
4121.02564075, 4124.99999973, 4117.69230742, 4047.17948677, 4121.79487152, 4061.92307651, 4037.94871754, 4060.64102523, 4056.66666625, 4125.76923050, 4095.64102530, 4121.15384588, 4131.15384588, 4192.17948704,8.57
4120.51282024, 4124.87179460, 4118.97435870, 4069.35897395, 4123.58974332, 4077.05128171, 4065.25640984, 4077.69230735, 4068.07692266, 4129.61538434, 4099.35897402, 4121.92307665, 4129.61538434, 4194.35897422,8.57
4125.12820485, 4126.79487152, 4125.38461511, 4068.58974318, 4123.71794844, 4054.23076882, 4046.15384574, 4060.12820472, 4054.61538420, 4131.15384588, 4107.43589716, 4138.58974339, 4134.35897408, 4193.58974345,8.57
4109.61538434, 4113.97435870, 4108.20512793, 4059.61538420, 4120.38461511, 4030.76923029, 4017.30769183, 4048.71794830, 4042.94871754, 4126.92307665, 4093.71794837, 4113.97435870, 4125.89743562, 4181.41025628,8.57
4128.71794844, 4125.25640998, 4124.87179460, 4063.46153805, 4121.53846126, 4045.64102523, 4032.05128157, 4050.76923036, 4040.89743548, 4128.33333306, 4102.56410229, 4132.56410229, 4137.30769210, 4201.02564096,8.57
4120.25640998, 4122.17948691, 4119.35897408, 4070.12820478, 4118.71794844, 4057.94871754, 4058.46153805, 4049.74358933, 4040.51282010, 4129.48717921, 4098.33333299, 4120.89743562, 4131.79487152, 4188.71794858,8.57
4117.17948691, 4119.10256383, 4118.33333306, 4072.69230735, 4117.30769203, 4047.69230728, 4063.07692266, 4056.28205087, 4045.89743548, 4128.07692280, 4093.46153812, 4119.48717921, 4125.64102537, 4182.56410243,8.57
4127.17948691, 4129.10256383, 4127.30769203, 4053.71794830, 4121.41025614, 4032.82051234, 4039.48717907, 4042.94871754, 4038.20512779, 4130.12820485, 4102.17948684, 4132.05128178, 4131.92307665, 4191.15384602,8.57
4109.35897408, 4121.53846126, 4114.74358947, 4029.99999952, 4120.64102537, 4020.38461490, 4013.58974311, 4022.17948670, 4023.33333285, 4129.61538434, 4096.41025607, 4101.66666632, 4123.33333306, 4178.58974345,8.57
4125.25640998, 4128.46153819, 4132.43589716, 4044.99999959, 4121.92307665, 4017.43589695, 4016.15384567, 4042.56410215, 4034.23076875, 4128.07692280, 4103.58974332, 4124.99999973, 4129.61538434, 4187.56410243,8.57
4121.66666639, 4122.56410229, 4124.48717921, 4075.89743555, 4121.15384588, 4035.89743541, 4037.56410215, 4075.12820478, 4066.53846113, 4128.46153819, 4099.48717914, 4122.56410229, 4126.53846126, 4178.33333320,8.57
4115.51282024, 4117.69230742, 4117.69230742, 4071.15384581, 4120.76923050, 4037.56410215, 4032.05128157, 4067.30769189, 4069.87179453, 4128.20512793, 4096.41025607, 4114.48717921, 4125.12820485, 4180.89743576,8.57
4134.10256383, 4134.10256383, 4133.46153819, 4049.35897395, 4124.10256383, 4020.25640977, 4007.30769183, 4036.66666618, 4037.94871754, 4128.58974332, 4104.48717921, 4139.99999980, 4136.41025621, 4199.74358961,8.57
4119.23076896, 4122.17948691, 4118.20512793, 4060.89743548, 4120.25640998, 4040.12820472, 4022.69230721, 4041.28205087, 4040.51282010, 4128.97435870, 4096.28205094, 4116.79487152, 4129.10256383, 4183.58974345,8.57
4126.28205101, 4123.20512793, 4125.76923050, 4075.25640991, 4119.99999973, 4057.43589702, 4038.97435856, 4051.79487138, 4057.94871754, 4129.99999973, 4103.33333306, 4132.82051255, 4136.02564082, 4190.64102551,8.57
4124.35897408, 4128.20512793, 4122.82051255, 4052.56410215, 4120.76923050, 4032.30769183, 4013.97435849, 4021.66666618, 4021.79487131, 4128.71794844, 4101.53846119, 4135.51282031, 4133.71794844, 4192.05128192,8.57
4115.89743562, 4122.05128178, 4116.92307665, 4045.12820472, 4119.61538434, 4025.25640977, 4007.30769183, 4005.76923029, 3993.71794817, 4126.79487152, 4096.79487145, 4121.92307665, 4127.17948691, 4191.15384602,8.57
4132.17948691, 4129.10256383, 4132.05128178, 4071.79487145, 4123.58974332, 4052.82051241, 4034.35897388, 4034.99999952, 4027.69230721, 4128.46153819, 4108.46153819, 4144.87179467, 4137.17948697, 4202.82051275,8.57
4112.43589716, 4119.48717921, 4112.56410229, 4078.20512786, 4122.05128178, 4060.38461497, 4045.12820472, 4060.38461497, 4056.53846113, 4128.33333306, 4097.43589709, 4119.23076896, 4126.41025614, 4185.89743576,8.57
4115.12820485, 4123.07692280, 4119.23076896, 4066.41025600, 4120.64102537, 4046.02564061, 4031.66666618, 4059.48717907, 4052.43589702, 4128.33333306, 4099.48717914, 4126.92307665, 4131.79487152, 4195.38461525,8.57
4120.76923050, 4124.74358947, 4124.48717921, 4092.17948684, 4121.41025614, 4058.71794830, 4042.94871754, 4075.38461504, 4075.89743555, 4127.56410229, 4103.07692280, 4130.12820485, 4136.53846133, 4196.66666653,8.57
4113.71794844, 4116.28205101, 4113.07692280, 4130.38461511, 4119.61538434, 4076.02564068, 4059.74358933, 4091.53846119, 4091.79487145, 4125.76923050, 4096.28205094, 4108.20512793, 4128.71794844, 4181.92307679,8.57
4132.82051255, 4130.12820485, 4129.10256383, 4122.05128178, 4123.33333306, 4059.23076882, 4043.20512779, 4068.58974318, 4055.89743548, 4127.17948691, 4105.64102537, 4133.07692280, 4136.66666646, 4192.56410243,8.57
4113.58974332, 4122.69230742, 4117.56410229, 4106.79487152, 4123.84615357, 4052.05128164, 4039.35897395, 4058.46153805, 4047.17948677, 4127.43589716, 4098.07692273, 4111.41025614, 4125.64102537, 4179.10256397,8.57
4114.35897408, 4122.56410229, 4122.43589716, 4107.82051255, 4121.15384588, 4057.56410215, 4047.82051241, 4057.69230728, 4056.66666625, 4129.35897408, 4099.23076889, 4115.25640998, 4127.82051255, 4184.48717935,8.57
4127.43589716, 4130.89743562, 4129.23076896, 4110.12820485, 4123.58974332, 4066.79487138, 4056.15384574, 4055.38461497, 4047.30769189, 4131.41025614, 4103.71794844, 4129.48717921, 4135.25640998, 4188.20512807,8.57
4113.84615357, 4120.64102537, 4116.02564075, 4121.66666639, 4122.43589716, 4091.66666632, 4079.23076889, 4077.82051248, 4063.46153805, 4129.10256383, 4094.10256376, 4104.23076896, 4124.74358947, 4172.69230756,8.57
4131.02564075, 4127.30769203, 4133.58974332, 4126.28205101, 4121.02564075, 4088.97435863, 4080.25640991, 4087.05128171, 4082.94871761, 4128.46153819, 4106.41025614, 4131.28205101, 4133.07692280, 4189.10256397,8.57
4124.74358947, 4123.84615357, 4124.10256383, 4110.38461511, 4121.15384588, 4056.41025600, 4051.02564061, 4062.17948677, 4060.25640984, 4129.35897408, 4107.17948691, 4127.94871767, 4131.53846126, 4185.38461525,8.57
4122.69230742, 4123.97435870, 4122.82051255, 4091.79487145, 4121.79487152, 4040.51282010, 4029.74358926, 4038.46153805, 4026.53846106, 4130.38461511, 4106.79487152, 4126.53846126, 4132.69230742, 4190.64102551,8.57
4132.43589716, 4132.56410229, 4132.56410229, 4097.94871761, 4120.51282024, 4054.87179446, 4040.12820472, 4057.56410215, 4043.71794830, 4130.12820485, 4110.12820485, 4139.99999980, 4137.05128185, 4197.56410243,8.57
4117.82051255, 4121.41025614, 4115.89743562, 4111.28205101, 4117.30769203, 4070.51282017, 4054.74358933, 4086.66666632, 4076.28205094, 4127.56410229, 4099.48717914, 4118.20512793, 4125.76923050, 4182.69230756,8.57
4133.33333306, 4127.17948691, 4127.82051255, 4105.64102537, 4119.74358947, 4059.99999959, 4035.38461490, 4061.02564061, 4055.51282010, 4129.35897408, 4108.84615357, 4140.64102544, 4134.48717921, 4198.33333320,8.57
4123.71794844, 4123.97435870, 4121.02564075, 4109.87179460, 4118.71794844, 4057.94871754, 4030.64102516, 4040.64102523, 4040.89743548, 4133.07692280, 4104.35897408, 4128.46153819, 4131.02564075, 4189.87179474,8.57
4116.02564075, 4118.84615357, 4116.53846126, 4122.94871767, 4119.23076896, 4067.82051241, 4050.76923036, 4053.97435856, 4053.58974318, 4132.17948691, 4100.76923043, 4120.12820485, 4128.20512793, 4187.82051269,8.57
4131.66666639, 4129.48717921, 4127.69230742, 4115.64102537, 4125.51282024, 4068.97435856, 4058.71794830, 4055.38461497, 4050.12820472, 4129.35897408, 4111.02564075, 4143.33333313, 4140.25641005, 4202.17948711,8.57
4111.28205101, 4118.84615357, 4110.25640998, 4111.41025614, 4121.15384588, 4071.53846119, 4064.99999959, 4056.53846113, 4053.46153805, 4127.30769203, 4098.07692273, 4113.20512793, 4129.35897408, 4184.99999986,8.57
4118.46153819, 4122.43589716, 4123.07692280, 4124.61538434, 4120.25640998, 4073.46153812, 4070.51282017, 4072.05128171, 4076.02564068, 4127.05128178, 4103.33333306, 4123.71794844, 4132.30769203, 4193.84615371,8.57
4119.99999973, 4123.97435870, 4122.05128178, 4124.48717921, 4125.38461511, 4067.69230728, 4060.76923036, 4079.87179453, 4080.76923043, 4127.30769203, 4105.64102537, 4123.20512793, 4133.46153819, 4192.82051269,8.57
4113.07692280, 4117.17948691, 4113.71794844, 4116.79487152, 4124.48717921, 4066.41025600, 4055.38461497, 4082.94871761, 4075.12820478, 4128.71794844, 4099.99999966, 4111.79487152, 4127.56410229, 4183.07692294,8.57
4126.53846126, 4126.28205101, 4128.71794844, 4117.94871767, 4123.07692280, 4068.33333292, 4055.64102523, 4081.66666632, 4076.02564068, 4131.15384588, 4108.71794844, 4133.58974332, 4132.43589716, 4188.84615371,8.57
4111.15384588, 4118.84615357, 4116.15384588, 4124.48717921, 4121.28205101, 4065.38461497, 4047.17948677, 4072.82051248, 4075.25640991, 4129.35897408, 4098.07692273, 4105.51282024, 4121.79487152, 4176.79487166,8.57
4121.66666639, 4124.87179460, 4126.92307665, 4124.48717921, 4123.58974332, 4054.99999959, 4027.43589695, 4054.23076882, 4062.05128164, 4130.25640998, 4102.30769196, 4117.69230742, 4128.46153819, 4189.61538448,8.57
4123.46153819, 4127.05128178, 4125.64102537, 4115.25640998, 4123.84615357, 4046.92307651, 4017.05128157, 4031.41025593, 4041.41025600, 4131.02564075, 4105.76923050, 4127.94871767, 4129.99999973, 4185.38461525,8.57
4111.53846126, 4119.23076896, 4115.25640998, 4118.33333306, 4119.99999973, 4050.51282010, 4033.07692259, 4030.12820465, 4036.53846106, 4127.69230742, 4099.74358940, 4111.66666639, 4123.07692280, 4174.10256397,8.57
4133.84615357, 4133.07692280, 4136.79487159, 4137.82051262, 4122.56410229, 4065.38461497, 4060.38461497, 4052.94871754, 4050.51282010, 4127.30769203, 4111.15384588, 4139.61538441, 4138.20512800, 4196.15384602,8.57
4119.74358947, 4124.35897408, 4122.56410229, 4147.69230749, 4122.69230742, 4082.56410222, 4080.12820478, 4077.56410222, 4074.23076889, 4128.20512793, 4103.20512793, 4125.38461511, 4131.41025614, 4188.46153833,8.57
4119.74358947, 4122.94871767, 4122.43589716, 4132.69230742, 4121.02564075, 4073.46153812, 4065.64102523, 4065.25640984, 4068.46153805, 4128.71794844, 4105.25640998, 4133.20512793, 4130.51282024, 4190.51282038,8.57
4129.23076896, 4131.02564075, 4127.82051255, 4113.20512793, 4121.92307665, 4053.33333292, 4039.87179446, 4036.41025593, 4039.87179446, 4128.71794844, 4110.64102537, 4141.02564082, 4134.87179460, 4191.02564089,8.57
4114.74358947, 4122.69230742, 4114.74358947, 4124.23076896, 4121.41025614, 4076.79487145, 4063.71794830, 4065.38461497, 4065.25640984, 4128.58974332, 4102.82051255, 4115.89743562, 4128.20512793, 4185.38461525,8.57
4128.46153819, 4127.56410229, 4128.97435870, 4142.56410236, 4122.43589716, 4101.92307658, 4088.84615350, 4109.74358947, 4111.15384588, 4131.15384588, 4112.30769203, 4142.05128185, 4140.25641005, 4208.07692301,8.57
4118.07692280, 4119.48717921, 4116.92307665, 4127.43589716, 4121.41025614, 4073.46153812, 4053.84615343, 4089.10256376, 4090.89743555, 4129.61538434, 4104.48717921, 4123.97435870, 4131.02564075, 4192.69230756,8.57
4117.69230742, 4120.64102537, 4118.33333306, 4109.99999973, 4120.38461511, 4037.43589702, 4008.58974311, 4038.58974318, 4036.15384567, 4127.17948691, 4100.89743555, 4119.35897408, 4126.41025614, 4189.35897422,8.57
4127.30769203, 4128.71794844, 4127.05128178, 4131.92307665, 4121.02564075, 4051.79487138, 4024.74358926, 4048.71794830, 4045.76923036, 4128.46153819, 4106.02564075, 4138.58974339, 4133.46153819, 4199.87179474,8.57
4113.20512793, 4116.15384588, 4110.25640998, 4155.25641005, 4119.74358947, 4072.82051248, 4057.43589702, 4085.89743555, 4090.25640991, 4129.61538434, 4098.07692273, 4109.61538434, 4122.56410229, 4183.33333320,8.57
4129.48717921, 4126.53846126, 4127.17948691, 4144.61538441, 4123.33333306, 4071.66666632, 4056.79487138, 4079.48717914, 4087.56410222, 4130.25640998, 4107.69230742, 4123.71794844, 4129.61538434, 4188.46153833,8.57
4118.46153819, 4126.53846126, 4123.46153819, 4131.92307665, 4122.30769203, 4086.28205094, 4063.20512779, 4060.38461497, 4065.38461497, 4128.97435870, 4102.56410229, 4117.05128178, 4128.97435870, 4181.02564089,8.57
4112.17948691, 4120.25640998, 4119.10256383, 4133.71794844, 4120.38461511, 4087.43589709, 4068.20512779, 4049.23076882, 4053.07692266, 4127.05128178, 4098.97435863, 4113.71794844, 4129.87179460, 4183.84615371,8.57
4130.12820485, 4128.58974332, 4130.89743562, 4131.92307665, 4125.38461511, 4059.23076882, 4056.53846113, 4055.12820472, 4053.33333292, 4128.33333306, 4109.48717921, 4133.33333306, 4136.41025621, 4192.94871781,8.57
4116.41025614, 4118.84615357, 4119.61538434, 4136.66666646, 4124.10256383, 4064.10256369, 4063.46153805, 4087.30769196, 4077.82051248, 4128.20512793, 4100.51282017, 4109.35897408, 4125.25640998, 4173.58974345,8.57
4128.46153819, 4126.92307665, 4134.48717921, 4150.64102544, 4121.15384588, 4082.82051248, 4069.87179453, 4095.89743555, 4089.99999966, 4127.43589716, 4105.12820485, 4129.87179460, 4133.84615357, 4186.79487166,8.57
4124.74358947, 4130.51282024, 4126.66666639, 4146.41025621, 4120.12820485, 4059.35897395, 4040.25640984, 4061.79487138, 4059.10256369, 4126.66666639, 4104.74358947, 4127.30769203, 4132.94871767, 4188.84615371,8.57
4116.66666639, 4123.46153819, 4118.33333306, 4138.07692287, 4121.02564075, 4044.87179446, 4021.79487131, 4044.35897395, 4039.48717907, 4125.51282024, 4105.25640998, 4118.20512793, 4128.97435870, 4186.79487166,8.57
4134.10256383, 4130.51282024, 4135.25640998, 4152.05128185, 4124.23076896, 4073.58974325, 4043.71794830, 4062.43589702, 4056.15384574, 4126.79487152, 4117.69230742, 4145.38461518, 4140.38461518, 4199.61538448,8.57
4116.15384588, 4121.02564075, 4117.94871767, 4173.58974345, 4121.92307665, 4096.28205094, 4068.46153805, 4083.33333299, 4076.66666632, 4127.43589716, 4104.48717921, 4120.51282024, 4128.46153819, 4184.99999986,8.57
4123.84615357, 4127.56410229, 4124.35897408, 4178.84615371, 4122.56410229, 4087.43589709, 4068.46153805, 4081.28205094, 4082.17948684, 4128.84615357, 4108.71794844, 4132.69230742, 4129.87179460, 4194.23076910,8.57
4126.92307665, 4126.53846126, 4126.53846126, 4170.76923063, 4124.48717921, 4070.64102530, 4056.66666625, 4067.05128164, 4077.43589709, 4130.12820485, 4112.05128178, 4135.89743569, 4132.56410229, 4194.99999986,8.57
4112.82051255, 4111.41025614, 4115.12820485, 4154.48717928, 4121.28205101, 4061.92307651, 4046.92307651, 4057.17948677, 4058.20512779, 4126.41025614, 4101.41025607, 4116.28205101, 4126.79487152, 4189.61538448,8.57
4127.82051255, 4122.05128178, 4126.15384588, 4154.10256390, 4121.41025614, 4069.99999966, 4049.23076882, 4056.53846113, 4044.61538420, 4124.35897408, 4108.71794844, 4139.74358954, 4135.76923056, 4202.69230763,8.57
4114.10256383, 4120.25640998, 4113.33333306, 4171.41025628, 4120.89743562, 4085.89743555, 4059.87179446, 4062.30769189, 4056.53846113, 4127.05128178, 4101.66666632, 4115.76923050, 4127.94871767, 4185.76923063,8.57
4116.79487152, 4122.17948691, 4123.46153819, 4166.79487159, 4122.43589716, 4077.94871761, 4058.71794830, 4061.41025600, 4059.23076882, 4131.15384588, 4102.56410229, 4116.53846126, 4128.20512793, 4190.89743576,8.57
4119.87179460, 4121.53846126, 4128.84615357, 4165.51282031, 4123.71794844, 4077.17948684, 4071.66666632, 4076.79487145, 4070.25640991, 4130.76923050, 4104.99999973, 4123.07692280, 4129.61538434, 4191.92307679,8.57
4107.69230742, 4115.12820485, 4115.38461511, 4181.41025628, 4119.99999973, 4087.30769196, 4078.46153812, 4091.02564068, 4089.87179453, 4128.58974332, 4098.20512786, 4102.69230742, 4123.84615357, 4178.84615371,8.57
4127.82051255, 4131.02564075, 4129.87179460, 4170.25641012, 4122.56410229, 4063.46153805, 4046.53846113, 4074.23076889, 4072.43589709, 4129.74358947, 4110.25640998, 4127.30769203, 4133.33333306, 4192.30769217,8.57
4116.53846126, 4122.30769203, 4119.48717921, 4159.61538441, 4122.30769203, 4050.25640984, 4037.43589702, 4061.15384574, 4047.30769189, 4130.64102537, 4105.38461511, 4112.17948691, 4122.56410229, 4178.33333320,8.57
4119.74358947, 4122.82051255, 4124.10256383, 4192.17948704, 4121.02564075, 4081.92307658, 4068.20512779, 4072.94871761, 4066.41025600, 4131.41025614, 4106.15384588, 4118.58974332, 4125.38461511, 4182.56410243,8.57
4132.94871767, 4136.79487159, 4131.53846126, 4213.20512814, 4122.17948691, 4101.53846119, 4081.66666632, 4084.35897402, 4095.64102530, 4128.84615357, 4112.17948691, 4138.58974339, 4136.15384595, 4191.79487166,8.57
4115.25640998, 4122.43589716, 4116.53846126, 4185.89743576, 4121.15384588, 4077.82051248, 4058.71794830, 4069.48717907, 4070.51282017, 4125.89743562, 4102.94871767, 4114.10256383, 4124.99999973, 4177.43589730,8.57
4128.33333306, 4124.74358947, 4133.97435870, 4173.58974345, 4123.84615357, 4066.28205087, 4052.56410215, 4057.94871754, 4045.76923036, 4128.71794844, 4109.48717921, 4138.58974339, 4131.92307665, 4194.23076910,8.57
4121.79487152, 4126.79487152, 4125.89743562, 4201.66666660, 4123.84615357, 4098.97435863, 4092.17948684, 4092.56410222, 4088.20512786, 4128.97435870, 4103.58974332, 4134.35897408, 4131.53846126, 4189.74358961,8.57
4119.48717921, 4125.25640998, 4122.30769203, 4205.76923070, 4122.69230742, 4102.43589709, 4099.87179453, 4114.61538434, 4108.97435870, 4126.92307665, 4103.07692280, 4128.84615357, 4133.20512793, 4189.48717935,8.57
4131.53846126, 4128.33333306, 4132.05128178, 4171.66666653, 4122.30769203, 4060.25640984, 4052.17948677, 4072.05128171, 4060.38461497, 4130.12820485, 4110.12820485, 4139.61538441, 4138.20512800, 4198.71794858,8.57
4113.07692280, 4119.10256383, 4114.87179460, 4170.51282038, 4119.87179460, 4064.35897395, 4051.92307651, 4063.58974318, 4056.41025600, 4130.51282024, 4098.58974325, 4111.41025614, 4122.82051255, 4184.99999986,8.57
4125.25640998, 4128.58974332, 4127.43589716, 4193.84615371, 4123.71794844, 4097.69230735, 4081.15384581, 4096.28205094, 4087.17948684, 4130.12820485, 4107.17948691, 4135.64102544, 4134.35897408, 4199.74358961,8.57
4119.99999973, 4124.23076896, 4121.79487152, 4187.17948704, 4123.20512793, 4088.07692273, 4056.15384574, 4065.38461497, 4053.58974318, 4131.41025614, 4103.71794844, 4129.10256383, 4138.97435877, 4193.84615371,8.57
4111.28205101, 4116.15384588, 4113.71794844, 4176.28205115, 4119.61538434, 4063.20512779, 4031.41025593, 4022.69230721, 4019.99999952, 4129.99999973, 4098.33333299, 4112.69230742, 4131.28205101, 4187.56410243,8.57
4127.43589716, 4127.30769203, 4128.07692280, 4185.25641012, 4122.94871767, 4070.38461504, 4056.28205087, 4048.46153805, 4051.28205087, 4127.82051255, 4110.89743562, 4138.58974339, 4136.79487159, 4199.61538448,8.57
4112.94871767, 4118.97435870, 4112.43589716, 4179.99999986, 4121.28205101, 4077.30769196, 4068.71794830, 4067.43589702, 4066.79487138, 4126.66666639, 4102.56410229, 4112.05128178, 4127.69230742, 4183.33333320,8.57
4120.89743562, 4124.99999973, 4122.30769203, 4177.30769217, 4119.74358947, 4069.23076882, 4057.94871754, 4058.58974318, 4057.94871754, 4130.38461511, 4103.58974332, 4115.12820485, 4131.15384588, 4187.94871781,8.57
4119.23076896, 4127.94871767, 4124.99999973, 4207.43589737, 4122.05128178, 4084.35897402, 4079.87179453, 4094.10256376, 4094.23076889, 4132.94871767, 4102.69230742, 4116.41025614, 4129.48717921, 4183.58974345,8.57
4110.89743562, 4118.58974332, 4119.48717921, 4212.56410250, 4121.79487152, 4090.51282017, 4088.97435863, 4107.94871767, 4107.56410229, 4130.38461511, 4099.61538427, 4107.30769203, 4122.17948691, 4177.30769217,8.57
4131.53846126, 4127.30769203, 4137.17948697, 4181.02564089, 4123.97435870, 4066.02564061, 4052.17948677, 4059.61538420, 4064.61538420, 4129.74358947, 4111.66666639, 4135.89743569, 4131.79487152, 4191.79487166,8.57
4116.92307665, 4121.79487152, 4119.61538434, 4175.76923063, 4121.79487152, 4066.41025600, 4048.33333292, 4059.35897395, 4067.69230728, 4128.20512793, 4104.99999973, 4115.12820485, 4125.25640998, 4175.64102551,8.57
4120.89743562, 4125.64102537, 4121.41025614, 4188.84615371, 4119.87179460, 4078.71794837, 4068.20512779, 4094.35897402, 4095.38461504, 4127.30769203, 4109.10256383, 4124.35897408, 4130.64102537, 4184.23076910,8.57
4126.53846126, 4127.69230742, 4126.28205101, 4187.05128192, 4121.79487152, 4070.51282017, 4064.61538420, 4085.76923043, 4082.56410222, 4127.69230742, 4108.97435870, 4133.33333306, 4132.69230742, 4191.92307679,8.57
4115.25640998, 4119.23076896, 4118.58974332, 4193.07692294, 4120.76923050, 4075.51282017, 4065.12820472, 4077.30769196, 4084.35897402, 4126.53846126, 4100.89743555, 4113.84615357, 4124.23076896, 4183.20512807,8.57
4134.35897408, 4131.66666639, 4136.02564082, 4201.53846147, 4120.25640998, 4084.74358940, 4065.12820472, 4090.12820478, 4101.41025607, 4128.58974332, 4116.02564075, 4143.71794851, 4137.94871774, 4198.46153833,8.57
4119.74358947, 4121.66666639, 4119.87179460, 4189.10256397, 4120.25640998, 4068.20512779, 4047.82051241, 4080.64102530, 4077.30769196, 4130.25640998, 4108.07692280, 4126.15384588, 4129.74358947, 4187.05128192,8.57
4118.71794844, 4121.41025614, 4120.25640998, 4185.89743576, 4123.58974332, 4061.15384574, 4047.30769189, 4071.92307658, 4057.94871754, 4129.10256383, 4105.25640998, 4124.61538434, 4127.69230742, 4190.51282038,8.57
4130.25640998, 4132.17948691, 4127.56410229, 4198.97435884, 4124.48717921, 4078.71794837, 4065.76923036, 4093.84615350, 4086.53846119, 4126.92307665, 4112.56410229, 4139.61538441, 4136.79487159, 4199.48717935,8.57
4113.20512793, 4117.43589716, 4111.15384588, 4190.25641012, 4121.79487152, 4079.61538427, 4056.15384574, 4088.20512786, 4089.74358940, 4127.30769203, 4102.05128171, 4114.87179460, 4127.43589716, 4188.71794858,8.57
4127.05128178, 4123.84615357, 4128.33333306, 4175.89743576, 4125.38461511, 4069.10256369, 4036.92307651, 4055.25640984, 4057.43589702, 4130.25640998, 4106.41025614, 4134.87179460, 4133.71794844, 4201.41025634,8.57
4118.58974332, 4123.97435870, 4120.38461511, 4196.66666653, 4125.25640998, 4091.28205094, 4059.61538420, 4081.53846119, 4082.43589709, 4128.46153819, 4100.64102530, 4122.43589716, 4130.76923050, 4191.92307679,8.57
4116.28205101, 4120.38461511, 4116.79487152, 4206.66666660, 4123.33333306, 4093.97435863, 4063.20512779, 4105.51282024, 4106.66666639, 4125.51282024, 4101.15384581, 4117.17948691, 4129.74358947, 4188.58974345,8.57
4128.71794844, 4127.56410229, 4130.12820485, 4179.48717935, 4124.74358947, 4062.56410215, 4035.89743541, 4079.23076889, 4077.05128171, 4126.15384588, 4109.48717921, 4130.38461511, 4134.61538434, 4189.61538448,8.57
4109.87179460, 4117.05128178, 4117.82051255, 4174.10256397, 4122.56410229, 4064.48717907, 4041.41025600, 4076.79487145, 4071.66666632, 4127.17948691, 4099.99999966, 4102.43589709, 4123.07692280, 4174.87179474,8.57
4124.23076896, 4124.48717921, 4129.74358947, 4190.89743576, 4123.58974332, 4082.43589709, 4052.69230728, 4080.64102530, 4077.05128171, 4127.56410229, 4108.71794844, 4126.66666639, 4131.41025614, 4193.71794858,8.57
4122.05128178, 4125.89743562, 4124.23076896, 4195.89743576, 4123.71794844, 4091.66666632, 4066.53846113, 4085.89743555, 4083.58974325, 4127.05128178, 4107.94871767, 4123.33333306, 4128.20512793, 4186.28205115,8.57
4113.97435870, 4122.56410229, 4121.02564075, 4191.02564089, 4121.53846126, 4092.05128171, 4080.76923043, 4110.12820485, 4107.43589716, 4129.23076896, 4103.20512793, 4109.35897408, 4123.97435870, 4179.87179474,8.57
4126.92307665, 4130.89743562, 4134.10256383, 4182.56410243, 4123.97435870, 4073.71794837, 4054.35897395, 4095.76923043, 4090.89743555, 4130.51282024, 4112.82051255, 4132.82051255, 4133.97435870, 4194.99999986,8.57
4114.48717921, 4121.92307665, 4118.07692280, 4181.79487166, 4122.82051255, 4064.99999959, 4036.41025593, 4067.17948677, 4056.79487138, 4127.05128178, 4105.76923050, 4114.99999973, 4127.17948691, 4180.89743576,8.57
4127.94871767, 4130.51282024, 4130.25640998, 4201.66666660, 4123.97435870, 4089.10256376, 4066.92307651, 4091.79487145, 4086.53846119, 4127.17948691, 4110.64102537, 4130.38461511, 4133.84615357, 4188.46153833,8.57
4125.51282024, 4129.74358947, 4125.89743562, 4219.87179481, 4125.76923050, 4113.58974332, 4086.79487145, 4117.82051255, 4125.64102537, 4128.84615357, 4107.17948691, 4129.99999973, 4131.15384588, 4186.41025628,8.57
4116.02564075, 4119.74358947, 4115.25640998, 4214.10256404, 4121.28205101, 4095.89743555, 4069.87179453, 4101.53846119, 4103.84615357, 4126.92307665, 4102.05128171, 4120.38461511, 4125.51282024, 4183.97435884,8.57
4134.87179460, 4131.92307665, 4131.53846126, 4196.53846140, 4121.02564075, 4059.87179446, 4048.46153805, 4078.71794837, 4067.30769189, 4126.41025614, 4116.53846126, 4146.41025621, 4139.10256390, 4200.51282038,8.57
4114.99999973, 4123.71794844, 4114.10256383, 4183.58974345, 4122.30769203, 4053.97435856, 4033.07692259, 4057.17948677, 4050.12820472, 4125.64102537, 4106.92307665, 4116.02564075, 4128.84615357, 4186.41025628,8.57
4118.07692280, 4123.46153819, 4119.61538434, 4183.33333320, 4123.20512793, 4067.30769189, 4034.87179439, 4048.33333292, 4044.61538420, 4127.43589716, 4106.28205101, 4125.12820485, 4129.61538434, 4196.02564089,8.57
4125.89743562, 4126.66666639, 4123.97435870, 4192.82051269, 4124.10256383, 4071.28205094, 4057.69230728, 4073.71794837, 4062.05128164, 4129.74358947, 4108.71794844, 4138.33333313, 4135.12820485, 4199.74358961,8.57
4112.43589716, 4119.10256383, 4112.05128178, 4203.84615378, 4123.07692280, 4077.05128171, 4073.20512786, 4101.28205094, 4090.12820478, 4127.82051255, 4101.41025607, 4113.84615357, 4128.46153819, 4188.46153833,8.57
4123.07692280, 4126.28205101, 4126.66666639, 4204.87179481, 4123.20512793, 4091.92307658, 4070.38461504, 4096.79487145, 4094.48717914, 4125.51282024, 4109.48717921, 4129.74358947, 4132.56410229, 4197.17948704,8.57
4111.02564075, 4117.56410229, 4115.64102537, 4195.12820499, 4121.53846126, 4097.56410222, 4064.35897395, 4075.51282017, 4077.82051248, 4124.99999973, 4102.30769196, 4113.33333306, 4124.74358947, 4183.46153833,8.57
4119.74358947, 4120.76923050, 4122.05128178, 4187.82051269, 4124.23076896, 4079.35897402, 4053.84615343, 4061.15384574, 4065.38461497, 4128.20512793, 4103.84615357, 4119.74358947, 4130.12820485, 4187.94871781,8.57
4127.05128178, 4127.43589716, 4128.58974332, 4184.61538448, 4125.89743562, 4058.84615343, 4045.76923036, 4062.05128164, 4061.02564061, 4130.12820485, 4108.33333306, 4123.58974332, 4130.64102537, 4187.17948704,8.57
4110.12820485, 4117.17948691, 4116.28205101, 4175.12820499, 4121.28205101, 4058.58974318, 4045.12820472, 4066.02564061, 4056.66666625, 4127.17948691, 4100.76923043, 4100.51282017, 4118.20512793, 4175.89743576,8.57
4130.25640998, 4129.61538434, 4132.94871767, 4169.99999986, 4124.48717921, 4079.10256376, 4047.56410215, 4061.53846113, 4056.41025600, 4128.71794844, 4111.41025614, 4134.87179460, 4135.51282031, 4194.35897422,8.57
4123.20512793, 4128.58974332, 4122.17948691, 4192.69230756, 4126.92307665, 4107.56410229, 4069.23076882, 4079.87179453, 4080.25640991, 4128.33333306, 4104.48717921, 4124.35897408, 4131.92307665, 4181.92307679,8.57
4121.41025614, 4125.76923050, 4122.82051255, 4208.58974352, 4125.25640998, 4108.07692280, 4082.56410222, 4105.25640998, 4099.61538427, 4125.89743562, 4104.48717921, 4120.64102537, 4124.48717921, 4183.71794858,8.57
4130.76923050, 4132.17948691, 4134.61538434, 4191.92307679, 4123.71794844, 4090.89743555, 4064.10256369, 4094.48717914, 4086.02564068, 4127.30769203, 4114.74358947, 4140.12820492, 4132.43589716, 4196.28205115,8.57
4114.10256383, 4122.94871767, 4118.33333306, 4178.20512807, 4121.41025614, 4085.76923043, 4049.61538420, 4075.12820478, 4069.10256369, 4127.30769203, 4104.10256383, 4118.71794844, 4127.94871767, 4183.46153833,8.57
4129.48717921, 4132.69230742, 4128.58974332, 4174.48717935, 4124.99999973, 4073.46153812, 4047.17948677, 4072.17948684, 4063.58974318, 4128.97435870, 4111.15384588, 4138.71794851, 4135.38461518, 4197.30769217,8.57
4124.23076896, 4129.35897408, 4122.94871767, 4173.46153833, 4124.48717921, 4066.66666625, 4047.56410215, 4069.74358940, 4061.02564061, 4129.48717921, 4108.20512793, 4127.69230742, 4129.61538434, 4190.51282038,8.57
4118.07692280, 4123.20512793, 4122.69230742, 4179.48717935, 4121.79487152, 4087.05128171, 4049.10256369, 4051.15384574, 4041.92307651, 4127.05128178, 4106.28205101, 4121.41025614, 4128.71794844, 4189.74358961,8.57
4129.10256383, 4130.76923050, 4132.43589716, 4176.28205115, 4124.23076896, 4091.28205094, 4042.43589702, 4033.20512772, 4021.66666618, 4128.46153819, 4114.61538434, 4142.17948697, 4138.33333313, 4202.56410250,8.57
4114.61538434, 4120.51282024, 4113.71794844, 4176.15384602, 4124.35897408, 4075.89743555, 4047.69230728, 4053.97435856, 4052.05128164, 4128.97435870, 4101.28205094, 4113.46153819, 4126.02564075, 4186.15384602,8.57
4125.89743562, 4125.25640998, 4122.94871767, 4194.10256397, 4125.51282024, 4082.56410222, 4071.53846119, 4092.17948684, 4093.20512786, 4126.28205101, 4107.05128178, 4130.51282024, 4131.66666639, 4194.48717935,8.57
4116.41025614, 4122.17948691, 4117.56410229, 4194.23076910, 4123.58974332, 4091.15384581, 4076.41025607, 4103.46153819, 4090.12820478, 4125.12820485, 4107.43589716, 4128.33333306, 4131.41025614, 4191.28205115,8.57
4108.58974332, 4117.17948691, 4112.69230742, 4167.30769210, 4121.41025614, 4072.56410222, 4048.33333292, 4076.53846119, 4062.17948677, 4127.56410229, 4101.41025607, 4107.56410229, 4126.66666639, 4185.38461525,8.57
4133.07692280, 4131.79487152, 4130.89743562, 4159.87179467, 4123.97435870, 4061.15384574, 4037.94871754, 4065.38461497, 4059.35897395, 4128.07692280, 4108.71794844, 4127.43589716, 4133.71794844, 4193.71794858,8.57
4115.64102537, 4122.05128178, 4116.15384588, 4196.66666653, 4123.71794844, 4096.92307658, 4086.66666632, 4124.74358947, 4114.87179460, 4127.17948691, 4099.35897402, 4109.23076896, 4122.56410229, 4175.76923063,8.57
4118.20512793, 4122.94871767, 4125.38461511, 4217.05128199, 4125.89743562, 4116.66666639, 4108.46153819, 4148.84615364, 4138.97435877, 4130.76923050, 4105.51282024, 4121.79487152, 4128.84615357, 4185.12820499,8.57
4122.17948691, 4127.69230742, 4127.82051255, 4183.20512807, 4126.15384588, 4084.87179453, 4064.35897395, 4078.46153812, 4075.76923043, 4131.41025614, 4111.15384588, 4121.92307665, 4130.64102537, 4185.76923063,8.57
4112.17948691, 4121.92307665, 4119.99999973, 4151.79487159, 4123.33333306, 4056.28205087, 4035.89743541, 4038.97435856, 4032.43589695, 4128.84615357, 4104.74358947, 4105.76923050, 4121.53846126, 4175.51282038,8.57
4129.87179460, 4131.28205101, 4139.10256390, 4164.61538441, 4126.41025614, 4056.66666625, 4054.23076882, 4072.05128171, 4061.66666625, 4130.38461511, 4110.51282024, 4137.43589723, 4134.87179460, 4192.43589730,8.57
4120.76923050, 4123.71794844, 4123.07692280, 4188.97435884, 4124.48717921, 4075.76923043, 4074.10256376, 4088.20512786, 4085.25640991, 4129.10256383, 4104.61538434, 4120.51282024, 4131.02564075, 4183.97435884,8.57
4125.51282024, 4127.56410229, 4124.10256383, 4194.74358961, 4121.66666639, 4090.25640991, 4071.41025607, 4081.28205094, 4086.28205094, 4126.66666639, 4111.92307665, 4124.87179460, 4129.87179460, 4188.58974345,8.57
4127.69230742, 4131.41025614, 4129.61538434, 4196.92307679, 4124.87179460, 4097.30769196, 4076.92307658, 4091.41025607, 4096.28205094, 4128.07692280, 4113.46153819, 4135.76923056, 4132.82051255, 4191.66666653,8.57
4114.23076896, 4117.94871767, 4117.05128178, 4196.15384602, 4124.10256383, 4095.25640991, 4086.15384581, 4096.66666632, 4096.53846119, 4127.56410229, 4101.66666632, 4115.25640998, 4127.94871767, 4184.99999986,8.57
4132.30769203, 4130.64102537, 4130.25640998, 4180.38461525, 4122.69230742, 4082.17948684, 4075.12820478, 4086.66666632, 4087.17948684, 4126.79487152, 4114.48717921, 4139.48717928, 4138.58974339, 4202.43589737,8.57
4117.30769203, 4126.41025614, 4116.66666639, 4170.76923063, 4121.79487152, 4085.25640991, 4073.71794837, 4088.84615350, 4086.28205094, 4127.05128178, 4110.64102537, 4123.84615357, 4132.56410229, 4189.61538448,8.57
4117.56410229, 4120.89743562, 4121.53846126, 4171.79487166, 4123.97435870, 4091.15384581, 4083.97435863, 4098.20512786, 4082.17948684, 4128.07692280, 4107.17948691, 4125.25640998, 4129.23076896, 4193.07692294,8.57
4129.48717921, 4127.05128178, 4131.79487152, 4177.56410243, 4126.28205101, 4084.87179453, 4079.87179453, 4093.46153812, 4087.56410222, 4130.51282024, 4110.12820485, 4138.46153826, 4131.66666639, 4202.69230763,8.57
4105.89743562, 4118.07692280, 4109.48717921, 4194.48717935, 4123.71794844, 4095.25640991, 4086.41025607, 4098.58974325, 4115.25640998, 4131.02564075, 4100.76923043, 4104.99999973, 4121.53846126, 4185.38461525,8.57
4118.71794844, 4126.79487152, 4120.89743562, 4200.38461525, 4124.99999973, 4109.35897408, 4098.46153812, 4106.53846126, 4114.35897408, 4128.97435870, 4110.76923050, 4124.35897408, 4131.92307665, 4194.61538448,8.57
4117.82051255, 4124.48717921, 4119.74358947, 4183.71794858, 4124.74358947, 4094.48717914, 4077.17948684, 4087.69230735, 4070.76923043, 4127.05128178, 4107.94871767, 4117.69230742, 4130.89743562, 4185.38461525,8.57
4114.48717921, 4122.05128178, 4120.76923050, 4179.10256397, 4127.30769203, 4074.74358940, 4061.41025600, 4080.51282017, 4059.74358933, 4128.97435870, 4105.51282024, 4111.79487152, 4128.58974332, 4184.10256397,8.57
4127.43589716, 4130.76923050, 4133.97435870, 4184.74358961, 4131.41025614, 4080.12820478, 4077.56410222, 4099.10256376, 4087.94871761, 4129.87179460, 4116.53846126, 4130.89743562, 4132.30769203, 4191.79487166,8.57
4112.69230742, 4120.38461511, 4119.99999973, 4169.99999986, 4121.66666639, 4085.38461504, 4075.89743555, 4096.41025607, 4088.84615350, 4127.43589716, 4108.97435870, 4105.38461511, 4120.76923050, 4173.84615371,8.57
4126.66666639, 4126.53846126, 4131.92307665, 4170.64102551, 4119.35897408, 4087.94871761, 4071.92307658, 4094.61538427, 4090.89743555, 4128.97435870, 4113.84615357, 4127.30769203, 4130.76923050, 4189.23076910,8.57
4126.41025614, 4128.33333306, 4129.10256383, 4198.84615371, 4125.76923050, 4108.33333306, 4103.33333306, 4131.53846126, 4132.43589716, 4129.61538434, 4110.51282024, 4128.58974332, 4128.33333306, 4186.28205115,8.57
4118.84615357, 4122.94871767, 4124.35897408, 4194.48717935, 4124.35897408, 4104.35897408, 4100.89743555, 4126.41025614, 4123.84615357, 4126.15384588, 4106.15384588, 4114.74358947, 4121.92307665, 4178.84615371,8.57
4131.53846126, 4128.97435870, 4134.99999973, 4171.66666653, 4122.17948691, 4071.15384581, 4058.58974318, 4067.94871754, 4061.53846113, 4127.82051255, 4116.53846126, 4139.23076903, 4136.15384595, 4195.51282038,8.57
4112.56410229, 4114.74358947, 4116.02564075, 4171.53846140, 4123.33333306, 4063.71794830, 4052.30769189, 4047.43589702, 4040.12820472, 4129.74358947, 4106.28205101, 4119.87179460, 4127.30769203, 4185.51282038,8.57
4123.71794844, 4123.46153819, 4128.46153819, 4183.84615371, 4125.38461511, 4093.46153812, 4084.74358940, 4083.97435863, 4076.79487145, 4128.71794844, 4112.30769203, 4130.64102537, 4129.48717921, 4192.56410243,8.57
4127.94871767, 4133.07692280, 4129.23076896, 4186.79487166, 4123.46153819, 4110.38461511, 4102.30769196, 4116.15384588, 4113.07692280, 4128.07692280, 4116.79487152, 4129.48717921, 4131.53846126, 4188.97435884,8.57
4113.46153819, 4119.35897408, 4113.58974332, 4174.61538448, 4122.05128178, 4087.82051248, 4075.25640991, 4087.94871761, 4091.92307658, 4128.84615357, 4108.58974332, 4114.23076896, 4127.43589716, 4185.38461525,8.57
4129.35897408, 4127.17948691, 4128.84615357, 4183.46153833, 4125.38461511, 4084.23076889, 4064.74358933, 4063.71794830, 4069.23076882, 4129.35897408, 4114.87179460, 4143.58974339, 4139.74358954, 4203.97435891,8.57
4117.30769203, 4123.84615357, 4116.28205101, 4206.15384609, 4123.46153819, 4106.66666639, 4096.66666632, 4098.84615350, 4092.05128171, 4127.69230742, 4104.99999973, 4116.66666639, 4128.58974332, 4187.82051269,8.57
4121.28205101, 4121.02564075, 4119.48717921, 4182.69230756, 4124.35897408, 4080.12820478, 4076.53846119, 4088.20512786, 4072.56410222, 4128.71794844, 4106.02564075, 4115.51282024, 4127.56410229, 4190.12820499,8.57
4124.23076896, 4122.43589716, 4122.69230742, 4167.05128185, 4127.94871767, 4067.82051241, 4054.99999959, 4063.20512779, 4060.38461497, 4131.15384588, 4108.20512793, 4127.30769203, 4131.79487152, 4194.35897422,8.57
4107.05128178, 4117.82051255, 4110.25640998, 4210.76923070, 4124.61538434, 4123.97435870, 4115.12820485, 4129.74358947, 4137.82051262, 4129.87179460, 4101.92307658, 4106.28205101, 4123.46153819, 4183.71794858,8.57
4122.17948691, 4130.25640998, 4128.84615357, 4207.05128199, 4123.84615357, 4114.35897408, 4115.38461511, 4143.07692287, 4134.10256383, 4130.38461511, 4111.15384588, 4125.25640998, 4134.61538434, 4192.82051269,8.57
4113.71794844, 4123.58974332, 4121.02564075, 4154.48717928, 4124.10256383, 4053.33333292, 4048.58974318, 4061.79487138, 4034.99999952, 4130.12820485, 4104.35897408, 4109.99999973, 4130.89743562, 4180.51282038,8.57
4117.82051255, 4123.07692280, 4124.48717921, 4165.64102544, 4125.89743562, 4072.69230735, 4064.35897395, 4064.35897395, 4043.58974318, 4128.58974332, 4108.71794844, 4116.53846126, 4128.71794844, 4184.87179474,8.57
4126.15384588, 4129.87179460, 4133.84615357, 4186.66666653, 4128.20512793, 4103.84615357, 4093.46153812, 4102.17948684, 4090.89743555, 4127.69230742, 4114.61538434, 4128.97435870, 4129.61538434, 4188.20512807,8.57
4111.02564075, 4119.61538434, 4119.10256383, 4167.82051262, 4124.10256383, 4080.38461504, 4061.66666625, 4067.82051241, 4059.10256369, 4127.82051255, 4103.33333306, 4102.82051255, 4122.56410229, 4175.12820499,8.57
4130.51282024, 4129.10256383, 4131.66666639, 4175.51282038, 4124.35897408, 4079.61538427, 4066.79487138, 4061.41025600, 4049.48717907, 4131.15384588, 4115.64102537, 4131.92307665, 4135.38461518, 4192.69230756,8.57
4121.53846126, 4124.87179460, 4122.43589716, 4199.23076910, 4126.66666639, 4112.05128178, 4109.48717921, 4107.30769203, 4089.74358940, 4129.87179460, 4113.33333306, 4125.89743562, 4128.97435870, 4182.17948704,8.57
4117.69230742, 4122.43589716, 4121.41025614, 4181.92307679, 4127.30769203, 4096.15384581, 4085.12820478, 4092.43589709, 4084.87179453, 4127.43589716, 4111.92307665, 4121.41025614, 4126.66666639, 4180.89743576,8.57
4134.35897408, 4133.71794844, 4131.92307665, 4168.33333320, 4126.02564075, 4077.56410222, 4062.94871754, 4083.20512786, 4084.99999966, 4129.23076896, 4122.30769203, 4142.30769210, 4138.84615364, 4196.02564089,8.57
4115.51282024, 4120.76923050, 4112.56410229, 4187.82051269, 4121.92307665, 4107.05128178, 4104.87179460, 4138.71794851, 4124.10256383, 4128.46153819, 4110.25640998, 4114.48717921, 4127.82051255, 4181.02564089,8.57
4125.89743562, 4126.28205101, 4124.87179460, 4174.10256397, 4124.23076896, 4101.79487145, 4096.79487145, 4121.15384588, 4092.69230735, 4128.84615357, 4113.97435870, 4132.05128178, 4131.41025614, 4190.76923063,8.57
4123.84615357, 4128.33333306, 4122.17948691, 4144.23076903, 4126.41025614, 4066.92307651, 4056.41025600, 4063.84615343, 4050.64102523, 4131.15384588, 4113.97435870, 4133.46153819, 4132.17948691, 4190.64102551,8.57
4111.92307665, 4118.58974332, 4115.89743562, 4161.02564082, 4124.35897408, 4073.84615350, 4071.79487145, 4083.71794837, 4082.17948684, 4131.66666639, 4109.48717921, 4120.64102537, 4129.74358947, 4191.02564089,8.57
4126.66666639, 4126.02564075, 4128.46153819, 4189.23076910, 4125.89743562, 4101.79487145, 4098.33333299, 4112.82051255, 4102.56410229, 4130.76923050, 4118.97435870, 4137.17948697, 4138.33333313, 4201.53846147,8.57
4112.69230742, 4120.76923050, 4112.05128178, 4190.76923063, 4126.41025614, 4115.89743562, 4102.56410229, 4104.99999973, 4093.71794837, 4129.74358947, 4109.10256383, 4111.15384588, 4125.89743562, 4182.82051269,8.57
4117.17948691, 4122.94871767, 4121.28205101, 4179.87179474, 4126.15384588, 4103.58974332, 4091.92307658, 4094.87179453, 4089.87179453, 4130.64102537, 4107.82051255, 4121.28205101, 4126.53846126, 4188.97435884,8.57
4114.74358947, 4121.15384588, 4123.33333306, 4171.28205115, 4122.56410229, 4075.12820478, 4075.89743555, 4095.64102530, 4085.76923043, 4129.23076896, 4106.02564075, 4120.12820485, 4129.35897408, 4185.89743576,8.57
4109.35897408, 4117.05128178, 4116.79487152, 4166.28205108, 4121.41025614, 4061.66666625, 4068.46153805, 4088.58974325, 4075.12820478, 4126.79487152, 4103.97435870, 4103.58974332, 4127.56410229, 4177.82051269,8.57
4131.53846126, 4131.28205101, 4131.66666639, 4172.56410243, 4128.97435870, 4080.64102530, 4078.97435863, 4085.89743555, 4078.58974325, 4128.33333306, 4115.89743562, 4128.97435870, 4134.10256383, 4191.15384602,8.57
4114.61538434, 4122.82051255, 4114.87179460, 4184.23076910, 4127.43589716, 4101.15384581, 4093.71794837, 4107.56410229, 4099.48717914, 4128.33333306, 4107.56410229, 4109.87179460, 4121.15384588, 4177.43589730,8.57
4119.23076896, 4123.33333306, 4123.71794844, 4193.07692294, 4122.17948691, 4096.66666632, 4098.33333299, 4127.30769203, 4110.64102537, 4127.69230742, 4112.69230742, 4119.99999973, 4127.82051255, 4184.99999986,8.57
4128.33333306, 4128.71794844, 4131.92307665, 4194.61538448, 4123.84615357, 4090.38461504, 4092.69230735, 4112.82051255, 4096.66666632, 4128.71794844, 4115.38461511, 4130.64102537, 4133.84615357, 4187.43589730,8.57
4114.35897408, 4119.99999973, 4116.79487152, 4189.74358961, 4124.61538434, 4093.71794837, 4088.97435863, 4102.05128171, 4091.28205094, 4128.71794844, 4104.74358947, 4112.05128178, 4123.07692280, 4177.69230756,8.57
4131.66666639, 4129.99999973, 4132.82051255, 4177.56410243, 4125.76923050, 4091.02564068, 4087.69230735, 4108.33333306, 4096.66666632, 4126.92307665, 4117.30769203, 4139.10256390, 4133.71794844, 4196.41025628,8.57
4123.07692280, 4123.07692280, 4124.74358947, 4169.35897422, 4124.35897408, 4088.20512786, 4077.05128171, 4082.56410222, 4066.41025600, 4125.25640998, 4111.66666639, 4123.33333306, 4129.35897408, 4186.66666653,8.57
4123.71794844, 4122.94871767, 4124.87179460, 4181.79487166, 4124.23076896, 4089.99999966, 4075.76923043, 4057.94871754, 4049.87179446, 4128.46153819, 4110.89743562, 4127.69230742, 4131.28205101, 4191.41025628,8.57
4130.25640998, 4131.28205101, 4129.61538434, 4181.28205115, 4124.74358947, 4083.33333299, 4084.10256376, 4076.28205094, 4081.79487145, 4130.12820485, 4118.71794844, 4141.66666646, 4138.20512800, 4199.48717935,8.57
4114.23076896, 4115.89743562, 4114.10256383, 4158.71794851, 4121.53846126, 4078.33333299, 4079.48717914, 4092.82051248, 4088.20512786, 4127.30769203, 4109.99999973, 4112.69230742, 4127.69230742, 4185.89743576,8.57
4131.79487152, 4122.56410229, 4127.30769203, 4179.74358961, 4126.02564075, 4098.58974325, 4093.71794837, 4106.15384588, 4082.56410222, 4129.10256383, 4116.53846126, 4136.66666646, 4138.07692287, 4199.74358961,8.57
4124.35897408, 4124.99999973, 4117.82051255, 4222.56410250, 4126.28205101, 4123.20512793, 4131.02564075, 4146.92307672, 4123.97435870, 4131.15384588, 4110.76923050, 4126.66666639, 4136.66666646, 4190.64102551,8.57
4116.66666639, 4120.64102537, 4116.15384588, 4195.76923063, 4121.28205101, 4100.64102530, 4122.43589716, 4157.17948697, 4138.20512800, 4127.30769203, 4107.82051255, 4118.33333306, 4130.38461511, 4187.94871781,8.57
4126.02564075, 4122.05128178, 4127.56410229, 4149.74358954, 4125.25640998, 4065.12820472, 4081.02564068, 4106.02564075, 4085.76923043, 4125.76923050, 4114.23076896, 4135.51282031, 4133.20512793, 4194.48717935,8.57
4110.51282024, 4113.20512793, 4113.46153819, 4171.53846140, 4126.92307665, 4083.46153812, 4084.23076889, 4080.64102530, 4064.74358933, 4127.05128178, 4104.23076896, 4107.17948691, 4124.35897408, 4179.10256397,8.57
4123.46153819, 4128.07692280, 4127.30769203, 4185.51282038, 4126.79487152, 4099.35897402, 4086.66666632, 4079.99999966, 4068.97435856, 4129.48717921, 4113.46153819, 4119.23076896, 4131.02564075, 4189.99999986,8.57
4117.30769203, 4127.56410229, 4124.61538434, 4159.10256390, 4126.53846126, 4088.20512786, 4068.71794830, 4063.97435856, 4058.58974318, 4128.97435870, 4113.97435870, 4116.02564075, 4125.89743562, 4184.35897422,8.57
4111.15384588, 4117.17948691, 4121.15384588, 4161.15384595, 4125.64102537, 4091.28205094, 4077.17948684, 4060.51282010, 4066.15384574, 4127.30769203, 4108.58974332, 4112.17948691, 4122.30769203, 4180.89743576,8.57
4129.99999973, 4129.35897408, 4133.33333306, 4173.97435884, 4128.33333306, 4087.69230735, 4086.92307658, 4075.25640991, 4078.84615350, 4128.97435870, 4116.15384588, 4133.20512793, 4133.20512793, 4190.76923063,8.57
4115.89743562, 4123.97435870, 4117.69230742, 4161.41025621, 4127.69230742, 4075.25640991, 4086.15384581, 4097.94871761, 4083.71794837, 4129.48717921, 4109.87179460, 4110.12820485, 4123.84615357, 4177.17948704,8.57
4126.53846126, 4127.69230742, 4131.53846126, 4168.07692287, 4126.28205101, 4094.99999966, 4102.17948684, 4118.46153819, 4096.66666632, 4129.35897408, 4118.33333306, 4129.23076896, 4130.38461511, 4191.66666653,8.57
4125.89743562, 4125.76923050, 4128.71794844, 4202.69230763, 4124.23076896, 4133.20512793, 4137.56410236, 4147.56410236, 4133.58974332, 4128.97435870, 4118.97435870, 4128.71794844, 4132.69230742, 4189.99999986,8.57
4112.82051255, 4116.92307665, 4116.15384588, 4197.82051269, 4123.58974332, 4119.10256383, 4128.33333306, 4148.97435877, 4140.25641005, 4130.38461511, 4112.94871767, 4114.74358947, 4127.17948691, 4183.46153833,8.57
4131.66666639, 4129.87179460, 4134.23076896, 4177.94871781, 4126.15384588, 4083.84615350, 4088.58974325, 4111.53846126, 4097.43589709, 4131.41025614, 4122.05128178, 4146.41025621, 4138.71794851, 4201.92307686,8.57
4118.58974332, 4122.94871767, 4118.71794844, 4201.53846147, 4122.43589716, 4094.87179453, 4095.12820478, 4097.94871761, 4082.43589709, 4127.94871767, 4113.58974332, 4120.25640998, 4130.51282024, 4189.48717935,8.57
4123.07692280, 4124.74358947, 4120.51282024, 4210.51282045, 4124.10256383, 4102.17948684, 4100.51282017, 4085.64102530, 4080.38461504, 4129.10256383, 4116.66666639, 4123.20512793, 4132.43589716, 4195.12820499,8.57
4124.74358947, 4130.25640998, 4125.76923050, 4187.05128192, 4127.69230742, 4078.84615350, 4076.41025607, 4061.15384574, 4060.25640984, 4131.02564075, 4115.89743562, 4136.66666646, 4138.07692287, 4192.05128192,8.57
4107.82051255, 4120.51282024, 4114.74358947, 4185.25641012, 4123.20512793, 4068.46153805, 4065.38461497, 4058.58974318, 4050.25640984, 4128.33333306, 4106.92307665, 4117.43589716, 4132.43589716, 4179.61538448,8.57
4127.69230742, 4128.71794844, 4128.46153819, 4201.28205122, 4125.89743562, 4088.20512786, 4087.94871761, 4085.64102530, 4076.66666632, 4129.61538434, 4120.25640998, 4136.15384595, 4138.71794851, 4202.17948711,8.57
4118.07692280, 4122.43589716, 4115.76923050, 4198.33333320, 4128.97435870, 4108.71794844, 4118.84615357, 4117.43589716, 4108.46153819, 4130.51282024, 4112.56410229, 4115.89743562, 4129.35897408, 4190.25641012,8.57
4113.97435870, 4120.64102537, 4119.99999973, 4178.97435884, 4126.53846126, 4103.58974332, 4121.28205101, 4122.94871767, 4105.76923050, 4128.71794844, 4110.51282024, 4118.20512793, 4130.64102537, 4183.46153833,8.57
4119.23076896, 4124.99999973, 4129.35897408, 4171.53846140, 4125.25640998, 4099.74358940, 4115.76923050, 4123.58974332, 4115.89743562, 4128.84615357, 4114.87179460, 4125.89743562, 4134.87179460, 4186.41025628,8.57
4106.15384588, 4116.79487152, 4113.97435870, 4175.89743576, 4125.89743562, 4108.20512793, 4115.12820485, 4122.69230742, 4128.07692280, 4129.35897408, 4103.97435870, 4098.07692273, 4123.20512793, 4177.56410243,8.57
4124.48717921, 4129.23076896, 4128.58974332, 4165.25641005, 4127.56410229, 4094.87179453, 4089.99999966, 4083.97435863, 4080.64102530, 4129.23076896, 4113.20512793, 4125.38461511, 4131.92307665, 4190.89743576,8.57
4119.10256383, 4127.05128178, 4125.12820485, 4163.97435877, 4122.69230742, 4087.82051248, 4079.74358940, 4066.15384574, 4056.66666625, 4127.94871767, 4111.41025614, 4118.71794844, 4128.33333306, 4180.51282038,8.57
4119.23076896, 4124.10256383, 4127.05128178, 4185.76923063, 4122.30769203, 4101.41025607, 4104.23076896, 4105.25640998, 4103.20512793, 4128.58974332, 4111.02564075, 4116.28205101, 4128.33333306, 4181.79487166,8.57
4128.58974332, 4131.53846126, 4132.30769203, 4184.35897422, 4127.94871767, 4096.66666632, 4109.99999973, 4119.10256383, 4118.97435870, 4130.76923050, 4118.58974332, 4134.23076896, 4136.28205108, 4192.30769217,8.57
4112.17948691, 4120.64102537, 4116.79487152, 4166.53846133, 4126.02564075, 4092.69230735, 4101.28205094, 4095.89743555, 4096.28205094, 4129.87179460, 4111.66666639, 4111.53846126, 4127.94871767, 4179.74358961,8.57
4129.61538434, 4128.20512793, 4134.10256383, 4174.48717935, 4125.76923050, 4105.51282024, 4103.07692280, 4094.35897402, 4099.48717914, 4129.48717921, 4119.74358947, 4134.87179460, 4137.56410236, 4192.05128192,8.57
4122.30769203, 4125.12820485, 4124.87179460, 4196.92307679, 4125.38461511, 4121.41025614, 4123.46153819, 4126.28205101, 4122.56410229, 4128.46153819, 4113.71794844, 4128.84615357, 4132.30769203, 4185.76923063,8.57
4113.46153819, 4122.05128178, 4117.30769203, 4202.30769224, 4124.99999973, 4130.51282024, 4145.51282031, 4149.48717928, 4132.82051255, 4127.56410229, 4109.35897408, 4119.99999973, 4127.05128178, 4187.17948704,8.57
4132.43589716, 4133.97435870, 4132.05128178, 4189.74358961, 4127.30769203, 4124.99999973, 4132.56410229, 4132.05128178, 4117.30769203, 4131.92307665, 4120.38461511, 4142.56410236, 4139.35897415, 4203.20512814,8.57
4116.15384588, 4120.64102537, 4118.20512793, 4180.25641012, 4121.53846126, 4112.94871767, 4102.43589709, 4101.41025607, 4092.82051248, 4131.28205101, 4110.76923050, 4119.10256383, 4128.71794844, 4188.71794858,8.57
4121.28205101, 4124.74358947, 4126.02564075, 4183.84615371, 4121.53846126, 4107.05128178, 4101.92307658, 4098.46153812, 4087.05128171, 4127.30769203, 4116.66666639, 4134.61538434, 4133.33333306, 4197.43589730,8.57
4118.46153819, 4127.94871767, 4120.64102537, 4191.02564089, 4127.05128178, 4113.58974332, 4128.46153819, 4127.43589716, 4111.66666639, 4126.66666639, 4116.41025614, 4130.25640998, 4136.79487159, 4191.02564089,8.57
4110.38461511, 4117.43589716, 4113.58974332, 4194.48717935, 4125.25640998, 4117.69230742, 4132.69230742, 4142.17948697, 4137.17948697, 4127.05128178, 4106.02564075, 4111.28205101, 4129.10256383, 4183.46153833,8.57
4128.33333306, 4124.99999973, 4131.02564075, 4181.92307679, 4124.23076896, 4097.56410222, 4099.10256376, 4107.82051255, 4116.28205101, 4127.82051255, 4111.79487152, 4133.84615357, 4132.82051255, 4201.28205122,8.57
4112.82051255, 4120.51282024, 4116.02564075, 4175.76923063, 4125.38461511, 4098.71794837, 4094.87179453, 4088.33333299, 4092.82051248, 4127.17948691, 4103.71794844, 4108.33333306, 4124.10256383, 4184.87179474,8.57
4120.12820485, 4123.58974332, 4123.46153819, 4188.58974345, 4128.58974332, 4130.25640998, 4126.41025614, 4114.99999973, 4113.20512793, 4127.43589716, 4108.46153819, 4114.74358947, 4130.89743562, 4184.99999986,8.57
4125.38461511, 4126.66666639, 4126.66666639, 4181.66666653, 4129.35897408, 4130.51282024, 4128.84615357, 4127.82051255, 4124.48717921, 4128.20512793, 4110.64102537, 4123.71794844, 4129.10256383, 4183.71794858,8.57
4110.76923050, 4121.92307665, 4114.23076896, 4160.76923056, 4124.74358947, 4108.33333306, 4110.25640998, 4120.25640998, 4108.07692280, 4128.84615357, 4103.46153819, 4107.43589716, 4117.30769203, 4174.74358961,8.57
4128.20512793, 4131.79487152, 4133.84615357, 4160.25641005, 4126.41025614, 4106.41025614, 4109.74358947, 4113.46153819, 4099.10256376, 4131.02564075, 4116.53846126, 4132.30769203, 4131.79487152, 4192.56410243,8.57
4117.56410229, 4121.28205101, 4122.69230742, 4181.66666653, 4128.20512793, 4122.56410229, 4127.56410229, 4122.43589716, 4120.76923050, 4130.25640998, 4112.43589716, 4114.35897408, 4127.82051255, 4183.33333320,8.57
4118.71794844, 4123.46153819, 4123.07692280, 4183.46153833, 4125.64102537, 4122.82051255, 4124.74358947, 4125.89743562, 4130.64102537, 4128.07692280, 4113.58974332, 4121.41025614, 4128.20512793, 4186.66666653,8.57
4127.94871767, 4132.82051255, 4131.53846126, 4164.48717928, 4123.97435870, 4111.28205101, 4099.74358940, 4099.48717914, 4103.46153819, 4126.66666639, 4117.05128178, 4137.82051262, 4133.46153819, 4192.43589730,8.57
4116.02564075, 4121.92307665, 4117.56410229, 4175.51282038, 4124.10256383, 4117.30769203, 4104.99999973, 4098.46153812, 4103.58974332, 4126.53846126, 4108.71794844, 4112.69230742, 4125.38461511, 4183.84615371,8.57
4131.53846126, 4131.41025614, 4128.71794844, 4203.97435891, 4125.76923050, 4132.94871767, 4136.79487159, 4143.58974339, 4145.12820492, 4129.23076896, 4119.61538434, 4135.51282031, 4136.02564082, 4198.58974345,8.57
4120.12820485, 4127.05128178, 4118.97435870, 4196.53846140, 4122.82051255, 4127.43589716, 4138.07692287, 4147.94871774, 4146.28205108, 4129.23076896, 4113.46153819, 4126.53846126, 4132.43589716, 4186.92307679,8.57
4118.71794844, 4122.05128178, 4120.64102537, 4167.82051262, 4122.30769203, 4102.30769196, 4106.15384588, 4093.97435863, 4092.05128171, 4127.43589716, 4108.84615357, 4125.38461511, 4129.61538434, 4190.89743576,8.57
4132.69230742, 4130.38461511, 4129.87179460, 4175.64102551, 4124.87179460, 4115.38461511, 4113.33333306, 4110.76923050, 4101.41025607, 4126.66666639, 4117.05128178, 4142.43589723, 4135.38461518, 4201.53846147,8.57
4114.48717921, 4120.51282024, 4112.56410229, 4181.79487166, 4123.71794844, 4131.41025614, 4125.89743562, 4146.28205108, 4135.64102544, 4126.92307665, 4110.12820485, 4116.28205101, 4127.43589716, 4183.84615371,8.57
4124.99999973, 4126.92307665, 4126.92307665, 4152.17948697, 4127.05128178, 4095.25640991, 4086.92307658, 4089.48717914, 4089.61538427, 4128.46153819, 4114.48717921, 4132.17948691, 4136.41025621, 4196.41025628,8.57
4118.58974332, 4124.99999973, 4121.66666639, 4138.97435877, 4125.51282024, 4080.12820478, 4070.38461504, 4056.41025600, 4063.33333292, 4127.56410229, 4108.33333306, 4120.89743562, 4133.71794844, 4190.89743576,8.57
4112.82051255, 4119.74358947, 4116.02564075, 4153.46153826, 4122.82051255, 4105.51282024, 4095.89743555, 4091.79487145, 4095.51282017, 4127.30769203, 4107.69230742, 4112.69230742, 4128.71794844, 4186.79487166,8.57
4125.12820485, 4126.53846126, 4129.23076896, 4165.64102544, 4130.38461511, 4118.58974332, 4109.35897408, 4105.12820485, 4101.28205094, 4129.10256383, 4116.53846126, 4132.82051255, 4134.35897408, 4195.25641012,8.57
4107.43589716, 4117.69230742, 4115.89743562, 4158.58974339, 4129.61538434, 4109.61538434, 4097.05128171, 4088.33333299, 4081.15384581, 4127.82051255, 4105.25640998, 4103.46153819, 4123.71794844, 4177.17948704,8.57
4121.79487152, 4127.69230742, 4126.92307665, 4137.43589723, 4125.76923050, 4089.74358940, 4072.43589709, 4072.43589709, 4069.74358940, 4128.33333306, 4113.33333306, 4117.30769203, 4132.05128178, 4185.25641012,8.57
4124.35897408, 4127.56410229, 4124.10256383, 4141.53846133, 4128.46153819, 4090.89743555, 4079.99999966, 4079.10256376, 4077.69230735, 4128.58974332, 4114.35897408, 4119.61538434, 4132.30769203, 4182.43589730,8.57
4115.51282024, 4119.61538434, 4119.87179460, 4179.74358961, 4129.74358947, 4123.97435870, 4124.61538434, 4115.25640998, 4108.58974332, 4125.89743562, 4109.35897408, 4111.92307665, 4126.79487152, 4180.25641012,8.57
4129.99999973, 4134.10256383, 4133.46153819, 4195.38461525, 4128.71794844, 4136.92307672, 4141.02564082, 4137.05128185, 4129.61538434, 4127.17948691, 4120.25640998, 4134.35897408, 4135.89743569, 4193.97435884,8.57
4116.02564075, 4126.53846126, 4114.74358947, 4175.64102551, 4126.28205101, 4118.33333306, 4120.25640998, 4122.69230742, 4119.10256383, 4129.99999973, 4112.56410229, 4110.12820485, 4126.53846126, 4180.12820499,8.57
4127.43589716, 4127.82051255, 4125.51282024, 4173.46153833, 4127.43589716, 4115.76923050, 4114.87179460, 4111.79487152, 4105.51282024, 4130.12820485, 4116.66666639, 4127.05128178, 4132.30769203, 4191.02564089,8.57
4126.79487152, 4128.07692280, 4125.38461511, 4185.64102551, 4124.87179460, 4130.25640998, 4126.66666639, 4123.33333306, 4109.74358947, 4128.58974332, 4116.79487152, 4131.53846126, 4133.07692280, 4189.10256397,8.57
4113.46153819, 4119.48717921, 4110.76923050, 4182.43589730, 4122.94871767, 4129.87179460, 4128.97435870, 4133.58974332, 4119.23076896, 4129.35897408, 4110.64102537, 4113.71794844, 4125.25640998, 4181.92307679,8.57
4133.97435870, 4131.53846126, 4127.94871767, 4179.48717935, 4128.33333306, 4129.48717921, 4130.89743562, 4129.23076896, 4124.74358947, 4131.28205101, 4121.92307665, 4143.46153826, 4138.84615364, 4203.20512814,8.57
4120.89743562, 4123.07692280, 4116.66666639, 4181.02564089, 4126.66666639, 4141.53846133, 4133.58974332, 4117.17948691, 4121.53846126, 4127.56410229, 4112.69230742, 4123.33333306, 4132.17948691, 4192.17948704,8.57
4122.30769203, 4123.58974332, 4121.66666639, 4175.89743576, 4126.53846126, 4126.41025614, 4115.38461511, 4100.25640991, 4100.38461504, 4127.30769203, 4115.12820485, 4126.66666639, 4131.28205101, 4193.58974345,8.57
4125.51282024, 4129.61538434, 4125.25640998, 4177.56410243, 4128.07692280, 4097.82051248, 4098.97435863, 4090.76923043, 4091.53846119, 4130.12820485, 4121.92307665, 4133.46153819, 4133.20512793, 4194.23076910,8.57
4109.35897408, 4118.71794844, 4111.02564075, 4198.46153833, 4125.89743562, 4112.94871767, 4118.46153819, 4108.20512793, 4118.46153819, 4127.69230742, 4110.12820485, 4107.94871767, 4126.02564075, 4185.51282038,8.57
4124.74358947, 4125.12820485, 4124.74358947, 4207.94871788, 4130.64102537, 4135.64102544, 4134.35897408, 4119.48717921, 4126.41025614, 4127.43589716, 4112.05128178, 4131.28205101, 4137.43589723, 4200.51282038,8.57
4114.87179460, 4121.41025614, 4114.48717921, 4190.51282038, 4130.12820485, 4119.61538434, 4117.69230742, 4102.56410229, 4097.30769196, 4127.82051255, 4105.89743562, 4117.30769203, 4129.99999973, 4184.87179474,8.57
4117.82051255, 4123.97435870, 4118.84615357, 4176.92307679, 4126.66666639, 4094.61538427, 4097.56410222, 4089.87179453, 4086.79487145, 4127.17948691, 4110.38461511, 4111.53846126, 4127.43589716, 4184.99999986,8.57
4123.71794844, 4130.12820485, 4127.30769203, 4185.25641012, 4126.53846126, 4104.61538434, 4108.58974332, 4105.64102537, 4112.30769203, 4128.97435870, 4116.79487152, 4121.41025614, 4133.84615357, 4190.25641012,8.57
4106.41025614, 4118.71794844, 4110.89743562, 4199.10256397, 4124.35897408, 4131.66666639, 4136.53846133, 4128.84615357, 4134.61538434, 4131.15384588, 4107.17948691, 4104.87179460, 4124.10256383, 4174.61538448,8.57
4128.20512793, 4129.99999973, 4128.71794844, 4193.46153833, 4129.35897408, 4127.82051255, 4131.02564075, 4121.41025614, 4125.89743562, 4133.07692280, 4116.66666639, 4131.66666639, 4130.12820485, 4188.97435884,8.57
4122.17948691, 4127.69230742, 4124.48717921, 4194.35897422, 4132.43589716, 4124.35897408, 4126.53846126, 4128.84615357, 4133.97435870, 4131.53846126, 4113.20512793, 4119.35897408, 4126.41025614, 4182.30769217,8.57
