AF3,F7,F3,FC5,T7,P7,O1,O2,P8,T8,FC6,F4,F8,AF4,Label
4122.56410229, 4121.28205101, 4119.23076896, 4118.33333306, 4121.79487152, 4158.97435877, 4091.15384581, 4090.12820478, 4084.48717914, 4130.89743562, 4117.05128178, 4126.92307665, 4126.41025614, 4191.53846140,8.57
4115.38461511, 4118.71794844, 4112.30769203, 4111.53846126, 4121.41025614, 4162.69230749, 4091.79487145, 4093.97435863, 4106.53846126, 4126.79487152, 4116.15384588, 4114.23076896, 4124.61538434, 4188.33333320,8.57
4123.07692280, 4123.33333306, 4122.82051255, 4115.51282024, 4125.51282024, 4155.51282031, 4086.02564068, 4088.71794837, 4102.05128171, 4127.43589716, 4120.12820485, 4123.84615357, 4129.48717921, 4191.66666653,8.57
4112.05128178, 4117.82051255, 4114.48717921, 4112.69230742, 4125.25640998, 4156.28205108, 4078.46153812, 4081.02564068, 4077.94871761, 4127.82051255, 4114.10256383, 4115.89743562, 4125.25640998, 4185.64102551,8.57
4122.94871767, 4126.15384588, 4124.23076896, 4119.99999973, 4124.23076896, 4170.12820499, 4095.25640991, 4092.94871761, 4086.41025607, 4126.41025614, 4116.92307665, 4121.02564075, 4127.30769203, 4190.76923063,8.57
4122.69230742, 4124.23076896, 4122.56410229, 4116.92307665, 4123.84615357, 4177.56410243, 4116.41025614, 4108.46153819, 4112.94871767, 4128.84615357, 4118.97435870, 4116.15384588, 4129.74358947, 4188.46153833,8.57
4115.89743562, 4116.41025614, 4118.20512793, 4112.05128178, 4124.23076896, 4169.99999986, 4102.43589709, 4097.30769196, 4105.12820485, 4131.15384588, 4114.74358947, 4111.41025614, 4126.53846126, 4185.76923063,8.57
4130.64102537, 4127.43589716, 4130.64102537, 4124.35897408, 4128.07692280, 4162.30769210, 4085.25640991, 4087.05128171, 4087.17948684, 4130.25640998, 4119.61538434, 4126.66666639, 4128.71794844, 4192.17948704,8.57
4118.71794844, 4122.05128178, 4118.07692280, 4118.58974332, 4124.35897408, 4166.53846133, 4100.38461504, 4105.64102537, 4099.48717914, 4128.84615357, 4115.76923050, 4112.56410229, 4126.92307665, 4186.28205115,8.57
4124.35897408, 4124.10256383, 4124.99999973, 4120.89743562, 4121.41025614, 4166.15384595, 4106.41025614, 4108.20512793, 4104.23076896, 4128.46153819, 4113.84615357, 4119.74358947, 4128.84615357, 4189.35897422,8.57
4127.82051255, 4126.02564075, 4126.15384588, 4128.20512793, 4124.74358947, 4168.20512807, 4093.46153812, 4092.17948684, 4091.79487145, 4128.33333306, 4116.28205101, 4127.56410229, 4128.20512793, 4188.07692294,8.57
4114.10256383, 4116.92307665, 4115.38461511, 4120.76923050, 4124.23076896, 4181.66666653, 4093.46153812, 4097.17948684, 4095.51282017, 4128.71794844, 4116.28205101, 4117.56410229, 4124.74358947, 4182.82051269,8.57
4128.97435870, 4127.69230742, 4131.41025614, 4124.35897408, 4124.74358947, 4176.66666653, 4092.17948684, 4097.69230735, 4097.56410222, 4128.20512793, 4120.51282024, 4131.02564075, 4131.41025614, 4191.66666653,8.57
4123.71794844, 4124.74358947, 4121.41025614, 4122.30769203, 4119.35897408, 4159.74358954, 4084.61538427, 4081.53846119, 4082.43589709, 4126.92307665, 4116.53846126, 4122.30769203, 4128.07692280, 4189.74358961,8.57
4124.74358947, 4123.71794844, 4117.82051255, 4120.12820485, 4118.07692280, 4161.41025621, 4088.58974325, 4083.97435863, 4077.43589709, 4128.07692280, 4116.79487152, 4126.53846126, 4126.15384588, 4191.15384602,8.57
4130.12820485, 4130.25640998, 4126.41025614, 4120.38461511, 4125.38461511, 4162.56410236, 4091.28205094, 4093.97435863, 4087.69230735, 4128.58974332, 4120.12820485, 4133.97435870, 4131.53846126, 4192.30769217,8.57
4112.82051255, 4121.66666639, 4118.33333306, 4114.61538434, 4121.28205101, 4165.51282031, 4099.99999966, 4100.76923043, 4103.84615357, 4128.71794844, 4115.12820485, 4118.84615357, 4129.61538434, 4189.23076910,8.57
4123.97435870, 4127.17948691, 4124.87179460, 4125.12820485, 4117.56410229, 4191.02564089, 4123.71794844, 4120.25640998, 4119.74358947, 4129.35897408, 4118.84615357, 4131.15384588, 4130.25640998, 4196.15384602,8.57
4123.97435870, 4126.79487152, 4119.35897408, 4122.17948691, 4120.76923050, 4193.58974345, 4121.02564075, 4123.07692280, 4111.41025614, 4129.74358947, 4118.07692280, 4122.56410229, 4128.07692280, 4191.41025628,8.57
4118.33333306, 4120.89743562, 4121.15384588, 4112.43589716, 4123.97435870, 4162.56410236, 4093.20512786, 4097.94871761, 4085.64102530, 4128.20512793, 4117.30769203, 4116.15384588, 4127.94871767, 4191.15384602,8.57
4123.33333306, 4123.07692280, 4123.84615357, 4116.15384588, 4126.02564075, 4164.87179467, 4093.20512786, 4094.74358940, 4089.35897402, 4126.79487152, 4119.35897408, 4124.48717921, 4128.33333306, 4193.20512807,8.57
4115.64102537, 4118.46153819, 4109.48717921, 4112.94871767, 4122.05128178, 4189.35897422, 4107.05128178, 4109.99999973, 4109.87179460, 4128.71794844, 4112.17948691, 4113.84615357, 4123.07692280, 4187.05128192,8.57
4126.41025614, 4123.97435870, 4123.46153819, 4117.82051255, 4122.69230742, 4178.71794858, 4098.20512786, 4103.84615357, 4108.84615357, 4129.87179460, 4115.89743562, 4126.92307665, 4130.76923050, 4190.64102551,8.57
4117.94871767, 4120.25640998, 4120.76923050, 4114.87179460, 4123.97435870, 4164.35897415, 4092.56410222, 4095.89743555, 4108.20512793, 4126.15384588, 4116.79487152, 4122.05128178, 4133.20512793, 4183.97435884,8.57
4110.25640998, 4117.17948691, 4114.87179460, 4112.43589716, 4120.25640998, 4178.20512807, 4106.15384588, 4111.92307665, 4117.69230742, 4126.41025614, 4114.23076896, 4112.94871767, 4129.99999973, 4184.23076910,8.57
4124.99999973, 4128.71794844, 4125.89743562, 4118.71794844, 4121.79487152, 4181.15384602, 4108.71794844, 4115.51282024, 4106.41025614, 4131.66666639, 4117.30769203, 4124.48717921, 4132.94871767, 4191.79487166,8.57
4114.99999973, 4122.56410229, 4117.43589716, 4110.25640998, 4121.15384588, 4167.56410236, 4106.79487152, 4112.82051255, 4104.48717921, 4130.89743562, 4112.94871767, 4114.48717921, 4130.76923050, 4186.02564089,8.57
4122.17948691, 4124.74358947, 4127.56410229, 4119.74358947, 4121.66666639, 4171.02564089, 4117.17948691, 4125.38461511, 4126.41025614, 4126.79487152, 4118.97435870, 4122.82051255, 4133.58974332, 4192.30769217,8.57
4125.76923050, 4127.30769203, 4126.66666639, 4124.35897408, 4124.87179460, 4182.82051269, 4117.43589716, 4122.30769203, 4127.82051255, 4128.46153819, 4122.30769203, 4123.33333306, 4134.10256383, 4192.82051269,8.57
4121.02564075, 4124.23076896, 4120.64102537, 4115.76923050, 4123.71794844, 4185.25641012, 4111.66666639, 4111.92307665, 4121.15384588, 4130.51282024, 4116.41025614, 4117.69230742, 4129.10256383, 4188.84615371,8.57
4131.79487152, 4129.99999973, 4133.20512793, 4121.41025614, 4123.33333306, 4180.89743576, 4115.25640998, 4111.92307665, 4118.33333306, 4128.71794844, 4119.35897408, 4133.97435870, 4130.51282024, 4195.25641012,8.57
4119.74358947, 4121.02564075, 4119.99999973, 4114.23076896, 4122.56410229, 4177.05128192, 4117.30769203, 4111.41025614, 4111.15384588, 4126.53846126, 4118.07692280, 4121.92307665, 4127.43589716, 4190.38461525,8.57
4126.66666639, 4124.48717921, 4125.12820485, 4113.84615357, 4125.38461511, 4176.92307679, 4116.53846126, 4115.64102537, 4119.35897408, 4128.71794844, 4118.33333306, 4124.48717921, 4128.20512793, 4190.64102551,8.57
4129.99999973, 4127.43589716, 4129.61538434, 4114.87179460, 4124.61538434, 4175.25641012, 4118.46153819, 4125.25640998, 4130.64102537, 4129.99999973, 4119.74358947, 4132.69230742, 4132.30769203, 4190.25641012,8.57
4117.05128178, 4118.84615357, 4117.69230742, 4107.94871767, 4119.35897408, 4171.02564089, 4113.33333306, 4121.02564075, 4121.53846126, 4128.58974332, 4116.53846126, 4125.12820485, 4132.69230742, 4187.94871781,8.57
4128.97435870, 4125.38461511, 4126.28205101, 4114.87179460, 4120.38461511, 4168.33333320, 4105.12820485, 4107.30769203, 4116.15384588, 4128.84615357, 4120.38461511, 4133.97435870, 4135.51282031, 4193.97435884,8.57
4120.38461511, 4121.41025614, 4119.35897408, 4108.07692280, 4119.35897408, 4168.71794858, 4103.33333306, 4107.30769203, 4124.99999973, 4128.71794844, 4118.97435870, 4121.41025614, 4132.82051255, 4190.25641012,8.57
4121.66666639, 4122.82051255, 4120.12820485, 4104.48717921, 4120.76923050, 4167.82051262, 4100.64102530, 4114.23076896, 4129.23076896, 4128.46153819, 4116.41025614, 4124.87179460, 4135.25640998, 4195.25641012,8.57
4124.99999973, 4127.56410229, 4120.89743562, 4112.43589716, 4124.23076896, 4171.41025628, 4108.58974332, 4130.12820485, 4147.05128185, 4130.38461511, 4117.82051255, 4131.15384588, 4135.64102544, 4195.51282038,8.57
4112.82051255, 4119.10256383, 4113.97435870, 4110.12820485, 4123.20512793, 4179.23076910, 4119.48717921, 4134.10256383, 4153.20512800, 4130.76923050, 4116.92307665, 4116.66666639, 4125.89743562, 4187.30769217,8.57
4126.66666639, 4125.12820485, 4127.30769203, 4111.79487152, 4124.61538434, 4169.99999986, 4106.92307665, 4119.74358947, 4130.25640998, 4129.87179460, 4119.23076896, 4129.99999973, 4129.10256383, 4191.41025628,8.57
4118.58974332, 4123.84615357, 4117.94871767, 4105.76923050, 4121.15384588, 4162.43589723, 4104.48717921, 4129.61538434, 4141.41025621, 4129.61538434, 4115.12820485, 4122.94871767, 4129.87179460, 4184.35897422,8.57
4115.64102537, 4122.17948691, 4118.84615357, 4107.43589716, 4121.02564075, 4172.30769217, 4114.48717921, 4131.28205101, 4153.58974339, 4130.12820485, 4117.69230742, 4120.38461511, 4128.07692280, 4184.23076910,8.57
4125.25640998, 4126.28205101, 4129.48717921, 4114.10256383, 4125.64102537, 4168.46153833, 4096.79487145, 4099.48717914, 4119.48717921, 4128.97435870, 4122.17948691, 4128.58974332, 4130.76923050, 4187.69230756,8.57
4111.02564075, 4118.33333306, 4118.33333306, 4104.87179460, 4121.53846126, 4159.48717928, 4090.76923043, 4106.53846126, 4117.82051255, 4128.33333306, 4113.46153819, 4113.33333306, 4127.05128178, 4183.46153833,8.57
4122.05128178, 4124.87179460, 4128.71794844, 4111.66666639, 4122.43589716, 4176.92307679, 4123.71794844, 4147.43589723, 4160.51282031, 4129.87179460, 4118.07692280, 4122.82051255, 4128.84615357, 4190.25641012,8.57
4120.51282024, 4123.07692280, 4123.97435870, 4112.56410229, 4123.97435870, 4193.84615371, 4141.66666646, 4148.71794851, 4158.58974339, 4129.23076896, 4120.25640998, 4118.97435870, 4128.46153819, 4187.56410243,8.57
4116.41025614, 4119.87179460, 4121.02564075, 4104.87179460, 4119.87179460, 4184.23076910, 4134.74358947, 4136.53846133, 4134.99999973, 4128.07692280, 4115.89743562, 4118.33333306, 4129.61538434, 4188.07692294,8.57
4130.51282024, 4132.56410229, 4131.79487152, 4112.56410229, 4121.66666639, 4181.41025628, 4144.10256390, 4155.51282031, 4158.84615364, 4129.87179460, 4118.71794844, 4131.02564075, 4131.53846126, 4192.30769217,8.57
4116.79487152, 4123.07692280, 4116.79487152, 4107.30769203, 4122.05128178, 4194.74358961, 4162.69230749, 4178.07692294, 4189.23076910, 4128.07692280, 4118.71794844, 4114.74358947, 4124.99999973, 4186.66666653,8.57
4124.10256383, 4121.92307665, 4129.35897408, 4107.43589716, 4123.33333306, 4199.23076910, 4161.66666646, 4185.64102551, 4182.94871781, 4128.20512793, 4124.10256383, 4123.84615357, 4127.69230742, 4190.64102551,8.57
4129.61538434, 4126.92307665, 4131.79487152, 4107.43589716, 4124.74358947, 4190.51282038, 4143.84615364, 4169.87179474, 4158.20512800, 4131.02564075, 4121.41025614, 4128.20512793, 4128.46153819, 4187.82051269,8.57
4117.17948691, 4121.28205101, 4115.64102537, 4100.25640991, 4121.02564075, 4182.82051269, 4129.48717921, 4146.79487159, 4151.15384595, 4128.20512793, 4116.41025614, 4122.82051255, 4129.61538434, 4189.23076910,8.57
4129.87179460, 4127.30769203, 4125.64102537, 4107.43589716, 4121.15384588, 4190.51282038, 4137.82051262, 4151.15384595, 4165.64102544, 4126.92307665, 4121.53846126, 4134.10256383, 4134.99999973, 4195.64102551,8.57
4119.99999973, 4121.53846126, 4118.71794844, 4102.69230742, 4121.15384588, 4201.66666660, 4152.05128185, 4165.51282031, 4170.76923063, 4128.46153819, 4118.20512793, 4120.76923050, 4126.41025614, 4187.56410243,8.57
4119.10256383, 4122.69230742, 4119.48717921, 4104.48717921, 4123.20512793, 4191.28205115, 4142.82051262, 4160.76923056, 4160.64102544, 4126.92307665, 4117.94871767, 4128.07692280, 4126.15384588, 4192.56410243,8.57
4126.28205101, 4128.58974332, 4120.51282024, 4110.51282024, 4125.89743562, 4176.66666653, 4131.15384588, 4153.46153826, 4157.43589723, 4126.41025614, 4119.35897408, 4131.92307665, 4131.53846126, 4193.97435884,8.57
4113.97435870, 4119.48717921, 4111.41025614, 4101.28205094, 4119.61538434, 4182.05128192, 4141.15384595, 4160.89743569, 4170.25641012, 4127.94871767, 4118.46153819, 4116.28205101, 4129.74358947, 4187.82051269,8.57
4125.51282024, 4125.38461511, 4123.71794844, 4106.28205101, 4120.12820485, 4191.15384602, 4149.99999980, 4165.76923056, 4175.89743576, 4127.69230742, 4122.69230742, 4128.07692280, 4130.64102537, 4193.20512807,8.57
4122.30769203, 4122.05128178, 4116.92307665, 4102.43589709, 4123.20512793, 4194.74358961, 4150.12820492, 4165.12820492, 4177.30769217, 4126.92307665, 4119.99999973, 4120.76923050, 4127.17948691, 4189.48717935,8.57
4121.15384588, 4120.12820485, 4118.58974332, 4102.30769196, 4121.28205101, 4200.38461525, 4157.69230749, 4179.35897422, 4193.07692294, 4128.58974332, 4120.89743562, 4118.97435870, 4129.74358947, 4188.84615371,8.57
4126.92307665, 4128.07692280, 4127.30769203, 4111.66666639, 4124.61538434, 4201.66666660, 4159.35897415, 4180.38461525, 4193.07692294, 4128.46153819, 4120.51282024, 4124.23076896, 4134.23076896, 4187.43589730,8.57
4110.51282024, 4116.15384588, 4113.97435870, 4101.15384581, 4123.97435870, 4196.79487166, 4147.43589723, 4161.15384595, 4170.38461525, 4127.17948691, 4116.53846126, 4116.92307665, 4131.53846126, 4183.71794858,8.57
4125.38461511, 4122.05128178, 4124.35897408, 4106.15384588, 4122.56410229, 4185.25641012, 4133.97435870, 4143.71794851, 4145.12820492, 4127.94871767, 4121.79487152, 4128.46153819, 4134.74358947, 4192.17948704,8.57
4123.33333306, 4127.69230742, 4121.02564075, 4109.23076896, 4121.79487152, 4178.97435884, 4134.23076896, 4147.17948697, 4142.30769210, 4127.43589716, 4119.61538434, 4117.30769203, 4133.97435870, 4186.79487166,8.57
4113.33333306, 4123.20512793, 4119.99999973, 4105.38461511, 4118.84615357, 4185.64102551, 4145.89743569, 4162.43589723, 4164.48717928, 4126.28205101, 4119.74358947, 4117.05128178, 4133.58974332, 4184.35897422,8.57
4129.23076896, 4129.99999973, 4135.25640998, 4114.23076896, 4122.30769203, 4193.97435884, 4152.17948697, 4167.30769210, 4180.51282038, 4126.79487152, 4120.89743562, 4130.38461511, 4131.66666639, 4191.66666653,8.57
4117.94871767, 4120.64102537, 4118.97435870, 4105.12820485, 4123.97435870, 4198.46153833, 4156.02564082, 4171.15384602, 4180.64102551, 4127.82051255, 4116.92307665, 4114.87179460, 4126.02564075, 4188.46153833,8.57
4126.28205101, 4127.05128178, 4126.92307665, 4104.23076896, 4125.12820485, 4197.69230756, 4157.05128185, 4174.61538448, 4175.76923063, 4130.12820485, 4124.35897408, 4122.43589716, 4131.41025614, 4189.74358961,8.57
4127.56410229, 4130.38461511, 4129.23076896, 4106.28205101, 4123.58974332, 4197.82051269, 4160.12820492, 4179.48717935, 4179.23076910, 4129.87179460, 4122.94871767, 4125.76923050, 4130.89743562, 4185.38461525,8.57
4115.38461511, 4118.71794844, 4117.43589716, 4098.71794837, 4119.35897408, 4208.46153840, 4167.56410236, 4186.28205115, 4190.25641012, 4128.07692280, 4119.87179460, 4126.79487152, 4129.10256383, 4186.79487166,8.57
4135.51282031, 4129.61538434, 4130.12820485, 4107.56410229, 4124.74358947, 4209.35897429, 4156.41025621, 4176.02564089, 4195.64102551, 4127.69230742, 4125.64102537, 4133.97435870, 4134.23076896, 4190.12820499,8.57
4119.74358947, 4123.20512793, 4117.94871767, 4099.99999966, 4122.56410229, 4194.10256397, 4137.69230749, 4157.30769210, 4181.79487166, 4128.33333306, 4121.66666639, 4119.48717921, 4132.05128178, 4184.35897422,8.57
4118.33333306, 4123.97435870, 4122.17948691, 4096.79487145, 4117.82051255, 4190.89743576, 4138.20512800, 4148.07692287, 4153.58974339, 4129.48717921, 4121.66666639, 4132.56410229, 4132.56410229, 4194.99999986,8.57
4130.51282024, 4131.79487152, 4126.02564075, 4102.94871767, 4121.02564075, 4198.07692294, 4139.61538441, 4143.97435877, 4140.64102544, 4127.43589716, 4121.92307665, 4131.79487152, 4132.94871767, 4193.97435884,8.57
4115.12820485, 4117.56410229, 4110.64102537, 4094.87179453, 4118.07692280, 4192.43589730, 4132.94871767, 4150.25641005, 4160.64102544, 4126.66666639, 4121.02564075, 4119.87179460, 4135.25640998, 4187.56410243,8.57
4129.74358947, 4127.56410229, 4127.94871767, 4106.28205101, 4121.15384588, 4179.74358961, 4134.35897408, 4164.35897415, 4174.23076910, 4129.23076896, 4122.82051255, 4135.76923056, 4138.84615364, 4194.99999986,8.57
4118.58974332, 4124.99999973, 4117.43589716, 4103.84615357, 4125.76923050, 4175.76923063, 4132.94871767, 4148.58974339, 4154.10256390, 4129.61538434, 4116.53846126, 4121.15384588, 4131.02564075, 4190.89743576,8.57
4114.35897408, 4118.71794844, 4113.46153819, 4098.07692273, 4125.38461511, 4178.58974345, 4119.48717921, 4120.89743562, 4134.35897408, 4128.33333306, 4118.58974332, 4121.53846126, 4130.51282024, 4190.51282038,8.57
4129.87179460, 4129.35897408, 4126.41025614, 4104.99999973, 4124.87179460, 4179.35897422, 4118.46153819, 4132.17948691, 4136.41025621, 4126.79487152, 4121.02564075, 4127.30769203, 4132.05128178, 4188.84615371,8.57
4107.82051255, 4116.53846126, 4112.05128178, 4090.25640991, 4117.69230742, 4179.48717935, 4131.53846126, 4154.99999980, 4151.79487159, 4127.43589716, 4119.74358947, 4113.46153819, 4130.89743562, 4186.02564089,8.57
4121.66666639, 4122.43589716, 4123.07692280, 4096.15384581, 4122.30769203, 4181.53846140, 4127.69230742, 4143.71794851, 4153.33333313, 4128.58974332, 4121.41025614, 4126.79487152, 4133.33333306, 4191.28205115,8.57
4119.87179460, 4122.94871767, 4117.69230742, 4098.07692273, 4125.51282024, 4180.12820499, 4119.10256383, 4135.51282031, 4149.48717928, 4127.94871767, 4117.43589716, 4118.84615357, 4127.30769203, 4186.92307679,8.57
4109.10256383, 4115.25640998, 4117.30769203, 4092.69230735, 4119.87179460, 4171.15384602, 4122.94871767, 4144.61538441, 4156.53846133, 4127.43589716, 4121.02564075, 4116.92307665, 4128.84615357, 4189.99999986,8.57
4130.51282024, 4129.48717921, 4134.61538434, 4106.41025614, 4124.23076896, 4173.58974345, 4131.02564075, 4151.02564082, 4161.92307672, 4128.20512793, 4119.74358947, 4125.25640998, 4132.05128178, 4190.76923063,8.57
4113.33333306, 4118.58974332, 4115.12820485, 4097.17948684, 4121.15384588, 4193.84615371, 4137.30769210, 4156.53846133, 4157.82051262, 4129.23076896, 4113.58974332, 4114.87179460, 4129.61538434, 4184.87179474,8.57
4124.10256383, 4125.12820485, 4127.69230742, 4103.97435870, 4120.89743562, 4191.66666653, 4130.64102537, 4144.23076903, 4137.30769210, 4129.23076896, 4120.89743562, 4128.33333306, 4132.56410229, 4191.79487166,8.57
4127.17948691, 4130.25640998, 4128.33333306, 4107.69230742, 4124.99999973, 4177.94871781, 4131.53846126, 4140.89743569, 4136.15384595, 4128.97435870, 4122.30769203, 4123.20512793, 4129.87179460, 4188.84615371,8.57
4111.41025614, 4117.94871767, 4117.43589716, 4094.87179453, 4119.61538434, 4185.38461525, 4140.12820492, 4156.15384595, 4159.23076903, 4129.74358947, 4122.82051255, 4121.79487152, 4131.28205101, 4187.82051269,8.57
4135.12820485, 4132.56410229, 4137.05128185, 4105.38461511, 4122.69230742, 4178.84615371, 4121.53846126, 4138.58974339, 4148.20512800, 4127.69230742, 4121.92307665, 4132.17948691, 4133.33333306, 4191.28205115,8.57
4116.66666639, 4120.76923050, 4116.28205101, 4095.38461504, 4121.53846126, 4161.28205108, 4104.74358947, 4118.33333306, 4122.30769203, 4124.48717921, 4120.12820485, 4120.12820485, 4130.51282024, 4187.05128192,8.57
4122.43589716, 4122.30769203, 4121.53846126, 4101.28205094, 4119.87179460, 4176.79487166, 4128.33333306, 4146.41025621, 4142.30769210, 4126.28205101, 4127.43589716, 4130.38461511, 4134.35897408, 4192.82051269,8.57
4135.64102544, 4132.17948691, 4129.35897408, 4116.53846126, 4122.17948691, 4206.79487173, 4163.71794851, 4188.20512807, 4182.05128192, 4126.92307665, 4122.30769203, 4125.12820485, 4131.66666639, 4191.41025628,8.57
4109.74358947, 4114.10256383, 4110.38461511, 4105.25640998, 4117.94871767, 4214.23076917, 4178.46153833, 4203.46153840, 4196.15384602, 4125.38461511, 4119.99999973, 4121.02564075, 4130.89743562, 4190.76923063,8.57
4126.28205101, 4128.07692280, 4127.43589716, 4113.84615357, 4125.38461511, 4207.05128199, 4169.74358961, 4188.97435884, 4186.79487166, 4127.69230742, 4124.48717921, 4135.64102544, 4132.30769203, 4194.61538448,8.57
4118.33333306, 4125.38461511, 4117.05128178, 4107.17948691, 4123.33333306, 4200.76923063, 4148.97435877, 4160.76923056, 4166.02564082, 4129.35897408, 4118.33333306, 4122.94871767, 4127.17948691, 4190.51282038,8.57
4114.87179460, 4119.99999973, 4116.41025614, 4103.07692280, 4116.15384588, 4202.69230763, 4146.15384595, 4151.15384595, 4156.02564082, 4127.05128178, 4119.87179460, 4128.84615357, 4129.61538434, 4196.28205115,8.57
4124.23076896, 4130.25640998, 4122.82051255, 4106.28205101, 4123.07692280, 4207.82051275, 4153.07692287, 4152.17948697, 4159.99999980, 4125.89743562, 4119.23076896, 4126.92307665, 4128.33333306, 4194.10256397,8.57
4107.17948691, 4117.30769203, 4108.20512793, 4092.69230735, 4121.79487152, 4196.28205115, 4138.97435877, 4143.84615364, 4151.66666646, 4126.79487152, 4116.66666639, 4115.12820485, 4128.20512793, 4191.28205115,8.57
4128.07692280, 4125.51282024, 4126.79487152, 4112.17948691, 4124.74358947, 4179.74358961, 4122.56410229, 4144.10256390, 4145.51282031, 4126.53846126, 4121.02564075, 4125.12820485, 4131.28205101, 4193.84615371,8.57
4117.82051255, 4118.58974332, 4116.02564075, 4113.71794844, 4123.84615357, 4178.97435884, 4124.48717921, 4147.94871774, 4160.89743569, 4127.05128178, 4118.71794844, 4113.33333306, 4126.15384588, 4184.74358961,8.57
4111.28205101, 4115.64102537, 4112.43589716, 4104.10256383, 4118.84615357, 4182.56410243, 4130.51282024, 4143.84615364, 4167.30769210, 4129.48717921, 4119.99999973, 4119.23076896, 4128.20512793, 4191.02564089,8.57
4127.43589716, 4132.30769203, 4127.17948691, 4117.30769203, 4124.74358947, 4184.61538448, 4133.33333306, 4149.99999980, 4151.66666646, 4128.20512793, 4118.46153819, 4123.20512793, 4127.94871767, 4190.76923063,8.57
4107.69230742, 4114.61538434, 4111.66666639, 4109.35897408, 4124.10256383, 4191.28205115, 4137.30769210, 4163.97435877, 4153.97435877, 4127.30769203, 4118.07692280, 4111.92307665, 4126.28205101, 4182.05128192,8.57
4126.15384588, 4122.17948691, 4128.46153819, 4114.87179460, 4126.15384588, 4187.82051269, 4133.84615357, 4160.12820492, 4169.35897422, 4129.10256383, 4124.10256383, 4125.76923050, 4131.92307665, 4190.89743576,8.57
4123.84615357, 4128.46153819, 4128.46153819, 4111.66666639, 4123.07692280, 4182.69230756, 4128.71794844, 4146.92307672, 4159.74358954, 4127.43589716, 4120.89743562, 4116.92307665, 4128.33333306, 4188.46153833,8.57
4116.28205101, 4121.15384588, 4122.30769203, 4104.87179460, 4118.46153819, 4192.43589730, 4132.43589716, 4143.97435877, 4142.05128185, 4126.28205101, 4122.30769203, 4119.10256383, 4126.53846126, 4186.15384602,8.57
4137.43589723, 4131.28205101, 4131.92307665, 4118.33333306, 4127.56410229, 4195.25641012, 4136.41025621, 4153.46153826, 4152.30769210, 4128.71794844, 4122.56410229, 4128.33333306, 4129.35897408, 4190.51282038,8.57
4115.51282024, 4120.64102537, 4117.17948691, 4106.53846126, 4125.76923050, 4186.02564089, 4135.51282031, 4157.05128185, 4158.07692287, 4127.56410229, 4118.84615357, 4117.94871767, 4130.25640998, 4191.15384602,8.57
4127.05128178, 4129.74358947, 4132.82051255, 4108.58974332, 4122.82051255, 4179.35897422, 4128.58974332, 4138.58974339, 4129.87179460, 4126.15384588, 4124.74358947, 4131.92307665, 4133.46153819, 4192.69230756,8.57
4129.61538434, 4127.82051255, 4127.05128178, 4112.30769203, 4122.05128178, 4184.99999986, 4134.35897408, 4137.56410236, 4127.30769203, 4126.79487152, 4124.35897408, 4127.69230742, 4131.53846126, 4188.58974345,8.57
4117.30769203, 4114.87179460, 4118.71794844, 4110.12820485, 4120.51282024, 4192.30769217, 4150.76923056, 4158.46153826, 4152.94871774, 4127.05128178, 4122.94871767, 4127.30769203, 4132.43589716, 4195.89743576,8.57
4136.28205108, 4134.99999973, 4137.30769210, 4121.41025614, 4129.99999973, 4182.94871781, 4142.69230749, 4152.56410236, 4140.38461518, 4128.84615357, 4124.35897408, 4133.58974332, 4131.53846126, 4196.41025628,8.57
4114.99999973, 4124.23076896, 4114.48717921, 4103.84615357, 4124.61538434, 4180.12820499, 4134.23076896, 4153.46153826, 4138.71794851, 4130.89743562, 4123.20512793, 4118.46153819, 4128.97435870, 4187.69230756,8.57
4120.89743562, 4122.43589716, 4121.53846126, 4104.87179460, 4119.48717921, 4190.76923063, 4141.66666646, 4166.02564082, 4166.66666646, 4128.97435870, 4125.12820485, 4130.25640998, 4136.02564082, 4195.64102551,8.57
4128.20512793, 4129.99999973, 4127.82051255, 4114.10256383, 4125.38461511, 4186.02564089, 4133.20512793, 4140.38461518, 4150.64102544, 4126.66666639, 4124.35897408, 4124.87179460, 4133.20512793, 4190.64102551,8.57
4112.56410229, 4117.94871767, 4113.58974332, 4104.48717921, 4120.64102537, 4179.74358961, 4125.12820485, 4123.84615357, 4123.33333306, 4128.97435870, 4124.61538434, 4118.97435870, 4130.76923050, 4187.56410243,8.57
4129.61538434, 4127.82051255, 4124.48717921, 4113.33333306, 4121.41025614, 4190.89743576, 4137.82051262, 4140.12820492, 4131.15384588, 4129.87179460, 4122.17948691, 4131.02564075, 4132.82051255, 4194.48717935,8.57
4113.84615357, 4118.84615357, 4111.92307665, 4106.92307665, 4121.66666639, 4193.20512807, 4140.76923056, 4136.92307672, 4132.17948691, 4125.64102537, 4117.05128178, 4116.41025614, 4127.56410229, 4188.46153833,8.57
4118.71794844, 4117.94871767, 4120.64102537, 4108.46153819, 4121.92307665, 4178.58974345, 4128.97435870, 4131.28205101, 4127.56410229, 4123.97435870, 4124.61538434, 4122.30769203, 4128.71794844, 4189.10256397,8.57
4127.05128178, 4125.38461511, 4125.25640998, 4113.71794844, 4124.48717921, 4173.33333320, 4126.79487152, 4139.99999980, 4136.53846133, 4126.92307665, 4122.17948691, 4119.74358947, 4128.97435870, 4186.28205115,8.57
4105.12820485, 4113.33333306, 4110.64102537, 4100.51282017, 4120.64102537, 4178.58974345, 4129.48717921, 4136.92307672, 4139.23076903, 4129.23076896, 4118.33333306, 4111.28205101, 4128.84615357, 4184.87179474,8.57
4125.38461511, 4125.89743562, 4130.76923050, 4111.66666639, 4124.61538434, 4169.35897422, 4116.79487152, 4120.89743562, 4121.66666639, 4127.05128178, 4125.51282024, 4124.23076896, 4132.30769203, 4190.76923063,8.57
4117.05128178, 4121.66666639, 4119.87179460, 4106.79487152, 4122.56410229, 4162.30769210, 4111.41025614, 4115.12820485, 4110.12820485, 4124.99999973, 4122.30769203, 4112.05128178, 4129.61538434, 4185.25641012,8.57
4114.74358947, 4122.05128178, 4122.56410229, 4106.41025614, 4120.51282024, 4179.10256397, 4130.89743562, 4129.35897408, 4128.46153819, 4127.17948691, 4121.41025614, 4118.97435870, 4132.56410229, 4189.99999986,8.57
4128.33333306, 4134.10256383, 4133.58974332, 4122.05128178, 4125.51282024, 4194.48717935, 4148.20512800, 4147.94871774, 4149.87179467, 4127.05128178, 4121.92307665, 4125.64102537, 4131.02564075, 4190.25641012,8.57
4110.51282024, 4118.84615357, 4116.53846126, 4113.58974332, 4119.61538434, 4194.99999986, 4152.56410236, 4160.64102544, 4155.38461518, 4125.76923050, 4123.20512793, 4116.53846126, 4127.05128178, 4183.07692294,8.57
4131.28205101, 4127.82051255, 4133.20512793, 4121.41025614, 4121.79487152, 4193.46153833, 4153.20512800, 4160.76923056, 4146.53846133, 4127.05128178, 4128.46153819, 4129.10256383, 4133.46153819, 4189.87179474,8.57
4124.35897408, 4122.69230742, 4122.94871767, 4115.51282024, 4123.97435870, 4188.20512807, 4146.79487159, 4151.15384595, 4137.56410236, 4127.17948691, 4121.92307665, 4121.66666639, 4132.56410229, 4189.61538448,8.57
4118.71794844, 4117.94871767, 4121.41025614, 4110.25640998, 4120.51282024, 4178.33333320, 4131.79487152, 4137.69230749, 4132.94871767, 4125.51282024, 4121.66666639, 4127.17948691, 4131.28205101, 4190.12820499,8.57
4139.61538441, 4133.71794844, 4135.64102544, 4123.33333306, 4122.94871767, 4184.99999986, 4132.56410229, 4136.79487159, 4129.99999973, 4128.58974332, 4125.64102537, 4133.20512793, 4131.66666639, 4190.12820499,8.57
4115.76923050, 4118.20512793, 4111.92307665, 4109.61538434, 4118.07692280, 4198.07692294, 4145.51282031, 4146.92307672, 4132.30769203, 4131.41025614, 4123.46153819, 4118.97435870, 4130.51282024, 4188.33333320,8.57
4126.92307665, 4125.12820485, 4128.46153819, 4118.84615357, 4122.43589716, 4181.79487166, 4128.58974332, 4130.89743562, 4127.30769203, 4127.69230742, 4125.38461511, 4133.33333306, 4133.84615357, 4197.30769217,8.57
4124.87179460, 4126.41025614, 4126.79487152, 4123.33333306, 4124.61538434, 4164.74358954, 4114.35897408, 4122.82051255, 4124.61538434, 4126.02564075, 4124.10256383, 4123.46153819, 4129.74358947, 4190.64102551,8.57
4114.10256383, 4116.79487152, 4111.53846126, 4112.82051255, 4117.69230742, 4180.76923063, 4138.46153826, 4152.30769210, 4141.02564082, 4129.87179460, 4126.92307665, 4120.25640998, 4129.61538434, 4186.28205115,8.57
4133.20512793, 4128.71794844, 4124.61538434, 4123.20512793, 4125.38461511, 4189.23076910, 4150.25641005, 4163.46153826, 4153.20512800, 4131.41025614, 4131.02564075, 4136.15384595, 4133.71794844, 4193.33333320,8.57
4110.51282024, 4113.84615357, 4110.38461511, 4111.15384588, 4124.99999973, 4177.82051269, 4131.66666639, 4136.66666646, 4142.17948697, 4128.58974332, 4125.76923050, 4116.79487152, 4128.71794844, 4191.66666653,8.57
4121.28205101, 4119.23076896, 4121.15384588, 4111.92307665, 4121.66666639, 4179.99999986, 4124.10256383, 4120.51282024, 4124.35897408, 4128.71794844, 4128.46153819, 4121.28205101, 4130.89743562, 4194.61538448,8.57
4124.23076896, 4126.53846126, 4122.05128178, 4116.41025614, 4123.07692280, 4196.66666653, 4143.71794851, 4143.71794851, 4131.02564075, 4128.71794844, 4129.23076896, 4123.71794844, 4132.05128178, 4188.97435884,8.57
4104.61538434, 4112.94871767, 4109.23076896, 4108.46153819, 4120.76923050, 4205.89743583, 4161.41025621, 4165.89743569, 4145.25641005, 4127.05128178, 4126.15384588, 4116.02564075, 4130.25640998, 4185.76923063,8.57
4126.66666639, 4123.33333306, 4126.41025614, 4119.61538434, 4124.99999973, 4186.53846140, 4140.51282031, 4149.74358954, 4139.61538441, 4129.23076896, 4130.38461511, 4126.53846126, 4133.84615357, 4192.82051269,8.57
4110.89743562, 4119.10256383, 4113.46153819, 4109.99999973, 4121.28205101, 4163.71794851, 4111.28205101, 4125.38461511, 4124.87179460, 4129.10256383, 4129.23076896, 4112.30769203, 4129.61538434, 4186.41025628,8.57
4116.79487152, 4124.23076896, 4122.69230742, 4109.10256383, 4120.64102537, 4167.30769210, 4119.10256383, 4128.58974332, 4128.58974332, 4127.43589716, 4128.71794844, 4119.99999973, 4129.35897408, 4189.99999986,8.57
4129.99999973, 4128.07692280, 4129.99999973, 4114.61538434, 4124.23076896, 4173.07692294, 4135.51282031, 4143.71794851, 4150.12820492, 4129.61538434, 4126.53846126, 4123.97435870, 4132.30769203, 4190.89743576,8.57
4111.15384588, 4115.89743562, 4117.43589716, 4107.30769203, 4118.33333306, 4169.10256397, 4132.82051255, 4142.43589723, 4146.28205108, 4131.02564075, 4124.10256383, 4113.71794844, 4131.15384588, 4186.66666653,8.57
4127.17948691, 4129.23076896, 4134.87179460, 4119.10256383, 4121.79487152, 4170.51282038, 4128.20512793, 4136.66666646, 4116.92307665, 4128.20512793, 4130.89743562, 4129.87179460, 4130.12820485, 4192.56410243,8.57
4116.41025614, 4119.48717921, 4119.35897408, 4110.64102537, 4120.38461511, 4174.74358961, 4134.61538434, 4146.02564082, 4124.23076896, 4126.15384588, 4129.10256383, 4120.12820485, 4126.79487152, 4187.69230756,8.57
4119.35897408, 4120.51282024, 4122.30769203, 4113.46153819, 4120.64102537, 4169.87179474, 4135.12820485, 4145.89743569, 4142.56410236, 4126.66666639, 4128.46153819, 4123.20512793, 4131.53846126, 4191.92307679,8.57
4132.43589716, 4132.30769203, 4132.30769203, 4123.71794844, 4127.56410229, 4171.28205115, 4128.58974332, 4128.71794844, 4128.58974332, 4126.66666639, 4130.89743562, 4129.61538434, 4132.43589716, 4192.17948704,8.57
4116.02564075, 4117.69230742, 4116.28205101, 4107.94871767, 4118.71794844, 4181.79487166, 4130.76923050, 4128.07692280, 4118.84615357, 4126.66666639, 4126.41025614, 4117.43589716, 4127.17948691, 4185.25641012,8.57
4133.58974332, 4128.97435870, 4132.17948691, 4116.15384588, 4117.94871767, 4183.58974345, 4128.33333306, 4129.23076896, 4107.69230742, 4127.43589716, 4129.99999973, 4133.84615357, 4133.20512793, 4193.71794858,8.57
4120.51282024, 4124.87179460, 4118.84615357, 4114.10256383, 4122.94871767, 4186.79487166, 4133.20512793, 4133.46153819, 4101.28205094, 4127.43589716, 4132.30769203, 4126.79487152, 4132.30769203, 4191.66666653,8.57
4118.46153819, 4118.46153819, 4115.38461511, 4108.33333306, 4122.82051255, 4184.10256397, 4148.71794851, 4155.89743569, 4127.30769203, 4128.20512793, 4131.53846126, 4123.33333306, 4128.71794844, 4192.69230756,8.57
4133.46153819, 4127.43589716, 4127.05128178, 4115.64102537, 4123.46153819, 4165.38461518, 4138.58974339, 4149.87179467, 4140.38461518, 4129.99999973, 4128.33333306, 4129.99999973, 4130.38461511, 4195.51282038,8.57
4109.23076896, 4115.38461511, 4108.58974332, 4106.66666639, 4120.38461511, 4156.66666646, 4119.23076896, 4123.58974332, 4122.56410229, 4130.12820485, 4125.38461511, 4118.46153819, 4128.07692280, 4191.53846140,8.57
4125.64102537, 4126.41025614, 4119.99999973, 4115.12820485, 4123.84615357, 4161.79487159, 4121.28205101, 4122.05128178, 4101.28205094, 4129.74358947, 4132.69230742, 4131.66666639, 4129.99999973, 4196.53846140,8.57
4122.82051255, 4126.41025614, 4117.05128178, 4113.33333306, 4123.71794844, 4159.99999980, 4128.58974332, 4128.84615357, 4089.23076889, 4128.71794844, 4127.69230742, 4122.43589716, 4129.61538434, 4190.25641012,8.57
4111.15384588, 4118.71794844, 4116.79487152, 4110.64102537, 4120.51282024, 4153.20512800, 4121.02564075, 4127.43589716, 4091.28205094, 4128.20512793, 4124.35897408, 4115.76923050, 4130.76923050, 4190.64102551,8.57
4127.17948691, 4125.89743562, 4126.15384588, 4122.17948691, 4124.99999973, 4152.30769210, 4116.66666639, 4129.23076896, 4100.51282017, 4129.61538434, 4130.76923050, 4128.46153819, 4131.15384588, 4194.99999986,8.57
4115.25640998, 4115.12820485, 4108.97435870, 4108.33333306, 4124.48717921, 4153.07692287, 4118.20512793, 4123.84615357, 4098.46153812, 4129.99999973, 4127.82051255, 4118.58974332, 4127.05128178, 4184.61538448,8.57
4125.64102537, 4124.35897408, 4127.43589716, 4112.82051255, 4124.99999973, 4155.25641005, 4119.61538434, 4126.92307665, 4110.51282024, 4129.61538434, 4128.71794844, 4127.43589716, 4131.28205101, 4188.58974345,8.57
4118.71794844, 4124.61538434, 4125.76923050, 4119.23076896, 4122.30769203, 4162.05128185, 4132.43589716, 4152.05128185, 4136.53846133, 4128.97435870, 4127.30769203, 4122.05128178, 4130.89743562, 4191.41025628,8.57
4111.02564075, 4118.07692280, 4117.05128178, 4119.23076896, 4120.89743562, 4169.23076910, 4142.30769210, 4150.76923056, 4133.20512793, 4127.94871767, 4126.02564075, 4117.43589716, 4130.51282024, 4191.15384602,8.57
4129.74358947, 4130.51282024, 4132.94871767, 4127.17948691, 4127.17948691, 4165.51282031, 4136.92307672, 4125.64102537, 4132.30769203, 4127.17948691, 4129.61538434, 4128.07692280, 4132.56410229, 4191.02564089,8.57
4111.66666639, 4120.12820485, 4117.43589716, 4113.20512793, 4122.17948691, 4149.87179467, 4124.23076896, 4119.99999973, 4151.66666646, 4127.56410229, 4125.76923050, 4110.12820485, 4125.51282024, 4184.35897422,8.57
4122.30769203, 4125.12820485, 4128.58974332, 4121.15384588, 4123.33333306, 4145.25641005, 4112.43589716, 4119.35897408, 4140.25641005, 4127.94871767, 4127.69230742, 4118.97435870, 4127.43589716, 4192.69230756,8.57
4125.12820485, 4126.92307665, 4129.23076896, 4125.25640998, 4125.64102537, 4167.69230749, 4124.48717921, 4123.97435870, 4123.07692280, 4127.82051255, 4129.87179460, 4124.23076896, 4132.30769203, 4191.02564089,8.57
4117.43589716, 4118.20512793, 4122.05128178, 4112.69230742, 4120.25640998, 4178.71794858, 4141.41025621, 4135.76923056, 4137.17948697, 4127.69230742, 4128.84615357, 4118.07692280, 4130.76923050, 4186.92307679,8.57
4136.41025621, 4129.87179460, 4138.71794851, 4120.89743562, 4123.71794844, 4154.87179467, 4128.58974332, 4131.15384588, 4142.05128185, 4127.69230742, 4132.82051255, 4129.61538434, 4131.92307665, 4192.30769217,8.57
4116.28205101, 4119.87179460, 4119.61538434, 4113.97435870, 4120.89743562, 4147.56410236, 4122.30769203, 4134.23076896, 4142.05128185, 4128.07692280, 4129.23076896, 4121.66666639, 4131.92307665, 4187.94871781,8.57
4125.89743562, 4124.87179460, 4126.41025614, 4120.89743562, 4121.79487152, 4165.64102544, 4140.38461518, 4149.61538441, 4150.51282031, 4127.69230742, 4128.84615357, 4132.05128178, 4132.94871767, 4194.48717935,8.57
4130.76923050, 4129.23076896, 4128.46153819, 4125.64102537, 4125.64102537, 4164.48717928, 4142.94871774, 4143.46153826, 4146.66666646, 4126.66666639, 4129.35897408, 4129.87179460, 4131.66666639, 4195.25641012,8.57
4110.38461511, 4115.25640998, 4112.05128178, 4110.51282024, 4118.71794844, 4152.17948697, 4128.58974332, 4129.35897408, 4139.23076903, 4128.07692280, 4126.41025614, 4116.53846126, 4130.38461511, 4192.17948704,8.57
4130.89743562, 4128.20512793, 4127.56410229, 4120.38461511, 4118.97435870, 4151.66666646, 4125.51282024, 4133.20512793, 4143.97435877, 4131.28205101, 4130.76923050, 4135.12820485, 4135.89743569, 4196.66666653,8.57
4116.66666639, 4119.87179460, 4113.46153819, 4117.56410229, 4119.61538434, 4161.15384595, 4142.17948697, 4152.43589723, 4168.33333320, 4130.12820485, 4128.07692280, 4121.92307665, 4132.94871767, 4187.05128192,8.57
4115.89743562, 4118.20512793, 4117.82051255, 4118.33333306, 4120.64102537, 4167.94871774, 4152.82051262, 4154.87179467, 4174.23076910, 4127.82051255, 4128.97435870, 4120.89743562, 4131.15384588, 4190.25641012,8.57
4127.05128178, 4128.33333306, 4123.46153819, 4124.35897408, 4122.30769203, 4160.76923056, 4131.92307665, 4124.10256383, 4134.35897408, 4129.10256383, 4130.89743562, 4132.30769203, 4132.43589716, 4194.48717935,8.57
4107.30769203, 4116.92307665, 4105.51282024, 4113.84615357, 4119.23076896, 4156.53846133, 4120.76923050, 4110.38461511, 4112.94871767, 4129.35897408, 4125.51282024, 4115.76923050, 4126.79487152, 4187.69230756,8.57
4120.12820485, 4125.38461511, 4126.02564075, 4123.33333306, 4124.10256383, 4161.92307672, 4140.25641005, 4137.69230749, 4142.82051262, 4129.48717921, 4129.61538434, 4121.53846126, 4128.07692280, 4190.89743576,8.57
4111.15384588, 4119.48717921, 4117.82051255, 4118.33333306, 4125.38461511, 4162.05128185, 4145.76923056, 4151.28205108, 4164.10256390, 4128.58974332, 4131.53846126, 4116.79487152, 4127.30769203, 4186.15384602,8.57
4115.64102537, 4119.87179460, 4117.69230742, 4118.58974332, 4125.76923050, 4158.58974339, 4130.76923050, 4129.87179460, 4147.94871774, 4127.56410229, 4130.12820485, 4118.33333306, 4126.92307665, 4186.92307679,8.57
4130.76923050, 4130.76923050, 4132.82051255, 4128.58974332, 4129.35897408, 4161.41025621, 4127.56410229, 4118.71794844, 4132.82051255, 4129.23076896, 4127.69230742, 4124.87179460, 4130.76923050, 4191.66666653,8.57
4106.53846126, 4115.51282024, 4116.02564075, 4115.25640998, 4121.92307665, 4164.35897415, 4137.43589723, 4136.41025621, 4141.79487159, 4129.61538434, 4124.99999973, 4108.71794844, 4126.02564075, 4186.02564089,8.57
4122.56410229, 4122.69230742, 4129.74358947, 4123.33333306, 4123.07692280, 4158.58974339, 4136.66666646, 4141.28205108, 4147.56410236, 4129.48717921, 4132.82051255, 4125.25640998, 4128.20512793, 4190.89743576,8.57
4122.43589716, 4123.07692280, 4130.38461511, 4123.46153819, 4124.87179460, 4153.71794851, 4129.48717921, 4131.02564075, 4137.82051262, 4129.10256383, 4130.12820485, 4125.25640998, 4130.76923050, 4187.05128192,8.57
4116.41025614, 4121.92307665, 4128.71794844, 4119.99999973, 4121.41025614, 4149.48717928, 4123.07692280, 4127.94871767, 4129.48717921, 4127.05128178, 4124.48717921, 4116.02564075, 4129.10256383, 4184.10256397,8.57
4132.30769203, 4131.92307665, 4134.23076896, 4130.38461511, 4123.84615357, 4156.28205108, 4125.38461511, 4128.33333306, 4138.58974339, 4127.82051255, 4132.82051255, 4127.82051255, 4129.48717921, 4192.30769217,8.57
4117.94871767, 4118.46153819, 4115.25640998, 4119.10256383, 4120.76923050, 4175.38461525, 4144.87179467, 4142.82051262, 4163.20512800, 4130.76923050, 4131.79487152, 4118.58974332, 4128.33333306, 4188.58974345,8.57
4132.17948691, 4127.56410229, 4133.07692280, 4125.38461511, 4122.17948691, 4173.84615371, 4151.66666646, 4150.76923056, 4163.58974339, 4129.10256383, 4131.79487152, 4128.71794844, 4134.74358947, 4189.87179474,8.57
4126.15384588, 4128.97435870, 4129.10256383, 4128.46153819, 4122.30769203, 4167.56410236, 4145.51282031, 4138.84615364, 4134.74358947, 4126.79487152, 4133.58974332, 4128.46153819, 4135.89743569, 4189.35897422,8.57
4111.41025614, 4119.10256383, 4114.61538434, 4119.99999973, 4118.97435870, 4174.74358961, 4143.20512800, 4134.35897408, 4123.07692280, 4130.12820485, 4131.28205101, 4122.17948691, 4132.56410229, 4192.30769217,8.57
4132.30769203, 4129.48717921, 4129.48717921, 4127.69230742, 4123.07692280, 4169.61538448, 4138.58974339, 4132.94871767, 4131.02564075, 4130.76923050, 4133.97435870, 4137.56410236, 4134.35897408, 4196.28205115,8.57
4115.64102537, 4117.43589716, 4112.05128178, 4119.74358947, 4121.02564075, 4158.20512800, 4140.89743569, 4137.17948697, 4147.05128185, 4126.79487152, 4129.74358947, 4123.71794844, 4130.25640998, 4184.99999986,8.57
4120.76923050, 4121.66666639, 4116.28205101, 4125.64102537, 4119.48717921, 4159.35897415, 4142.69230749, 4143.07692287, 4157.82051262, 4127.05128178, 4129.99999973, 4128.97435870, 4132.43589716, 4191.92307679,8.57
4125.89743562, 4128.20512793, 4120.51282024, 4131.02564075, 4122.17948691, 4155.64102544, 4127.94871767, 4125.38461511, 4139.61538441, 4129.48717921, 4131.53846126, 4131.28205101, 4132.17948691, 4191.66666653,8.57
4110.64102537, 4115.76923050, 4109.87179460, 4118.97435870, 4121.79487152, 4149.23076903, 4119.23076896, 4111.41025614, 4119.35897408, 4129.61538434, 4127.30769203, 4117.30769203, 4127.69230742, 4185.89743576,8.57
4124.87179460, 4124.99999973, 4123.97435870, 4126.15384588, 4123.07692280, 4156.41025621, 4124.23076896, 4121.41025614, 4131.92307665, 4129.99999973, 4129.87179460, 4130.64102537, 4134.61538434, 4194.87179474,8.57
4108.33333306, 4118.07692280, 4109.23076896, 4119.35897408, 4119.87179460, 4158.71794851, 4119.23076896, 4120.51282024, 4141.92307672, 4128.71794844, 4128.84615357, 4119.48717921, 4132.17948691, 4187.94871781,8.57
4112.05128178, 4117.43589716, 4112.43589716, 4119.74358947, 4120.38461511, 4154.10256390, 4116.15384588, 4113.33333306, 4129.10256383, 4128.07692280, 4128.97435870, 4120.12820485, 4131.28205101, 4189.10256397,8.57
4124.10256383, 4125.25640998, 4120.12820485, 4125.64102537, 4123.46153819, 4161.15384595, 4133.97435870, 4128.71794844, 4135.12820485, 4128.46153819, 4130.38461511, 4126.15384588, 4135.38461518, 4192.17948704,8.57
4108.20512793, 4117.56410229, 4112.43589716, 4119.10256383, 4118.71794844, 4163.46153826, 4137.05128185, 4127.94871767, 4147.05128185, 4128.07692280, 4129.35897408, 4110.89743562, 4130.64102537, 4184.61538448,8.57
4123.07692280, 4126.66666639, 4131.02564075, 4131.15384588, 4122.30769203, 4155.25641005, 4127.94871767, 4114.99999973, 4131.92307665, 4128.20512793, 4134.87179460, 4124.10256383, 4130.25640998, 4188.07692294,8.57
4115.76923050, 4121.41025614, 4119.35897408, 4123.84615357, 4122.17948691, 4161.79487159, 4143.46153826, 4139.99999980, 4131.79487152, 4127.82051255, 4131.41025614, 4117.43589716, 4129.10256383, 4185.76923063,8.57
4117.30769203, 4122.30769203, 4123.33333306, 4120.89743562, 4118.71794844, 4168.97435884, 4152.56410236, 4160.25641005, 4155.12820492, 4128.97435870, 4128.58974332, 4116.41025614, 4129.48717921, 4188.20512807,8.57
4127.56410229, 4132.30769203, 4136.41025621, 4130.25640998, 4123.71794844, 4161.41025621, 4142.94871774, 4150.51282031, 4161.53846133, 4131.28205101, 4132.94871767, 4126.79487152, 4131.02564075, 4190.25641012,8.57
4110.64102537, 4121.15384588, 4119.23076896, 4120.25640998, 4122.69230742, 4164.10256390, 4148.58974339, 4150.76923056, 4154.87179467, 4131.15384588, 4129.48717921, 4114.48717921, 4126.92307665, 4183.46153833,8.57
4129.48717921, 4131.53846126, 4133.20512793, 4129.61538434, 4123.97435870, 4165.25641005, 4153.58974339, 4162.56410236, 4157.69230749, 4128.07692280, 4130.38461511, 4127.56410229, 4130.12820485, 4189.48717935,8.57
4124.48717921, 4128.20512793, 4125.51282024, 4128.33333306, 4121.92307665, 4152.30769210, 4135.64102544, 4149.35897415, 4153.97435877, 4126.15384588, 4130.51282024, 4126.41025614, 4131.79487152, 4188.58974345,8.57
4120.76923050, 4122.94871767, 4123.46153819, 4125.25640998, 4120.51282024, 4149.99999980, 4119.23076896, 4115.12820485, 4128.07692280, 4127.43589716, 4130.38461511, 4125.25640998, 4131.15384588, 4189.35897422,8.57
4133.84615357, 4132.05128178, 4134.99999973, 4133.46153819, 4125.51282024, 4159.61538441, 4126.53846126, 4113.07692280, 4120.25640998, 4128.46153819, 4132.69230742, 4137.05128185, 4134.48717921, 4193.71794858,8.57
4111.41025614, 4118.46153819, 4113.07692280, 4120.64102537, 4121.02564075, 4166.41025621, 4144.74358954, 4146.41025621, 4151.41025621, 4128.84615357, 4126.41025614, 4122.43589716, 4132.17948691, 4187.56410243,8.57
4129.61538434, 4128.33333306, 4127.43589716, 4127.82051255, 4123.33333306, 4159.35897415, 4140.64102544, 4142.17948697, 4146.41025621, 4129.48717921, 4129.35897408, 4134.48717921, 4132.82051255, 4194.99999986,8.57
4130.38461511, 4127.82051255, 4126.66666639, 4129.35897408, 4124.10256383, 4159.10256390, 4135.64102544, 4120.76923050, 4113.97435870, 4129.35897408, 4129.99999973, 4130.76923050, 4130.25640998, 4194.35897422,8.57
4112.43589716, 4115.38461511, 4114.48717921, 4124.74358947, 4117.69230742, 4173.07692294, 4159.35897415, 4158.97435877, 4152.17948697, 4128.71794844, 4126.15384588, 4118.84615357, 4127.94871767, 4191.41025628,8.57
4130.51282024, 4128.07692280, 4127.56410229, 4136.28205108, 4121.41025614, 4168.71794858, 4161.92307672, 4177.82051269, 4183.33333320, 4130.12820485, 4130.51282024, 4133.97435870, 4133.20512793, 4198.71794858,8.57
4115.25640998, 4120.25640998, 4112.56410229, 4123.71794844, 4122.17948691, 4149.74358954, 4132.69230742, 4132.43589716, 4132.17948691, 4131.02564075, 4127.82051255, 4117.30769203, 4128.33333306, 4191.79487166,8.57
4118.97435870, 4123.07692280, 4119.74358947, 4130.64102537, 4123.84615357, 4146.92307672, 4129.35897408, 4118.58974332, 4107.82051255, 4128.84615357, 4128.71794844, 4118.07692280, 4128.33333306, 4190.89743576,8.57
4119.48717921, 4122.82051255, 4117.82051255, 4136.41025621, 4125.76923050, 4161.92307672, 4149.61538441, 4146.02564082, 4143.97435877, 4127.05128178, 4129.74358947, 4124.61538434, 4133.46153819, 4187.94871781,8.57
4108.46153819, 4113.46153819, 4109.74358947, 4121.66666639, 4122.17948691, 4170.76923063, 4157.56410236, 4151.92307672, 4152.05128185, 4129.48717921, 4127.43589716, 4117.69230742, 4129.48717921, 4187.05128192,8.57
4129.48717921, 4127.82051255, 4130.12820485, 4131.92307665, 4124.35897408, 4162.17948697, 4144.74358954, 4134.48717921, 4131.02564075, 4130.89743562, 4132.30769203, 4127.82051255, 4128.97435870, 4194.10256397,8.57
4113.07692280, 4119.10256383, 4115.51282024, 4131.28205101, 4122.69230742, 4153.84615364, 4136.02564082, 4128.97435870, 4133.46153819, 4127.17948691, 4125.76923050, 4114.10256383, 4129.48717921, 4184.48717935,8.57
4116.15384588, 4122.05128178, 4122.30769203, 4135.51282031, 4123.84615357, 4156.28205108, 4143.33333313, 4139.61538441, 4147.69230749, 4125.89743562, 4126.41025614, 4119.48717921, 4132.69230742, 4187.05128192,8.57
4116.15384588, 4122.05128178, 4122.30769203, 4135.51282031, 4123.84615357, 4156.28205108, 4143.33333313, 4139.61538441, 4147.69230749, 4125.89743562, 4126.41025614, 4119.48717921, 4132.69230742, 4187.05128192,8.57
4126.15384588, 4129.48717921, 4130.76923050, 4138.97435877, 4127.30769203, 4157.30769210, 4144.61538441, 4146.28205108, 4149.61538441, 4127.56410229, 4134.10256383, 4124.74358947, 4132.17948691, 4189.48717935,8.57
4110.64102537, 4114.10256383, 4117.17948691, 4126.92307665, 4120.25640998, 4149.23076903, 4133.84615357, 4129.35897408, 4130.76923050, 4127.05128178, 4129.99999973, 4113.33333306, 4127.94871767, 4183.71794858,8.57
4129.87179460, 4125.38461511, 4132.94871767, 4139.10256390, 4121.53846126, 4144.35897415, 4129.74358947, 4114.23076896, 4116.53846126, 4127.56410229, 4129.35897408, 4130.64102537, 4131.79487152, 4191.66666653,8.57
4120.38461511, 4124.35897408, 4121.79487152, 4135.64102544, 4123.97435870, 4149.35897415, 4139.48717928, 4129.74358947, 4128.84615357, 4127.69230742, 4127.69230742, 4119.35897408, 4127.69230742, 4189.61538448,8.57
4123.84615357, 4127.05128178, 4126.92307665, 4133.07692280, 4125.51282024, 4160.64102544, 4151.41025621, 4144.87179467, 4139.87179467, 4126.28205101, 4129.35897408, 4116.92307665, 4126.28205101, 4190.51282038,8.57
4137.17948697, 4134.23076896, 4136.79487159, 4138.07692287, 4126.15384588, 4160.76923056, 4146.66666646, 4136.15384595, 4142.43589723, 4127.05128178, 4132.82051255, 4129.61538434, 4132.30769203, 4193.20512807,8.57
4116.02564075, 4120.76923050, 4114.35897408, 4123.71794844, 4120.25640998, 4144.74358954, 4125.89743562, 4119.35897408, 4137.05128185, 4128.84615357, 4129.48717921, 4117.94871767, 4130.38461511, 4188.97435884,8.57
4131.41025614, 4133.71794844, 4128.71794844, 4129.61538434, 4126.02564075, 4133.07692280, 4111.28205101, 4109.10256383, 4113.46153819, 4128.20512793, 4132.05128178, 4130.76923050, 4130.38461511, 4195.51282038,8.57
4122.56410229, 4127.17948691, 4123.46153819, 4126.79487152, 4125.64102537, 4135.25640998, 4124.10256383, 4127.43589716, 4118.33333306, 4127.94871767, 4130.51282024, 4125.51282024, 4130.64102537, 4191.66666653,8.57
4117.30769203, 4118.33333306, 4117.56410229, 4125.25640998, 4119.74358947, 4141.92307672, 4140.38461518, 4155.64102544, 4157.82051262, 4129.23076896, 4129.23076896, 4122.30769203, 4133.71794844, 4191.41025628,8.57
4135.38461518, 4129.48717921, 4125.51282024, 4136.15384595, 4124.48717921, 4147.30769210, 4139.87179467, 4146.15384595, 4153.07692287, 4129.10256383, 4133.33333306, 4135.12820485, 4135.89743569, 4195.12820499,8.57
4112.94871767, 4116.66666639, 4109.10256383, 4122.94871767, 4123.20512793, 4150.51282031, 4136.02564082, 4120.51282024, 4119.99999973, 4127.82051255, 4129.35897408, 4120.25640998, 4128.84615357, 4189.10256397,8.57
4121.92307665, 4122.17948691, 4125.64102537, 4128.84615357, 4122.05128178, 4148.07692287, 4131.53846126, 4119.48717921, 4125.38461511, 4128.84615357, 4130.51282024, 4128.46153819, 4130.12820485, 4193.33333320,8.57
4124.35897408, 4123.20512793, 4122.69230742, 4129.74358947, 4123.20512793, 4141.79487159, 4121.53846126, 4125.38461511, 4136.28205108, 4130.38461511, 4128.97435870, 4124.10256383, 4131.92307665, 4190.38461525,8.57
4114.10256383, 4115.64102537, 4112.43589716, 4118.58974332, 4122.82051255, 4131.79487152, 4107.56410229, 4116.41025614, 4123.84615357, 4130.76923050, 4123.46153819, 4114.99999973, 4129.87179460, 4190.64102551,8.57
4125.25640998, 4124.35897408, 4123.71794844, 4128.71794844, 4125.25640998, 4129.23076896, 4107.82051255, 4108.07692280, 4117.82051255, 4128.71794844, 4126.79487152, 4127.82051255, 4129.99999973, 4194.87179474,8.57
4111.92307665, 4116.41025614, 4112.30769203, 4125.89743562, 4123.58974332, 4141.28205108, 4125.51282024, 4115.64102537, 4131.92307665, 4125.25640998, 4125.64102537, 4114.48717921, 4126.02564075, 4185.38461525,8.57
4122.43589716, 4124.48717921, 4122.94871767, 4130.12820485, 4125.64102537, 4144.61538441, 4132.43589716, 4127.69230742, 4145.12820492, 4127.05128178, 4129.23076896, 4120.51282024, 4129.10256383, 4189.74358961,8.57
4120.51282024, 4126.53846126, 4117.05128178, 4131.79487152, 4126.41025614, 4140.51282031, 4126.92307665, 4133.84615357, 4144.48717928, 4130.38461511, 4131.28205101, 4122.43589716, 4130.25640998, 4187.94871781,8.57
4110.51282024, 4118.07692280, 4113.97435870, 4127.69230742, 4123.97435870, 4140.51282031, 4119.99999973, 4125.38461511, 4120.76923050, 4129.35897408, 4127.30769203, 4113.58974332, 4127.17948691, 4183.58974345,8.57
4130.89743562, 4129.10256383, 4136.79487159, 4135.64102544, 4126.41025614, 4137.56410236, 4119.87179460, 4118.33333306, 4105.64102537, 4130.64102537, 4129.48717921, 4125.25640998, 4132.05128178, 4193.46153833,8.57
4113.33333306, 4118.07692280, 4118.07692280, 4124.35897408, 4120.64102537, 4139.35897415, 4134.61538434, 4134.61538434, 4136.92307672, 4131.79487152, 4126.28205101, 4113.07692280, 4129.48717921, 4189.99999986,8.57
4120.89743562, 4121.79487152, 4125.12820485, 4133.07692280, 4123.07692280, 4143.07692287, 4141.92307672, 4148.46153826, 4164.23076903, 4128.84615357, 4127.43589716, 4118.33333306, 4129.10256383, 4189.48717935,8.57
4132.56410229, 4130.38461511, 4132.69230742, 4138.20512800, 4127.82051255, 4137.82051262, 4130.25640998, 4139.10256390, 4151.79487159, 4127.30769203, 4129.48717921, 4124.74358947, 4130.76923050, 4187.43589730,8.57
4119.48717921, 4121.92307665, 4120.64102537, 4121.41025614, 4120.25640998, 4133.84615357, 4122.43589716, 4121.41025614, 4132.82051255, 4128.20512793, 4128.20512793, 4118.71794844, 4129.10256383, 4184.61538448,8.57
4134.74358947, 4131.53846126, 4134.99999973, 4130.89743562, 4124.10256383, 4132.30769203, 4121.41025614, 4113.58974332, 4127.43589716, 4127.05128178, 4133.20512793, 4133.20512793, 4133.58974332, 4193.20512807,8.57
4119.35897408, 4122.43589716, 4120.25640998, 4125.25640998, 4122.69230742, 4130.12820485, 4124.35897408, 4121.28205101, 4127.82051255, 4125.51282024, 4130.89743562, 4122.30769203, 4132.43589716, 4189.10256397,8.57
4125.51282024, 4127.05128178, 4123.46153819, 4123.71794844, 4118.20512793, 4133.33333306, 4131.79487152, 4128.58974332, 4123.58974332, 4126.28205101, 4131.02564075, 4129.74358947, 4131.02564075, 4192.56410243,8.57
4134.74358947, 4137.17948697, 4129.99999973, 4128.84615357, 4124.61538434, 4135.38461518, 4131.53846126, 4128.84615357, 4120.25640998, 4127.30769203, 4132.82051255, 4137.82051262, 4132.43589716, 4195.25641012,8.57
4110.89743562, 4118.20512793, 4112.30769203, 4114.74358947, 4124.23076896, 4127.05128178, 4119.74358947, 4120.51282024, 4114.74358947, 4127.69230742, 4128.20512793, 4117.43589716, 4132.30769203, 4188.71794858,8.57
4132.30769203, 4124.61538434, 4124.87179460, 4124.87179460, 4122.69230742, 4113.71794844, 4106.41025614, 4100.51282017, 4101.79487145, 4129.35897408, 4131.79487152, 4131.02564075, 4134.61538434, 4196.53846140,8.57
4125.25640998, 4123.58974332, 4114.87179460, 4126.53846126, 4121.28205101, 4115.38461511, 4107.05128178, 4102.94871767, 4108.58974332, 4128.20512793, 4130.89743562, 4127.69230742, 4128.97435870, 4194.87179474,8.57
4113.33333306, 4120.25640998, 4115.12820485, 4124.10256383, 4121.15384588, 4125.89743562, 4107.69230742, 4117.30769203, 4121.53846126, 4126.53846126, 4128.20512793, 4123.07692280, 4128.46153819, 4193.20512807,8.57
4124.61538434, 4127.82051255, 4125.76923050, 4129.74358947, 4124.74358947, 4115.25640998, 4093.07692273, 4099.61538427, 4105.51282024, 4129.35897408, 4130.76923050, 4129.23076896, 4132.30769203, 4193.46153833,8.57
4108.97435870, 4116.53846126, 4107.69230742, 4118.20512793, 4123.58974332, 4101.02564068, 4089.48717914, 4088.33333299, 4098.46153812, 4130.64102537, 4127.56410229, 4112.94871767, 4125.76923050, 4187.05128192,8.57
4120.64102537, 4122.94871767, 4121.53846126, 4122.82051255, 4124.48717921, 4113.46153819, 4106.53846126, 4116.15384588, 4120.76923050, 4128.46153819, 4129.23076896, 4123.07692280, 4126.79487152, 4192.30769217,8.57
4116.28205101, 4118.46153819, 4119.23076896, 4118.20512793, 4123.46153819, 4124.74358947, 4109.74358947, 4121.79487152, 4121.79487152, 4128.33333306, 4126.79487152, 4117.56410229, 4128.97435870, 4191.02564089,8.57
4111.02564075, 4114.35897408, 4115.64102537, 4114.99999973, 4123.58974332, 4115.76923050, 4096.02564068, 4090.12820478, 4097.82051248, 4129.99999973, 4124.48717921, 4109.35897408, 4127.69230742, 4192.43589730,8.57
4126.66666639, 4129.61538434, 4129.87179460, 4129.99999973, 4129.35897408, 4108.84615357, 4094.35897402, 4087.30769196, 4093.20512786, 4129.35897408, 4131.41025614, 4124.61538434, 4129.48717921, 4193.97435884,8.57
4108.71794844, 4120.76923050, 4114.10256383, 4121.41025614, 4121.79487152, 4116.66666639, 4105.64102537, 4111.92307665, 4108.20512793, 4127.94871767, 4127.43589716, 4114.87179460, 4126.79487152, 4183.84615371,8.57
4122.56410229, 4125.38461511, 4126.28205101, 4126.79487152, 4120.64102537, 4124.74358947, 4110.76923050, 4117.82051255, 4112.94871767, 4128.20512793, 4126.92307665, 4122.17948691, 4131.79487152, 4191.28205115,8.57
4125.76923050, 4125.89743562, 4125.25640998, 4127.82051255, 4125.51282024, 4129.35897408, 4119.74358947, 4124.87179460, 4117.43589716, 4129.74358947, 4129.48717921, 4119.48717921, 4130.64102537, 4191.15384602,8.57
4112.56410229, 4119.35897408, 4116.02564075, 4121.02564075, 4121.28205101, 4129.87179460, 4128.84615357, 4133.46153819, 4123.33333306, 4130.51282024, 4128.84615357, 4109.99999973, 4122.05128178, 4183.97435884,8.57
4130.12820485, 4133.20512793, 4134.74358947, 4134.10256383, 4123.84615357, 4113.58974332, 4107.30769203, 4102.56410229, 4104.74358947, 4128.71794844, 4131.41025614, 4127.43589716, 4127.30769203, 4190.12820499,8.57
4116.41025614, 4123.33333306, 4117.69230742, 4123.58974332, 4122.82051255, 4106.53846126, 4092.43589709, 4087.17948684, 4106.41025614, 4126.79487152, 4126.92307665, 4119.99999973, 4130.51282024, 4187.05128192,8.57
4127.43589716, 4128.07692280, 4123.84615357, 4124.74358947, 4125.25640998, 4123.84615357, 4111.41025614, 4119.74358947, 4144.61538441, 4128.97435870, 4130.12820485, 4127.43589716, 4130.25640998, 4190.12820499,8.57
4132.05128178, 4130.89743562, 4129.23076896, 4130.38461511, 4127.56410229, 4134.87179460, 4117.30769203, 4122.43589716, 4145.25641005, 4130.38461511, 4132.17948691, 4128.97435870, 4131.02564075, 4192.30769217,8.57
4109.99999973, 4114.61538434, 4114.23076896, 4118.33333306, 4119.48717921, 4124.61538434, 4103.46153819, 4098.71794837, 4118.58974332, 4128.46153819, 4128.07692280, 4116.41025614, 4130.38461511, 4189.48717935,8.57
4130.12820485, 4129.10256383, 4129.48717921, 4125.89743562, 4120.89743562, 4118.71794844, 4109.99999973, 4112.17948691, 4121.66666639, 4126.92307665, 4133.07692280, 4135.64102544, 4133.97435870, 4197.05128192,8.57
4120.12820485, 4125.51282024, 4116.92307665, 4116.92307665, 4122.82051255, 4131.02564075, 4128.20512793, 4139.23076903, 4127.56410229, 4127.94871767, 4129.23076896, 4126.02564075, 4131.28205101, 4193.33333320,8.57
4118.33333306, 4121.92307665, 4119.48717921, 4116.28205101, 4122.94871767, 4135.89743569, 4126.02564075, 4137.17948697, 4117.94871767, 4129.10256383, 4127.17948691, 4124.35897408, 4132.43589716, 4194.35897422,8.57
4126.28205101, 4126.28205101, 4124.74358947, 4125.38461511, 4122.30769203, 4127.30769203, 4120.25640998, 4127.43589716, 4127.94871767, 4128.58974332, 4129.61538434, 4130.51282024, 4135.64102544, 4193.97435884,8.57
4107.82051255, 4114.35897408, 4106.53846126, 4114.35897408, 4118.46153819, 4123.46153819, 4119.99999973, 4117.94871767, 4134.87179460, 4128.33333306, 4125.38461511, 4114.99999973, 4128.97435870, 4187.05128192,8.57
4128.58974332, 4125.64102537, 4123.97435870, 4124.61538434, 4122.69230742, 4122.56410229, 4111.92307665, 4106.02564075, 4118.46153819, 4128.58974332, 4128.46153819, 4128.46153819, 4129.74358947, 4196.41025628,8.57
4121.15384588, 4121.53846126, 4119.23076896, 4122.69230742, 4122.56410229, 4113.58974332, 4101.79487145, 4102.69230742, 4112.82051255, 4127.17948691, 4128.46153819, 4122.56410229, 4130.89743562, 4193.58974345,8.57
4111.28205101, 4118.97435870, 4120.25640998, 4118.20512793, 4120.76923050, 4107.30769203, 4101.15384581, 4101.79487145, 4113.58974332, 4126.66666639, 4129.61538434, 4119.74358947, 4131.79487152, 4191.79487166,8.57
4122.30769203, 4128.97435870, 4129.87179460, 4124.99999973, 4125.89743562, 4105.12820485, 4103.58974332, 4108.84615357, 4112.82051255, 4128.33333306, 4131.02564075, 4126.92307665, 4133.97435870, 4193.20512807,8.57
4104.99999973, 4115.51282024, 4112.56410229, 4112.82051255, 4121.66666639, 4102.05128171, 4102.56410229, 4121.53846126, 4119.35897408, 4127.56410229, 4123.46153819, 4108.20512793, 4128.58974332, 4186.92307679,8.57
4121.02564075, 4123.84615357, 4125.25640998, 4121.92307665, 4122.82051255, 4109.99999973, 4099.35897402, 4110.64102537, 4110.12820485, 4126.28205101, 4128.97435870, 4122.82051255, 4130.25640998, 4192.69230756,8.57
4120.76923050, 4123.33333306, 4120.89743562, 4124.10256383, 4123.71794844, 4121.15384588, 4099.61538427, 4095.12820478, 4089.23076889, 4127.94871767, 4132.30769203, 4122.94871767, 4130.38461511, 4187.30769217,8.57
4112.56410229, 4118.71794844, 4121.92307665, 4120.76923050, 4119.23076896, 4108.84615357, 4101.28205094, 4101.79487145, 4088.07692273, 4128.84615357, 4126.02564075, 4112.56410229, 4130.38461511, 4184.74358961,8.57
4128.33333306, 4131.92307665, 4139.87179467, 4130.38461511, 4124.74358947, 4094.61538427, 4099.99999966, 4101.41025607, 4097.05128171, 4128.07692280, 4128.84615357, 4123.07692280, 4132.69230742, 4191.53846140,8.57
4112.82051255, 4120.12820485, 4118.46153819, 4119.48717921, 4121.92307665, 4114.48717921, 4111.41025614, 4104.61538434, 4115.25640998, 4127.43589716, 4129.23076896, 4113.97435870, 4126.53846126, 4185.89743576,8.57
4125.12820485, 4126.41025614, 4128.97435870, 4127.17948691, 4121.02564075, 4129.23076896, 4118.33333306, 4114.61538434, 4124.48717921, 4128.58974332, 4130.76923050, 4126.28205101, 4128.97435870, 4189.61538448,8.57
4127.17948691, 4126.41025614, 4131.28205101, 4129.10256383, 4124.74358947, 4115.25640998, 4103.97435870, 4101.79487145, 4106.53846126, 4129.35897408, 4132.43589716, 4126.15384588, 4132.17948691, 4187.30769217,8.57
4117.05128178, 4114.23076896, 4118.20512793, 4115.89743562, 4121.92307665, 4108.84615357, 4095.76923043, 4091.92307658, 4099.23076889, 4129.23076896, 4132.17948691, 4116.28205101, 4128.97435870, 4186.28205115,8.57
4135.51282031, 4128.84615357, 4132.17948691, 4123.97435870, 4124.10256383, 4111.66666639, 4101.79487145, 4100.89743555, 4107.17948691, 4128.71794844, 4134.74358947, 4132.30769203, 4130.12820485, 4194.35897422,8.57
4114.87179460, 4120.38461511, 4115.89743562, 4115.89743562, 4122.17948691, 4104.48717921, 4102.17948684, 4107.43589716, 4102.30769196, 4127.17948691, 4129.48717921, 4123.46153819, 4128.58974332, 4188.97435884,8.57
4121.92307665, 4121.53846126, 4119.74358947, 4116.15384588, 4121.53846126, 4101.28205094, 4095.89743555, 4108.33333306, 4098.33333299, 4126.79487152, 4129.48717921, 4129.10256383, 4130.51282024, 4194.35897422,8.57
4129.61538434, 4127.05128178, 4123.84615357, 4119.48717921, 4122.17948691, 4116.66666639, 4103.46153819, 4117.94871767, 4117.43589716, 4128.58974332, 4131.66666639, 4129.61538434, 4131.02564075, 4195.38461525,8.57
4107.43589716, 4114.35897408, 4110.76923050, 4109.35897408, 4120.76923050, 4120.76923050, 4111.41025614, 4116.02564075, 4123.58974332, 4129.48717921, 4129.74358947, 4117.30769203, 4127.94871767, 4189.61538448,8.57
4126.92307665, 4124.35897408, 4124.99999973, 4120.64102537, 4124.35897408, 4105.51282024, 4109.10256383, 4104.99999973, 4104.74358947, 4128.20512793, 4135.25640998, 4134.74358947, 4131.79487152, 4197.17948704,8.57
4117.30769203, 4120.12820485, 4111.02564075, 4115.76923050, 4122.17948691, 4097.17948684, 4103.71794844, 4105.25640998, 4094.10256376, 4125.76923050, 4132.43589716, 4124.23076896, 4130.51282024, 4192.43589730,8.57
4113.84615357, 4119.74358947, 4114.74358947, 4113.84615357, 4120.89743562, 4099.35897402, 4091.41025607, 4091.41025607, 4085.12820478, 4127.05128178, 4130.25640998, 4121.28205101, 4130.76923050, 4193.58974345,8.57
4124.35897408, 4124.48717921, 4124.74358947, 4123.07692280, 4124.61538434, 4111.02564075, 4090.38461504, 4078.20512786, 4086.15384581, 4129.23076896, 4132.69230742, 4129.74358947, 4132.30769203, 4193.46153833,8.57
4107.30769203, 4112.56410229, 4111.28205101, 4115.89743562, 4122.69230742, 4119.74358947, 4098.97435863, 4088.20512786, 4105.51282024, 4127.69230742, 4130.25640998, 4115.89743562, 4127.30769203, 4183.33333320,8.57
4122.56410229, 4124.87179460, 4125.76923050, 4123.71794844, 4122.56410229, 4109.10256383, 4093.71794837, 4095.76923043, 4103.97435870, 4128.84615357, 4135.64102544, 4125.51282024, 4129.99999973, 4190.12820499,8.57
4116.53846126, 4122.17948691, 4117.30769203, 4123.71794844, 4121.79487152, 4108.46153819, 4099.99999966, 4108.46153819, 4097.82051248, 4131.15384588, 4131.15384588, 4117.56410229, 4127.56410229, 4190.12820499,8.57
4114.23076896, 4119.48717921, 4117.56410229, 4125.64102537, 4124.35897408, 4121.53846126, 4118.84615357, 4131.02564075, 4118.97435870, 4128.33333306, 4127.56410229, 4116.79487152, 4126.02564075, 4188.84615371,8.57
4127.94871767, 4131.02564075, 4131.79487152, 4132.05128178, 4126.66666639, 4114.61538434, 4111.92307665, 4124.99999973, 4120.25640998, 4126.92307665, 4135.38461518, 4128.84615357, 4131.41025614, 4190.12820499,8.57
4112.05128178, 4120.12820485, 4121.28205101, 4119.35897408, 4117.17948691, 4108.20512793, 4102.05128171, 4112.43589716, 4108.97435870, 4129.23076896, 4133.33333306, 4114.10256383, 4128.07692280, 4184.35897422,8.57
4126.28205101, 4127.43589716, 4135.89743569, 4128.84615357, 4121.79487152, 4112.17948691, 4102.05128171, 4111.02564075, 4106.53846126, 4129.99999973, 4134.10256383, 4124.48717921, 4129.87179460, 4190.76923063,8.57
4122.43589716, 4127.43589716, 4125.25640998, 4121.92307665, 4124.87179460, 4102.30769196, 4091.02564068, 4092.94871761, 4088.20512786, 4127.56410229, 4132.69230742, 4122.17948691, 4129.74358947, 4187.43589730,8.57
4117.05128178, 4123.07692280, 4121.28205101, 4110.64102537, 4118.33333306, 4100.51282017, 4090.51282017, 4082.56410222, 4082.82051248, 4126.66666639, 4130.76923050, 4118.20512793, 4127.82051255, 4186.66666653,8.57
4134.35897408, 4132.17948691, 4138.84615364, 4126.15384588, 4122.05128178, 4118.07692280, 4102.82051255, 4096.66666632, 4107.17948691, 4127.05128178, 4137.30769210, 4131.92307665, 4132.82051255, 4193.33333320,8.57
4116.02564075, 4119.99999973, 4117.56410229, 4118.71794844, 4120.51282024, 4126.66666639, 4104.23076896, 4109.99999973, 4128.07692280, 4126.28205101, 4133.84615357, 4121.02564075, 4131.02564075, 4188.20512807,8.57
4127.69230742, 4126.92307665, 4124.48717921, 4121.41025614, 4122.17948691, 4121.15384588, 4101.79487145, 4112.94871767, 4140.89743569, 4127.17948691, 4133.07692280, 4131.15384588, 4132.56410229, 4192.69230756,8.57
4128.07692280, 4126.15384588, 4124.35897408, 4121.66666639, 4123.97435870, 4112.17948691, 4105.25640998, 4118.33333306, 4150.38461518, 4128.07692280, 4135.25640998, 4126.15384588, 4131.53846126, 4189.99999986,8.57
4116.41025614, 4117.94871767, 4114.35897408, 4111.53846126, 4119.35897408, 4104.23076896, 4104.87179460, 4123.97435870, 4131.92307665, 4128.46153819, 4133.33333306, 4117.43589716, 4127.82051255, 4187.05128192,8.57
4134.48717921, 4130.12820485, 4128.58974332, 4121.92307665, 4122.30769203, 4106.66666639, 4095.76923043, 4108.07692280, 4094.74358940, 4129.99999973, 4136.15384595, 4135.38461518, 4131.66666639, 4194.61538448,8.57
4116.28205101, 4117.30769203, 4113.58974332, 4112.82051255, 4123.58974332, 4118.84615357, 4102.82051255, 4099.10256376, 4094.61538427, 4129.10256383, 4133.84615357, 4121.15384588, 4130.25640998, 4190.76923063,8.57
4121.66666639, 4119.10256383, 4120.64102537, 4111.41025614, 4123.97435870, 4122.05128178, 4112.30769203, 4110.38461511, 4118.84615357, 4126.53846126, 4132.56410229, 4124.10256383, 4129.87179460, 4193.46153833,8.57
4126.53846126, 4123.58974332, 4121.02564075, 4113.20512793, 4123.07692280, 4109.10256383, 4089.23076889, 4086.41025607, 4102.94871767, 4126.79487152, 4132.94871767, 4125.64102537, 4130.38461511, 4191.79487166,8.57
4109.35897408, 4113.58974332, 4108.20512793, 4103.84615357, 4121.02564075, 4095.76923043, 4063.58974318, 4043.33333292, 4063.46153805, 4128.46153819, 4131.15384588, 4114.48717921, 4128.58974332, 4189.10256397,8.57
4126.28205101, 4125.51282024, 4124.87179460, 4115.89743562, 4124.10256383, 4098.84615350, 4080.38461504, 4064.35897395, 4077.69230735, 4128.58974332, 4133.97435870, 4129.99999973, 4130.51282024, 4195.25641012,8.57
4111.66666639, 4117.30769203, 4113.20512793, 4112.56410229, 4120.25640998, 4114.61538434, 4110.12820485, 4118.46153819, 4127.17948691, 4126.66666639, 4132.17948691, 4116.79487152, 4127.17948691, 4188.33333320,8.57
4116.15384588, 4119.23076896, 4121.15384588, 4112.05128178, 4121.92307665, 4121.02564075, 4111.53846126, 4130.89743562, 4141.15384595, 4125.25640998, 4135.25640998, 4115.51282024, 4129.10256383, 4190.38461525,8.57
4128.58974332, 4129.35897408, 4128.71794844, 4115.51282024, 4127.17948691, 4116.02564075, 4112.43589716, 4130.76923050, 4132.94871767, 4128.58974332, 4133.84615357, 4124.35897408, 4132.30769203, 4190.89743576,8.57
4108.71794844, 4116.28205101, 4111.79487152, 4105.64102537, 4121.15384588, 4112.56410229, 4121.92307665, 4136.53846133, 4126.92307665, 4131.15384588, 4126.79487152, 4113.46153819, 4126.79487152, 4184.61538448,8.57
4125.51282024, 4124.87179460, 4131.02564075, 4119.23076896, 4125.25640998, 4107.56410229, 4106.15384588, 4113.58974332, 4108.20512793, 4129.35897408, 4136.92307672, 4127.56410229, 4128.20512793, 4191.28205115,8.57
4119.61538434, 4123.71794844, 4125.25640998, 4117.43589716, 4125.76923050, 4113.46153819, 4098.46153812, 4101.92307658, 4106.41025614, 4127.94871767, 4136.41025621, 4121.66666639, 4129.35897408, 4186.02564089,8.57
4119.74358947, 4126.92307665, 4128.20512793, 4115.12820485, 4121.66666639, 4132.69230742, 4125.25640998, 4126.28205101, 4129.10256383, 4128.46153819, 4132.82051255, 4119.23076896, 4131.92307665, 4187.82051269,8.57
4133.58974332, 4134.61538434, 4138.71794851, 4116.79487152, 4127.56410229, 4131.66666639, 4122.43589716, 4116.53846126, 4121.15384588, 4128.20512793, 4138.97435877, 4125.89743562, 4132.94871767, 4193.46153833,8.57
4113.97435870, 4116.28205101, 4119.10256383, 4099.87179453, 4122.94871767, 4108.97435870, 4082.82051248, 4069.35897395, 4084.61538427, 4128.33333306, 4135.38461518, 4113.58974332, 4128.20512793, 4186.79487166,8.57
4129.87179460, 4128.33333306, 4134.35897408, 4113.46153819, 4120.38461511, 4104.48717921, 4084.23076889, 4066.92307651, 4076.92307658, 4129.23076896, 4136.15384595, 4130.76923050, 4133.84615357, 4190.76923063,8.57
4126.92307665, 4131.28205101, 4127.94871767, 4111.02564075, 4121.02564075, 4122.56410229, 4115.89743562, 4107.30769203, 4102.56410229, 4128.07692280, 4136.66666646, 4127.56410229, 4133.07692280, 4187.56410243,8.57
4122.82051255, 4122.94871767, 4120.51282024, 4098.71794837, 4121.53846126, 4121.66666639, 4105.89743562, 4108.33333306, 4112.69230742, 4127.69230742, 4135.12820485, 4122.94871767, 4127.56410229, 4190.25641012,8.57
4136.53846133, 4131.53846126, 4132.82051255, 4113.84615357, 4125.38461511, 4103.71794844, 4086.41025607, 4094.10256376, 4113.58974332, 4128.84615357, 4137.56410236, 4138.46153826, 4131.79487152, 4196.66666653,8.57
4110.89743562, 4118.84615357, 4112.30769203, 4105.25640998, 4121.02564075, 4108.58974332, 4108.58974332, 4118.97435870, 4133.07692280, 4127.56410229, 4133.71794844, 4121.92307665, 4131.66666639, 4187.94871781,8.57
4122.94871767, 4124.23076896, 4119.10256383, 4106.02564075, 4120.89743562, 4119.10256383, 4116.79487152, 4120.89743562, 4130.64102537, 4127.56410229, 4135.12820485, 4129.10256383, 4131.79487152, 4194.61538448,8.57
4124.99999973, 4125.64102537, 4118.84615357, 4108.46153819, 4123.20512793, 4115.89743562, 4096.66666632, 4095.12820478, 4107.82051255, 4128.33333306, 4134.61538434, 4128.46153819, 4130.51282024, 4194.48717935,8.57
4109.99999973, 4117.69230742, 4112.17948691, 4101.02564068, 4121.41025614, 4118.20512793, 4102.05128171, 4105.51282024, 4111.92307665, 4127.56410229, 4131.41025614, 4115.51282024, 4127.05128178, 4189.23076910,8.57
4125.51282024, 4125.64102537, 4125.38461511, 4109.74358947, 4123.97435870, 4129.10256383, 4120.12820485, 4125.25640998, 4125.51282024, 4128.07692280, 4137.43589723, 4126.41025614, 4130.38461511, 4194.99999986,8.57
4108.97435870, 4113.84615357, 4109.10256383, 4098.97435863, 4122.69230742, 4137.94871774, 4124.23076896, 4122.69230742, 4123.33333306, 4128.46153819, 4135.89743569, 4115.38461511, 4129.99999973, 4189.99999986,8.57
4116.28205101, 4120.25640998, 4117.43589716, 4100.64102530, 4122.94871767, 4128.07692280, 4112.43589716, 4113.33333306, 4114.61538434, 4127.82051255, 4133.46153819, 4121.02564075, 4132.05128178, 4191.41025628,8.57
4121.92307665, 4124.35897408, 4118.07692280, 4105.64102537, 4125.12820485, 4106.92307665, 4100.12820478, 4103.71794844, 4110.89743562, 4129.23076896, 4133.07692280, 4123.07692280, 4132.05128178, 4191.02564089,8.57
4108.71794844, 4113.07692280, 4108.97435870, 4098.20512786, 4123.20512793, 4110.51282024, 4109.74358947, 4113.07692280, 4123.33333306, 4129.61538434, 4133.33333306, 4112.56410229, 4129.87179460, 4188.97435884,8.57
4127.30769203, 4128.33333306, 4132.82051255, 4111.02564075, 4126.66666639, 4123.58974332, 4114.61538434, 4119.35897408, 4119.74358947, 4127.05128178, 4139.48717928, 4127.30769203, 4135.89743569, 4193.20512807,8.57
4113.33333306, 4121.79487152, 4119.74358947, 4105.64102537, 4123.84615357, 4119.23076896, 4101.92307658, 4093.58974325, 4090.89743555, 4128.46153819, 4134.35897408, 4117.43589716, 4133.97435870, 4185.76923063,8.57
4120.38461511, 4120.76923050, 4121.02564075, 4105.89743562, 4122.43589716, 4117.69230742, 4105.25640998, 4087.05128171, 4095.25640991, 4132.56410229, 4134.99999973, 4121.15384588, 4132.30769203, 4188.07692294,8.57
4134.74358947, 4129.74358947, 4131.02564075, 4114.23076896, 4127.17948691, 4124.10256383, 4115.76923050, 4109.61538434, 4124.74358947, 4130.51282024, 4138.84615364, 4127.17948691, 4132.17948691, 4187.94871781,8.57
4113.07692280, 4119.74358947, 4117.05128178, 4107.82051255, 4121.92307665, 4129.23076896, 4110.51282024, 4108.46153819, 4126.92307665, 4126.53846126, 4131.79487152, 4110.38461511, 4127.69230742, 4182.17948704,8.57
4127.94871767, 4129.10256383, 4131.66666639, 4116.15384588, 4124.48717921, 4132.82051255, 4112.69230742, 4102.82051255, 4120.25640998, 4127.30769203, 4138.58974339, 4125.25640998, 4131.53846126, 4192.17948704,8.57
4122.05128178, 4122.82051255, 4124.48717921, 4105.89743562, 4126.15384588, 4132.69230742, 4129.10256383, 4131.15384588, 4132.69230742, 4128.46153819, 4139.23076903, 4123.58974332, 4130.25640998, 4188.97435884,8.57
4122.05128178, 4122.56410229, 4127.17948691, 4100.51282017, 4122.82051255, 4126.92307665, 4128.97435870, 4144.10256390, 4136.02564082, 4125.64102537, 4133.46153819, 4123.97435870, 4128.71794844, 4189.74358961,8.57
4135.25640998, 4132.94871767, 4132.56410229, 4111.79487152, 4123.46153819, 4127.69230742, 4120.51282024, 4126.28205101, 4128.33333306, 4123.97435870, 4136.41025621, 4132.69230742, 4132.43589716, 4194.35897422,8.57
4114.23076896, 4116.92307665, 4110.89743562, 4102.17948684, 4120.38461511, 4129.74358947, 4123.20512793, 4122.69230742, 4128.20512793, 4125.51282024, 4134.10256383, 4119.23076896, 4132.05128178, 4186.92307679,8.57
4131.79487152, 4126.53846126, 4130.38461511, 4107.30769203, 4124.10256383, 4123.97435870, 4126.28205101, 4133.84615357, 4131.02564075, 4128.07692280, 4134.99999973, 4133.84615357, 4133.58974332, 4194.35897422,8.57
4126.66666639, 4125.25640998, 4123.46153819, 4101.66666632, 4122.69230742, 4129.61538434, 4128.71794844, 4132.82051255, 4135.76923056, 4128.46153819, 4133.46153819, 4129.10256383, 4131.92307665, 4194.87179474,8.57
4115.25640998, 4114.35897408, 4110.89743562, 4093.97435863, 4119.74358947, 4140.76923056, 4126.28205101, 4114.48717921, 4127.43589716, 4128.46153819, 4132.30769203, 4123.33333306, 4132.30769203, 4193.46153833,8.57
4132.94871767, 4125.51282024, 4125.51282024, 4103.46153819, 4124.74358947, 4136.53846133, 4120.25640998, 4107.30769203, 4114.10256383, 4129.23076896, 4136.15384595, 4136.53846133, 4132.94871767, 4195.38461525,8.57
4112.56410229, 4119.35897408, 4109.48717921, 4094.10256376, 4122.17948691, 4125.51282024, 4118.33333306, 4116.53846126, 4121.41025614, 4127.94871767, 4132.17948691, 4117.69230742, 4124.87179460, 4187.56410243,8.57
4118.20512793, 4123.33333306, 4117.69230742, 4102.82051255, 4122.43589716, 4120.89743562, 4119.10256383, 4122.94871767, 4132.05128178, 4128.33333306, 4132.30769203, 4120.89743562, 4129.87179460, 4191.53846140,8.57
4117.43589716, 4120.12820485, 4116.53846126, 4101.92307658, 4122.69230742, 4124.23076896, 4120.38461511, 4120.38461511, 4123.71794844, 4128.97435870, 4129.99999973, 4122.94871767, 4133.97435870, 4189.74358961,8.57
4110.25640998, 4113.71794844, 4110.64102537, 4088.46153812, 4122.05128178, 4125.89743562, 4116.79487152, 4112.94871767, 4111.79487152, 4129.10256383, 4126.53846126, 4118.33333306, 4129.10256383, 4188.71794858,8.57
4127.05128178, 4128.20512793, 4126.28205101, 4099.99999966, 4128.97435870, 4125.89743562, 4116.28205101, 4116.66666639, 4114.61538434, 4129.48717921, 4133.84615357, 4128.84615357, 4131.02564075, 4193.58974345,8.57
4104.74358947, 4116.92307665, 4111.41025614, 4091.15384581, 4124.74358947, 4128.71794844, 4122.94871767, 4130.25640998, 4125.64102537, 4128.33333306, 4131.79487152, 4112.56410229, 4129.10256383, 4186.02564089,8.57
4112.82051255, 4119.99999973, 4122.30769203, 4093.58974325, 4122.56410229, 4125.89743562, 4115.89743562, 4121.15384588, 4120.51282024, 4126.53846126, 4131.66666639, 4119.23076896, 4129.35897408, 4188.71794858,8.57
4123.20512793, 4125.12820485, 4126.02564075, 4100.64102530, 4125.89743562, 4121.28205101, 4108.71794844, 4111.41025614, 4118.84615357, 4126.28205101, 4133.07692280, 4121.02564075, 4128.07692280, 4185.12820499,8.57
4109.35897408, 4116.66666639, 4115.76923050, 4094.74358940, 4122.69230742, 4129.99999973, 4124.99999973, 4133.58974332, 4143.58974339, 4127.05128178, 4131.02564075, 4107.30769203, 4124.74358947, 4179.87179474,8.57
4127.30769203, 4132.69230742, 4134.99999973, 4108.33333306, 4126.92307665, 4139.48717928, 4135.25640998, 4140.25641005, 4150.89743569, 4127.17948691, 4137.69230749, 4126.15384588, 4130.38461511, 4190.64102551,8.57
4117.56410229, 4125.64102537, 4121.66666639, 4103.46153819, 4124.74358947, 4143.46153826, 4133.07692280, 4127.56410229, 4139.23076903, 4127.82051255, 4134.61538434, 4120.12820485, 4129.10256383, 4187.43589730,8.57
4123.97435870, 4124.99999973, 4125.51282024, 4103.46153819, 4120.89743562, 4144.99999980, 4139.61538441, 4137.17948697, 4143.07692287, 4129.23076896, 4133.20512793, 4123.20512793, 4128.97435870, 4188.46153833,8.57
4131.66666639, 4131.66666639, 4132.69230742, 4108.71794844, 4123.84615357, 4140.38461518, 4141.92307672, 4153.20512800, 4153.71794851, 4129.35897408, 4134.35897408, 4129.87179460, 4132.17948691, 4191.41025628,8.57
4114.35897408, 4120.25640998, 4118.97435870, 4096.02564068, 4122.30769203, 4134.35897408, 4129.10256383, 4146.79487159, 4147.43589723, 4127.94871767, 4131.02564075, 4117.30769203, 4131.02564075, 4186.41025628,8.57
4135.76923056, 4131.53846126, 4133.20512793, 4101.53846119, 4125.76923050, 4133.46153819, 4122.30769203, 4129.74358947, 4130.25640998, 4128.20512793, 4135.89743569, 4133.71794844, 4134.35897408, 4193.07692294,8.57
4124.74358947, 4124.87179460, 4118.33333306, 4092.94871761, 4122.56410229, 4136.53846133, 4129.35897408, 4125.25640998, 4125.25640998, 4130.12820485, 4135.12820485, 4128.07692280, 4133.20512793, 4191.66666653,8.57
4119.87179460, 4121.53846126, 4119.48717921, 4093.71794837, 4119.99999973, 4135.38461518, 4130.51282024, 4133.33333306, 4134.61538434, 4129.48717921, 4136.02564082, 4125.89743562, 4132.05128178, 4191.41025628,8.57
4133.84615357, 4130.38461511, 4131.28205101, 4105.76923050, 4125.64102537, 4135.12820485, 4123.97435870, 4130.51282024, 4136.02564082, 4127.94871767, 4137.43589723, 4133.71794844, 4131.79487152, 4192.05128192,8.57
4113.07692280, 4116.28205101, 4110.89743562, 4091.28205094, 4122.56410229, 4148.33333313, 4129.10256383, 4119.99999973, 4131.53846126, 4128.33333306, 4131.66666639, 4119.35897408, 4126.66666639, 4188.33333320,8.57
4126.02564075, 4126.02564075, 4125.38461511, 4099.35897402, 4122.30769203, 4157.43589723, 4138.07692287, 4125.25640998, 4140.25641005, 4130.12820485, 4135.25640998, 4131.02564075, 4130.76923050, 4195.25641012,8.57
4121.28205101, 4123.84615357, 4117.82051255, 4099.87179453, 4122.82051255, 4145.64102544, 4134.61538434, 4133.97435870, 4146.02564082, 4130.38461511, 4133.46153819, 4123.20512793, 4130.25640998, 4189.23076910,8.57
4112.30769203, 4115.38461511, 4109.35897408, 4091.92307658, 4121.66666639, 4129.35897408, 4126.92307665, 4133.71794844, 4139.61538441, 4130.38461511, 4128.84615357, 4117.05128178, 4127.82051255, 4187.69230756,8.57
4124.61538434, 4126.41025614, 4125.25640998, 4100.64102530, 4124.87179460, 4125.12820485, 4124.61538434, 4144.10256390, 4149.48717928, 4130.38461511, 4134.99999973, 4131.15384588, 4132.94871767, 4192.94871781,8.57
4106.66666639, 4114.99999973, 4110.64102537, 4090.25640991, 4124.23076896, 4125.38461511, 4119.10256383, 4151.02564082, 4160.51282031, 4127.56410229, 4132.94871767, 4114.61538434, 4130.12820485, 4187.94871781,8.57
4119.10256383, 4121.41025614, 4117.94871767, 4095.64102530, 4124.48717921, 4126.02564075, 4113.46153819, 4128.33333306, 4136.41025621, 4128.84615357, 4132.05128178, 4119.61538434, 4130.51282024, 4191.66666653,8.57
4118.71794844, 4125.64102537, 4118.84615357, 4102.56410229, 4124.99999973, 4130.25640998, 4124.48717921, 4124.74358947, 4127.17948691, 4131.79487152, 4134.10256383, 4121.92307665, 4131.66666639, 4186.28205115,8.57
4111.15384588, 4119.48717921, 4118.07692280, 4103.71794844, 4125.25640998, 4135.38461518, 4138.84615364, 4147.43589723, 4144.23076903, 4129.87179460, 4132.05128178, 4116.92307665, 4129.61538434, 4185.76923063,8.57
4127.69230742, 4126.66666639, 4132.69230742, 4110.89743562, 4128.71794844, 4137.05128185, 4131.92307665, 4134.87179460, 4125.64102537, 4128.46153819, 4133.20512793, 4126.53846126, 4132.05128178, 4192.30769217,8.57
4111.53846126, 4114.35897408, 4117.56410229, 4099.10256376, 4121.53846126, 4138.71794851, 4123.71794844, 4122.56410229, 4114.35897408, 4129.23076896, 4129.10256383, 4109.74358947, 4127.94871767, 4183.97435884,8.57
4123.97435870, 4122.82051255, 4130.12820485, 4108.07692280, 4120.64102537, 4140.51282031, 4126.79487152, 4138.97435877, 4147.30769210, 4127.82051255, 4132.43589716, 4117.56410229, 4130.12820485, 4189.87179474,8.57
4125.25640998, 4129.35897408, 4129.48717921, 4109.74358947, 4123.97435870, 4135.64102544, 4125.89743562, 4140.25641005, 4162.17948697, 4127.43589716, 4134.87179460, 4124.23076896, 4133.20512793, 4190.25641012,8.57
4113.20512793, 4118.46153819, 4116.28205101, 4097.69230735, 4121.15384588, 4136.41025621, 4129.23076896, 4137.94871774, 4149.87179467, 4129.87179460, 4131.92307665, 4117.05128178, 4129.99999973, 4184.74358961,8.57
4138.84615364, 4130.51282024, 4134.61538434, 4111.15384588, 4126.79487152, 4145.12820492, 4136.15384595, 4147.05128185, 4143.07692287, 4130.51282024, 4135.64102544, 4133.46153819, 4132.56410229, 4194.87179474,8.57
4119.61538434, 4123.84615357, 4117.17948691, 4102.43589709, 4124.23076896, 4141.53846133, 4131.92307665, 4136.66666646, 4135.51282031, 4127.82051255, 4131.79487152, 4123.07692280, 4130.25640998, 4191.79487166,8.57
4119.48717921, 4123.84615357, 4119.23076896, 4098.84615350, 4121.53846126, 4134.74358947, 4129.48717921, 4129.35897408, 4136.41025621, 4127.17948691, 4135.25640998, 4127.05128178, 4131.15384588, 4191.28205115,8.57
4131.15384588, 4126.02564075, 4127.94871767, 4106.66666639, 4125.76923050, 4142.56410236, 4137.82051262, 4144.87179467, 4151.53846133, 4128.97435870, 4139.35897415, 4131.66666639, 4132.17948691, 4193.33333320,8.57
4111.66666639, 4115.25640998, 4114.48717921, 4100.25640991, 4121.79487152, 4146.79487159, 4139.35897415, 4147.56410236, 4147.05128185, 4129.10256383, 4132.17948691, 4118.97435870, 4127.82051255, 4189.87179474,8.57
4127.43589716, 4128.97435870, 4126.15384588, 4109.23076896, 4122.56410229, 4126.66666639, 4121.53846126, 4124.35897408, 4117.30769203, 4128.20512793, 4136.41025621, 4135.38461518, 4130.25640998, 4193.71794858,8.57
4118.84615357, 4121.53846126, 4113.58974332, 4102.05128171, 4123.07692280, 4115.25640998, 4108.84615357, 4110.64102537, 4106.02564075, 4127.94871767, 4135.64102544, 4125.25640998, 4128.46153819, 4188.58974345,8.57
4116.02564075, 4117.94871767, 4117.30769203, 4099.74358940, 4123.58974332, 4126.15384588, 4118.97435870, 4121.53846126, 4122.56410229, 4129.99999973, 4131.79487152, 4120.76923050, 4130.12820485, 4193.71794858,8.57
4127.56410229, 4127.30769203, 4123.97435870, 4107.43589716, 4124.10256383, 4133.84615357, 4138.33333313, 4143.07692287, 4146.53846133, 4131.15384588, 4132.17948691, 4131.41025614, 4133.71794844, 4197.30769217,8.57
4110.64102537, 4113.46153819, 4106.41025614, 4092.43589709, 4121.02564075, 4138.07692287, 4143.20512800, 4148.46153826, 4154.35897415, 4127.94871767, 4128.71794844, 4118.33333306, 4129.48717921, 4189.48717935,8.57
4124.48717921, 4120.12820485, 4123.97435870, 4096.53846119, 4123.71794844, 4138.97435877, 4125.76923050, 4130.12820485, 4134.87179460, 4125.76923050, 4131.92307665, 4127.82051255, 4131.79487152, 4194.48717935,8.57
4118.71794844, 4118.46153819, 4118.46153819, 4097.56410222, 4122.43589716, 4134.87179460, 4123.71794844, 4133.97435870, 4130.64102537, 4126.53846126, 4130.25640998, 4123.58974332, 4132.56410229, 4191.66666653,8.57
4114.74358947, 4115.64102537, 4116.15384588, 4098.20512786, 4120.64102537, 4133.84615357, 4138.84615364, 4150.64102544, 4145.38461518, 4128.07692280, 4128.20512793, 4118.07692280, 4131.02564075, 4190.51282038,8.57
4126.15384588, 4125.12820485, 4126.92307665, 4106.66666639, 4125.38461511, 4132.82051255, 4135.89743569, 4140.76923056, 4141.79487159, 4129.10256383, 4134.23076896, 4125.51282024, 4132.82051255, 4190.12820499,8.57
4103.58974332, 4112.69230742, 4110.51282024, 4094.48717914, 4120.25640998, 4126.02564075, 4120.51282024, 4122.17948691, 4125.12820485, 4129.87179460, 4131.28205101, 4112.43589716, 4130.76923050, 4183.07692294,8.57
4116.92307665, 4120.38461511, 4126.28205101, 4105.38461511, 4123.58974332, 4119.10256383, 4113.20512793, 4112.82051255, 4123.20512793, 4129.61538434, 4132.30769203, 4123.07692280, 4133.58974332, 4190.76923063,8.57
4119.35897408, 4120.38461511, 4123.71794844, 4108.58974332, 4128.84615357, 4127.94871767, 4126.02564075, 4124.74358947, 4137.43589723, 4128.97435870, 4133.20512793, 4119.35897408, 4131.41025614, 4187.69230756,8.57
4114.48717921, 4114.48717921, 4117.82051255, 4100.12820478, 4123.20512793, 4135.12820485, 4127.17948691, 4126.66666639, 4132.69230742, 4130.12820485, 4130.64102537, 4111.15384588, 4127.05128178, 4186.28205115,8.57
4132.82051255, 4130.25640998, 4134.87179460, 4109.23076896, 4124.99999973, 4124.48717921, 4102.56410229, 4093.07692273, 4104.61538434, 4129.99999973, 4132.43589716, 4129.61538434, 4131.02564075, 4194.61538448,8.57
4111.66666639, 4120.51282024, 4114.87179460, 4094.23076889, 4122.69230742, 4124.74358947, 4107.05128178, 4103.07692280, 4116.79487152, 4128.46153819, 4129.35897408, 4120.12820485, 4128.46153819, 4186.15384602,8.57
4123.97435870, 4124.61538434, 4124.35897408, 4095.25640991, 4122.94871767, 4131.28205101, 4126.28205101, 4149.61538441, 4149.23076903, 4128.20512793, 4130.51282024, 4126.28205101, 4128.71794844, 4187.69230756,8.57
4130.76923050, 4127.05128178, 4129.35897408, 4102.17948684, 4123.84615357, 4121.28205101, 4111.15384588, 4134.61538434, 4136.53846133, 4127.82051255, 4128.07692280, 4128.71794844, 4130.51282024, 4191.79487166,8.57
4115.76923050, 4118.20512793, 4118.20512793, 4094.23076889, 4117.94871767, 4121.28205101, 4106.41025614, 4107.82051255, 4123.33333306, 4127.17948691, 4126.92307665, 4121.53846126, 4129.99999973, 4189.74358961,8.57
4134.61538434, 4131.79487152, 4137.17948697, 4105.25640998, 4122.43589716, 4133.71794844, 4129.10256383, 4126.92307665, 4131.15384588, 4127.05128178, 4136.79487159, 4138.84615364, 4133.07692280, 4194.23076910,8.57
4116.02564075, 4119.48717921, 4119.23076896, 4096.92307658, 4123.20512793, 4131.53846126, 4133.58974332, 4134.99999973, 4130.25640998, 4126.66666639, 4132.05128178, 4122.94871767, 4130.12820485, 4189.87179474,8.57
4119.61538434, 4119.48717921, 4116.79487152, 4096.79487145, 4122.05128178, 4127.30769203, 4129.87179460, 4129.48717921, 4135.12820485, 4128.07692280, 4131.92307665, 4122.56410229, 4130.12820485, 4194.48717935,8.57
4129.87179460, 4127.82051255, 4121.66666639, 4104.74358947, 4123.58974332, 4130.89743562, 4131.92307665, 4132.17948691, 4139.74358954, 4130.25640998, 4135.12820485, 4131.66666639, 4131.66666639, 4194.23076910,8.57
4129.87179460, 4127.82051255, 4121.66666639, 4104.74358947, 4123.58974332, 4130.89743562, 4131.92307665, 4132.17948691, 4139.74358954, 4130.25640998, 4135.12820485, 4131.66666639, 4131.66666639, 4194.23076910,8.57
4107.69230742, 4112.05128178, 4105.76923050, 4095.12820478, 4121.66666639, 4129.87179460, 4124.23076896, 4122.69230742, 4120.64102537, 4127.43589716, 4127.56410229, 4119.87179460, 4130.25640998, 4188.58974345,8.57
4122.94871767, 4121.66666639, 4119.74358947, 4103.20512793, 4123.71794844, 4132.56410229, 4125.89743562, 4124.87179460, 4120.51282024, 4125.64102537, 4132.17948691, 4131.79487152, 4134.10256383, 4197.56410243,8.57
4114.74358947, 4118.71794844, 4112.56410229, 4096.53846119, 4122.30769203, 4142.17948697, 4142.05128185, 4142.05128185, 4150.12820492, 4128.58974332, 4131.92307665, 4121.02564075, 4129.87179460, 4192.30769217,8.57
4113.33333306, 4116.15384588, 4115.89743562, 4094.48717914, 4123.07692280, 4136.92307672, 4136.28205108, 4132.43589716, 4145.89743569, 4130.51282024, 4126.15384588, 4119.35897408, 4128.58974332, 4189.35897422,8.57
4125.89743562, 4126.02564075, 4123.33333306, 4107.05128178, 4124.87179460, 4135.25640998, 4126.41025614, 4125.64102537, 4130.38461511, 4130.25640998, 4128.97435870, 4124.99999973, 4133.46153819, 4190.12820499,8.57
4109.61538434, 4115.25640998, 4107.56410229, 4099.87179453, 4118.33333306, 4143.33333313, 4134.87179460, 4140.12820492, 4139.23076903, 4128.97435870, 4130.12820485, 4107.05128178, 4129.23076896, 4185.25641012,8.57
4125.38461511, 4123.46153819, 4123.71794844, 4105.76923050, 4123.33333306, 4130.76923050, 4128.84615357, 4135.64102544, 4135.51282031, 4128.46153819, 4133.84615357, 4123.33333306, 4131.53846126, 4193.58974345,8.57
4118.58974332, 4124.35897408, 4117.05128178, 4101.15384581, 4126.92307665, 4123.07692280, 4119.99999973, 4131.28205101, 4129.99999973, 4129.48717921, 4131.15384588, 4122.43589716, 4132.30769203, 4187.43589730,8.57
4114.23076896, 4122.82051255, 4119.35897408, 4099.48717914, 4122.82051255, 4137.17948697, 4133.58974332, 4144.87179467, 4148.97435877, 4130.51282024, 4130.38461511, 4116.41025614, 4129.87179460, 4183.71794858,8.57
4130.38461511, 4130.25640998, 4134.23076896, 4110.64102537, 4125.89743562, 4138.71794851, 4144.35897415, 4151.15384595, 4158.97435877, 4128.84615357, 4135.12820485, 4129.10256383, 4132.69230742, 4188.58974345,8.57
4111.02564075, 4116.92307665, 4113.84615357, 4095.25640991, 4123.84615357, 4124.35897408, 4133.71794844, 4135.64102544, 4130.25640998, 4127.82051255, 4129.23076896, 4116.28205101, 4130.12820485, 4183.33333320,8.57
4124.87179460, 4127.43589716, 4130.25640998, 4103.46153819, 4127.17948691, 4118.07692280, 4115.64102537, 4111.28205101, 4101.92307658, 4128.33333306, 4131.53846126, 4126.15384588, 4131.02564075, 4191.02564089,8.57
4124.61538434, 4129.23076896, 4129.48717921, 4111.02564075, 4127.56410229, 4125.64102537, 4115.89743562, 4108.84615357, 4112.56410229, 4128.07692280, 4133.58974332, 4124.74358947, 4130.12820485, 4190.89743576,8.57
4116.53846126, 4122.94871767, 4119.74358947, 4100.38461504, 4120.38461511, 4130.51282024, 4128.33333306, 4124.35897408, 4134.10256383, 4128.71794844, 4128.97435870, 4117.43589716, 4128.84615357, 4188.58974345,8.57
4136.15384595, 4133.84615357, 4134.48717921, 4103.46153819, 4122.69230742, 4119.48717921, 4122.30769203, 4129.74358947, 4132.82051255, 4130.51282024, 4131.79487152, 4133.20512793, 4130.51282024, 4195.12820499,8.57
4114.99999973, 4118.46153819, 4114.87179460, 4093.84615350, 4120.25640998, 4106.53846126, 4109.23076896, 4128.33333306, 4131.15384588, 4129.48717921, 4128.58974332, 4123.84615357, 4126.02564075, 4189.74358961,8.57
4123.33333306, 4124.48717921, 4119.23076896, 4101.66666632, 4121.79487152, 4107.05128178, 4112.43589716, 4126.79487152, 4137.43589723, 4128.33333306, 4129.48717921, 4132.30769203, 4129.74358947, 4193.97435884,8.57
4128.71794844, 4128.46153819, 4122.82051255, 4105.12820485, 4125.51282024, 4121.53846126, 4127.94871767, 4129.99999973, 4138.33333313, 4130.38461511, 4131.41025614, 4133.46153819, 4131.28205101, 4194.23076910,8.57
4111.41025614, 4113.97435870, 4113.07692280, 4094.23076889, 4121.66666639, 4140.51282031, 4146.41025621, 4152.30769210, 4148.33333313, 4131.15384588, 4130.12820485, 4122.69230742, 4126.66666639, 4190.12820499,8.57
4130.76923050, 4126.79487152, 4125.76923050, 4107.05128178, 4122.94871767, 4139.48717928, 4147.30769210, 4158.20512800, 4151.28205108, 4129.48717921, 4134.35897408, 4136.02564082, 4130.89743562, 4196.02564089,8.57
4117.05128178, 4121.02564075, 4109.99999973, 4102.30769196, 4122.17948691, 4134.99999973, 4138.58974339, 4141.92307672, 4136.41025621, 4126.28205101, 4126.28205101, 4121.02564075, 4130.64102537, 4191.66666653,8.57
4115.38461511, 4118.46153819, 4116.02564075, 4101.41025607, 4122.05128178, 4143.58974339, 4139.74358954, 4136.28205108, 4125.38461511, 4126.02564075, 4123.84615357, 4121.15384588, 4129.10256383, 4193.71794858,8.57
4122.05128178, 4121.41025614, 4122.56410229, 4102.05128171, 4123.46153819, 4133.33333306, 4124.35897408, 4117.17948691, 4109.74358947, 4129.87179460, 4129.48717921, 4125.51282024, 4128.97435870, 4191.79487166,8.57
4109.87179460, 4111.92307665, 4107.56410229, 4095.51282017, 4119.23076896, 4113.58974332, 4106.15384588, 4099.35897402, 4102.05128171, 4130.64102537, 4126.53846126, 4111.79487152, 4127.30769203, 4187.17948704,8.57
4126.28205101, 4125.51282024, 4121.41025614, 4112.30769203, 4121.79487152, 4118.46153819, 4116.41025614, 4116.41025614, 4118.07692280, 4128.33333306, 4128.97435870, 4123.20512793, 4132.43589716, 4192.94871781,8.57
4112.05128178, 4121.28205101, 4112.94871767, 4102.82051255, 4121.79487152, 4126.53846126, 4126.53846126, 4131.66666639, 4131.53846126, 4127.05128178, 4129.87179460, 4114.35897408, 4130.76923050, 4184.61538448,8.57
4114.99999973, 4119.48717921, 4119.35897408, 4098.07692273, 4121.28205101, 4122.30769203, 4127.05128178, 4131.53846126, 4136.28205108, 4128.84615357, 4131.15384588, 4117.94871767, 4129.74358947, 4187.69230756,8.57
4129.74358947, 4127.82051255, 4130.64102537, 4111.28205101, 4126.15384588, 4123.07692280, 4138.46153826, 4145.25641005, 4147.05128185, 4130.12820485, 4129.35897408, 4127.82051255, 4131.79487152, 4193.07692294,8.57
4109.48717921, 4117.94871767, 4115.89743562, 4101.41025607, 4122.82051255, 4128.07692280, 4144.61538441, 4150.12820492, 4144.99999980, 4130.76923050, 4122.30769203, 4111.15384588, 4126.53846126, 4183.33333320,8.57
4127.69230742, 4129.61538434, 4133.84615357, 4107.30769203, 4123.46153819, 4128.20512793, 4133.97435870, 4130.38461511, 4131.92307665, 4129.87179460, 4129.61538434, 4126.28205101, 4129.35897408, 4187.82051269,8.57
4124.74358947, 4125.51282024, 4125.38461511, 4107.69230742, 4122.82051255, 4126.15384588, 4130.76923050, 4128.58974332, 4131.92307665, 4125.89743562, 4131.92307665, 4125.25640998, 4130.38461511, 4187.30769217,8.57
4117.94871767, 4120.25640998, 4121.66666639, 4104.74358947, 4122.82051255, 4119.10256383, 4126.15384588, 4132.82051255, 4124.87179460, 4125.25640998, 4130.12820485, 4119.99999973, 4129.74358947, 4189.10256397,8.57
4130.64102537, 4128.46153819, 4135.64102544, 4109.23076896, 4127.69230742, 4110.25640998, 4105.12820485, 4106.66666639, 4098.20512786, 4128.84615357, 4131.92307665, 4128.71794844, 4132.05128178, 4194.35897422,8.57
4117.05128178, 4117.82051255, 4120.64102537, 4095.76923043, 4120.38461511, 4114.99999973, 4104.48717921, 4095.89743555, 4094.23076889, 4130.38461511, 4127.05128178, 4116.15384588, 4129.61538434, 4188.84615371,8.57
4134.23076896, 4129.74358947, 4131.28205101, 4103.97435870, 4120.51282024, 4129.23076896, 4130.12820485, 4129.10256383, 4125.64102537, 4128.07692280, 4131.15384588, 4131.28205101, 4132.56410229, 4192.30769217,8.57
4126.02564075, 4125.51282024, 4120.64102537, 4105.64102537, 4121.66666639, 4139.35897415, 4144.48717928, 4148.71794851, 4144.61538441, 4127.17948691, 4131.92307665, 4130.64102537, 4131.53846126, 4190.12820499,8.57
4116.53846126, 4114.74358947, 4113.58974332, 4097.69230735, 4118.20512793, 4137.82051262, 4134.87179460, 4135.64102544, 4136.66666646, 4129.35897408, 4127.69230742, 4122.43589716, 4131.02564075, 4191.28205115,8.57
4137.05128185, 4129.74358947, 4131.53846126, 4105.38461511, 4123.46153819, 4131.02564075, 4135.12820485, 4144.10256390, 4146.53846133, 4130.76923050, 4130.64102537, 4135.12820485, 4133.84615357, 4195.25641012,8.57
4113.07692280, 4118.07692280, 4114.23076896, 4096.02564068, 4122.69230742, 4129.99999973, 4147.17948697, 4169.23076910, 4172.82051269, 4129.35897408, 4126.53846126, 4120.51282024, 4128.20512793, 4187.69230756,8.57
4118.71794844, 4118.58974332, 4123.20512793, 4102.56410229, 4121.28205101, 4127.94871767, 4133.84615357, 4144.48717928, 4154.61538441, 4128.20512793, 4128.58974332, 4125.64102537, 4128.71794844, 4194.61538448,8.57
4124.35897408, 4122.43589716, 4121.41025614, 4103.07692280, 4122.17948691, 4122.69230742, 4111.92307665, 4102.30769196, 4112.94871767, 4129.87179460, 4129.35897408, 4124.61538434, 4130.76923050, 4192.82051269,8.57
4112.69230742, 4115.12820485, 4110.38461511, 4094.61538427, 4120.25640998, 4117.82051255, 4113.33333306, 4112.05128178, 4113.46153819, 4131.28205101, 4124.74358947, 4113.71794844, 4127.82051255, 4187.82051269,8.57
4128.58974332, 4126.53846126, 4126.41025614, 4110.64102537, 4122.82051255, 4120.12820485, 4126.79487152, 4136.53846133, 4129.87179460, 4131.02564075, 4129.48717921, 4127.56410229, 4128.84615357, 4194.10256397,8.57
4111.66666639, 4115.64102537, 4108.46153819, 4101.41025607, 4121.79487152, 4132.17948691, 4134.23076896, 4132.69230742, 4129.23076896, 4127.69230742, 4128.07692280, 4114.23076896, 4126.41025614, 4189.61538448,8.57
4116.28205101, 4115.64102537, 4116.66666639, 4099.61538427, 4123.20512793, 4132.56410229, 4124.99999973, 4125.51282024, 4122.69230742, 4127.69230742, 4128.84615357, 4117.94871767, 4130.12820485, 4194.10256397,8.57
4121.15384588, 4122.30769203, 4125.89743562, 4108.58974332, 4126.41025614, 4122.56410229, 4120.25640998, 4132.56410229, 4125.51282024, 4131.15384588, 4130.12820485, 4123.97435870, 4132.94871767, 4191.79487166,8.57
4107.56410229, 4113.84615357, 4111.66666639, 4100.64102530, 4122.43589716, 4126.79487152, 4131.79487152, 4132.82051255, 4131.66666639, 4130.12820485, 4125.76923050, 4112.69230742, 4126.79487152, 4182.17948704,8.57
4130.25640998, 4125.51282024, 4128.84615357, 4109.99999973, 4124.74358947, 4131.28205101, 4129.61538434, 4122.43589716, 4128.20512793, 4129.35897408, 4128.71794844, 4123.97435870, 4128.58974332, 4188.58974345,8.57
4116.28205101, 4119.61538434, 4124.10256383, 4107.30769203, 4124.61538434, 4123.33333306, 4118.46153819, 4127.17948691, 4130.64102537, 4129.35897408, 4126.92307665, 4111.66666639, 4128.58974332, 4186.02564089,8.57
4115.64102537, 4122.69230742, 4130.76923050, 4108.97435870, 4123.33333306, 4123.84615357, 4127.94871767, 4136.41025621, 4136.28205108, 4128.97435870, 4128.46153819, 4115.76923050, 4131.66666639, 4188.33333320,8.57
4132.94871767, 4133.71794844, 4134.99999973, 4112.43589716, 4124.87179460, 4134.61538434, 4141.53846133, 4132.30769203, 4131.02564075, 4129.35897408, 4131.02564075, 4129.87179460, 4133.84615357, 4190.76923063,8.57
4116.66666639, 4120.76923050, 4117.69230742, 4099.35897402, 4118.71794844, 4133.97435870, 4140.51282031, 4138.07692287, 4132.30769203, 4127.56410229, 4126.66666639, 4116.53846126, 4126.28205101, 4185.25641012,8.57
4131.53846126, 4127.69230742, 4135.89743569, 4111.66666639, 4121.28205101, 4127.69230742, 4134.99999973, 4146.15384595, 4140.89743569, 4126.28205101, 4131.53846126, 4131.02564075, 4129.87179460, 4193.71794858,8.57
4124.99999973, 4122.56410229, 4124.99999973, 4106.28205101, 4121.66666639, 4130.89743562, 4132.17948691, 4133.84615357, 4134.10256383, 4129.10256383, 4130.25640998, 4129.10256383, 4132.69230742, 4191.28205115,8.57
4122.69230742, 4121.53846126, 4121.15384588, 4097.69230735, 4120.12820485, 4132.94871767, 4133.84615357, 4136.41025621, 4132.82051255, 4130.38461511, 4127.94871767, 4126.41025614, 4129.48717921, 4186.92307679,8.57
4135.76923056, 4131.53846126, 4134.48717921, 4108.97435870, 4125.64102537, 4128.84615357, 4139.48717928, 4161.66666646, 4153.46153826, 4127.94871767, 4131.66666639, 4133.71794844, 4129.23076896, 4190.89743576,8.57
4113.33333306, 4115.12820485, 4114.99999973, 4100.25640991, 4121.53846126, 4129.35897408, 4135.25640998, 4148.33333313, 4151.53846133, 4129.74358947, 4129.10256383, 4121.28205101, 4129.10256383, 4191.15384602,8.57
4126.66666639, 4123.84615357, 4122.94871767, 4105.64102537, 4122.43589716, 4136.41025621, 4127.94871767, 4113.33333306, 4127.17948691, 4131.41025614, 4134.10256383, 4136.15384595, 4132.17948691, 4196.15384602,8.57
4124.99999973, 4125.38461511, 4119.48717921, 4104.99999973, 4125.38461511, 4142.56410236, 4143.46153826, 4134.35897408, 4138.46153826, 4127.94871767, 4130.64102537, 4130.25640998, 4129.74358947, 4189.74358961,8.57
4114.48717921, 4114.48717921, 4115.51282024, 4099.23076889, 4122.30769203, 4136.53846133, 4153.58974339, 4164.61538441, 4155.25641005, 4127.56410229, 4124.61538434, 4119.35897408, 4129.61538434, 4190.76923063,8.57
4129.61538434, 4123.20512793, 4127.05128178, 4110.89743562, 4122.82051255, 4127.69230742, 4136.92307672, 4150.12820492, 4140.38461518, 4131.02564075, 4131.92307665, 4131.79487152, 4134.23076896, 4196.79487166,8.57
4113.71794844, 4117.17948691, 4107.30769203, 4104.35897408, 4121.28205101, 4137.05128185, 4137.43589723, 4142.17948697, 4136.79487159, 4130.89743562, 4128.20512793, 4117.43589716, 4129.10256383, 4189.48717935,8.57
4121.15384588, 4126.53846126, 4119.10256383, 4107.30769203, 4122.43589716, 4140.64102544, 4144.35897415, 4142.69230749, 4140.64102544, 4129.74358947, 4125.25640998, 4122.69230742, 4129.87179460, 4192.94871781,8.57
4117.82051255, 4124.23076896, 4121.28205101, 4106.15384588, 4122.30769203, 4126.66666639, 4131.02564075, 4130.51282024, 4132.69230742, 4129.10256383, 4126.79487152, 4123.84615357, 4131.53846126, 4188.97435884,8.57
4104.99999973, 4111.02564075, 4108.84615357, 4099.61538427, 4120.12820485, 4127.05128178, 4132.30769203, 4136.79487159, 4143.46153826, 4127.43589716, 4126.92307665, 4117.30769203, 4130.12820485, 4186.15384602,8.57
4123.20512793, 4126.41025614, 4124.10256383, 4111.41025614, 4125.12820485, 4133.20512793, 4141.66666646, 4144.61538441, 4151.92307672, 4128.71794844, 4129.87179460, 4128.84615357, 4133.97435870, 4194.35897422,8.57
4107.82051255, 4120.12820485, 4113.71794844, 4102.69230742, 4121.28205101, 4125.25640998, 4131.66666639, 4132.30769203, 4136.53846133, 4128.07692280, 4125.12820485, 4114.10256383, 4129.74358947, 4186.41025628,8.57
4107.82051255, 4120.12820485, 4113.71794844, 4102.69230742, 4121.28205101, 4125.25640998, 4131.66666639, 4132.30769203, 4136.53846133, 4128.07692280, 4125.12820485, 4114.10256383, 4129.74358947, 4186.41025628,8.57
4117.56410229, 4121.41025614, 4122.82051255, 4107.43589716, 4121.41025614, 4122.43589716, 4127.30769203, 4126.28205101, 4127.94871767, 4125.89743562, 4126.41025614, 4121.79487152, 4129.23076896, 4185.12820499,8.57
4128.71794844, 4125.89743562, 4127.05128178, 4113.71794844, 4125.51282024, 4130.51282024, 4137.82051262, 4137.30769210, 4140.89743569, 4129.23076896, 4129.61538434, 4126.66666639, 4131.02564075, 4185.76923063,8.57
4111.41025614, 4116.53846126, 4117.69230742, 4103.97435870, 4117.94871767, 4133.97435870, 4140.38461518, 4149.61538441, 4156.28205108, 4130.64102537, 4126.41025614, 4112.94871767, 4128.97435870, 4186.15384602,8.57
4128.71794844, 4130.38461511, 4135.51282031, 4115.89743562, 4120.64102537, 4136.53846133, 4137.94871774, 4149.74358954, 4155.64102544, 4126.92307665, 4130.38461511, 4129.35897408, 4135.25640998, 4193.84615371,8.57
4119.35897408, 4126.41025614, 4118.97435870, 4106.66666639, 4124.61538434, 4147.56410236, 4143.84615364, 4148.84615364, 4150.89743569, 4127.05128178, 4130.12820485, 4122.17948691, 4132.82051255, 4185.64102551,8.57
4122.94871767, 4125.25640998, 4122.05128178, 4104.10256383, 4123.33333306, 4151.41025621, 4146.28205108, 4149.61538441, 4143.97435877, 4129.35897408, 4131.28205101, 4124.87179460, 4127.69230742, 4188.07692294,8.57
4134.23076896, 4128.58974332, 4130.25640998, 4113.20512793, 4122.94871767, 4144.35897415, 4142.17948697, 4136.79487159, 4126.92307665, 4127.17948691, 4131.53846126, 4132.69230742, 4131.79487152, 4194.48717935,8.57
4115.12820485, 4116.66666639, 4114.61538434, 4099.23076889, 4118.71794844, 4142.43589723, 4144.61538441, 4138.33333313, 4135.12820485, 4126.02564075, 4126.41025614, 4118.97435870, 4131.53846126, 4191.41025628,8.57
4131.53846126, 4131.41025614, 4134.87179460, 4107.43589716, 4123.46153819, 4142.69230749, 4146.41025621, 4157.05128185, 4152.94871774, 4128.46153819, 4133.07692280, 4135.76923056, 4132.56410229, 4197.43589730,8.57
4121.79487152, 4127.69230742, 4124.35897408, 4107.05128178, 4124.48717921, 4136.79487159, 4136.28205108, 4144.99999980, 4131.28205101, 4128.33333306, 4131.79487152, 4129.87179460, 4131.79487152, 4191.28205115,8.57
4118.07692280, 4121.28205101, 4114.87179460, 4102.05128171, 4120.89743562, 4130.76923050, 4126.41025614, 4124.87179460, 4115.12820485, 4127.43589716, 4128.46153819, 4124.48717921, 4131.41025614, 4193.20512807,8.57
4133.07692280, 4130.64102537, 4125.38461511, 4108.71794844, 4122.43589716, 4127.30769203, 4127.56410229, 4134.10256383, 4138.84615364, 4129.10256383, 4132.56410229, 4135.89743569, 4131.53846126, 4197.17948704,8.57
4111.41025614, 4117.56410229, 4112.05128178, 4099.35897402, 4120.76923050, 4137.43589723, 4137.69230749, 4144.61538441, 4159.99999980, 4131.15384588, 4126.79487152, 4121.92307665, 4126.66666639, 4185.89743576,8.57
4122.43589716, 4123.46153819, 4124.87179460, 4109.10256383, 4123.07692280, 4155.64102544, 4145.76923056, 4142.30769210, 4154.23076903, 4131.41025614, 4129.23076896, 4132.30769203, 4130.51282024, 4194.23076910,8.57
4118.07692280, 4123.97435870, 4119.23076896, 4107.82051255, 4122.56410229, 4159.10256390, 4150.51282031, 4153.20512800, 4144.74358954, 4129.35897408, 4131.02564075, 4126.53846126, 4129.48717921, 4194.48717935,8.57
4106.92307665, 4116.79487152, 4111.41025614, 4098.84615350, 4121.15384588, 4146.02564082, 4147.94871774, 4159.23076903, 4143.71794851, 4128.46153819, 4126.15384588, 4114.61538434, 4126.92307665, 4188.20512807,8.57
4122.94871767, 4125.12820485, 4123.84615357, 4109.87179460, 4124.61538434, 4135.76923056, 4135.89743569, 4136.28205108, 4135.12820485, 4129.61538434, 4127.05128178, 4127.30769203, 4133.33333306, 4193.46153833,8.57
4109.23076896, 4116.92307665, 4112.69230742, 4106.15384588, 4122.17948691, 4138.97435877, 4134.23076896, 4127.05128178, 4128.07692280, 4127.43589716, 4123.97435870, 4115.51282024, 4130.12820485, 4189.48717935,8.57
4119.35897408, 4126.02564075, 4126.28205101, 4112.94871767, 4125.12820485, 4135.12820485, 4132.82051255, 4136.79487159, 4133.84615357, 4126.53846126, 4127.17948691, 4121.79487152, 4127.17948691, 4188.71794858,8.57
4121.15384588, 4127.43589716, 4124.74358947, 4109.74358947, 4124.99999973, 4128.20512793, 4122.94871767, 4135.38461518, 4143.84615364, 4129.74358947, 4128.84615357, 4122.82051255, 4128.33333306, 4186.66666653,8.57
4112.56410229, 4118.33333306, 4117.05128178, 4102.82051255, 4120.76923050, 4133.71794844, 4127.17948691, 4135.12820485, 4145.89743569, 4129.35897408, 4125.89743562, 4114.10256383, 4130.64102537, 4186.79487166,8.57
4130.76923050, 4130.12820485, 4135.89743569, 4120.64102537, 4128.71794844, 4136.53846133, 4136.15384595, 4144.48717928, 4141.66666646, 4124.48717921, 4128.84615357, 4129.61538434, 4133.33333306, 4189.48717935,8.57
4112.94871767, 4119.23076896, 4122.56410229, 4110.76923050, 4125.76923050, 4139.87179467, 4142.05128185, 4154.23076903, 4147.82051262, 4123.20512793, 4124.61538434, 4118.07692280, 4127.05128178, 4181.28205115,8.57
4117.05128178, 4123.58974332, 4128.46153819, 4108.58974332, 4122.82051255, 4148.46153826, 4149.87179467, 4148.84615364, 4146.02564082, 4126.41025614, 4129.35897408, 4121.53846126, 4129.10256383, 4188.07692294,8.57
4126.02564075, 4130.76923050, 4127.82051255, 4116.92307665, 4126.15384588, 4145.89743569, 4148.46153826, 4139.10256390, 4138.33333313, 4127.94871767, 4132.82051255, 4127.43589716, 4132.94871767, 4188.71794858,8.57
4115.51282024, 4119.35897408, 4115.51282024, 4109.99999973, 4120.51282024, 4132.05128178, 4134.74358947, 4137.05128185, 4135.51282031, 4127.82051255, 4125.12820485, 4116.66666639, 4130.38461511, 4182.43589730,8.57
4135.25640998, 4131.53846126, 4137.05128185, 4116.02564075, 4122.69230742, 4128.84615357, 4127.43589716, 4130.25640998, 4127.30769203, 4126.53846126, 4131.92307665, 4133.46153819, 4134.35897408, 4194.23076910,8.57
4120.38461511, 4123.84615357, 4122.69230742, 4103.20512793, 4123.97435870, 4135.76923056, 4134.61538434, 4132.69230742, 4132.05128178, 4125.64102537, 4131.66666639, 4128.97435870, 4131.92307665, 4191.66666653,8.57
4123.20512793, 4121.92307665, 4119.99999973, 4100.12820478, 4123.33333306, 4136.02564082, 4130.12820485, 4138.07692287, 4140.12820492, 4127.43589716, 4127.17948691, 4129.87179460, 4130.12820485, 4190.25641012,8.57
4136.66666646, 4131.15384588, 4129.74358947, 4109.87179460, 4125.12820485, 4126.53846126, 4110.38461511, 4123.33333306, 4125.89743562, 4127.43589716, 4129.48717921, 4133.46153819, 4132.56410229, 4193.33333320,8.57
4114.61538434, 4119.35897408, 4116.28205101, 4103.20512793, 4121.02564075, 4123.71794844, 4113.84615357, 4124.74358947, 4131.02564075, 4125.89743562, 4126.28205101, 4119.35897408, 4129.35897408, 4189.23076910,8.57
4129.10256383, 4127.30769203, 4128.84615357, 4115.38461511, 4122.56410229, 4141.53846133, 4144.61538441, 4162.69230749, 4168.46153833, 4129.23076896, 4127.43589716, 4135.64102544, 4132.17948691, 4194.87179474,8.57
4121.79487152, 4123.58974332, 4117.30769203, 4114.48717921, 4122.17948691, 4159.10256390, 4160.76923056, 4174.87179474, 4169.74358961, 4132.30769203, 4125.76923050, 4127.17948691, 4129.87179460, 4191.66666653,8.57
4114.99999973, 4119.35897408, 4114.87179460, 4113.20512793, 4119.87179460, 4149.35897415, 4143.84615364, 4143.20512800, 4134.61538434, 4129.61538434, 4126.02564075, 4119.61538434, 4127.94871767, 4193.07692294,8.57
4126.79487152, 4127.05128178, 4125.12820485, 4121.92307665, 4122.69230742, 4124.99999973, 4126.53846126, 4129.35897408, 4130.64102537, 4128.20512793, 4129.99999973, 4128.97435870, 4132.94871767, 4194.87179474,8.57
4107.69230742, 4116.02564075, 4107.30769203, 4109.35897408, 4122.05128178, 4124.99999973, 4130.89743562, 4137.05128185, 4141.28205108, 4128.33333306, 4125.38461511, 4116.28205101, 4131.66666639, 4186.28205115,8.57
4121.41025614, 4125.12820485, 4123.33333306, 4116.79487152, 4124.35897408, 4140.76923056, 4138.33333313, 4140.25641005, 4133.46153819, 4127.56410229, 4126.66666639, 4128.46153819, 4130.25640998, 4191.41025628,8.57
4118.84615357, 4121.53846126, 4121.79487152, 4115.38461511, 4124.99999973, 4137.69230749, 4138.46153826, 4145.51282031, 4132.82051255, 4129.10256383, 4127.43589716, 4121.02564075, 4126.41025614, 4189.10256397,8.57
4109.23076896, 4111.79487152, 4115.51282024, 4108.84615357, 4123.58974332, 4128.97435870, 4138.07692287, 4150.38461518, 4152.82051262, 4130.25640998, 4127.43589716, 4110.25640998, 4127.94871767, 4187.56410243,8.57
4128.46153819, 4126.15384588, 4130.12820485, 4122.05128178, 4126.66666639, 4141.79487159, 4146.92307672, 4156.41025621, 4168.58974345, 4128.84615357, 4131.79487152, 4129.48717921, 4135.25640998, 4190.89743576,8.57
4114.74358947, 4121.15384588, 4114.35897408, 4114.23076896, 4122.05128178, 4157.17948697, 4153.97435877, 4160.12820492, 4152.17948697, 4128.07692280, 4128.33333306, 4118.46153819, 4131.53846126, 4183.46153833,8.57
4124.48717921, 4127.05128178, 4125.51282024, 4121.79487152, 4124.74358947, 4141.92307672, 4136.02564082, 4134.10256383, 4118.71794844, 4128.71794844, 4130.51282024, 4120.51282024, 4132.82051255, 4190.64102551,8.57
4125.38461511, 4125.64102537, 4128.07692280, 4123.84615357, 4127.30769203, 4126.92307665, 4122.94871767, 4114.61538434, 4116.02564075, 4127.94871767, 4130.51282024, 4121.41025614, 4132.94871767, 4191.15384602,8.57
4113.58974332, 4116.28205101, 4119.10256383, 4109.61538434, 4118.33333306, 4134.48717921, 4132.94871767, 4137.17948697, 4134.35897408, 4127.69230742, 4128.20512793, 4116.53846126, 4126.79487152, 4186.02564089,8.57
4134.35897408, 4132.56410229, 4135.25640998, 4119.35897408, 4121.02564075, 4139.35897415, 4141.02564082, 4153.84615364, 4140.12820492, 4127.69230742, 4134.87179460, 4131.41025614, 4129.35897408, 4192.94871781,8.57
4119.35897408, 4124.10256383, 4121.02564075, 4113.33333306, 4122.05128178, 4143.71794851, 4147.56410236, 4153.58974339, 4148.58974339, 4126.28205101, 4130.89743562, 4117.82051255, 4128.71794844, 4188.20512807,8.57
4124.23076896, 4121.41025614, 4126.15384588, 4113.46153819, 4119.99999973, 4141.79487159, 4142.82051262, 4149.23076903, 4146.53846133, 4126.92307665, 4130.12820485, 4124.10256383, 4129.23076896, 4189.74358961,8.57
4132.30769203, 4126.66666639, 4128.97435870, 4117.82051255, 4122.43589716, 4127.82051255, 4125.12820485, 4135.38461518, 4125.76923050, 4128.46153819, 4131.15384588, 4134.10256383, 4132.43589716, 4191.41025628,8.57
4114.99999973, 4120.89743562, 4113.58974332, 4107.05128178, 4120.38461511, 4124.74358947, 4127.82051255, 4134.48717921, 4125.76923050, 4128.07692280, 4125.64102537, 4124.87179460, 4132.43589716, 4187.05128192,8.57
4132.82051255, 4132.17948691, 4128.84615357, 4114.87179460, 4124.10256383, 4133.97435870, 4143.20512800, 4149.10256390, 4134.61538434, 4128.07692280, 4130.12820485, 4136.53846133, 4134.35897408, 4194.99999986,8.57
4119.35897408, 4118.84615357, 4118.20512793, 4110.38461511, 4125.25640998, 4137.82051262, 4143.07692287, 4156.15384595, 4138.20512800, 4129.10256383, 4129.61538434, 4124.87179460, 4128.58974332, 4192.56410243,8.57
4117.43589716, 4116.79487152, 4118.71794844, 4109.87179460, 4124.48717921, 4133.97435870, 4132.43589716, 4141.79487159, 4138.84615364, 4129.99999973, 4127.43589716, 4125.76923050, 4129.48717921, 4193.97435884,8.57
4130.76923050, 4129.10256383, 4125.25640998, 4116.15384588, 4124.23076896, 4130.38461511, 4127.05128178, 4123.58974332, 4128.58974332, 4129.87179460, 4128.46153819, 4132.43589716, 4136.53846133, 4195.89743576,8.57
4105.89743562, 4113.97435870, 4104.48717921, 4104.74358947, 4120.25640998, 4136.41025621, 4135.38461518, 4133.33333306, 4127.30769203, 4127.94871767, 4124.99999973, 4114.48717921, 4133.58974332, 4189.10256397,8.57
4118.33333306, 4122.69230742, 4118.71794844, 4114.23076896, 4125.25640998, 4146.79487159, 4145.25641005, 4152.43589723, 4139.23076903, 4127.94871767, 4128.33333306, 4126.41025614, 4134.87179460, 4194.35897422,8.57
4119.35897408, 4123.20512793, 4118.33333306, 4115.51282024, 4124.23076896, 4147.05128185, 4142.05128185, 4153.33333313, 4149.61538441, 4128.84615357, 4124.87179460, 4122.43589716, 4132.30769203, 4190.38461525,8.57
4114.10256383, 4116.28205101, 4116.66666639, 4115.12820485, 4118.58974332, 4148.84615364, 4139.87179467, 4151.66666646, 4159.99999980, 4128.46153819, 4123.20512793, 4118.71794844, 4130.89743562, 4187.30769217,8.57
4124.61538434, 4125.25640998, 4124.23076896, 4122.43589716, 4123.97435870, 4151.53846133, 4147.30769210, 4156.79487159, 4159.99999980, 4126.92307665, 4127.94871767, 4127.30769203, 4134.48717921, 4189.99999986,8.57
4107.05128178, 4115.64102537, 4109.99999973, 4107.69230742, 4125.76923050, 4147.43589723, 4155.76923056, 4166.53846133, 4161.02564082, 4125.64102537, 4123.07692280, 4109.23076896, 4130.12820485, 4184.61538448,8.57
4123.46153819, 4122.82051255, 4126.92307665, 4115.64102537, 4126.66666639, 4139.74358954, 4149.61538441, 4168.33333320, 4166.92307672, 4127.94871767, 4127.05128178, 4121.53846126, 4132.43589716, 4189.87179474,8.57
4123.97435870, 4125.12820485, 4124.61538434, 4118.46153819, 4124.23076896, 4131.66666639, 4129.99999973, 4144.61538441, 4147.17948697, 4130.76923050, 4127.94871767, 4126.41025614, 4132.82051255, 4188.46153833,8.57
4110.12820485, 4120.64102537, 4118.71794844, 4110.64102537, 4122.69230742, 4128.58974332, 4116.66666639, 4119.23076896, 4117.17948691, 4128.46153819, 4123.97435870, 4117.43589716, 4129.48717921, 4187.17948704,8.57
4126.66666639, 4128.07692280, 4133.97435870, 4121.28205101, 4129.35897408, 4127.30769203, 4119.74358947, 4124.23076896, 4118.07692280, 4126.53846126, 4128.58974332, 4124.74358947, 4132.56410229, 4190.64102551,8.57
4117.43589716, 4117.05128178, 4117.43589716, 4110.38461511, 4123.20512793, 4129.99999973, 4130.76923050, 4138.84615364, 4131.28205101, 4128.20512793, 4126.66666639, 4115.12820485, 4130.38461511, 4185.76923063,8.57
4129.23076896, 4126.79487152, 4129.74358947, 4111.02564075, 4120.64102537, 4135.76923056, 4139.74358954, 4146.79487159, 4140.38461518, 4127.94871767, 4129.99999973, 4127.05128178, 4129.23076896, 4194.23076910,8.57
4126.41025614, 4126.41025614, 4129.10256383, 4114.61538434, 4125.76923050, 4140.51282031, 4143.58974339, 4157.94871774, 4156.02564082, 4128.07692280, 4131.41025614, 4125.89743562, 4129.87179460, 4192.82051269,8.57
4113.33333306, 4113.97435870, 4113.84615357, 4109.23076896, 4121.66666639, 4146.15384595, 4149.87179467, 4163.33333313, 4158.20512800, 4129.99999973, 4128.58974332, 4119.10256383, 4130.12820485, 4186.79487166,8.57
4137.17948697, 4132.94871767, 4132.94871767, 4116.15384588, 4122.56410229, 4146.02564082, 4151.92307672, 4156.79487159, 4146.79487159, 4128.97435870, 4133.58974332, 4138.46153826, 4132.30769203, 4194.35897422,8.57
4116.92307665, 4124.61538434, 4118.58974332, 4101.66666632, 4122.82051255, 4134.23076896, 4139.99999980, 4146.41025621, 4144.48717928, 4127.05128178, 4128.07692280, 4124.99999973, 4129.87179460, 4190.51282038,8.57
4118.46153819, 4121.66666639, 4117.94871767, 4105.25640998, 4122.05128178, 4129.48717921, 4130.12820485, 4132.56410229, 4133.33333306, 4128.58974332, 4126.28205101, 4124.99999973, 4131.15384588, 4189.74358961,8.57
4131.66666639, 4127.30769203, 4122.94871767, 4114.35897408, 4119.99999973, 4144.61538441, 4135.89743569, 4130.64102537, 4124.23076896, 4128.07692280, 4128.71794844, 4128.71794844, 4130.25640998, 4188.58974345,8.57
4112.82051255, 4113.84615357, 4109.48717921, 4101.79487145, 4117.17948691, 4144.23076903, 4134.61538434, 4140.38461518, 4136.02564082, 4126.28205101, 4126.15384588, 4118.33333306, 4127.30769203, 4188.97435884,8.57
4125.51282024, 4122.17948691, 4122.05128178, 4110.51282024, 4124.74358947, 4127.30769203, 4119.87179460, 4131.79487152, 4138.07692287, 4130.25640998, 4129.48717921, 4133.97435870, 4132.17948691, 4197.94871781,8.57
4117.17948691, 4119.10256383, 4112.05128178, 4106.53846126, 4124.23076896, 4129.99999973, 4121.15384588, 4122.56410229, 4129.35897408, 4132.30769203, 4125.51282024, 4121.15384588, 4128.07692280, 4190.25641012,8.57
4118.71794844, 4118.71794844, 4118.58974332, 4105.89743562, 4121.02564075, 4134.48717921, 4129.48717921, 4133.20512793, 4131.66666639, 4129.48717921, 4125.25640998, 4120.76923050, 4128.07692280, 4190.12820499,8.57
4124.23076896, 4124.61538434, 4125.25640998, 4111.79487152, 4124.87179460, 4130.64102537, 4129.61538434, 4138.84615364, 4134.99999973, 4129.10256383, 4128.07692280, 4128.97435870, 4133.58974332, 4193.20512807,8.57
4106.02564075, 4113.20512793, 4108.84615357, 4103.20512793, 4121.92307665, 4140.89743569, 4140.38461518, 4141.28205108, 4142.17948697, 4131.02564075, 4124.87179460, 4110.25640998, 4128.97435870, 4184.99999986,8.57
4124.99999973, 4123.46153819, 4127.05128178, 4119.48717921, 4124.35897408, 4144.10256390, 4146.79487159, 4149.48717928, 4151.79487159, 4129.99999973, 4129.74358947, 4121.92307665, 4130.89743562, 4189.74358961,8.57
