AF3,F7,F3,FC5,T7,P7,O1,O2,P8,T8,FC6,F4,F8,AF4,Label
4122.56410229, 4124.35897408, 4126.66666639, 4119.99999973, 4126.28205101, 4139.61538441, 4112.94871767, 4149.61538441, 4159.10256390, 4127.43589716, 4124.61538434, 4119.35897408, 4126.15384588, 4182.94871781,8.57
4124.61538434, 4129.87179460, 4126.66666639, 4132.56410229, 4123.71794844, 4152.43589723, 4119.10256383, 4152.56410236, 4152.56410236, 4125.76923050, 4126.53846126, 4121.53846126, 4129.23076896, 4188.84615371,8.57
4128.58974332, 4131.66666639, 4126.41025614, 4149.35897415, 4126.15384588, 4150.12820492, 4124.74358947, 4159.87179467, 4157.69230749, 4127.30769203, 4130.51282024, 4136.02564082, 4135.12820485, 4192.69230756,8.57
4119.48717921, 4123.97435870, 4120.76923050, 4149.61538441, 4127.17948691, 4140.38461518, 4114.48717921, 4140.25641005, 4141.79487159, 4127.82051255, 4125.51282024, 4125.51282024, 4127.43589716, 4184.61538448,8.57
4129.74358947, 4131.28205101, 4129.74358947, 4147.17948697, 4125.12820485, 4148.07692287, 4116.15384588, 4132.82051255, 4137.05128185, 4128.58974332, 4132.17948691, 4140.64102544, 4132.56410229, 4196.66666653,8.57
4122.17948691, 4126.66666639, 4122.05128178, 4144.61538441, 4122.43589716, 4152.56410236, 4120.89743562, 4140.76923056, 4151.15384595, 4128.58974332, 4124.99999973, 4125.89743562, 4129.23076896, 4191.79487166,8.57
4119.99999973, 4121.02564075, 4120.64102537, 4138.20512800, 4124.61538434, 4140.51282031, 4105.89743562, 4125.76923050, 4138.58974339, 4128.33333306, 4122.56410229, 4120.38461511, 4129.35897408, 4190.64102551,8.57
4126.53846126, 4125.38461511, 4124.23076896, 4149.48717928, 4127.30769203, 4150.12820492, 4112.82051255, 4129.61538434, 4138.33333313, 4129.74358947, 4130.51282024, 4135.76923056, 4136.28205108, 4193.71794858,8.57
4117.05128178, 4120.25640998, 4114.74358947, 4162.17948697, 4124.99999973, 4168.84615371, 4136.92307672, 4163.84615364, 4167.94871774, 4127.56410229, 4122.30769203, 4118.58974332, 4129.35897408, 4185.76923063,8.57
4121.41025614, 4122.56410229, 4120.89743562, 4141.15384595, 4124.48717921, 4144.99999980, 4116.41025614, 4151.41025621, 4156.15384595, 4126.02564075, 4122.17948691, 4124.10256383, 4131.79487152, 4192.43589730,8.57
4117.05128178, 4120.89743562, 4119.23076896, 4123.71794844, 4124.61538434, 4124.87179460, 4095.25640991, 4127.30769203, 4137.94871774, 4128.46153819, 4123.20512793, 4119.87179460, 4128.97435870, 4184.35897422,8.57
4120.12820485, 4122.82051255, 4122.56410229, 4123.20512793, 4124.35897408, 4134.10256383, 4101.53846119, 4138.07692287, 4147.43589723, 4130.64102537, 4125.64102537, 4117.43589716, 4125.89743562, 4183.20512807,8.57
4128.58974332, 4128.07692280, 4128.33333306, 4131.41025614, 4124.74358947, 4140.12820492, 4103.46153819, 4153.71794851, 4152.94871774, 4127.82051255, 4125.89743562, 4126.92307665, 4129.74358947, 4190.12820499,8.57
4116.15384588, 4118.71794844, 4117.56410229, 4163.58974339, 4125.12820485, 4158.84615364, 4125.38461511, 4171.79487166, 4168.71794858, 4124.61538434, 4114.61538434, 4107.43589716, 4122.30769203, 4178.84615371,8.57
4123.84615357, 4123.97435870, 4127.43589716, 4182.94871781, 4126.92307665, 4170.64102551, 4138.84615364, 4165.64102544, 4166.41025621, 4129.74358947, 4125.25640998, 4122.05128178, 4126.92307665, 4187.17948704,8.57
4124.48717921, 4127.05128178, 4126.79487152, 4168.46153833, 4126.66666639, 4147.17948697, 4110.76923050, 4128.84615357, 4129.23076896, 4134.99999973, 4128.71794844, 4125.89743562, 4129.23076896, 4185.51282038,8.57
4121.92307665, 4123.71794844, 4122.43589716, 4156.92307672, 4124.87179460, 4127.17948691, 4093.58974325, 4117.94871767, 4121.41025614, 4132.69230742, 4120.64102537, 4115.12820485, 4129.10256383, 4180.89743576,8.57
4128.33333306, 4129.23076896, 4129.35897408, 4152.17948697, 4125.38461511, 4126.02564075, 4101.66666632, 4132.17948691, 4144.35897415, 4130.89743562, 4127.69230742, 4132.69230742, 4134.48717921, 4190.25641012,8.57
4118.46153819, 4122.94871767, 4121.15384588, 4132.94871767, 4127.05128178, 4115.51282024, 4087.05128171, 4115.51282024, 4129.61538434, 4132.05128178, 4127.17948691, 4120.12820485, 4124.99999973, 4182.43589730,8.57
4128.97435870, 4125.38461511, 4127.56410229, 4123.71794844, 4126.66666639, 4108.58974332, 4066.66666625, 4089.74358940, 4099.23076889, 4133.58974332, 4127.43589716, 4125.25640998, 4129.10256383, 4186.92307679,8.57
4128.58974332, 4128.33333306, 4126.79487152, 4146.66666646, 4123.97435870, 4138.84615364, 4090.25640991, 4109.87179460, 4119.10256383, 4131.79487152, 4126.28205101, 4130.89743562, 4131.79487152, 4186.41025628,8.57
4118.71794844, 4123.20512793, 4121.15384588, 4159.87179467, 4121.53846126, 4156.66666646, 4112.17948691, 4139.35897415, 4153.46153826, 4129.10256383, 4126.79487152, 4122.43589716, 4126.28205101, 4183.58974345,8.57
4129.48717921, 4125.51282024, 4128.84615357, 4133.71794844, 4121.79487152, 4126.15384588, 4092.69230735, 4131.53846126, 4145.76923056, 4131.15384588, 4134.87179460, 4136.92307672, 4136.02564082, 4197.56410243,8.57
4119.23076896, 4119.74358947, 4119.87179460, 4114.23076896, 4122.17948691, 4117.05128178, 4089.10256376, 4124.23076896, 4126.28205101, 4132.05128178, 4126.15384588, 4121.15384588, 4131.15384588, 4191.53846140,8.57
4120.76923050, 4123.84615357, 4124.61538434, 4131.02564075, 4124.74358947, 4137.69230749, 4103.97435870, 4131.02564075, 4127.82051255, 4131.15384588, 4125.38461511, 4126.92307665, 4129.48717921, 4193.33333320,8.57
4125.38461511, 4127.56410229, 4125.38461511, 4136.28205108, 4125.12820485, 4126.79487152, 4084.61538427, 4109.74358947, 4115.25640998, 4131.41025614, 4126.66666639, 4134.10256383, 4134.87179460, 4190.76923063,8.57
4115.51282024, 4119.61538434, 4115.51282024, 4133.71794844, 4122.43589716, 4117.82051255, 4077.94871761, 4102.17948684, 4109.35897408, 4131.92307665, 4119.35897408, 4114.87179460, 4128.58974332, 4183.97435884,8.57
4122.69230742, 4125.25640998, 4123.33333306, 4156.28205108, 4124.99999973, 4145.51282031, 4110.38461511, 4131.28205101, 4134.61538434, 4133.46153819, 4128.46153819, 4131.66666639, 4131.41025614, 4196.66666653,8.57
4117.43589716, 4121.53846126, 4118.20512793, 4155.51282031, 4127.05128178, 4143.84615364, 4103.20512793, 4125.12820485, 4130.25640998, 4131.28205101, 4126.02564075, 4121.66666639, 4128.33333306, 4184.61538448,8.57
4121.92307665, 4121.79487152, 4122.43589716, 4118.33333306, 4126.02564075, 4103.97435870, 4063.58974318, 4091.02564068, 4103.58974332, 4129.87179460, 4123.46153819, 4115.76923050, 4127.30769203, 4181.92307679,8.57
4126.28205101, 4128.46153819, 4127.30769203, 4116.53846126, 4123.84615357, 4101.66666632, 4068.20512779, 4094.48717914, 4110.89743562, 4130.51282024, 4129.23076896, 4127.69230742, 4127.94871767, 4186.15384602,8.57
4113.46153819, 4122.05128178, 4118.71794844, 4158.20512800, 4124.35897408, 4133.97435870, 4102.56410229, 4127.17948691, 4135.89743569, 4129.35897408, 4123.07692280, 4112.56410229, 4122.30769203, 4176.02564089,8.57
4122.17948691, 4127.17948691, 4129.10256383, 4160.64102544, 4129.35897408, 4134.61538434, 4103.07692280, 4130.51282024, 4130.38461511, 4130.64102537, 4126.79487152, 4125.51282024, 4132.05128178, 4188.07692294,8.57
4118.84615357, 4126.28205101, 4124.99999973, 4132.56410229, 4128.07692280, 4121.92307665, 4096.28205094, 4130.38461511, 4129.61538434, 4132.94871767, 4125.25640998, 4122.82051255, 4128.97435870, 4186.28205115,8.57
4119.35897408, 4122.94871767, 4123.20512793, 4146.28205108, 4125.12820485, 4142.82051262, 4116.41025614, 4154.48717928, 4154.48717928, 4130.38461511, 4123.71794844, 4117.69230742, 4123.97435870, 4184.61538448,8.57
4128.58974332, 4125.38461511, 4130.38461511, 4166.28205108, 4124.74358947, 4157.30769210, 4124.35897408, 4148.84615364, 4145.12820492, 4128.46153819, 4129.35897408, 4130.64102537, 4128.33333306, 4191.15384602,8.57
4119.74358947, 4120.51282024, 4124.48717921, 4131.66666639, 4124.74358947, 4123.07692280, 4092.56410222, 4099.23076889, 4099.23076889, 4129.87179460, 4124.23076896, 4118.46153819, 4125.51282024, 4180.64102551,8.57
4125.64102537, 4127.69230742, 4129.61538434, 4095.51282017, 4127.94871767, 4089.99999966, 4061.15384574, 4066.53846113, 4076.92307658, 4130.89743562, 4127.43589716, 4131.28205101, 4133.58974332, 4186.66666653,8.57
4121.15384588, 4123.58974332, 4121.15384588, 4118.71794844, 4127.17948691, 4109.10256383, 4075.38461504, 4088.84615350, 4100.64102530, 4129.23076896, 4125.51282024, 4129.48717921, 4132.43589716, 4187.94871781,8.57
4122.69230742, 4119.48717921, 4117.69230742, 4139.23076903, 4122.69230742, 4130.12820485, 4095.25640991, 4116.15384588, 4121.66666639, 4127.30769203, 4125.38461511, 4126.79487152, 4129.35897408, 4188.97435884,8.57
4134.48717921, 4128.97435870, 4129.35897408, 4119.61538434, 4122.43589716, 4116.02564075, 4085.51282017, 4112.05128178, 4113.33333306, 4129.10256383, 4132.05128178, 4144.61538441, 4137.56410236, 4196.41025628,8.57
4118.71794844, 4122.56410229, 4122.82051255, 4110.38461511, 4124.35897408, 4110.12820485, 4080.12820478, 4102.56410229, 4107.05128178, 4131.66666639, 4123.07692280, 4118.84615357, 4128.84615357, 4188.58974345,8.57
4121.15384588, 4124.10256383, 4126.41025614, 4119.99999973, 4126.41025614, 4130.38461511, 4091.28205094, 4100.25640991, 4111.28205101, 4133.07692280, 4124.74358947, 4123.20512793, 4129.35897408, 4195.51282038,8.57
4121.15384588, 4124.10256383, 4126.41025614, 4119.99999973, 4126.41025614, 4130.38461511, 4091.28205094, 4100.25640991, 4111.28205101, 4133.07692280, 4124.74358947, 4123.20512793, 4129.35897408, 4195.51282038,8.57
4121.28205101, 4124.61538434, 4122.43589716, 4128.58974332, 4125.51282024, 4146.79487159, 4107.94871767, 4122.43589716, 4136.92307672, 4131.28205101, 4124.48717921, 4131.28205101, 4132.05128178, 4192.56410243,8.57
4117.05128178, 4118.33333306, 4116.41025614, 4124.35897408, 4123.84615357, 4128.46153819, 4102.69230742, 4135.25640998, 4147.43589723, 4129.87179460, 4118.97435870, 4116.92307665, 4129.48717921, 4189.48717935,8.57
4127.56410229, 4126.28205101, 4126.15384588, 4118.07692280, 4124.74358947, 4102.30769196, 4079.10256376, 4106.15384588, 4109.74358947, 4132.43589716, 4127.82051255, 4128.71794844, 4136.41025621, 4198.71794858,8.57
4114.61538434, 4121.02564075, 4118.71794844, 4123.84615357, 4126.28205101, 4100.38461504, 4068.33333292, 4080.89743555, 4081.28205094, 4131.15384588, 4123.20512793, 4116.79487152, 4128.58974332, 4186.15384602,8.57
4116.15384588, 4119.23076896, 4122.69230742, 4126.92307665, 4128.20512793, 4103.58974332, 4069.35897395, 4085.38461504, 4089.99999966, 4130.12820485, 4121.79487152, 4122.17948691, 4127.94871767, 4190.64102551,8.57
4121.28205101, 4122.82051255, 4123.84615357, 4123.46153819, 4125.38461511, 4104.87179460, 4069.99999966, 4094.35897402, 4103.07692280, 4131.15384588, 4122.56410229, 4127.94871767, 4130.12820485, 4191.53846140,8.57
4116.92307665, 4121.15384588, 4117.43589716, 4135.38461518, 4120.76923050, 4114.99999973, 4081.41025607, 4107.43589716, 4119.10256383, 4128.20512793, 4119.35897408, 4112.17948691, 4122.82051255, 4179.35897422,8.57
4126.02564075, 4128.33333306, 4127.82051255, 4144.87179467, 4123.33333306, 4121.28205101, 4098.20512786, 4128.97435870, 4141.66666646, 4128.33333306, 4128.97435870, 4127.82051255, 4129.61538434, 4187.56410243,8.57
4117.82051255, 4123.97435870, 4123.07692280, 4129.99999973, 4126.79487152, 4112.69230742, 4090.64102530, 4124.23076896, 4134.23076896, 4131.66666639, 4123.97435870, 4119.23076896, 4129.48717921, 4183.33333320,8.57
4121.28205101, 4123.46153819, 4127.56410229, 4115.51282024, 4126.92307665, 4101.15384581, 4068.58974318, 4096.53846119, 4097.56410222, 4129.48717921, 4123.07692280, 4120.89743562, 4131.15384588, 4184.48717935,8.57
4127.69230742, 4127.17948691, 4131.15384588, 4111.92307665, 4124.74358947, 4096.79487145, 4060.51282010, 4084.23076889, 4079.74358940, 4127.43589716, 4128.33333306, 4130.89743562, 4133.46153819, 4185.51282038,8.57
4122.05128178, 4122.17948691, 4122.30769203, 4116.66666639, 4123.84615357, 4103.58974332, 4067.17948677, 4090.25640991, 4089.99999966, 4130.51282024, 4122.30769203, 4114.99999973, 4129.87179460, 4181.53846140,8.57
4132.43589716, 4127.17948691, 4128.58974332, 4128.97435870, 4124.99999973, 4119.23076896, 4083.58974325, 4106.53846126, 4111.28205101, 4132.43589716, 4127.43589716, 4129.61538434, 4136.79487159, 4193.58974345,8.57
4126.79487152, 4122.69230742, 4121.28205101, 4139.61538441, 4124.23076896, 4135.25640998, 4109.10256383, 4131.41025614, 4137.56410236, 4130.76923050, 4125.64102537, 4126.53846126, 4129.74358947, 4188.33333320,8.57
4130.25640998, 4124.87179460, 4123.71794844, 4136.53846133, 4123.71794844, 4130.51282024, 4110.38461511, 4132.94871767, 4141.66666646, 4128.97435870, 4125.76923050, 4127.05128178, 4128.97435870, 4192.94871781,8.57
4133.71794844, 4132.43589716, 4129.99999973, 4126.79487152, 4123.97435870, 4111.79487152, 4088.71794837, 4114.10256383, 4123.84615357, 4127.43589716, 4130.64102537, 4137.69230749, 4136.53846133, 4196.92307679,8.57
4117.56410229, 4124.87179460, 4118.84615357, 4123.46153819, 4123.97435870, 4110.38461511, 4087.30769196, 4114.74358947, 4115.64102537, 4127.17948691, 4121.79487152, 4120.12820485, 4126.66666639, 4183.20512807,8.57
4126.79487152, 4128.58974332, 4124.61538434, 4116.66666639, 4125.12820485, 4111.41025614, 4091.02564068, 4118.46153819, 4107.94871767, 4130.25640998, 4124.48717921, 4134.74358947, 4129.23076896, 4193.46153833,8.57
4122.05128178, 4126.28205101, 4119.61538434, 4114.10256383, 4123.07692280, 4097.82051248, 4076.28205094, 4103.46153819, 4096.66666632, 4129.61538434, 4124.10256383, 4127.17948691, 4129.10256383, 4188.84615371,8.57
4115.76923050, 4122.17948691, 4117.05128178, 4123.20512793, 4123.33333306, 4092.69230735, 4069.10256369, 4099.35897402, 4108.97435870, 4127.94871767, 4122.05128178, 4117.05128178, 4124.99999973, 4183.84615371,8.57
4123.46153819, 4126.53846126, 4125.76923050, 4131.79487152, 4126.28205101, 4113.07692280, 4079.74358940, 4106.92307665, 4124.10256383, 4131.28205101, 4128.20512793, 4136.66666646, 4132.82051255, 4195.38461525,8.57
4113.33333306, 4117.82051255, 4115.64102537, 4122.05128178, 4123.71794844, 4122.17948691, 4076.66666632, 4090.76923043, 4102.94871767, 4133.58974332, 4120.25640998, 4117.30769203, 4130.76923050, 4185.89743576,8.57
4119.99999973, 4122.56410229, 4120.38461511, 4119.87179460, 4123.97435870, 4111.15384588, 4072.56410222, 4088.46153812, 4099.10256376, 4134.35897408, 4122.69230742, 4119.48717921, 4133.84615357, 4188.33333320,8.57
4119.48717921, 4124.87179460, 4122.17948691, 4134.74358947, 4125.76923050, 4112.69230742, 4088.33333299, 4117.94871767, 4127.69230742, 4132.82051255, 4122.43589716, 4123.97435870, 4130.64102537, 4187.05128192,8.57
4116.02564075, 4118.97435870, 4119.61538434, 4126.41025614, 4124.74358947, 4113.58974332, 4085.64102530, 4117.82051255, 4119.10256383, 4129.87179460, 4116.02564075, 4115.12820485, 4127.30769203, 4183.84615371,8.57
4127.82051255, 4124.35897408, 4126.53846126, 4106.15384588, 4125.64102537, 4090.25640991, 4056.92307651, 4084.99999966, 4088.20512786, 4131.02564075, 4125.64102537, 4130.12820485, 4136.79487159, 4193.46153833,8.57
4117.43589716, 4121.02564075, 4118.97435870, 4096.15384581, 4125.12820485, 4069.99999966, 4038.84615343, 4066.66666625, 4079.99999966, 4131.66666639, 4122.69230742, 4114.87179460, 4128.20512793, 4183.20512807,8.57
4122.17948691, 4125.76923050, 4125.51282024, 4082.43589709, 4123.58974332, 4070.51282017, 4037.30769189, 4060.89743548, 4066.79487138, 4131.53846126, 4121.79487152, 4121.15384588, 4128.84615357, 4186.92307679,8.57
4127.94871767, 4128.97435870, 4128.46153819, 4075.12820478, 4123.07692280, 4075.12820478, 4047.05128164, 4067.94871754, 4062.69230728, 4131.53846126, 4127.05128178, 4133.71794844, 4135.12820485, 4188.58974345,8.57
4119.99999973, 4123.20512793, 4125.89743562, 4101.02564068, 4124.35897408, 4084.99999966, 4067.43589702, 4095.12820478, 4098.33333299, 4131.02564075, 4126.41025614, 4120.12820485, 4128.58974332, 4182.05128192,8.57
4128.07692280, 4130.64102537, 4131.79487152, 4129.61538434, 4127.05128178, 4095.89743555, 4070.89743555, 4102.69230742, 4120.51282024, 4132.56410229, 4128.46153819, 4134.48717921, 4133.33333306, 4194.61538448,8.57
4121.66666639, 4129.23076896, 4120.25640998, 4113.46153819, 4126.28205101, 4081.53846119, 4047.17948677, 4075.64102530, 4088.07692273, 4132.94871767, 4122.82051255, 4127.17948691, 4130.51282024, 4188.71794858,8.57
4124.99999973, 4129.23076896, 4125.76923050, 4083.20512786, 4125.12820485, 4056.66666625, 4032.05128157, 4052.05128164, 4047.43589702, 4130.12820485, 4128.20512793, 4126.53846126, 4130.25640998, 4188.46153833,8.57
4130.64102537, 4129.99999973, 4129.10256383, 4103.46153819, 4125.25640998, 4083.33333299, 4062.94871754, 4076.66666632, 4071.66666632, 4128.84615357, 4131.28205101, 4136.79487159, 4133.84615357, 4193.58974345,8.57
4119.87179460, 4120.38461511, 4117.05128178, 4132.30769203, 4124.23076896, 4123.71794844, 4086.79487145, 4104.74358947, 4105.38461511, 4129.99999973, 4121.53846126, 4123.46153819, 4128.58974332, 4187.94871781,8.57
4123.71794844, 4123.97435870, 4124.74358947, 4093.33333299, 4124.48717921, 4090.89743555, 4044.87179446, 4069.23076882, 4064.35897395, 4130.12820485, 4126.53846126, 4135.51282031, 4132.56410229, 4192.30769217,8.57
4118.46153819, 4122.56410229, 4118.46153819, 4066.92307651, 4124.35897408, 4058.20512779, 4025.25640977, 4051.79487138, 4052.94871754, 4129.48717921, 4123.07692280, 4124.87179460, 4129.74358947, 4186.79487166,8.57
4121.66666639, 4122.17948691, 4117.05128178, 4113.07692280, 4124.48717921, 4086.28205094, 4062.43589702, 4086.79487145, 4104.99999973, 4132.56410229, 4121.15384588, 4119.48717921, 4130.25640998, 4194.99999986,8.57
4127.17948691, 4126.41025614, 4124.87179460, 4125.51282024, 4125.76923050, 4096.02564068, 4063.97435856, 4085.38461504, 4095.25640991, 4132.43589716, 4127.43589716, 4133.84615357, 4134.35897408, 4199.35897422,8.57
4114.48717921, 4118.97435870, 4117.30769203, 4100.76923043, 4125.12820485, 4093.84615350, 4054.35897395, 4074.48717914, 4066.66666625, 4129.10256383, 4119.48717921, 4114.61538434, 4125.76923050, 4181.28205115,8.57
4123.58974332, 4126.41025614, 4124.10256383, 4122.56410229, 4124.48717921, 4121.28205101, 4083.58974325, 4102.69230742, 4107.17948691, 4132.30769203, 4123.20512793, 4123.46153819, 4131.15384588, 4190.76923063,8.57
4120.25640998, 4128.20512793, 4121.41025614, 4138.71794851, 4122.82051255, 4124.74358947, 4093.07692273, 4104.74358947, 4122.43589716, 4132.94871767, 4125.25640998, 4124.23076896, 4128.97435870, 4189.48717935,8.57
4114.35897408, 4121.53846126, 4116.79487152, 4102.69230742, 4123.71794844, 4097.17948684, 4066.92307651, 4074.10256376, 4076.92307658, 4128.46153819, 4120.38461511, 4116.41025614, 4123.07692280, 4180.25641012,8.57
4124.10256383, 4125.38461511, 4124.48717921, 4097.17948684, 4125.64102537, 4100.38461504, 4065.25640984, 4083.46153812, 4077.82051248, 4129.61538434, 4121.66666639, 4128.84615357, 4133.07692280, 4188.71794858,8.57
4116.53846126, 4121.66666639, 4119.87179460, 4131.79487152, 4124.35897408, 4114.61538434, 4076.28205094, 4107.82051255, 4116.92307665, 4131.66666639, 4115.89743562, 4110.76923050, 4129.23076896, 4181.92307679,8.57
4121.41025614, 4124.99999973, 4125.89743562, 4136.41025621, 4123.58974332, 4105.12820485, 4069.35897395, 4099.10256376, 4115.76923050, 4130.12820485, 4125.51282024, 4121.41025614, 4128.46153819, 4186.53846140,8.57
4119.87179460, 4123.46153819, 4124.23076896, 4129.74358947, 4123.58974332, 4102.05128171, 4068.58974318, 4090.12820478, 4095.89743555, 4129.99999973, 4128.20512793, 4126.79487152, 4127.82051255, 4184.74358961,8.57
4119.10256383, 4121.02564075, 4122.30769203, 4144.35897415, 4124.48717921, 4111.66666639, 4076.28205094, 4095.25640991, 4095.76923043, 4128.71794844, 4118.58974332, 4115.76923050, 4125.51282024, 4179.23076910,8.57
4133.07692280, 4131.53846126, 4133.71794844, 4143.97435877, 4124.99999973, 4112.56410229, 4077.69230735, 4096.15384581, 4104.48717921, 4127.05128178, 4128.07692280, 4135.25640998, 4134.10256383, 4192.30769217,8.57
4122.05128178, 4124.35897408, 4122.17948691, 4119.87179460, 4122.30769203, 4097.69230735, 4063.84615343, 4080.89743555, 4092.30769196, 4128.07692280, 4125.64102537, 4121.92307665, 4129.35897408, 4188.46153833,8.57
4124.10256383, 4121.66666639, 4121.15384588, 4115.76923050, 4122.43589716, 4086.15384581, 4049.61538420, 4068.97435856, 4077.05128171, 4130.38461511, 4124.48717921, 4126.15384588, 4131.92307665, 4193.58974345,8.57
4127.17948691, 4123.71794844, 4125.38461511, 4137.30769210, 4123.58974332, 4108.20512793, 4072.56410222, 4092.43589709, 4097.56410222, 4129.74358947, 4129.61538434, 4136.41025621, 4136.15384595, 4194.10256397,8.57
4117.56410229, 4121.15384588, 4121.53846126, 4133.97435870, 4120.51282024, 4121.92307665, 4091.28205094, 4111.53846126, 4114.48717921, 4128.58974332, 4124.61538434, 4122.56410229, 4131.41025614, 4187.30769217,8.57
4124.10256383, 4126.92307665, 4124.48717921, 4110.38461511, 4122.43589716, 4103.07692280, 4070.38461504, 4089.99999966, 4096.02564068, 4131.66666639, 4125.64102537, 4137.05128185, 4137.82051262, 4197.69230756,8.57
4117.69230742, 4121.15384588, 4114.99999973, 4114.87179460, 4124.61538434, 4098.71794837, 4058.20512779, 4073.46153812, 4089.87179453, 4131.15384588, 4120.76923050, 4125.12820485, 4130.25640998, 4189.48717935,8.57
4120.76923050, 4122.69230742, 4123.58974332, 4124.23076896, 4121.66666639, 4104.99999973, 4065.64102523, 4082.69230735, 4101.53846119, 4127.69230742, 4122.69230742, 4123.84615357, 4128.84615357, 4191.79487166,8.57
4121.41025614, 4126.79487152, 4127.94871767, 4117.43589716, 4122.17948691, 4096.28205094, 4063.97435856, 4085.51282017, 4095.89743555, 4128.84615357, 4124.35897408, 4134.99999973, 4135.25640998, 4194.74358961,8.57
4113.07692280, 4119.23076896, 4114.61538434, 4122.82051255, 4125.25640998, 4098.71794837, 4072.94871761, 4099.35897402, 4106.41025614, 4131.41025614, 4115.64102537, 4116.41025614, 4126.92307665, 4183.07692294,8.57
4126.28205101, 4123.58974332, 4122.17948691, 4130.89743562, 4124.74358947, 4113.71794844, 4090.89743555, 4119.61538434, 4124.10256383, 4132.69230742, 4123.46153819, 4124.35897408, 4129.35897408, 4190.89743576,8.57
4118.58974332, 4120.25640998, 4120.76923050, 4129.61538434, 4121.02564075, 4116.79487152, 4087.82051248, 4108.20512793, 4111.28205101, 4127.94871767, 4123.07692280, 4120.25640998, 4128.71794844, 4188.07692294,8.57
4116.02564075, 4121.79487152, 4123.58974332, 4132.43589716, 4123.84615357, 4107.43589716, 4072.30769196, 4092.30769196, 4099.74358940, 4125.12820485, 4120.51282024, 4120.64102537, 4128.20512793, 4188.46153833,8.57
4123.71794844, 4128.33333306, 4128.07692280, 4139.23076903, 4127.05128178, 4109.35897408, 4072.43589709, 4107.05128178, 4113.71794844, 4130.25640998, 4124.61538434, 4127.94871767, 4130.38461511, 4188.33333320,8.57
4113.97435870, 4119.23076896, 4120.38461511, 4133.33333306, 4123.20512793, 4113.46153819, 4077.56410222, 4107.30769203, 4111.66666639, 4130.76923050, 4120.76923050, 4111.28205101, 4124.23076896, 4177.82051269,8.57
4122.43589716, 4124.99999973, 4128.46153819, 4116.92307665, 4123.97435870, 4095.76923043, 4060.64102523, 4070.51282017, 4078.84615350, 4127.17948691, 4127.43589716, 4127.94871767, 4132.94871767, 4188.20512807,8.57
4121.02564075, 4128.71794844, 4124.61538434, 4127.30769203, 4127.43589716, 4095.12820478, 4061.28205087, 4075.38461504, 4083.46153812, 4127.56410229, 4126.41025614, 4125.76923050, 4129.48717921, 4184.23076910,8.57
4123.33333306, 4127.30769203, 4124.99999973, 4158.58974339, 4127.05128178, 4131.41025614, 4100.89743555, 4126.15384588, 4127.82051255, 4130.12820485, 4125.12820485, 4120.38461511, 4123.58974332, 4184.35897422,8.57
4132.56410229, 4128.84615357, 4131.28205101, 4147.30769210, 4125.64102537, 4131.28205101, 4100.12820478, 4121.79487152, 4130.38461511, 4130.25640998, 4132.17948691, 4134.74358947, 4133.58974332, 4190.64102551,8.57
4120.89743562, 4122.30769203, 4121.41025614, 4109.35897408, 4126.02564075, 4093.97435863, 4054.48717907, 4070.64102530, 4086.28205094, 4127.05128178, 4122.56410229, 4118.20512793, 4127.94871767, 4180.76923063,8.57
4128.33333306, 4129.48717921, 4127.69230742, 4113.84615357, 4126.92307665, 4093.33333299, 4048.58974318, 4061.66666625, 4071.15384581, 4127.56410229, 4125.51282024, 4128.97435870, 4127.69230742, 4191.02564089,8.57
4124.48717921, 4124.61538434, 4124.10256383, 4127.17948691, 4125.38461511, 4113.97435870, 4080.89743555, 4100.38461504, 4103.46153819, 4128.84615357, 4128.33333306, 4128.33333306, 4129.61538434, 4186.41025628,8.57
4117.43589716, 4116.28205101, 4120.12820485, 4116.66666639, 4124.74358947, 4114.23076896, 4085.25640991, 4111.15384588, 4115.51282024, 4127.82051255, 4124.48717921, 4123.58974332, 4129.48717921, 4185.64102551,8.57
4127.82051255, 4125.25640998, 4125.38461511, 4124.87179460, 4124.61538434, 4113.84615357, 4074.23076889, 4088.20512786, 4099.99999966, 4128.97435870, 4127.82051255, 4142.82051262, 4133.20512793, 4202.82051275,8.57
4120.12820485, 4122.56410229, 4116.79487152, 4143.58974339, 4123.84615357, 4119.74358947, 4083.84615350, 4098.20512786, 4110.38461511, 4130.38461511, 4119.87179460, 4121.66666639, 4125.51282024, 4189.48717935,8.57
4122.05128178, 4125.25640998, 4125.89743562, 4134.61538434, 4126.28205101, 4111.02564075, 4083.84615350, 4111.79487152, 4122.17948691, 4129.35897408, 4123.58974332, 4127.17948691, 4131.79487152, 4189.23076910,8.57
4118.84615357, 4126.41025614, 4123.33333306, 4139.74358954, 4124.74358947, 4123.71794844, 4095.38461504, 4114.61538434, 4128.33333306, 4127.56410229, 4124.87179460, 4131.66666639, 4133.33333306, 4193.71794858,8.57
4116.66666639, 4119.74358947, 4113.97435870, 4162.17948697, 4119.87179460, 4156.15384595, 4130.76923050, 4143.33333313, 4153.20512800, 4129.23076896, 4120.12820485, 4113.20512793, 4125.25640998, 4190.12820499,8.57
4127.17948691, 4123.07692280, 4126.02564075, 4150.38461518, 4123.46153819, 4149.10256390, 4129.48717921, 4154.61538441, 4156.92307672, 4130.89743562, 4127.82051255, 4126.53846126, 4133.97435870, 4192.43589730,8.57
4115.25640998, 4121.28205101, 4121.28205101, 4137.69230749, 4128.84615357, 4140.89743569, 4111.02564075, 4132.43589716, 4139.23076903, 4127.17948691, 4119.87179460, 4114.99999973, 4129.74358947, 4177.82051269,8.57
4120.76923050, 4124.87179460, 4120.89743562, 4164.61538441, 4127.43589716, 4182.17948704, 4143.71794851, 4149.87179467, 4164.99999980, 4126.53846126, 4119.61538434, 4121.02564075, 4129.10256383, 4184.48717935,8.57
4124.48717921, 4124.87179460, 4123.71794844, 4174.87179474, 4124.87179460, 4194.10256397, 4167.17948697, 4179.10256397, 4191.41025628, 4130.64102537, 4127.17948691, 4128.20512793, 4131.79487152, 4189.61538448,8.57
4114.61538434, 4119.61538434, 4121.79487152, 4152.17948697, 4126.92307665, 4151.92307672, 4131.15384588, 4154.10256390, 4160.51282031, 4130.64102537, 4121.66666639, 4108.20512793, 4125.38461511, 4177.94871781,8.57
4125.76923050, 4128.71794844, 4130.89743562, 4156.79487159, 4127.94871767, 4148.46153826, 4118.46153819, 4136.92307672, 4142.30769210, 4129.48717921, 4124.74358947, 4128.33333306, 4132.43589716, 4187.82051269,8.57
4121.15384588, 4126.28205101, 4123.33333306, 4159.87179467, 4124.99999973, 4163.71794851, 4124.61538434, 4136.41025621, 4146.02564082, 4129.23076896, 4121.92307665, 4124.99999973, 4129.10256383, 4183.71794858,8.57
4120.76923050, 4123.33333306, 4126.53846126, 4131.92307665, 4125.89743562, 4140.51282031, 4099.10256376, 4109.61538434, 4122.94871767, 4128.33333306, 4122.94871767, 4119.23076896, 4128.97435870, 4184.10256397,8.57
4126.15384588, 4125.38461511, 4132.17948691, 4141.28205108, 4129.48717921, 4146.66666646, 4108.20512793, 4117.56410229, 4128.58974332, 4130.25640998, 4128.07692280, 4130.12820485, 4136.02564082, 4188.97435884,8.57
4119.48717921, 4118.97435870, 4121.79487152, 4171.92307679, 4128.20512793, 4177.94871781, 4142.94871774, 4154.74358954, 4167.17948697, 4129.48717921, 4120.12820485, 4119.99999973, 4129.74358947, 4182.82051269,8.57
4128.20512793, 4126.79487152, 4129.87179460, 4150.12820492, 4124.99999973, 4157.43589723, 4122.82051255, 4137.69230749, 4153.33333313, 4126.41025614, 4125.38461511, 4134.87179460, 4133.84615357, 4192.43589730,8.57
4119.48717921, 4123.58974332, 4124.61538434, 4137.69230749, 4122.82051255, 4148.46153826, 4118.33333306, 4127.30769203, 4132.69230742, 4127.17948691, 4125.89743562, 4128.58974332, 4130.76923050, 4187.30769217,8.57
4117.69230742, 4119.10256383, 4118.58974332, 4172.17948704, 4123.46153819, 4182.56410243, 4158.33333313, 4167.17948697, 4165.64102544, 4130.12820485, 4124.10256383, 4126.41025614, 4129.99999973, 4189.35897422,8.57
4128.71794844, 4127.94871767, 4123.97435870, 4160.89743569, 4125.25640998, 4168.07692287, 4131.28205101, 4153.20512800, 4163.71794851, 4130.76923050, 4128.46153819, 4140.64102544, 4136.92307672, 4195.51282038,8.57
4119.61538434, 4121.92307665, 4117.56410229, 4133.84615357, 4124.48717921, 4145.12820492, 4093.46153812, 4115.89743562, 4136.53846133, 4128.20512793, 4120.76923050, 4117.30769203, 4128.71794844, 4182.94871781,8.57
4125.38461511, 4124.10256383, 4122.69230742, 4167.69230749, 4125.12820485, 4177.30769217, 4135.76923056, 4154.74358954, 4174.23076910, 4128.71794844, 4125.25640998, 4128.33333306, 4132.05128178, 4188.58974345,8.57
4119.23076896, 4125.76923050, 4115.38461511, 4179.48717935, 4124.74358947, 4182.94871781, 4150.38461518, 4175.25641012, 4187.43589730, 4129.61538434, 4125.38461511, 4130.89743562, 4131.66666639, 4186.02564089,8.57
4112.30769203, 4120.89743562, 4113.97435870, 4133.20512793, 4123.97435870, 4135.38461518, 4091.53846119, 4118.33333306, 4124.74358947, 4130.38461511, 4120.12820485, 4116.02564075, 4126.53846126, 4186.79487166,8.57
4125.25640998, 4126.28205101, 4129.35897408, 4124.10256383, 4126.79487152, 4123.97435870, 4077.30769196, 4098.07692273, 4107.56410229, 4130.76923050, 4126.15384588, 4129.10256383, 4132.17948691, 4194.48717935,8.57
4118.46153819, 4120.38461511, 4121.66666639, 4154.99999980, 4126.53846126, 4154.74358954, 4121.66666639, 4135.51282031, 4145.38461518, 4127.69230742, 4119.74358947, 4114.87179460, 4125.38461511, 4176.66666653,8.57
4121.79487152, 4122.43589716, 4121.66666639, 4155.89743569, 4125.12820485, 4166.92307672, 4142.82051262, 4151.92307672, 4151.66666646, 4128.20512793, 4123.20512793, 4120.76923050, 4127.82051255, 4182.43589730,8.57
4123.07692280, 4126.02564075, 4123.07692280, 4155.51282031, 4126.53846126, 4177.30769217, 4149.35897415, 4161.53846133, 4160.51282031, 4130.38461511, 4124.87179460, 4123.58974332, 4128.33333306, 4188.58974345,8.57
4116.92307665, 4122.43589716, 4121.28205101, 4161.02564082, 4127.69230742, 4179.48717935, 4144.99999980, 4170.12820499, 4180.38461525, 4129.61538434, 4118.20512793, 4108.84615357, 4123.33333306, 4178.07692294,8.57
4125.76923050, 4129.23076896, 4130.25640998, 4138.46153826, 4127.94871767, 4143.20512800, 4110.25640998, 4137.17948697, 4149.35897415, 4131.02564075, 4128.58974332, 4128.84615357, 4133.84615357, 4184.23076910,8.57
4118.97435870, 4124.61538434, 4119.61538434, 4134.23076896, 4126.15384588, 4134.99999973, 4110.25640998, 4131.92307665, 4141.02564082, 4130.89743562, 4126.28205101, 4122.69230742, 4128.58974332, 4180.51282038,8.57
4125.51282024, 4125.76923050, 4122.82051255, 4161.15384595, 4125.64102537, 4164.61538441, 4136.41025621, 4163.71794851, 4174.48717935, 4128.33333306, 4125.38461511, 4126.02564075, 4126.79487152, 4186.92307679,8.57
4129.99999973, 4128.58974332, 4129.99999973, 4165.89743569, 4126.92307665, 4162.69230749, 4124.35897408, 4150.25641005, 4161.79487159, 4130.38461511, 4129.23076896, 4132.43589716, 4132.82051255, 4189.48717935,8.57
4116.92307665, 4118.84615357, 4123.97435870, 4155.25641005, 4127.05128178, 4147.82051262, 4114.23076896, 4134.61538434, 4143.71794851, 4131.79487152, 4124.48717921, 4117.56410229, 4127.94871767, 4182.05128192,8.57
4127.94871767, 4125.76923050, 4131.41025614, 4161.92307672, 4126.79487152, 4152.82051262, 4127.94871767, 4150.76923056, 4160.89743569, 4127.56410229, 4128.46153819, 4136.53846133, 4132.17948691, 4194.87179474,8.57
4127.69230742, 4127.05128178, 4124.23076896, 4171.02564089, 4124.87179460, 4157.05128185, 4132.30769203, 4157.17948697, 4167.30769210, 4127.17948691, 4123.07692280, 4129.99999973, 4128.58974332, 4189.23076910,8.57
4127.05128178, 4122.94871767, 4122.43589716, 4178.84615371, 4125.38461511, 4163.58974339, 4138.20512800, 4159.74358954, 4170.64102551, 4133.46153819, 4124.10256383, 4128.33333306, 4131.41025614, 4188.84615371,8.57
4127.94871767, 4124.23076896, 4126.28205101, 4183.33333320, 4126.92307665, 4173.20512807, 4153.46153826, 4183.58974345, 4197.69230756, 4133.46153819, 4129.10256383, 4138.20512800, 4137.94871774, 4192.56410243,8.57
4116.79487152, 4121.79487152, 4118.33333306, 4168.84615371, 4124.48717921, 4166.79487159, 4146.66666646, 4176.02564089, 4187.43589730, 4129.61538434, 4119.35897408, 4115.12820485, 4128.97435870, 4184.61538448,8.57
4125.12820485, 4127.17948691, 4125.76923050, 4162.94871774, 4125.76923050, 4159.23076903, 4129.23076896, 4148.46153826, 4157.43589723, 4130.89743562, 4123.71794844, 4126.53846126, 4132.30769203, 4196.66666653,8.57
4119.10256383, 4119.87179460, 4122.94871767, 4181.41025628, 4126.53846126, 4165.38461518, 4134.23076896, 4159.87179467, 4174.10256397, 4130.38461511, 4124.35897408, 4124.10256383, 4129.74358947, 4190.51282038,8.57
4116.79487152, 4117.30769203, 4118.46153819, 4182.30769217, 4125.38461511, 4161.53846133, 4134.10256383, 4157.82051262, 4173.97435884, 4130.12820485, 4122.69230742, 4116.28205101, 4128.07692280, 4186.79487166,8.57
4126.02564075, 4128.20512793, 4118.07692280, 4164.10256390, 4127.30769203, 4154.61538441, 4124.23076896, 4136.79487159, 4150.25641005, 4132.82051255, 4126.28205101, 4126.41025614, 4134.35897408, 4192.56410243,8.57
4116.66666639, 4123.33333306, 4114.74358947, 4174.10256397, 4127.17948691, 4162.82051262, 4131.79487152, 4149.23076903, 4166.15384595, 4130.38461511, 4120.38461511, 4111.15384588, 4126.79487152, 4178.97435884,8.57
4124.74358947, 4125.89743562, 4128.58974332, 4192.82051269, 4127.17948691, 4173.07692294, 4143.20512800, 4168.46153833, 4184.35897422, 4128.71794844, 4125.12820485, 4123.20512793, 4127.94871767, 4183.84615371,8.57
4121.92307665, 4126.02564075, 4121.41025614, 4181.66666653, 4128.20512793, 4174.48717935, 4143.84615364, 4168.07692287, 4176.79487166, 4132.43589716, 4123.46153819, 4119.48717921, 4124.99999973, 4182.05128192,8.57
4118.46153819, 4122.56410229, 4118.84615357, 4159.23076903, 4128.20512793, 4158.58974339, 4136.66666646, 4169.10256397, 4173.33333320, 4131.66666639, 4121.02564075, 4112.05128178, 4124.48717921, 4180.89743576,8.57
4131.92307665, 4127.69230742, 4134.35897408, 4156.53846133, 4128.33333306, 4144.35897415, 4129.35897408, 4166.66666646, 4169.99999986, 4128.84615357, 4129.99999973, 4132.43589716, 4134.35897408, 4189.10256397,8.57
4120.25640998, 4121.92307665, 4121.79487152, 4180.64102551, 4125.89743562, 4165.89743569, 4139.10256390, 4161.53846133, 4168.20512807, 4127.17948691, 4122.30769203, 4114.10256383, 4124.74358947, 4178.58974345,8.57
4122.94871767, 4124.35897408, 4123.20512793, 4193.33333320, 4125.38461511, 4192.05128192, 4157.05128185, 4176.79487166, 4186.41025628, 4128.71794844, 4124.87179460, 4120.12820485, 4127.30769203, 4189.23076910,8.57
4125.51282024, 4124.87179460, 4127.30769203, 4169.61538448, 4127.05128178, 4172.69230756, 4141.79487159, 4165.12820492, 4176.15384602, 4131.15384588, 4126.53846126, 4127.69230742, 4132.69230742, 4189.99999986,8.57
4120.25640998, 4122.17948691, 4122.82051255, 4147.56410236, 4125.51282024, 4138.07692287, 4107.56410229, 4119.35897408, 4128.58974332, 4129.23076896, 4119.10256383, 4117.43589716, 4126.28205101, 4181.92307679,8.57
4130.64102537, 4130.12820485, 4130.89743562, 4162.82051262, 4123.46153819, 4155.12820492, 4123.58974332, 4127.56410229, 4136.15384595, 4128.33333306, 4128.46153819, 4136.79487159, 4130.89743562, 4197.05128192,8.57
4122.05128178, 4122.94871767, 4123.33333306, 4184.61538448, 4124.48717921, 4191.15384602, 4161.53846133, 4175.51282038, 4189.61538448, 4130.89743562, 4126.41025614, 4126.66666639, 4128.20512793, 4191.79487166,8.57
4123.71794844, 4123.33333306, 4124.35897408, 4176.79487166, 4126.53846126, 4172.30769217, 4141.92307672, 4168.07692287, 4185.64102551, 4132.82051255, 4127.56410229, 4130.25640998, 4132.17948691, 4192.69230756,8.57
4125.12820485, 4125.12820485, 4123.84615357, 4176.79487166, 4124.61538434, 4152.82051262, 4125.64102537, 4157.69230749, 4175.51282038, 4129.35897408, 4130.76923050, 4134.87179460, 4134.87179460, 4194.74358961,8.57
4116.15384588, 4116.28205101, 4115.89743562, 4186.53846140, 4123.46153819, 4181.15384602, 4157.82051262, 4191.41025628, 4212.05128199, 4125.89743562, 4123.07692280, 4114.10256383, 4127.94871767, 4188.97435884,8.57
4124.61538434, 4123.97435870, 4123.84615357, 4166.41025621, 4126.66666639, 4188.84615371, 4162.30769210, 4190.25641012, 4207.94871788, 4127.82051255, 4127.17948691, 4131.28205101, 4135.25640998, 4196.28205115,8.57
4117.56410229, 4123.84615357, 4118.71794844, 4136.66666646, 4126.41025614, 4156.53846133, 4128.58974332, 4154.48717928, 4158.97435877, 4127.69230742, 4122.94871767, 4123.46153819, 4130.51282024, 4187.17948704,8.57
4119.10256383, 4122.17948691, 4121.02564075, 4142.43589723, 4126.66666639, 4146.41025621, 4123.58974332, 4149.74358954, 4150.64102544, 4126.92307665, 4123.71794844, 4119.23076896, 4127.82051255, 4188.71794858,8.57
4121.02564075, 4123.97435870, 4122.56410229, 4171.53846140, 4126.92307665, 4176.28205115, 4153.20512800, 4173.07692294, 4180.64102551, 4128.84615357, 4127.43589716, 4131.02564075, 4131.28205101, 4189.48717935,8.57
4110.89743562, 4117.82051255, 4113.71794844, 4168.20512807, 4122.69230742, 4181.28205115, 4155.76923056, 4179.74358961, 4189.23076910, 4128.84615357, 4119.61538434, 4112.17948691, 4124.23076896, 4177.82051269,8.57
4125.89743562, 4126.28205101, 4126.02564075, 4126.79487152, 4123.58974332, 4136.66666646, 4110.76923050, 4136.28205108, 4149.10256390, 4129.74358947, 4124.74358947, 4122.30769203, 4129.35897408, 4189.87179474,8.57
4121.66666639, 4125.12820485, 4122.17948691, 4114.48717921, 4128.58974332, 4123.58974332, 4095.89743555, 4109.99999973, 4128.97435870, 4130.38461511, 4121.92307665, 4119.35897408, 4126.53846126, 4185.38461525,8.57
4121.66666639, 4125.12820485, 4122.17948691, 4114.48717921, 4128.58974332, 4123.58974332, 4095.89743555, 4109.99999973, 4128.97435870, 4130.38461511, 4121.92307665, 4119.35897408, 4126.53846126, 4185.38461525,8.57
4117.82051255, 4121.28205101, 4122.56410229, 4150.25641005, 4129.23076896, 4165.38461518, 4142.30769210, 4167.05128185, 4185.38461525, 4129.35897408, 4122.05128178, 4118.71794844, 4126.41025614, 4182.43589730,8.57
4128.33333306, 4127.43589716, 4132.56410229, 4170.51282038, 4125.89743562, 4184.48717935, 4162.94871774, 4206.41025634, 4225.12820506, 4129.87179460, 4130.38461511, 4132.17948691, 4135.12820485, 4191.28205115,8.57
4119.61538434, 4122.43589716, 4122.05128178, 4148.33333313, 4122.56410229, 4162.30769210, 4131.66666639, 4160.89743569, 4183.58974345, 4129.99999973, 4122.17948691, 4112.94871767, 4126.79487152, 4183.20512807,8.57
4126.41025614, 4126.92307665, 4127.30769203, 4133.33333306, 4124.99999973, 4145.38461518, 4108.20512793, 4117.17948691, 4139.23076903, 4128.33333306, 4127.30769203, 4128.20512793, 4129.61538434, 4189.35897422,8.57
4122.17948691, 4124.48717921, 4125.38461511, 4150.51282031, 4126.92307665, 4156.02564082, 4120.25640998, 4138.58974339, 4157.82051262, 4126.28205101, 4129.10256383, 4130.38461511, 4129.87179460, 4185.38461525,8.57
4119.48717921, 4119.35897408, 4124.48717921, 4152.43589723, 4125.38461511, 4160.76923056, 4133.84615357, 4162.56410236, 4178.97435884, 4127.05128178, 4123.58974332, 4120.51282024, 4125.89743562, 4185.12820499,8.57
4133.84615357, 4130.38461511, 4133.07692280, 4135.12820485, 4125.76923050, 4154.74358954, 4134.10256383, 4153.97435877, 4164.99999980, 4128.84615357, 4130.25640998, 4137.82051262, 4132.56410229, 4198.07692294,8.57
4123.84615357, 4127.56410229, 4122.69230742, 4139.48717928, 4125.76923050, 4165.12820492, 4137.17948697, 4152.05128185, 4159.99999980, 4128.20512793, 4125.64102537, 4122.56410229, 4127.30769203, 4186.28205115,8.57
4125.25640998, 4125.25640998, 4126.02564075, 4148.20512800, 4124.99999973, 4171.15384602, 4133.20512793, 4152.43589723, 4162.94871774, 4128.84615357, 4125.12820485, 4129.23076896, 4131.28205101, 4189.61538448,8.57
4123.71794844, 4122.43589716, 4121.66666639, 4158.20512800, 4124.35897408, 4176.53846140, 4149.10256390, 4170.64102551, 4184.23076910, 4128.97435870, 4125.12820485, 4133.46153819, 4132.05128178, 4190.76923063,8.57
4118.46153819, 4119.99999973, 4114.87179460, 4165.25641005, 4125.64102537, 4181.28205115, 4169.10256397, 4196.15384602, 4211.79487173, 4128.07692280, 4123.58974332, 4118.46153819, 4126.79487152, 4187.69230756,8.57
4127.30769203, 4126.79487152, 4125.25640998, 4144.99999980, 4127.17948691, 4155.76923056, 4137.43589723, 4176.92307679, 4192.56410243, 4129.10256383, 4127.43589716, 4128.46153819, 4134.99999973, 4195.51282038,8.57
4115.25640998, 4118.20512793, 4118.58974332, 4131.15384588, 4122.30769203, 4133.84615357, 4107.94871767, 4145.38461518, 4162.30769210, 4127.94871767, 4118.33333306, 4115.12820485, 4130.38461511, 4186.15384602,8.57
4119.10256383, 4120.25640998, 4123.20512793, 4151.53846133, 4121.28205101, 4157.05128185, 4132.69230742, 4153.20512800, 4172.17948704, 4126.15384588, 4124.87179460, 4123.58974332, 4129.99999973, 4192.17948704,8.57
4123.20512793, 4126.02564075, 4126.02564075, 4158.33333313, 4123.71794844, 4166.53846133, 4142.82051262, 4166.66666646, 4177.05128192, 4126.41025614, 4129.87179460, 4128.20512793, 4129.99999973, 4189.10256397,8.57
4115.89743562, 4120.38461511, 4119.48717921, 4145.64102544, 4123.58974332, 4140.64102544, 4114.87179460, 4151.41025621, 4150.12820492, 4126.41025614, 4119.10256383, 4109.99999973, 4123.33333306, 4178.58974345,8.57
4127.17948691, 4124.87179460, 4127.05128178, 4167.56410236, 4126.41025614, 4156.28205108, 4133.33333306, 4159.10256390, 4162.94871774, 4127.56410229, 4125.51282024, 4130.76923050, 4131.53846126, 4190.89743576,8.57
4120.51282024, 4121.53846126, 4118.07692280, 4191.53846140, 4128.07692280, 4191.41025628, 4169.10256397, 4183.33333320, 4198.20512807, 4127.82051255, 4124.10256383, 4121.41025614, 4127.43589716, 4182.82051269,8.57
4122.82051255, 4125.12820485, 4123.71794844, 4163.46153826, 4127.05128178, 4161.79487159, 4128.84615357, 4149.35897415, 4162.43589723, 4129.10256383, 4123.07692280, 4119.99999973, 4126.41025614, 4184.10256397,8.57
4126.53846126, 4129.87179460, 4134.10256383, 4136.92307672, 4126.92307665, 4124.99999973, 4090.38461504, 4117.05128178, 4129.35897408, 4130.51282024, 4125.25640998, 4130.12820485, 4131.41025614, 4187.56410243,8.57
4118.46153819, 4121.53846126, 4125.25640998, 4154.23076903, 4127.30769203, 4149.87179467, 4132.69230742, 4156.92307672, 4174.87179474, 4127.94871767, 4120.38461511, 4111.28205101, 4124.87179460, 4177.43589730,8.57
4132.69230742, 4128.58974332, 4131.79487152, 4170.12820499, 4126.15384588, 4177.17948704, 4166.28205108, 4190.12820499, 4204.99999993, 4127.43589716, 4131.41025614, 4127.94871767, 4130.25640998, 4189.10256397,8.57
4115.51282024, 4118.07692280, 4118.58974332, 4151.92307672, 4122.17948691, 4158.71794851, 4137.82051262, 4148.46153826, 4159.48717928, 4127.05128178, 4118.07692280, 4114.35897408, 4128.46153819, 4194.35897422,8.57
4127.69230742, 4124.87179460, 4125.25640998, 4162.17948697, 4124.23076896, 4173.97435884, 4148.97435877, 4154.87179467, 4165.51282031, 4126.53846126, 4126.15384588, 4133.71794844, 4136.53846133, 4201.66666660,8.57
4117.82051255, 4118.71794844, 4113.58974332, 4162.05128185, 4123.58974332, 4171.79487166, 4152.17948697, 4173.33333320, 4180.89743576, 4126.53846126, 4120.89743562, 4115.25640998, 4127.94871767, 4181.28205115,8.57
4122.17948691, 4124.35897408, 4123.71794844, 4161.79487159, 4125.25640998, 4166.15384595, 4153.58974339, 4181.79487166, 4181.02564089, 4127.17948691, 4124.48717921, 4120.38461511, 4128.58974332, 4187.43589730,8.57
4118.46153819, 4128.33333306, 4127.56410229, 4165.12820492, 4127.56410229, 4157.56410236, 4141.15384595, 4163.58974339, 4166.15384595, 4129.99999973, 4125.25640998, 4125.38461511, 4129.10256383, 4190.25641012,8.57
4111.53846126, 4121.41025614, 4121.28205101, 4156.28205108, 4126.79487152, 4142.94871774, 4122.17948691, 4145.64102544, 4154.74358954, 4131.92307665, 4120.38461511, 4112.17948691, 4125.51282024, 4184.23076910,8.57
4126.92307665, 4123.71794844, 4128.58974332, 4144.10256390, 4125.76923050, 4134.99999973, 4116.53846126, 4139.87179467, 4144.87179467, 4130.76923050, 4127.43589716, 4127.17948691, 4132.82051255, 4192.56410243,8.57
4119.10256383, 4118.71794844, 4121.15384588, 4138.58974339, 4125.76923050, 4137.94871774, 4121.92307665, 4140.76923056, 4140.89743569, 4128.07692280, 4121.15384588, 4114.61538434, 4124.10256383, 4182.17948704,8.57
4122.05128178, 4122.82051255, 4126.66666639, 4145.12820492, 4128.84615357, 4146.66666646, 4134.87179460, 4157.30769210, 4163.46153826, 4130.12820485, 4124.61538434, 4121.41025614, 4126.53846126, 4186.92307679,8.57
4127.69230742, 4126.79487152, 4128.33333306, 4164.74358954, 4128.84615357, 4162.17948697, 4150.89743569, 4172.30769217, 4182.69230756, 4131.02564075, 4129.35897408, 4130.76923050, 4130.89743562, 4187.82051269,8.57
4119.35897408, 4122.17948691, 4121.66666639, 4159.23076903, 4126.53846126, 4160.89743569, 4140.51282031, 4151.41025621, 4154.10256390, 4126.66666639, 4121.15384588, 4116.28205101, 4122.30769203, 4176.28205115,8.57
4128.33333306, 4130.76923050, 4131.15384588, 4127.82051255, 4126.66666639, 4131.92307665, 4105.38461511, 4126.02564075, 4127.56410229, 4126.15384588, 4128.84615357, 4134.35897408, 4130.64102537, 4189.23076910,8.57
4121.66666639, 4125.51282024, 4121.02564075, 4142.30769210, 4124.10256383, 4136.28205108, 4113.84615357, 4148.71794851, 4161.15384595, 4127.56410229, 4131.02564075, 4126.79487152, 4128.97435870, 4188.20512807,8.57
4126.15384588, 4123.46153819, 4124.10256383, 4172.05128192, 4123.71794844, 4165.12820492, 4144.10256390, 4168.20512807, 4183.46153833, 4127.69230742, 4130.25640998, 4129.10256383, 4127.56410229, 4190.89743576,8.57
4130.25640998, 4129.23076896, 4129.99999973, 4153.71794851, 4126.41025614, 4156.92307672, 4132.43589716, 4146.15384595, 4153.33333313, 4128.71794844, 4126.92307665, 4138.33333313, 4133.07692280, 4193.58974345,8.57
4116.15384588, 4124.23076896, 4116.92307665, 4136.15384595, 4123.97435870, 4137.94871774, 4112.69230742, 4137.82051262, 4140.64102544, 4126.66666639, 4118.71794844, 4118.71794844, 4127.69230742, 4185.38461525,8.57
4124.87179460, 4128.07692280, 4124.10256383, 4147.43589723, 4124.23076896, 4146.02564082, 4124.35897408, 4158.46153826, 4163.46153826, 4126.53846126, 4128.71794844, 4132.56410229, 4131.53846126, 4196.53846140,8.57
4121.15384588, 4121.53846126, 4123.07692280, 4165.76923056, 4126.41025614, 4176.15384602, 4158.07692287, 4184.48717935, 4193.97435884, 4129.61538434, 4127.30769203, 4124.10256383, 4131.15384588, 4191.28205115,8.57
4119.61538434, 4119.10256383, 4121.41025614, 4167.30769210, 4125.25640998, 4180.76923063, 4154.99999980, 4175.51282038, 4192.82051269, 4130.64102537, 4124.23076896, 4119.74358947, 4134.35897408, 4191.53846140,8.57
4124.99999973, 4126.15384588, 4123.33333306, 4137.94871774, 4124.61538434, 4139.35897415, 4108.46153819, 4126.53846126, 4142.69230749, 4129.10256383, 4126.79487152, 4135.76923056, 4137.82051262, 4197.17948704,8.57
4114.87179460, 4120.89743562, 4116.66666639, 4117.30769203, 4125.89743562, 4113.97435870, 4089.10256376, 4104.10256383, 4110.51282024, 4128.07692280, 4117.30769203, 4116.79487152, 4127.43589716, 4183.20512807,8.57
4126.41025614, 4126.66666639, 4128.33333306, 4129.35897408, 4128.58974332, 4131.92307665, 4105.76923050, 4121.53846126, 4125.51282024, 4129.35897408, 4121.53846126, 4127.05128178, 4132.69230742, 4187.69230756,8.57
4121.92307665, 4124.87179460, 4122.82051255, 4137.43589723, 4127.94871767, 4145.89743569, 4114.35897408, 4129.74358947, 4136.28205108, 4128.84615357, 4121.92307665, 4125.25640998, 4128.71794844, 4185.38461525,8.57
4115.25640998, 4120.38461511, 4117.17948691, 4138.71794851, 4126.15384588, 4139.74358954, 4110.76923050, 4126.28205101, 4134.10256383, 4129.35897408, 4120.12820485, 4113.97435870, 4122.43589716, 4184.35897422,8.57
4123.97435870, 4127.43589716, 4125.76923050, 4146.92307672, 4126.28205101, 4141.02564082, 4113.71794844, 4135.76923056, 4145.25641005, 4130.76923050, 4125.51282024, 4127.30769203, 4132.56410229, 4187.69230756,8.57
4115.12820485, 4120.64102537, 4119.10256383, 4140.51282031, 4125.64102537, 4143.58974339, 4118.71794844, 4143.20512800, 4152.94871774, 4129.35897408, 4120.25640998, 4112.17948691, 4128.71794844, 4176.02564089,8.57
4124.99999973, 4123.07692280, 4128.71794844, 4134.99999973, 4127.17948691, 4144.23076903, 4124.87179460, 4136.28205108, 4146.53846133, 4129.10256383, 4126.41025614, 4120.89743562, 4128.84615357, 4187.82051269,8.57
4126.15384588, 4124.23076896, 4128.97435870, 4149.99999980, 4126.15384588, 4147.69230749, 4127.69230742, 4137.43589723, 4154.99999980, 4129.48717921, 4126.02564075, 4125.89743562, 4125.51282024, 4185.89743576,8.57
4120.25640998, 4119.23076896, 4122.82051255, 4154.61538441, 4124.61538434, 4141.15384595, 4118.97435870, 4149.23076903, 4166.28205108, 4127.82051255, 4123.07692280, 4123.07692280, 4123.46153819, 4178.84615371,8.57
4134.23076896, 4129.35897408, 4132.17948691, 4141.02564082, 4126.28205101, 4134.10256383, 4117.82051255, 4150.51282031, 4155.12820492, 4129.35897408, 4134.61538434, 4143.71794851, 4135.76923056, 4194.35897422,8.57
4126.15384588, 4126.15384588, 4123.33333306, 4140.38461518, 4125.89743562, 4140.89743569, 4127.30769203, 4141.15384595, 4149.23076903, 4130.25640998, 4126.53846126, 4122.69230742, 4129.74358947, 4188.07692294,8.57
4127.94871767, 4126.53846126, 4123.20512793, 4153.71794851, 4126.66666639, 4156.28205108, 4136.53846133, 4144.48717928, 4161.66666646, 4128.71794844, 4126.15384588, 4125.25640998, 4131.15384588, 4190.64102551,8.57
4130.51282024, 4129.35897408, 4122.69230742, 4152.82051262, 4125.12820485, 4160.89743569, 4137.30769210, 4157.05128185, 4165.76923056, 4128.97435870, 4132.17948691, 4136.28205108, 4134.48717921, 4190.76923063,8.57
4121.15384588, 4122.17948691, 4119.87179460, 4133.46153819, 4122.30769203, 4136.41025621, 4116.53846126, 4140.25641005, 4144.10256390, 4128.84615357, 4124.74358947, 4120.12820485, 4127.30769203, 4185.89743576,8.57
4127.17948691, 4125.64102537, 4129.61538434, 4126.02564075, 4124.61538434, 4112.82051255, 4095.38461504, 4111.53846126, 4128.58974332, 4128.58974332, 4128.20512793, 4134.35897408, 4134.87179460, 4199.74358961,8.57
4119.23076896, 4120.38461511, 4118.58974332, 4139.87179467, 4125.38461511, 4134.87179460, 4115.76923050, 4130.12820485, 4153.58974339, 4127.30769203, 4126.53846126, 4124.48717921, 4131.53846126, 4189.48717935,8.57
4124.87179460, 4121.28205101, 4120.64102537, 4152.43589723, 4124.61538434, 4159.48717928, 4140.38461518, 4161.41025621, 4175.25641012, 4127.56410229, 4128.20512793, 4123.84615357, 4130.89743562, 4189.61538448,8.57
4127.30769203, 4124.87179460, 4124.48717921, 4158.58974339, 4124.74358947, 4147.69230749, 4127.94871767, 4146.15384595, 4151.92307672, 4128.07692280, 4126.41025614, 4130.38461511, 4133.84615357, 4193.84615371,8.57
4110.64102537, 4115.89743562, 4114.23076896, 4158.84615364, 4123.46153819, 4140.76923056, 4116.41025614, 4127.94871767, 4133.20512793, 4127.30769203, 4115.25640998, 4111.28205101, 4125.89743562, 4181.66666653,8.57
4124.23076896, 4122.69230742, 4125.38461511, 4147.05128185, 4126.28205101, 4144.99999980, 4118.58974332, 4132.56410229, 4141.66666646, 4129.48717921, 4124.23076896, 4129.35897408, 4131.66666639, 4190.76923063,8.57
4121.41025614, 4123.07692280, 4121.41025614, 4132.43589716, 4127.43589716, 4136.15384595, 4116.15384588, 4133.97435870, 4140.25641005, 4127.69230742, 4124.10256383, 4121.15384588, 4127.43589716, 4185.89743576,8.57
4117.94871767, 4122.05128178, 4120.64102537, 4132.30769203, 4123.97435870, 4131.79487152, 4123.20512793, 4146.79487159, 4144.61538441, 4125.76923050, 4120.76923050, 4113.58974332, 4124.10256383, 4182.94871781,8.57
4126.02564075, 4127.43589716, 4126.66666639, 4142.43589723, 4125.38461511, 4137.30769210, 4131.53846126, 4161.41025621, 4161.15384595, 4128.33333306, 4125.25640998, 4127.17948691, 4130.89743562, 4186.92307679,8.57
4116.53846126, 4122.94871767, 4117.43589716, 4161.53846133, 4129.99999973, 4149.74358954, 4138.46153826, 4166.28205108, 4170.25641012, 4129.87179460, 4118.71794844, 4111.92307665, 4124.99999973, 4180.38461525,8.57
4126.15384588, 4129.87179460, 4128.84615357, 4184.48717935, 4130.12820485, 4176.53846140, 4162.94871774, 4185.64102551, 4188.46153833, 4130.76923050, 4126.15384588, 4126.79487152, 4130.89743562, 4191.92307679,8.57
4121.79487152, 4126.02564075, 4127.69230742, 4182.17948704, 4124.87179460, 4185.64102551, 4168.97435884, 4199.23076910, 4208.20512814, 4129.87179460, 4126.66666639, 4123.58974332, 4131.79487152, 4185.51282038,8.57
4119.87179460, 4121.92307665, 4122.17948691, 4157.56410236, 4122.94871767, 4157.17948697, 4134.23076896, 4168.84615371, 4186.79487166, 4127.69230742, 4123.33333306, 4116.66666639, 4128.07692280, 4182.94871781,8.57
4133.84615357, 4130.64102537, 4129.48717921, 4139.99999980, 4125.38461511, 4130.76923050, 4108.20512793, 4130.38461511, 4144.23076903, 4128.97435870, 4131.28205101, 4135.76923056, 4133.84615357, 4195.25641012,8.57
4121.53846126, 4121.79487152, 4121.28205101, 4135.12820485, 4123.71794844, 4126.02564075, 4108.97435870, 4116.79487152, 4122.43589716, 4129.99999973, 4125.38461511, 4121.15384588, 4128.20512793, 4187.05128192,8.57
4122.56410229, 4122.94871767, 4125.64102537, 4138.71794851, 4123.20512793, 4123.20512793, 4109.23076896, 4114.61538434, 4113.71794844, 4128.46153819, 4127.94871767, 4133.71794844, 4129.35897408, 4192.56410243,8.57
4121.79487152, 4125.38461511, 4122.05128178, 4159.23076903, 4124.61538434, 4132.82051255, 4119.99999973, 4132.94871767, 4130.89743562, 4127.43589716, 4128.84615357, 4134.48717921, 4127.17948691, 4188.71794858,8.57
4120.25640998, 4121.79487152, 4119.48717921, 4177.82051269, 4126.66666639, 4153.46153826, 4138.58974339, 4157.17948697, 4162.94871774, 4128.46153819, 4123.71794844, 4121.15384588, 4127.82051255, 4187.30769217,8.57
4130.25640998, 4126.66666639, 4127.82051255, 4171.66666653, 4127.30769203, 4158.97435877, 4143.46153826, 4162.56410236, 4168.71794858, 4131.15384588, 4129.23076896, 4140.38461518, 4137.43589723, 4199.35897422,8.57
4119.23076896, 4120.51282024, 4115.89743562, 4160.51282031, 4123.84615357, 4153.71794851, 4139.74358954, 4148.71794851, 4149.23076903, 4128.71794844, 4122.82051255, 4122.82051255, 4126.79487152, 4185.89743576,8.57
4123.07692280, 4124.61538434, 4121.15384588, 4150.12820492, 4125.76923050, 4139.23076903, 4122.69230742, 4130.89743562, 4132.56410229, 4127.30769203, 4124.74358947, 4122.17948691, 4130.25640998, 4188.07692294,8.57
4120.76923050, 4124.99999973, 4121.15384588, 4139.23076903, 4127.94871767, 4126.41025614, 4110.51282024, 4134.10256383, 4135.51282031, 4129.99999973, 4123.84615357, 4127.43589716, 4134.99999973, 4189.23076910,8.57
4111.53846126, 4117.82051255, 4114.74358947, 4136.53846133, 4123.33333306, 4130.51282024, 4123.84615357, 4154.48717928, 4150.51282031, 4128.97435870, 4118.46153819, 4115.38461511, 4125.25640998, 4181.79487166,8.57
4124.48717921, 4128.20512793, 4129.23076896, 4131.41025614, 4123.20512793, 4131.53846126, 4127.43589716, 4145.89743569, 4145.64102544, 4127.82051255, 4128.20512793, 4130.89743562, 4131.66666639, 4190.12820499,8.57
4115.89743562, 4124.87179460, 4122.30769203, 4138.46153826, 4127.56410229, 4141.28205108, 4128.58974332, 4136.15384595, 4143.33333313, 4128.46153819, 4122.05128178, 4117.56410229, 4129.23076896, 4183.07692294,8.57
4120.51282024, 4120.89743562, 4123.46153819, 4167.94871774, 4128.33333306, 4165.38461518, 4152.30769210, 4176.28205115, 4183.20512807, 4129.74358947, 4122.05128178, 4118.58974332, 4127.69230742, 4187.56410243,8.57
4126.02564075, 4125.12820485, 4128.46153819, 4165.64102544, 4123.71794844, 4157.69230749, 4148.71794851, 4183.46153833, 4190.76923063, 4128.20512793, 4128.07692280, 4126.15384588, 4129.61538434, 4184.48717935,8.57
4115.12820485, 4122.69230742, 4121.15384588, 4130.38461511, 4123.07692280, 4126.53846126, 4115.51282024, 4127.05128178, 4136.41025621, 4127.43589716, 4121.66666639, 4110.89743562, 4124.48717921, 4173.97435884,8.57
4128.71794844, 4128.20512793, 4130.51282024, 4139.23076903, 4126.79487152, 4136.79487159, 4123.20512793, 4123.58974332, 4136.66666646, 4130.25640998, 4128.71794844, 4131.41025614, 4131.15384588, 4194.61538448,8.57
4122.69230742, 4124.48717921, 4125.51282024, 4174.35897422, 4124.48717921, 4162.69230749, 4149.99999980, 4171.53846140, 4183.58974345, 4128.58974332, 4127.56410229, 4126.28205101, 4127.82051255, 4189.61538448,8.57
4122.69230742, 4125.89743562, 4125.76923050, 4161.41025621, 4124.99999973, 4140.76923056, 4127.94871767, 4149.23076903, 4155.25641005, 4127.82051255, 4126.79487152, 4123.33333306, 4129.48717921, 4183.84615371,8.57
4133.84615357, 4129.10256383, 4129.87179460, 4149.48717928, 4127.82051255, 4122.17948691, 4106.79487152, 4112.30769203, 4121.15384588, 4129.74358947, 4131.79487152, 4136.02564082, 4137.05128185, 4194.35897422,8.57
4123.33333306, 4118.84615357, 4119.61538434, 4168.84615371, 4126.53846126, 4139.23076903, 4123.84615357, 4139.99999980, 4150.89743569, 4128.71794844, 4125.76923050, 4119.74358947, 4128.07692280, 4191.92307679,8.57
4128.97435870, 4125.51282024, 4125.38461511, 4160.76923056, 4126.66666639, 4137.56410236, 4126.02564075, 4149.99999980, 4154.35897415, 4128.07692280, 4128.97435870, 4134.87179460, 4132.43589716, 4195.89743576,8.57
4124.10256383, 4125.25640998, 4120.64102537, 4147.17948697, 4124.87179460, 4132.82051255, 4124.99999973, 4135.12820485, 4132.56410229, 4130.51282024, 4126.15384588, 4128.33333306, 4130.64102537, 4186.41025628,8.57
4120.51282024, 4120.64102537, 4121.53846126, 4160.76923056, 4123.84615357, 4148.97435877, 4138.33333313, 4137.56410236, 4136.02564082, 4133.46153819, 4126.15384588, 4118.71794844, 4128.46153819, 4190.25641012,8.57
4128.58974332, 4126.41025614, 4127.56410229, 4166.28205108, 4126.79487152, 4156.66666646, 4143.84615364, 4147.56410236, 4150.89743569, 4131.02564075, 4131.41025614, 4134.23076896, 4135.25640998, 4198.07692294,8.57
4119.23076896, 4120.76923050, 4116.02564075, 4164.23076903, 4125.25640998, 4159.48717928, 4152.94871774, 4169.48717935, 4174.99999986, 4129.99999973, 4122.82051255, 4114.87179460, 4126.02564075, 4183.07692294,8.57
4125.89743562, 4125.25640998, 4123.71794844, 4171.41025628, 4124.74358947, 4165.51282031, 4157.05128185, 4173.20512807, 4180.25641012, 4134.74358947, 4128.58974332, 4125.25640998, 4128.84615357, 4192.43589730,8.57
4120.76923050, 4122.82051255, 4119.23076896, 4170.76923063, 4126.41025614, 4161.66666646, 4143.46153826, 4149.99999980, 4153.46153826, 4133.97435870, 4127.94871767, 4126.41025614, 4129.23076896, 4189.87179474,8.57
4113.07692280, 4117.94871767, 4114.61538434, 4161.53846133, 4125.76923050, 4148.46153826, 4131.53846126, 4154.10256390, 4147.56410236, 4129.23076896, 4121.53846126, 4112.56410229, 4126.53846126, 4181.66666653,8.57
4124.61538434, 4128.84615357, 4127.82051255, 4152.94871774, 4127.17948691, 4130.89743562, 4121.53846126, 4158.46153826, 4150.12820492, 4130.51282024, 4129.10256383, 4126.92307665, 4135.38461518, 4189.10256397,8.57
4114.99999973, 4121.15384588, 4118.84615357, 4153.46153826, 4126.41025614, 4126.79487152, 4119.23076896, 4140.38461518, 4139.61538441, 4130.64102537, 4121.66666639, 4112.17948691, 4128.84615357, 4181.66666653,8.57
4119.74358947, 4120.64102537, 4122.30769203, 4166.15384595, 4123.84615357, 4140.76923056, 4130.64102537, 4145.51282031, 4142.17948697, 4128.20512793, 4124.23076896, 4121.92307665, 4129.87179460, 4188.71794858,8.57
4119.61538434, 4127.43589716, 4124.35897408, 4162.69230749, 4123.33333306, 4143.84615364, 4134.23076896, 4154.23076903, 4145.64102544, 4130.89743562, 4128.46153819, 4124.61538434, 4129.23076896, 4184.87179474,8.57
4116.28205101, 4125.89743562, 4121.15384588, 4146.41025621, 4125.51282024, 4132.30769203, 4124.74358947, 4138.97435877, 4136.28205108, 4131.15384588, 4122.69230742, 4108.71794844, 4124.87179460, 4180.38461525,8.57
4132.30769203, 4132.30769203, 4134.10256383, 4157.82051262, 4129.10256383, 4143.71794851, 4136.53846133, 4145.25641005, 4145.64102544, 4130.51282024, 4130.38461511, 4132.69230742, 4134.74358947, 4196.66666653,8.57
4120.76923050, 4125.51282024, 4124.48717921, 4177.43589730, 4125.51282024, 4165.89743569, 4155.25641005, 4165.76923056, 4165.12820492, 4129.99999973, 4126.15384588, 4122.56410229, 4129.48717921, 4183.20512807,8.57
4125.38461511, 4125.12820485, 4123.46153819, 4160.25641005, 4123.33333306, 4153.84615364, 4136.66666646, 4148.46153826, 4152.30769210, 4127.94871767, 4126.66666639, 4124.23076896, 4130.64102537, 4184.74358961,8.57
4130.89743562, 4128.07692280, 4124.74358947, 4137.56410236, 4125.64102537, 4131.28205101, 4117.43589716, 4140.64102544, 4143.07692287, 4127.43589716, 4130.51282024, 4136.28205108, 4134.23076896, 4191.41025628,8.57
4118.46153819, 4120.76923050, 4117.30769203, 4149.35897415, 4123.58974332, 4135.38461518, 4130.51282024, 4164.61538441, 4158.58974339, 4129.61538434, 4125.25640998, 4120.25640998, 4127.43589716, 4181.92307679,8.57
4129.61538434, 4127.05128178, 4126.41025614, 4160.38461518, 4123.97435870, 4141.15384595, 4130.38461511, 4150.25641005, 4146.92307672, 4131.15384588, 4131.15384588, 4137.56410236, 4135.76923056, 4192.17948704,8.57
4120.89743562, 4123.71794844, 4120.51282024, 4151.66666646, 4126.79487152, 4134.10256383, 4110.38461511, 4119.23076896, 4123.97435870, 4128.71794844, 4125.76923050, 4128.46153819, 4130.89743562, 4190.12820499,8.57
4119.23076896, 4121.15384588, 4123.84615357, 4147.30769210, 4129.23076896, 4131.02564075, 4113.58974332, 4131.28205101, 4132.05128178, 4129.48717921, 4125.89743562, 4124.74358947, 4129.48717921, 4193.46153833,8.57
4128.58974332, 4126.66666639, 4126.53846126, 4157.30769210, 4127.82051255, 4141.92307672, 4134.61538434, 4147.69230749, 4143.20512800, 4130.89743562, 4130.64102537, 4136.53846133, 4137.17948697, 4195.38461525,8.57
4116.15384588, 4121.41025614, 4114.10256383, 4159.61538441, 4123.58974332, 4146.15384595, 4138.07692287, 4140.89743569, 4137.17948697, 4128.20512793, 4124.48717921, 4117.30769203, 4129.99999973, 4185.51282038,8.57
4122.56410229, 4124.87179460, 4124.61538434, 4144.87179467, 4124.61538434, 4129.23076896, 4125.38461511, 4144.61538441, 4139.23076903, 4128.20512793, 4131.15384588, 4128.46153819, 4134.35897408, 4195.89743576,8.57
4121.66666639, 4121.28205101, 4121.53846126, 4146.66666646, 4125.25640998, 4121.28205101, 4123.33333306, 4159.10256390, 4151.02564082, 4128.84615357, 4125.12820485, 4122.56410229, 4132.30769203, 4187.17948704,8.57
4119.23076896, 4120.89743562, 4118.20512793, 4164.35897415, 4125.64102537, 4137.82051262, 4135.38461518, 4160.51282031, 4152.69230749, 4129.48717921, 4121.28205101, 4115.89743562, 4128.46153819, 4182.56410243,8.57
4124.35897408, 4128.07692280, 4124.35897408, 4161.79487159, 4126.92307665, 4151.02564082, 4142.43589723, 4166.02564082, 4161.41025621, 4130.12820485, 4130.76923050, 4126.53846126, 4134.48717921, 4191.02564089,8.57
4116.53846126, 4120.38461511, 4116.79487152, 4145.89743569, 4127.05128178, 4142.17948697, 4132.05128178, 4175.64102551, 4172.56410243, 4130.25640998, 4123.97435870, 4110.25640998, 4128.97435870, 4181.28205115,8.57
4126.53846126, 4125.89743562, 4126.92307665, 4143.33333313, 4128.33333306, 4129.74358947, 4113.84615357, 4151.15384595, 4146.92307672, 4131.28205101, 4125.89743562, 4126.28205101, 4130.51282024, 4185.38461525,8.57
4120.12820485, 4127.43589716, 4125.12820485, 4146.92307672, 4126.15384588, 4143.97435877, 4122.94871767, 4126.92307665, 4119.74358947, 4129.35897408, 4125.89743562, 4126.02564075, 4127.30769203, 4180.38461525,8.57
4118.20512793, 4122.69230742, 4121.28205101, 4138.33333313, 4122.69230742, 4148.33333313, 4133.84615357, 4136.28205108, 4127.82051255, 4127.17948691, 4122.30769203, 4116.66666639, 4127.30769203, 4179.35897422,8.57
4133.58974332, 4128.33333306, 4132.56410229, 4134.87179460, 4124.74358947, 4123.07692280, 4117.43589716, 4142.69230749, 4143.20512800, 4130.51282024, 4128.71794844, 4135.64102544, 4133.97435870, 4191.79487166,8.57
4121.02564075, 4123.07692280, 4121.66666639, 4151.79487159, 4125.38461511, 4122.69230742, 4122.30769203, 4142.69230749, 4148.84615364, 4131.92307665, 4125.12820485, 4119.23076896, 4125.51282024, 4182.05128192,8.57
4125.76923050, 4127.30769203, 4124.61538434, 4157.17948697, 4125.25640998, 4142.82051262, 4143.97435877, 4158.84615364, 4152.69230749, 4131.66666639, 4129.23076896, 4127.17948691, 4133.33333306, 4188.71794858,8.57
4124.10256383, 4125.51282024, 4123.71794844, 4139.87179467, 4124.23076896, 4137.30769210, 4134.99999973, 4164.23076903, 4147.17948697, 4132.94871767, 4128.84615357, 4132.94871767, 4136.41025621, 4188.46153833,8.57
4115.25640998, 4118.20512793, 4118.46153819, 4142.17948697, 4122.17948691, 4130.64102537, 4126.41025614, 4155.76923056, 4148.07692287, 4130.51282024, 4124.48717921, 4121.15384588, 4129.87179460, 4186.79487166,8.57
4130.25640998, 4129.87179460, 4128.71794844, 4161.28205108, 4123.46153819, 4141.02564082, 4143.07692287, 4162.17948697, 4154.74358954, 4128.97435870, 4133.71794844, 4142.17948697, 4139.74358954, 4201.15384609,8.57
4121.15384588, 4123.58974332, 4118.07692280, 4157.69230749, 4123.97435870, 4139.23076903, 4148.58974339, 4166.41025621, 4144.74358954, 4130.12820485, 4125.25640998, 4126.79487152, 4132.69230742, 4186.41025628,8.57
4121.53846126, 4120.51282024, 4121.53846126, 4139.74358954, 4124.23076896, 4118.97435870, 4128.33333306, 4151.15384595, 4137.82051262, 4130.64102537, 4124.74358947, 4126.53846126, 4130.89743562, 4189.23076910,8.57
4125.12820485, 4125.38461511, 4122.82051255, 4138.84615364, 4123.20512793, 4113.33333306, 4117.94871767, 4143.07692287, 4140.12820492, 4129.99999973, 4130.89743562, 4133.71794844, 4134.87179460, 4194.61538448,8.57
4115.51282024, 4117.94871767, 4112.82051255, 4143.07692287, 4123.33333306, 4126.02564075, 4122.17948691, 4135.76923056, 4123.07692280, 4127.94871767, 4122.05128178, 4113.84615357, 4126.79487152, 4183.71794858,8.57
4123.58974332, 4121.92307665, 4126.02564075, 4132.17948691, 4126.02564075, 4121.79487152, 4110.38461511, 4110.38461511, 4103.58974332, 4127.43589716, 4124.23076896, 4129.10256383, 4132.82051255, 4192.56410243,8.57
4115.64102537, 4120.38461511, 4122.69230742, 4130.12820485, 4122.05128178, 4114.35897408, 4104.87179460, 4110.25640998, 4118.33333306, 4128.71794844, 4121.92307665, 4119.23076896, 4129.99999973, 4185.38461525,8.57
4119.23076896, 4123.07692280, 4123.07692280, 4135.76923056, 4120.38461511, 4125.89743562, 4114.87179460, 4129.87179460, 4129.35897408, 4129.10256383, 4123.20512793, 4115.12820485, 4128.71794844, 4183.97435884,8.57
4125.38461511, 4127.56410229, 4127.17948691, 4125.12820485, 4125.38461511, 4124.74358947, 4106.79487152, 4118.07692280, 4115.76923050, 4128.97435870, 4125.76923050, 4123.58974332, 4132.94871767, 4186.53846140,8.57
4112.69230742, 4121.41025614, 4121.79487152, 4125.12820485, 4126.28205101, 4120.38461511, 4111.53846126, 4123.58974332, 4130.64102537, 4129.87179460, 4120.12820485, 4107.17948691, 4126.15384588, 4178.71794858,8.57
4122.30769203, 4127.69230742, 4131.02564075, 4147.43589723, 4126.28205101, 4137.05128185, 4145.64102544, 4163.97435877, 4156.53846133, 4131.53846126, 4130.25640998, 4125.76923050, 4132.94871767, 4190.38461525,8.57
4120.38461511, 4124.10256383, 4124.23076896, 4146.41025621, 4127.05128178, 4139.23076903, 4146.15384595, 4168.20512807, 4147.69230749, 4128.58974332, 4126.79487152, 4123.33333306, 4129.10256383, 4184.10256397,8.57
4123.20512793, 4123.71794844, 4125.51282024, 4127.05128178, 4127.56410229, 4116.92307665, 4107.94871767, 4129.74358947, 4124.74358947, 4128.07692280, 4123.71794844, 4119.35897408, 4123.58974332, 4183.58974345,8.57
4131.02564075, 4128.46153819, 4132.82051255, 4130.89743562, 4124.87179460, 4114.61538434, 4108.33333306, 4117.69230742, 4124.74358947, 4132.56410229, 4131.15384588, 4132.05128178, 4129.74358947, 4191.15384602,8.57
4117.82051255, 4119.23076896, 4120.76923050, 4137.05128185, 4123.71794844, 4125.25640998, 4133.20512793, 4137.94871774, 4140.38461518, 4129.74358947, 4124.87179460, 4115.25640998, 4127.05128178, 4181.92307679,8.57
4127.30769203, 4127.56410229, 4126.92307665, 4127.43589716, 4128.84615357, 4120.89743562, 4122.17948691, 4133.33333306, 4134.10256383, 4127.56410229, 4130.64102537, 4132.56410229, 4134.23076896, 4193.07692294,8.57
4123.97435870, 4126.92307665, 4121.92307665, 4134.23076896, 4128.07692280, 4124.99999973, 4115.38461511, 4124.48717921, 4124.99999973, 4131.02564075, 4128.84615357, 4132.56410229, 4130.25640998, 4187.56410243,8.57
4119.48717921, 4119.35897408, 4117.17948691, 4136.02564082, 4122.30769203, 4122.69230742, 4122.05128178, 4129.99999973, 4125.89743562, 4130.38461511, 4122.69230742, 4121.79487152, 4124.23076896, 4185.89743576,8.57
4132.94871767, 4127.94871767, 4124.61538434, 4122.17948691, 4123.20512793, 4118.71794844, 4119.48717921, 4135.51282031, 4132.05128178, 4129.35897408, 4130.25640998, 4137.82051262, 4135.12820485, 4198.07692294,8.57
4121.53846126, 4122.94871767, 4116.15384588, 4134.23076896, 4124.10256383, 4145.51282031, 4134.87179460, 4154.87179467, 4151.41025621, 4128.58974332, 4123.97435870, 4118.58974332, 4131.02564075, 4186.53846140,8.57
4122.69230742, 4122.56410229, 4123.97435870, 4145.64102544, 4123.20512793, 4144.99999980, 4140.76923056, 4160.64102544, 4153.71794851, 4129.61538434, 4126.66666639, 4125.25640998, 4131.41025614, 4192.94871781,8.57
4119.48717921, 4124.23076896, 4120.89743562, 4134.48717921, 4124.35897408, 4108.20512793, 4112.82051255, 4133.84615357, 4131.92307665, 4130.25640998, 4128.71794844, 4127.82051255, 4130.38461511, 4191.66666653,8.57
4113.46153819, 4122.94871767, 4113.20512793, 4139.74358954, 4126.28205101, 4108.33333306, 4105.89743562, 4118.33333306, 4119.23076896, 4129.87179460, 4122.05128178, 4111.53846126, 4126.02564075, 4183.46153833,8.57
4128.33333306, 4129.10256383, 4126.92307665, 4151.79487159, 4126.66666639, 4127.05128178, 4126.02564075, 4126.15384588, 4121.15384588, 4130.51282024, 4124.23076896, 4127.56410229, 4133.58974332, 4193.07692294,8.57
4117.69230742, 4119.61538434, 4119.87179460, 4156.79487159, 4123.46153819, 4133.07692280, 4135.76923056, 4135.64102544, 4135.64102544, 4127.43589716, 4118.71794844, 4116.02564075, 4126.92307665, 4184.99999986,8.57
4118.71794844, 4121.79487152, 4123.33333306, 4166.92307672, 4124.61538434, 4144.74358954, 4142.30769210, 4150.89743569, 4159.48717928, 4127.56410229, 4126.41025614, 4122.30769203, 4128.20512793, 4186.15384602,8.57
4122.05128178, 4127.30769203, 4125.64102537, 4152.82051262, 4127.30769203, 4133.20512793, 4134.87179460, 4147.56410236, 4150.12820492, 4130.51282024, 4128.84615357, 4127.17948691, 4129.74358947, 4183.07692294,8.57
4116.66666639, 4119.48717921, 4119.10256383, 4121.02564075, 4125.51282024, 4100.89743555, 4112.17948691, 4121.66666639, 4114.61538434, 4131.02564075, 4118.33333306, 4112.94871767, 4124.99999973, 4177.05128192,8.57
4130.51282024, 4126.28205101, 4130.51282024, 4136.66666646, 4124.48717921, 4117.43589716, 4123.20512793, 4136.15384595, 4135.25640998, 4130.38461511, 4128.46153819, 4135.38461518, 4134.35897408, 4192.17948704,8.57
4121.92307665, 4123.46153819, 4122.69230742, 4164.35897415, 4124.23076896, 4149.48717928, 4145.51282031, 4163.07692287, 4171.66666653, 4128.33333306, 4127.56410229, 4123.07692280, 4124.74358947, 4184.23076910,8.57
4125.89743562, 4123.71794844, 4124.48717921, 4136.79487159, 4126.53846126, 4119.48717921, 4116.02564075, 4123.97435870, 4130.51282024, 4128.97435870, 4125.25640998, 4123.46153819, 4125.64102537, 4187.94871781,8.57
4130.51282024, 4129.35897408, 4129.23076896, 4113.97435870, 4126.28205101, 4092.56410222, 4092.30769196, 4088.20512786, 4087.17948684, 4130.64102537, 4127.94871767, 4137.05128185, 4136.15384595, 4194.48717935,8.57
4117.82051255, 4122.56410229, 4117.82051255, 4141.02564082, 4124.23076896, 4117.82051255, 4117.43589716, 4115.89743562, 4113.97435870, 4127.17948691, 4123.97435870, 4118.84615357, 4127.17948691, 4182.17948704,8.57
4131.15384588, 4127.82051255, 4124.87179460, 4154.61538441, 4126.79487152, 4129.74358947, 4135.12820485, 4143.97435877, 4141.79487159, 4124.87179460, 4133.46153819, 4134.99999973, 4132.56410229, 4193.33333320,8.57
4125.12820485, 4124.35897408, 4121.02564075, 4136.79487159, 4124.35897408, 4124.35897408, 4134.87179460, 4143.33333313, 4136.41025621, 4127.56410229, 4128.46153819, 4130.38461511, 4133.46153819, 4191.92307679,8.57
4121.79487152, 4122.30769203, 4121.66666639, 4127.82051255, 4122.94871767, 4125.76923050, 4127.05128178, 4125.76923050, 4121.79487152, 4130.76923050, 4122.43589716, 4126.79487152, 4132.69230742, 4192.43589730,8.57
4127.43589716, 4129.10256383, 4124.23076896, 4151.53846133, 4128.58974332, 4135.89743569, 4131.92307665, 4131.66666639, 4135.25640998, 4131.15384588, 4129.23076896, 4138.71794851, 4136.79487159, 4194.74358961,8.57
4114.48717921, 4121.79487152, 4114.48717921, 4168.33333320, 4128.97435870, 4140.12820492, 4142.17948697, 4149.48717928, 4156.15384595, 4128.33333306, 4123.84615357, 4117.56410229, 4127.43589716, 4183.58974345,8.57
4123.07692280, 4124.48717921, 4127.17948691, 4138.07692287, 4125.38461511, 4115.51282024, 4111.28205101, 4112.69230742, 4121.41025614, 4126.66666639, 4126.28205101, 4126.28205101, 4131.53846126, 4195.12820499,8.57
4117.94871767, 4120.64102537, 4121.53846126, 4126.66666639, 4123.46153819, 4108.07692280, 4089.61538427, 4078.58974325, 4086.41025607, 4128.84615357, 4123.58974332, 4120.76923050, 4129.23076896, 4189.87179474,8.57
4113.33333306, 4117.56410229, 4112.43589716, 4153.97435877, 4124.74358947, 4131.02564075, 4114.61538434, 4111.53846126, 4118.46153819, 4131.02564075, 4121.02564075, 4112.94871767, 4124.10256383, 4185.51282038,8.57
4123.46153819, 4127.05128178, 4120.89743562, 4142.17948697, 4127.05128178, 4125.64102537, 4125.12820485, 4137.17948697, 4141.02564082, 4129.48717921, 4126.28205101, 4129.10256383, 4130.89743562, 4191.28205115,8.57
4114.10256383, 4121.41025614, 4117.30769203, 4107.56410229, 4126.41025614, 4098.46153812, 4102.82051255, 4107.43589716, 4107.43589716, 4129.99999973, 4118.46153819, 4111.02564075, 4126.41025614, 4178.84615371,8.57
4122.30769203, 4124.99999973, 4125.38461511, 4110.51282024, 4128.46153819, 4096.53846119, 4094.23076889, 4084.35897402, 4090.12820478, 4133.46153819, 4122.94871767, 4121.15384588, 4130.12820485, 4187.69230756,8.57
4122.17948691, 4126.53846126, 4123.71794844, 4125.51282024, 4129.23076896, 4112.56410229, 4112.05128178, 4110.64102537, 4121.66666639, 4130.64102537, 4125.25640998, 4127.43589716, 4128.20512793, 4184.99999986,8.57
4118.07692280, 4125.38461511, 4124.10256383, 4121.66666639, 4126.28205101, 4116.92307665, 4121.53846126, 4136.53846133, 4140.76923056, 4128.71794844, 4121.66666639, 4117.05128178, 4124.99999973, 4177.94871781,8.57
4129.74358947, 4133.84615357, 4134.87179460, 4117.56410229, 4126.92307665, 4112.05128178, 4111.92307665, 4122.94871767, 4126.79487152, 4132.17948691, 4128.46153819, 4130.51282024, 4133.46153819, 4188.97435884,8.57
4118.97435870, 4125.51282024, 4121.92307665, 4122.69230742, 4127.56410229, 4111.92307665, 4107.82051255, 4107.94871767, 4121.28205101, 4130.51282024, 4122.56410229, 4115.38461511, 4126.66666639, 4180.38461525,8.57
4126.66666639, 4127.56410229, 4127.43589716, 4129.48717921, 4127.17948691, 4114.35897408, 4115.12820485, 4115.25640998, 4125.38461511, 4127.05128178, 4127.05128178, 4126.66666639, 4131.66666639, 4186.02564089,8.57
4127.82051255, 4128.20512793, 4128.71794844, 4139.10256390, 4125.76923050, 4115.51282024, 4123.33333306, 4132.30769203, 4138.07692287, 4128.71794844, 4129.74358947, 4134.10256383, 4133.46153819, 4187.05128192,8.57
4118.71794844, 4120.89743562, 4119.35897408, 4144.10256390, 4124.87179460, 4109.35897408, 4117.56410229, 4130.25640998, 4144.61538441, 4130.25640998, 4123.20512793, 4118.97435870, 4123.58974332, 4181.15384602,8.57
4132.94871767, 4131.28205101, 4127.30769203, 4133.84615357, 4125.38461511, 4101.41025607, 4105.25640998, 4105.64102537, 4116.28205101, 4129.74358947, 4131.02564075, 4139.99999980, 4130.89743562, 4193.07692294,8.57
4121.79487152, 4125.25640998, 4117.05128178, 4124.23076896, 4122.82051255, 4112.17948691, 4118.20512793, 4110.64102537, 4104.99999973, 4128.33333306, 4125.25640998, 4127.69230742, 4128.58974332, 4186.15384602,8.57
4122.56410229, 4120.76923050, 4121.66666639, 4131.02564075, 4123.58974332, 4129.74358947, 4137.82051262, 4135.64102544, 4129.23076896, 4128.07692280, 4125.38461511, 4130.51282024, 4131.15384588, 4193.20512807,8.57
4127.94871767, 4126.79487152, 4128.20512793, 4134.61538434, 4123.58974332, 4120.76923050, 4122.69230742, 4122.56410229, 4130.25640998, 4129.10256383, 4128.58974332, 4139.61538441, 4133.71794844, 4195.64102551,8.57
4114.48717921, 4122.43589716, 4117.43589716, 4120.51282024, 4121.79487152, 4099.87179453, 4104.48717921, 4109.61538434, 4116.53846126, 4127.05128178, 4118.84615357, 4112.43589716, 4126.79487152, 4184.87179474,8.57
4125.89743562, 4125.76923050, 4125.64102537, 4114.35897408, 4125.89743562, 4100.64102530, 4114.10256383, 4129.74358947, 4126.92307665, 4127.05128178, 4127.43589716, 4126.92307665, 4136.15384595, 4196.15384602,8.57
4119.87179460, 4119.87179460, 4122.05128178, 4123.71794844, 4126.02564075, 4108.20512793, 4116.15384588, 4120.64102537, 4128.58974332, 4128.20512793, 4124.61538434, 4122.17948691, 4132.05128178, 4186.53846140,8.57
4118.07692280, 4120.25640998, 4123.46153819, 4122.05128178, 4124.10256383, 4101.92307658, 4103.07692280, 4101.41025607, 4119.99999973, 4127.82051255, 4120.51282024, 4117.05128178, 4129.10256383, 4184.48717935,8.57
4125.51282024, 4127.43589716, 4126.15384588, 4114.87179460, 4127.05128178, 4103.58974332, 4111.66666639, 4127.56410229, 4129.87179460, 4130.25640998, 4125.64102537, 4126.02564075, 4134.74358947, 4188.71794858,8.57
4114.74358947, 4120.76923050, 4115.76923050, 4122.17948691, 4127.82051255, 4123.07692280, 4136.41025621, 4153.71794851, 4139.10256390, 4131.41025614, 4119.48717921, 4107.05128178, 4127.94871767, 4179.10256397,8.57
4123.20512793, 4126.66666639, 4128.33333306, 4124.10256383, 4126.41025614, 4129.35897408, 4134.99999973, 4135.64102544, 4133.33333306, 4129.87179460, 4125.89743562, 4124.48717921, 4132.30769203, 4191.79487166,8.57
4119.74358947, 4123.84615357, 4124.48717921, 4102.94871767, 4124.99999973, 4114.35897408, 4113.97435870, 4116.92307665, 4121.79487152, 4127.05128178, 4124.99999973, 4121.92307665, 4128.46153819, 4184.48717935,8.57
4120.76923050, 4120.76923050, 4122.69230742, 4094.61538427, 4125.64102537, 4104.35897408, 4111.15384588, 4126.53846126, 4118.58974332, 4127.69230742, 4122.56410229, 4113.58974332, 4126.15384588, 4182.05128192,8.57
4130.64102537, 4129.61538434, 4131.92307665, 4108.46153819, 4126.41025614, 4102.30769196, 4112.82051255, 4118.07692280, 4120.38461511, 4130.76923050, 4126.02564075, 4131.66666639, 4134.23076896, 4194.61538448,8.57
4117.43589716, 4121.92307665, 4120.38461511, 4097.94871761, 4124.10256383, 4094.99999966, 4092.17948684, 4087.56410222, 4113.71794844, 4130.51282024, 4116.79487152, 4116.41025614, 4125.51282024, 4182.43589730,8.57
4125.38461511, 4126.53846126, 4128.46153819, 4087.43589709, 4123.97435870, 4097.94871761, 4086.15384581, 4087.43589709, 4105.89743562, 4132.17948691, 4125.89743562, 4129.35897408, 4132.56410229, 4189.35897422,8.57
4123.71794844, 4127.43589716, 4126.53846126, 4113.84615357, 4124.35897408, 4120.76923050, 4120.76923050, 4123.07692280, 4116.15384588, 4131.66666639, 4127.56410229, 4131.41025614, 4135.76923056, 4191.15384602,8.57
4119.35897408, 4122.30769203, 4118.33333306, 4119.61538434, 4124.35897408, 4121.02564075, 4127.56410229, 4130.38461511, 4124.99999973, 4128.84615357, 4119.87179460, 4118.84615357, 4127.94871767, 4189.10256397,8.57
4130.64102537, 4130.12820485, 4126.53846126, 4089.87179453, 4125.38461511, 4087.94871761, 4090.64102530, 4100.51282017, 4109.99999973, 4129.99999973, 4128.97435870, 4137.69230749, 4135.51282031, 4199.23076910,8.57
4118.97435870, 4122.05128178, 4119.99999973, 4089.99999966, 4122.56410229, 4085.64102530, 4097.94871761, 4115.12820485, 4114.99999973, 4129.35897408, 4126.41025614, 4124.48717921, 4132.43589716, 4189.87179474,8.57
4124.61538434, 4120.76923050, 4123.71794844, 4104.99999973, 4121.41025614, 4104.35897408, 4122.43589716, 4138.33333313, 4124.87179460, 4127.43589716, 4125.12820485, 4129.48717921, 4133.46153819, 4193.84615371,8.57
4124.48717921, 4123.71794844, 4119.48717921, 4100.38461504, 4122.17948691, 4100.89743555, 4102.05128171, 4100.12820478, 4100.12820478, 4129.48717921, 4124.87179460, 4132.17948691, 4134.10256383, 4190.51282038,8.57
4112.17948691, 4120.38461511, 4115.89743562, 4119.74358947, 4123.33333306, 4112.05128178, 4104.74358947, 4090.89743555, 4102.94871767, 4131.02564075, 4121.15384588, 4114.10256383, 4127.82051255, 4183.58974345,8.57
4124.61538434, 4126.28205101, 4128.20512793, 4144.10256390, 4126.02564075, 4135.38461518, 4140.64102544, 4141.79487159, 4143.33333313, 4128.07692280, 4125.12820485, 4129.35897408, 4133.33333306, 4194.74358961,8.57
4118.07692280, 4119.23076896, 4114.87179460, 4129.74358947, 4123.46153819, 4114.10256383, 4121.79487152, 4133.58974332, 4134.35897408, 4126.41025614, 4118.33333306, 4119.35897408, 4128.07692280, 4184.87179474,8.57
4119.87179460, 4121.66666639, 4118.97435870, 4110.12820485, 4124.35897408, 4081.66666632, 4079.61538427, 4082.30769196, 4093.58974325, 4131.15384588, 4123.33333306, 4123.58974332, 4128.97435870, 4186.02564089,8.57
4123.33333306, 4128.33333306, 4128.97435870, 4116.92307665, 4127.94871767, 4095.89743555, 4096.02564068, 4099.48717914, 4104.48717921, 4133.46153819, 4128.46153819, 4128.33333306, 4130.25640998, 4186.92307679,8.57
4115.12820485, 4121.92307665, 4120.12820485, 4117.82051255, 4126.02564075, 4105.51282024, 4110.51282024, 4120.12820485, 4116.79487152, 4130.12820485, 4118.84615357, 4109.23076896, 4123.46153819, 4178.46153833,8.57
4128.46153819, 4128.84615357, 4129.48717921, 4106.28205101, 4125.89743562, 4089.23076889, 4081.92307658, 4089.61538427, 4097.94871761, 4129.23076896, 4125.64102537, 4130.12820485, 4132.94871767, 4190.76923063,8.57
4118.97435870, 4126.79487152, 4125.12820485, 4124.99999973, 4125.51282024, 4103.58974332, 4087.43589709, 4088.46153812, 4109.35897408, 4129.74358947, 4123.46153819, 4120.89743562, 4128.97435870, 4181.66666653,8.57
4120.38461511, 4126.15384588, 4123.20512793, 4140.64102544, 4124.61538434, 4119.87179460, 4113.33333306, 4105.12820485, 4116.02564075, 4129.61538434, 4123.46153819, 4118.20512793, 4127.69230742, 4181.79487166,8.57
4132.82051255, 4130.51282024, 4130.38461511, 4118.97435870, 4125.38461511, 4106.79487152, 4108.07692280, 4101.28205094, 4103.58974332, 4130.12820485, 4128.84615357, 4136.41025621, 4133.71794844, 4188.07692294,8.57
4132.82051255, 4130.51282024, 4130.38461511, 4118.97435870, 4125.38461511, 4106.79487152, 4108.07692280, 4101.28205094, 4103.58974332, 4130.12820485, 4128.84615357, 4136.41025621, 4133.71794844, 4188.07692294,8.57
4119.61538434, 4123.07692280, 4124.74358947, 4105.64102537, 4124.10256383, 4099.35897402, 4103.97435870, 4101.41025607, 4111.53846126, 4129.61538434, 4120.25640998, 4116.66666639, 4126.15384588, 4177.05128192,8.57
4128.20512793, 4131.02564075, 4129.87179460, 4116.79487152, 4123.84615357, 4105.25640998, 4113.33333306, 4104.99999973, 4114.61538434, 4129.99999973, 4128.84615357, 4130.76923050, 4133.33333306, 4191.15384602,8.57
4124.48717921, 4127.94871767, 4121.15384588, 4119.74358947, 4124.23076896, 4110.25640998, 4115.89743562, 4109.87179460, 4113.07692280, 4128.33333306, 4128.58974332, 4131.66666639, 4130.89743562, 4188.97435884,8.57
4120.76923050, 4120.51282024, 4120.12820485, 4112.69230742, 4125.51282024, 4111.28205101, 4107.69230742, 4107.56410229, 4118.20512793, 4128.20512793, 4122.82051255, 4124.48717921, 4127.17948691, 4187.17948704,8.57
4129.23076896, 4125.89743562, 4127.30769203, 4126.79487152, 4123.84615357, 4119.61538434, 4111.02564075, 4108.46153819, 4126.02564075, 4131.15384588, 4130.25640998, 4137.43589723, 4135.25640998, 4198.33333320,8.57
4119.61538434, 4118.33333306, 4114.99999973, 4138.07692287, 4121.79487152, 4123.71794844, 4119.48717921, 4120.76923050, 4130.89743562, 4127.94871767, 4124.74358947, 4119.87179460, 4129.61538434, 4187.17948704,8.57
4128.58974332, 4123.07692280, 4121.53846126, 4117.69230742, 4124.61538434, 4095.89743555, 4096.02564068, 4107.17948691, 4115.51282024, 4127.94871767, 4124.99999973, 4129.48717921, 4132.94871767, 4191.79487166,8.57
4121.66666639, 4124.74358947, 4118.71794844, 4107.43589716, 4121.53846126, 4080.89743555, 4079.87179453, 4084.48717914, 4099.87179453, 4132.30769203, 4121.92307665, 4126.41025614, 4131.41025614, 4189.87179474,8.57
4112.69230742, 4117.82051255, 4114.74358947, 4129.10256383, 4118.97435870, 4109.23076896, 4107.56410229, 4105.12820485, 4119.48717921, 4130.51282024, 4119.35897408, 4114.61538434, 4127.30769203, 4186.28205115,8.57
4125.38461511, 4123.97435870, 4127.43589716, 4137.82051262, 4125.64102537, 4126.15384588, 4128.97435870, 4132.69230742, 4144.87179467, 4128.71794844, 4126.15384588, 4132.43589716, 4134.74358947, 4193.33333320,8.57
4114.87179460, 4120.64102537, 4118.71794844, 4116.79487152, 4123.71794844, 4106.92307665, 4111.79487152, 4117.05128178, 4134.99999973, 4130.64102537, 4117.56410229, 4117.17948691, 4128.07692280, 4181.66666653,8.57
4117.43589716, 4122.94871767, 4121.92307665, 4112.94871767, 4119.74358947, 4097.82051248, 4104.87179460, 4103.33333306, 4121.41025614, 4130.51282024, 4122.30769203, 4123.20512793, 4129.87179460, 4185.38461525,8.57
4119.23076896, 4124.99999973, 4124.23076896, 4134.99999973, 4123.84615357, 4112.94871767, 4122.30769203, 4113.07692280, 4121.28205101, 4128.58974332, 4125.76923050, 4123.84615357, 4129.10256383, 4183.58974345,8.57
4118.33333306, 4124.23076896, 4124.10256383, 4140.25641005, 4125.89743562, 4123.33333306, 4125.51282024, 4112.56410229, 4122.82051255, 4129.35897408, 4120.38461511, 4108.84615357, 4124.48717921, 4180.76923063,8.57
4129.35897408, 4131.28205101, 4133.97435870, 4123.58974332, 4123.97435870, 4121.02564075, 4117.82051255, 4107.30769203, 4131.15384588, 4131.15384588, 4128.20512793, 4128.58974332, 4135.12820485, 4191.28205115,8.57
4113.84615357, 4121.53846126, 4120.76923050, 4119.74358947, 4122.30769203, 4118.84615357, 4120.25640998, 4119.99999973, 4137.30769210, 4130.51282024, 4121.92307665, 4115.51282024, 4128.20512793, 4178.58974345,8.57
4121.66666639, 4124.10256383, 4126.15384588, 4115.76923050, 4124.23076896, 4111.15384588, 4113.71794844, 4117.30769203, 4118.84615357, 4129.99999973, 4124.10256383, 4121.53846126, 4128.97435870, 4186.02564089,8.57
4132.82051255, 4130.12820485, 4130.38461511, 4111.28205101, 4125.25640998, 4108.84615357, 4106.28205101, 4100.76923043, 4112.69230742, 4129.99999973, 4130.51282024, 4136.15384595, 4134.99999973, 4193.84615371,8.57
4119.87179460, 4123.33333306, 4119.48717921, 4124.61538434, 4124.35897408, 4119.87179460, 4115.76923050, 4117.94871767, 4148.07692287, 4131.53846126, 4124.99999973, 4117.43589716, 4127.82051255, 4185.12820499,8.57
4126.02564075, 4130.76923050, 4127.69230742, 4116.53846126, 4123.71794844, 4112.82051255, 4112.43589716, 4119.87179460, 4137.69230749, 4132.94871767, 4131.66666639, 4131.53846126, 4135.64102544, 4194.48717935,8.57
4121.41025614, 4125.51282024, 4118.46153819, 4104.99999973, 4122.30769203, 4115.76923050, 4120.12820485, 4105.89743562, 4098.84615350, 4131.02564075, 4128.46153819, 4127.30769203, 4133.20512793, 4187.56410243,8.57
4126.79487152, 4123.71794844, 4121.15384588, 4126.02564075, 4125.12820485, 4136.28205108, 4143.07692287, 4127.82051255, 4122.82051255, 4130.38461511, 4127.43589716, 4129.10256383, 4131.79487152, 4192.05128192,8.57
4129.87179460, 4130.51282024, 4128.58974332, 4127.17948691, 4124.87179460, 4120.51282024, 4130.12820485, 4137.69230749, 4148.58974339, 4129.48717921, 4130.12820485, 4134.99999973, 4137.56410236, 4197.05128192,8.57
4113.97435870, 4121.92307665, 4117.56410229, 4101.41025607, 4122.43589716, 4103.58974332, 4115.51282024, 4119.87179460, 4128.97435870, 4126.28205101, 4122.05128178, 4112.05128178, 4131.28205101, 4184.99999986,8.57
4125.12820485, 4124.10256383, 4127.69230742, 4100.64102530, 4124.61538434, 4120.76923050, 4127.82051255, 4121.66666639, 4122.17948691, 4126.92307665, 4128.46153819, 4133.07692280, 4135.89743569, 4195.25641012,8.57
4119.35897408, 4121.92307665, 4121.79487152, 4105.12820485, 4122.94871767, 4116.53846126, 4120.64102537, 4124.61538434, 4125.51282024, 4127.56410229, 4124.99999973, 4127.30769203, 4131.92307665, 4188.46153833,8.57
4113.46153819, 4120.89743562, 4116.28205101, 4102.56410229, 4124.23076896, 4094.23076889, 4099.99999966, 4104.10256383, 4111.66666639, 4126.28205101, 4122.43589716, 4114.10256383, 4130.25640998, 4184.35897422,8.57
4124.10256383, 4127.56410229, 4126.28205101, 4134.23076896, 4129.74358947, 4125.25640998, 4121.53846126, 4109.74358947, 4124.61538434, 4128.20512793, 4130.12820485, 4131.79487152, 4137.69230749, 4191.79487166,8.57
4116.92307665, 4121.15384588, 4121.66666639, 4148.46153826, 4125.38461511, 4153.20512800, 4144.87179467, 4129.74358947, 4143.84615364, 4127.17948691, 4120.89743562, 4115.89743562, 4127.17948691, 4182.43589730,8.57
4127.94871767, 4125.89743562, 4128.33333306, 4101.02564068, 4122.17948691, 4110.12820485, 4114.48717921, 4110.89743562, 4118.97435870, 4126.66666639, 4123.07692280, 4123.07692280, 4128.20512793, 4187.69230756,8.57
4122.43589716, 4124.87179460, 4120.89743562, 4077.94871761, 4123.20512793, 4078.07692273, 4084.74358940, 4085.64102530, 4098.46153812, 4127.17948691, 4123.58974332, 4121.28205101, 4129.74358947, 4179.61538448,8.57
4116.02564075, 4121.28205101, 4119.23076896, 4107.43589716, 4123.20512793, 4099.74358940, 4096.02564068, 4086.79487145, 4100.12820478, 4125.89743562, 4119.48717921, 4113.84615357, 4130.12820485, 4178.97435884,8.57
4128.84615357, 4129.23076896, 4133.46153819, 4116.41025614, 4124.74358947, 4116.53846126, 4117.82051255, 4110.76923050, 4106.28205101, 4127.69230742, 4125.89743562, 4131.02564075, 4135.89743569, 4193.20512807,8.57
4116.79487152, 4119.48717921, 4123.84615357, 4106.41025614, 4123.97435870, 4111.92307665, 4123.97435870, 4136.15384595, 4131.79487152, 4128.07692280, 4121.53846126, 4115.64102537, 4125.76923050, 4178.71794858,8.57
4122.05128178, 4122.56410229, 4127.17948691, 4106.66666639, 4121.92307665, 4099.48717914, 4103.33333306, 4109.61538434, 4125.76923050, 4127.17948691, 4126.15384588, 4126.66666639, 4131.02564075, 4183.46153833,8.57
4123.33333306, 4126.92307665, 4129.61538434, 4106.53846126, 4122.94871767, 4099.61538427, 4095.89743555, 4083.07692273, 4095.51282017, 4128.58974332, 4127.43589716, 4131.53846126, 4133.46153819, 4188.20512807,8.57
4119.87179460, 4120.89743562, 4126.02564075, 4113.33333306, 4124.74358947, 4121.41025614, 4124.48717921, 4123.84615357, 4120.12820485, 4130.12820485, 4123.97435870, 4121.41025614, 4127.05128178, 4184.74358961,8.57
4131.15384588, 4127.69230742, 4129.23076896, 4118.84615357, 4123.71794844, 4129.61538434, 4131.02564075, 4131.28205101, 4139.35897415, 4129.10256383, 4132.17948691, 4140.89743569, 4138.46153826, 4194.87179474,8.57
4117.82051255, 4122.82051255, 4115.38461511, 4109.23076896, 4121.28205101, 4115.51282024, 4103.97435870, 4082.69230735, 4110.51282024, 4126.15384588, 4123.46153819, 4123.20512793, 4134.74358947, 4187.56410243,8.57
4123.46153819, 4124.10256383, 4122.82051255, 4108.58974332, 4123.20512793, 4106.79487152, 4095.38461504, 4089.87179453, 4114.61538434, 4127.30769203, 4123.97435870, 4126.28205101, 4131.41025614, 4193.33333320,8.57
4127.82051255, 4127.30769203, 4125.64102537, 4121.79487152, 4122.56410229, 4104.10256383, 4106.53846126, 4126.53846126, 4144.61538441, 4129.99999973, 4129.48717921, 4135.76923056, 4133.97435870, 4192.05128192,8.57
4116.15384588, 4120.25640998, 4114.61538434, 4114.10256383, 4119.61538434, 4094.87179453, 4106.15384588, 4113.46153819, 4124.35897408, 4129.74358947, 4123.97435870, 4118.20512793, 4130.89743562, 4184.74358961,8.57
4123.46153819, 4125.38461511, 4126.53846126, 4111.66666639, 4122.82051255, 4109.48717921, 4123.46153819, 4113.58974332, 4114.74358947, 4130.51282024, 4131.79487152, 4133.33333306, 4135.25640998, 4197.43589730,8.57
4116.02564075, 4120.76923050, 4123.58974332, 4122.94871767, 4123.33333306, 4130.51282024, 4142.17948697, 4137.94871774, 4139.99999980, 4129.10256383, 4125.38461511, 4121.15384588, 4130.51282024, 4186.41025628,8.57
4120.38461511, 4124.35897408, 4126.41025614, 4105.25640998, 4120.64102537, 4107.82051255, 4116.15384588, 4118.46153819, 4119.23076896, 4126.79487152, 4121.92307665, 4120.38461511, 4135.51282031, 4186.53846140,8.57
4122.82051255, 4128.71794844, 4129.74358947, 4092.94871761, 4122.17948691, 4094.35897402, 4105.12820485, 4103.71794844, 4094.48717914, 4128.07692280, 4126.79487152, 4128.46153819, 4136.41025621, 4186.92307679,8.57
4110.38461511, 4117.56410229, 4120.12820485, 4103.46153819, 4123.58974332, 4114.61538434, 4123.46153819, 4120.12820485, 4116.02564075, 4128.07692280, 4118.84615357, 4103.20512793, 4121.79487152, 4174.74358961,8.57
4127.69230742, 4124.61538434, 4130.38461511, 4093.97435863, 4123.71794844, 4113.58974332, 4108.46153819, 4106.02564075, 4121.41025614, 4128.20512793, 4124.87179460, 4121.28205101, 4131.92307665, 4189.99999986,8.57
4121.92307665, 4125.76923050, 4122.05128178, 4089.35897402, 4121.41025614, 4106.92307665, 4093.58974325, 4094.74358940, 4113.07692280, 4128.58974332, 4124.10256383, 4121.28205101, 4132.94871767, 4184.35897422,8.57
4117.43589716, 4126.41025614, 4122.05128178, 4107.69230742, 4123.97435870, 4124.35897408, 4117.82051255, 4119.99999973, 4130.12820485, 4128.46153819, 4121.41025614, 4117.05128178, 4127.94871767, 4181.66666653,8.57
4129.87179460, 4133.58974332, 4133.84615357, 4103.46153819, 4127.17948691, 4119.99999973, 4116.41025614, 4116.02564075, 4126.41025614, 4129.87179460, 4127.30769203, 4133.97435870, 4133.71794844, 4189.74358961,8.57
4119.87179460, 4124.10256383, 4122.82051255, 4091.92307658, 4121.41025614, 4108.58974332, 4102.17948684, 4101.53846119, 4109.87179460, 4129.23076896, 4123.33333306, 4117.94871767, 4125.76923050, 4178.46153833,8.57
4128.71794844, 4127.05128178, 4127.69230742, 4094.99999966, 4122.05128178, 4114.61538434, 4111.28205101, 4113.07692280, 4118.20512793, 4128.46153819, 4129.61538434, 4132.17948691, 4130.64102537, 4188.97435884,8.57
4126.92307665, 4125.76923050, 4125.64102537, 4097.69230735, 4125.89743562, 4116.41025614, 4118.20512793, 4118.97435870, 4125.76923050, 4127.69230742, 4125.38461511, 4131.02564075, 4131.92307665, 4188.58974345,8.57
4121.41025614, 4123.07692280, 4121.79487152, 4102.05128171, 4123.97435870, 4114.23076896, 4121.66666639, 4114.48717921, 4116.41025614, 4126.92307665, 4120.89743562, 4123.07692280, 4130.12820485, 4186.41025628,8.57
4131.28205101, 4130.12820485, 4125.38461511, 4105.89743562, 4123.20512793, 4120.89743562, 4129.61538434, 4127.05128178, 4118.46153819, 4127.43589716, 4131.41025614, 4141.15384595, 4137.94871774, 4197.05128192,8.57
4119.74358947, 4121.66666639, 4117.94871767, 4096.66666632, 4123.71794844, 4118.33333306, 4124.10256383, 4131.02564075, 4125.64102537, 4126.02564075, 4125.38461511, 4119.61538434, 4128.46153819, 4188.33333320,8.57
4123.33333306, 4123.71794844, 4127.05128178, 4085.76923043, 4123.46153819, 4100.76923043, 4102.17948684, 4100.38461504, 4109.10256383, 4127.05128178, 4126.15384588, 4126.02564075, 4131.92307665, 4192.69230756,8.57
4121.79487152, 4125.38461511, 4120.12820485, 4097.30769196, 4120.51282024, 4116.02564075, 4114.99999973, 4103.07692280, 4115.12820485, 4128.33333306, 4125.76923050, 4131.02564075, 4132.43589716, 4188.46153833,8.57
4116.53846126, 4121.79487152, 4114.74358947, 4108.33333306, 4120.64102537, 4139.74358954, 4137.17948697, 4128.46153819, 4137.30769210, 4127.17948691, 4120.51282024, 4117.43589716, 4124.35897408, 4184.99999986,8.57
4126.79487152, 4128.97435870, 4128.71794844, 4098.58974325, 4124.48717921, 4123.33333306, 4124.99999973, 4127.69230742, 4137.82051262, 4128.33333306, 4127.17948691, 4131.41025614, 4131.79487152, 4196.28205115,8.57
4113.71794844, 4120.25640998, 4115.51282024, 4086.53846119, 4124.48717921, 4102.69230742, 4109.74358947, 4120.76923050, 4128.07692280, 4130.51282024, 4119.48717921, 4115.89743562, 4127.30769203, 4185.76923063,8.57
4116.28205101, 4120.76923050, 4119.23076896, 4092.05128171, 4126.02564075, 4108.33333306, 4114.35897408, 4125.64102537, 4126.15384588, 4130.25640998, 4120.76923050, 4121.92307665, 4130.12820485, 4190.25641012,8.57
4117.82051255, 4124.61538434, 4125.38461511, 4110.38461511, 4126.41025614, 4118.46153819, 4124.87179460, 4132.56410229, 4135.12820485, 4128.46153819, 4124.23076896, 4127.17948691, 4130.64102537, 4187.17948704,8.57
4114.35897408, 4119.61538434, 4117.82051255, 4110.25640998, 4122.43589716, 4117.05128178, 4119.99999973, 4127.05128178, 4133.97435870, 4127.56410229, 4119.48717921, 4107.94871767, 4122.94871767, 4176.66666653,8.57
4129.61538434, 4129.48717921, 4127.82051255, 4098.71794837, 4122.43589716, 4122.69230742, 4116.53846126, 4119.87179460, 4122.30769203, 4127.30769203, 4128.46153819, 4126.02564075, 4133.97435870, 4192.05128192,8.57
4129.61538434, 4129.48717921, 4127.82051255, 4098.71794837, 4122.43589716, 4122.69230742, 4116.53846126, 4119.87179460, 4122.30769203, 4127.30769203, 4128.46153819, 4126.02564075, 4133.97435870, 4192.05128192,8.57
4116.15384588, 4126.79487152, 4121.28205101, 4110.64102537, 4124.74358947, 4138.20512800, 4127.56410229, 4120.64102537, 4121.66666639, 4125.76923050, 4123.97435870, 4118.71794844, 4129.99999973, 4182.05128192,8.57
4120.12820485, 4125.12820485, 4123.71794844, 4127.82051255, 4126.66666639, 4141.53846133, 4136.28205108, 4132.69230742, 4141.41025621, 4125.89743562, 4125.64102537, 4121.28205101, 4127.30769203, 4180.51282038,8.57
4132.56410229, 4128.58974332, 4129.74358947, 4106.02564075, 4125.25640998, 4121.15384588, 4125.51282024, 4128.33333306, 4139.87179467, 4127.30769203, 4132.82051255, 4133.46153819, 4134.48717921, 4188.84615371,8.57
4121.41025614, 4123.58974332, 4123.58974332, 4076.92307658, 4122.82051255, 4096.79487145, 4104.74358947, 4103.20512793, 4107.94871767, 4126.53846126, 4124.87179460, 4118.20512793, 4131.02564075, 4182.43589730,8.57
4130.25640998, 4131.28205101, 4131.92307665, 4092.17948684, 4124.23076896, 4101.02564068, 4104.99999973, 4102.69230742, 4107.94871767, 4127.56410229, 4128.20512793, 4134.74358947, 4132.43589716, 4193.07692294,8.57
4123.33333306, 4126.15384588, 4120.38461511, 4121.41025614, 4123.84615357, 4125.38461511, 4126.15384588, 4132.30769203, 4146.02564082, 4128.97435870, 4124.87179460, 4126.28205101, 4127.05128178, 4188.71794858,8.57
4120.51282024, 4123.97435870, 4121.66666639, 4112.82051255, 4124.10256383, 4124.23076896, 4129.35897408, 4142.82051262, 4156.02564082, 4128.71794844, 4123.71794844, 4125.38461511, 4131.15384588, 4190.38461525,8.57
4125.76923050, 4131.02564075, 4131.66666639, 4088.20512786, 4123.58974332, 4109.99999973, 4118.84615357, 4121.66666639, 4123.84615357, 4128.20512793, 4128.71794844, 4141.79487159, 4137.56410236, 4194.48717935,8.57
4114.23076896, 4120.25640998, 4118.33333306, 4084.35897402, 4121.15384588, 4114.99999973, 4118.07692280, 4106.79487152, 4104.10256383, 4126.92307665, 4121.28205101, 4116.92307665, 4125.38461511, 4184.87179474,8.57
4125.51282024, 4123.33333306, 4124.23076896, 4091.15384581, 4122.56410229, 4113.71794844, 4111.15384588, 4108.46153819, 4110.25640998, 4128.97435870, 4126.41025614, 4127.94871767, 4132.30769203, 4198.20512807,8.57
4119.35897408, 4123.71794844, 4120.12820485, 4090.51282017, 4120.89743562, 4100.51282017, 4101.92307658, 4111.15384588, 4112.43589716, 4130.51282024, 4124.61538434, 4128.58974332, 4132.94871767, 4191.28205115,8.57
4112.82051255, 4120.38461511, 4116.02564075, 4079.87179453, 4121.53846126, 4098.58974325, 4100.76923043, 4097.30769196, 4102.94871767, 4129.87179460, 4121.02564075, 4117.94871767, 4126.53846126, 4186.02564089,8.57
4122.94871767, 4126.53846126, 4125.25640998, 4081.66666632, 4127.56410229, 4105.25640998, 4096.66666632, 4079.23076889, 4097.43589709, 4129.74358947, 4126.53846126, 4130.64102537, 4133.33333306, 4192.82051269,8.57
4111.15384588, 4119.23076896, 4115.38461511, 4104.35897408, 4126.53846126, 4104.74358947, 4094.10256376, 4086.02564068, 4104.74358947, 4128.84615357, 4117.94871767, 4112.30769203, 4127.94871767, 4177.56410243,8.57
4118.97435870, 4125.25640998, 4121.53846126, 4104.35897408, 4125.64102537, 4090.64102530, 4087.69230735, 4088.58974325, 4093.58974325, 4130.12820485, 4123.20512793, 4122.43589716, 4130.76923050, 4184.48717935,8.57
4121.53846126, 4127.05128178, 4122.69230742, 4081.66666632, 4126.02564075, 4082.43589709, 4082.05128171, 4083.84615350, 4081.66666632, 4131.15384588, 4126.53846126, 4123.33333306, 4129.35897408, 4184.10256397,8.57
4119.23076896, 4119.87179460, 4121.41025614, 4087.05128171, 4124.35897408, 4097.17948684, 4093.46153812, 4103.07692280, 4103.20512793, 4130.25640998, 4119.74358947, 4109.23076896, 4123.46153819, 4176.53846140,8.57
4130.89743562, 4126.28205101, 4131.28205101, 4110.12820485, 4125.89743562, 4114.48717921, 4109.48717921, 4119.10256383, 4121.02564075, 4130.25640998, 4124.74358947, 4127.17948691, 4130.38461511, 4185.51282038,8.57
4119.35897408, 4122.43589716, 4122.17948691, 4113.33333306, 4125.64102537, 4120.38461511, 4115.89743562, 4111.53846126, 4115.25640998, 4127.56410229, 4121.92307665, 4113.97435870, 4124.48717921, 4177.30769217,8.57
4125.64102537, 4127.05128178, 4128.97435870, 4094.99999966, 4123.84615357, 4107.17948691, 4106.92307665, 4096.15384581, 4098.33333299, 4127.43589716, 4125.12820485, 4123.46153819, 4129.35897408, 4182.94871781,8.57
4127.05128178, 4128.20512793, 4130.38461511, 4071.41025607, 4123.84615357, 4080.64102530, 4088.46153812, 4089.99999966, 4096.02564068, 4129.99999973, 4124.87179460, 4131.02564075, 4132.43589716, 4184.99999986,8.57
4117.17948691, 4120.64102537, 4121.79487152, 4076.02564068, 4124.23076896, 4080.51282017, 4089.10256376, 4101.92307658, 4120.64102537, 4127.56410229, 4121.53846126, 4114.74358947, 4123.84615357, 4183.07692294,8.57
4129.87179460, 4130.25640998, 4128.46153819, 4092.17948684, 4122.69230742, 4095.38461504, 4096.02564068, 4097.82051248, 4118.84615357, 4126.41025614, 4131.79487152, 4135.38461518, 4131.15384588, 4196.92307679,8.57
4120.51282024, 4126.02564075, 4117.69230742, 4087.94871761, 4119.61538434, 4101.41025607, 4101.15384581, 4097.56410222, 4108.07692280, 4127.82051255, 4123.97435870, 4127.94871767, 4130.12820485, 4186.66666653,8.57
4121.79487152, 4124.35897408, 4124.99999973, 4088.46153812, 4122.43589716, 4109.99999973, 4109.74358947, 4122.05128178, 4129.48717921, 4128.84615357, 4125.12820485, 4131.66666639, 4135.25640998, 4190.51282038,8.57
4126.02564075, 4128.07692280, 4131.02564075, 4100.51282017, 4124.87179460, 4112.30769203, 4103.33333306, 4118.07692280, 4127.56410229, 4129.35897408, 4132.56410229, 4138.97435877, 4139.35897415, 4194.87179474,8.57
4113.33333306, 4121.02564075, 4117.17948691, 4105.51282024, 4123.07692280, 4105.51282024, 4095.89743555, 4091.15384581, 4091.66666632, 4126.79487152, 4122.05128178, 4112.82051255, 4130.12820485, 4185.51282038,8.57
4122.82051255, 4126.66666639, 4122.94871767, 4106.28205101, 4124.61538434, 4102.05128171, 4102.69230742, 4092.43589709, 4087.17948684, 4126.15384588, 4126.28205101, 4128.97435870, 4136.02564082, 4195.89743576,8.57
4115.38461511, 4122.69230742, 4118.46153819, 4114.23076896, 4124.23076896, 4100.64102530, 4104.35897408, 4107.43589716, 4109.10256383, 4129.61538434, 4124.35897408, 4126.66666639, 4130.25640998, 4185.12820499,8.57
4116.28205101, 4120.51282024, 4123.58974332, 4110.89743562, 4124.10256383, 4088.97435863, 4088.71794837, 4089.74358940, 4094.61538427, 4131.15384588, 4122.43589716, 4121.02564075, 4128.71794844, 4184.48717935,8.57
4124.74358947, 4123.71794844, 4129.23076896, 4106.66666639, 4125.76923050, 4090.76923043, 4086.92307658, 4072.94871761, 4073.71794837, 4128.84615357, 4126.15384588, 4127.43589716, 4136.66666646, 4192.56410243,8.57
4112.82051255, 4116.02564075, 4115.51282024, 4122.05128178, 4123.58974332, 4111.53846126, 4104.35897408, 4089.74358940, 4091.66666632, 4128.97435870, 4118.46153819, 4106.15384588, 4127.94871767, 4179.99999986,8.57
4124.48717921, 4125.51282024, 4126.15384588, 4120.51282024, 4125.25640998, 4109.23076896, 4101.79487145, 4101.66666632, 4108.71794844, 4130.89743562, 4126.02564075, 4124.35897408, 4132.94871767, 4189.35897422,8.57
4122.05128178, 4125.89743562, 4123.46153819, 4099.61538427, 4127.05128178, 4096.92307658, 4092.56410222, 4092.82051248, 4098.33333299, 4126.79487152, 4126.66666639, 4123.46153819, 4132.05128178, 4184.35897422,8.57
4120.12820485, 4122.05128178, 4121.79487152, 4088.33333299, 4125.25640998, 4096.92307658, 4093.07692273, 4082.82051248, 4082.17948684, 4126.53846126, 4123.58974332, 4111.79487152, 4125.89743562, 4179.35897422,8.57
4130.25640998, 4130.51282024, 4133.46153819, 4093.71794837, 4124.99999973, 4098.71794837, 4094.10256376, 4088.71794837, 4089.10256376, 4130.64102537, 4130.38461511, 4127.17948691, 4130.12820485, 4188.33333320,8.57
4117.43589716, 4125.38461511, 4124.23076896, 4096.02564068, 4124.35897408, 4096.02564068, 4090.25640991, 4089.61538427, 4096.28205094, 4126.92307665, 4123.20512793, 4115.76923050, 4125.89743562, 4179.48717935,8.57
4125.25640998, 4126.53846126, 4127.94871767, 4088.58974325, 4125.25640998, 4093.71794837, 4088.33333299, 4079.99999966, 4089.48717914, 4123.84615357, 4125.76923050, 4131.15384588, 4131.66666639, 4188.58974345,8.57
4123.07692280, 4124.23076896, 4122.43589716, 4080.76923043, 4124.99999973, 4098.97435863, 4089.99999966, 4073.84615350, 4086.28205094, 4125.76923050, 4124.10256383, 4127.69230742, 4130.25640998, 4188.33333320,8.57
4119.48717921, 4121.79487152, 4116.79487152, 4077.56410222, 4124.10256383, 4097.94871761, 4082.82051248, 4071.28205094, 4084.87179453, 4126.79487152, 4122.30769203, 4117.30769203, 4126.79487152, 4186.66666653,8.57
4132.82051255, 4130.25640998, 4128.07692280, 4089.61538427, 4124.23076896, 4094.23076889, 4084.74358940, 4086.66666632, 4094.35897402, 4128.20512793, 4131.53846126, 4142.30769210, 4136.41025621, 4196.53846140,8.57
4117.69230742, 4121.53846126, 4119.99999973, 4106.28205101, 4122.56410229, 4101.92307658, 4100.76923043, 4103.84615357, 4109.99999973, 4128.33333306, 4121.92307665, 4122.69230742, 4131.28205101, 4185.64102551,8.57
4120.51282024, 4124.48717921, 4122.69230742, 4108.07692280, 4124.23076896, 4105.38461511, 4102.94871767, 4102.30769196, 4115.51282024, 4127.17948691, 4123.71794844, 4125.12820485, 4136.53846133, 4193.46153833,8.57
4124.61538434, 4128.97435870, 4120.89743562, 4096.28205094, 4124.48717921, 4094.10256376, 4093.33333299, 4097.94871761, 4110.64102537, 4125.76923050, 4126.79487152, 4134.35897408, 4135.51282031, 4192.43589730,8.57
4117.17948691, 4120.51282024, 4116.02564075, 4094.74358940, 4122.94871767, 4089.87179453, 4089.74358940, 4097.17948684, 4103.84615357, 4126.53846126, 4119.23076896, 4118.07692280, 4126.02564075, 4183.58974345,8.57
4124.23076896, 4124.61538434, 4126.15384588, 4102.56410229, 4125.51282024, 4097.05128171, 4088.46153812, 4086.79487145, 4097.82051248, 4129.48717921, 4123.71794844, 4129.48717921, 4136.15384595, 4194.48717935,8.57
4111.15384588, 4120.51282024, 4115.51282024, 4105.89743562, 4127.17948691, 4103.84615357, 4098.58974325, 4092.82051248, 4101.79487145, 4128.71794844, 4118.46153819, 4116.66666639, 4129.61538434, 4184.87179474,8.57
4116.41025614, 4122.82051255, 4119.87179460, 4113.33333306, 4129.48717921, 4109.23076896, 4118.71794844, 4119.87179460, 4117.30769203, 4126.79487152, 4123.46153819, 4122.17948691, 4126.92307665, 4186.41025628,8.57
4123.33333306, 4125.38461511, 4124.35897408, 4120.25640998, 4127.82051255, 4114.48717921, 4125.64102537, 4129.10256383, 4127.30769203, 4128.20512793, 4128.07692280, 4128.58974332, 4130.89743562, 4184.23076910,8.57
4116.15384588, 4118.84615357, 4116.02564075, 4114.87179460, 4124.99999973, 4116.53846126, 4123.84615357, 4126.92307665, 4133.46153819, 4127.69230742, 4118.46153819, 4108.97435870, 4123.97435870, 4174.48717935,8.57
4127.05128178, 4126.02564075, 4128.07692280, 4114.10256383, 4125.38461511, 4123.33333306, 4129.99999973, 4129.99999973, 4139.35897415, 4126.02564075, 4125.12820485, 4125.89743562, 4129.61538434, 4187.82051269,8.57
4118.33333306, 4120.76923050, 4123.20512793, 4121.28205101, 4121.92307665, 4132.94871767, 4134.23076896, 4129.23076896, 4143.07692287, 4126.79487152, 4123.07692280, 4117.30769203, 4126.02564075, 4180.38461525,8.57
4122.30769203, 4123.58974332, 4125.12820485, 4108.97435870, 4122.30769203, 4114.61538434, 4113.20512793, 4112.82051255, 4131.41025614, 4129.74358947, 4120.64102537, 4117.30769203, 4128.20512793, 4181.66666653,8.57
4130.12820485, 4131.28205101, 4131.28205101, 4097.56410222, 4127.05128178, 4091.79487145, 4093.33333299, 4098.20512786, 4112.30769203, 4128.58974332, 4124.74358947, 4133.33333306, 4136.66666646, 4188.46153833,8.57
4118.71794844, 4122.56410229, 4123.07692280, 4106.28205101, 4124.48717921, 4092.82051248, 4094.23076889, 4089.10256376, 4098.84615350, 4124.35897408, 4121.53846126, 4118.58974332, 4129.74358947, 4181.41025628,8.57
4129.87179460, 4129.99999973, 4129.48717921, 4113.97435870, 4122.30769203, 4100.25640991, 4100.64102530, 4084.61538427, 4091.79487145, 4127.30769203, 4129.61538434, 4134.61538434, 4133.07692280, 4191.53846140,8.57
4123.58974332, 4126.41025614, 4120.64102537, 4127.30769203, 4123.46153819, 4114.74358947, 4115.12820485, 4104.99999973, 4108.07692280, 4131.02564075, 4125.76923050, 4127.56410229, 4128.58974332, 4184.74358961,8.57
4121.66666639, 4120.38461511, 4122.30769203, 4137.05128185, 4123.97435870, 4124.87179460, 4122.82051255, 4120.38461511, 4126.66666639, 4129.74358947, 4123.07692280, 4122.30769203, 4129.74358947, 4187.17948704,8.57
4131.41025614, 4128.58974332, 4129.99999973, 4124.48717921, 4122.94871767, 4116.66666639, 4113.84615357, 4106.92307665, 4117.56410229, 4130.51282024, 4132.17948691, 4141.66666646, 4138.97435877, 4197.94871781,8.57
4116.66666639, 4122.05128178, 4114.87179460, 4112.30769203, 4121.41025614, 4108.97435870, 4110.89743562, 4102.17948684, 4108.71794844, 4128.71794844, 4123.97435870, 4119.99999973, 4127.69230742, 4185.76923063,8.57
4123.58974332, 4122.82051255, 4123.33333306, 4114.10256383, 4125.25640998, 4107.69230742, 4112.82051255, 4113.46153819, 4119.87179460, 4126.92307665, 4125.38461511, 4126.41025614, 4131.92307665, 4195.25641012,8.57
4119.87179460, 4121.41025614, 4121.79487152, 4122.69230742, 4127.43589716, 4107.69230742, 4112.56410229, 4116.66666639, 4129.48717921, 4128.97435870, 4124.48717921, 4124.87179460, 4135.38461518, 4192.17948704,8.57
4114.10256383, 4119.35897408, 4114.35897408, 4128.20512793, 4124.87179460, 4112.56410229, 4115.51282024, 4112.17948691, 4124.87179460, 4129.87179460, 4120.89743562, 4113.46153819, 4130.64102537, 4183.58974345,8.57
4128.20512793, 4126.53846126, 4124.23076896, 4119.48717921, 4122.94871767, 4113.58974332, 4114.48717921, 4111.15384588, 4125.51282024, 4130.12820485, 4127.56410229, 4129.61538434, 4133.97435870, 4193.46153833,8.57
4116.53846126, 4116.53846126, 4117.17948691, 4107.69230742, 4122.05128178, 4107.56410229, 4107.05128178, 4119.99999973, 4139.74358954, 4128.84615357, 4118.46153819, 4110.38461511, 4126.28205101, 4185.12820499,8.57
4117.94871767, 4118.20512793, 4123.33333306, 4123.33333306, 4124.23076896, 4117.30769203, 4111.66666639, 4128.84615357, 4153.84615364, 4127.30769203, 4121.66666639, 4117.69230742, 4129.10256383, 4187.43589730,8.57
4120.25640998, 4123.20512793, 4123.97435870, 4146.28205108, 4122.94871767, 4134.87179460, 4123.46153819, 4116.02564075, 4148.71794851, 4126.79487152, 4125.12820485, 4124.74358947, 4129.35897408, 4182.56410243,8.57
4118.84615357, 4121.53846126, 4118.07692280, 4130.38461511, 4121.92307665, 4121.15384588, 4103.07692280, 4087.30769196, 4116.28205101, 4127.05128178, 4119.99999973, 4111.02564075, 4124.99999973, 4177.94871781,8.57
4129.61538434, 4129.74358947, 4128.97435870, 4112.82051255, 4127.94871767, 4099.48717914, 4073.71794837, 4080.76923043, 4096.53846119, 4126.92307665, 4127.69230742, 4129.87179460, 4134.35897408, 4192.94871781,8.57
4116.28205101, 4124.23076896, 4122.05128178, 4130.76923050, 4129.35897408, 4111.66666639, 4090.64102530, 4106.28205101, 4120.51282024, 4125.64102537, 4120.51282024, 4117.05128178, 4127.17948691, 4181.28205115,8.57
4126.92307665, 4127.69230742, 4126.92307665, 4134.35897408, 4126.79487152, 4124.99999973, 4112.94871767, 4111.53846126, 4134.10256383, 4127.43589716, 4122.94871767, 4121.02564075, 4128.20512793, 4184.48717935,8.57
4134.48717921, 4132.17948691, 4129.61538434, 4115.76923050, 4124.61538434, 4118.20512793, 4108.46153819, 4097.43589709, 4121.53846126, 4129.74358947, 4131.53846126, 4134.48717921, 4133.97435870, 4191.28205115,8.57
4117.17948691, 4124.74358947, 4121.41025614, 4127.17948691, 4123.20512793, 4123.33333306, 4122.94871767, 4119.74358947, 4140.38461518, 4127.94871767, 4125.51282024, 4119.99999973, 4124.99999973, 4184.61538448,8.57
4128.33333306, 4129.48717921, 4128.07692280, 4146.92307672, 4123.97435870, 4132.82051255, 4147.69230749, 4159.87179467, 4177.82051269, 4127.56410229, 4129.23076896, 4134.61538434, 4131.92307665, 4195.51282038,8.57
4124.48717921, 4122.56410229, 4118.84615357, 4127.69230742, 4123.84615357, 4119.48717921, 4129.23076896, 4144.87179467, 4160.38461518, 4128.58974332, 4125.76923050, 4124.35897408, 4133.71794844, 4188.46153833,8.57
4120.12820485, 4120.64102537, 4123.20512793, 4093.58974325, 4124.10256383, 4093.97435863, 4090.89743555, 4083.97435863, 4095.64102530, 4128.33333306, 4125.76923050, 4124.87179460, 4134.35897408, 4189.74358961,8.57
4123.33333306, 4125.76923050, 4126.41025614, 4092.82051248, 4124.48717921, 4097.94871761, 4097.82051248, 4084.61538427, 4097.43589709, 4128.20512793, 4127.94871767, 4136.92307672, 4135.89743569, 4193.58974345,8.57
4116.02564075, 4118.07692280, 4112.43589716, 4123.20512793, 4121.66666639, 4129.48717921, 4137.69230749, 4143.71794851, 4170.89743576, 4129.74358947, 4120.76923050, 4116.66666639, 4128.07692280, 4186.02564089,8.57
4127.30769203, 4126.53846126, 4124.23076896, 4122.56410229, 4122.17948691, 4126.02564075, 4131.15384588, 4131.28205101, 4161.66666646, 4130.76923050, 4129.74358947, 4131.28205101, 4134.99999973, 4198.84615371,8.57
4119.10256383, 4125.38461511, 4121.92307665, 4100.64102530, 4121.92307665, 4102.17948684, 4100.89743555, 4080.76923043, 4099.23076889, 4126.41025614, 4126.66666639, 4122.69230742, 4131.53846126, 4188.97435884,8.57
4116.28205101, 4119.23076896, 4118.58974332, 4109.61538434, 4122.82051255, 4105.89743562, 4107.30769203, 4088.20512786, 4103.71794844, 4124.99999973, 4122.17948691, 4114.61538434, 4128.46153819, 4184.48717935,8.57
4123.20512793, 4123.71794844, 4124.99999973, 4130.64102537, 4124.23076896, 4123.33333306, 4129.10256383, 4118.46153819, 4133.84615357, 4129.35897408, 4127.05128178, 4130.25640998, 4134.48717921, 4191.79487166,8.57
4109.10256383, 4119.35897408, 4115.64102537, 4129.74358947, 4121.41025614, 4128.97435870, 4131.28205101, 4125.64102537, 4136.28205108, 4128.97435870, 4119.23076896, 4109.99999973, 4124.87179460, 4179.48717935,8.57
4121.02564075, 4126.53846126, 4125.12820485, 4112.94871767, 4122.82051255, 4111.53846126, 4113.07692280, 4110.25640998, 4126.15384588, 4127.69230742, 4124.87179460, 4121.15384588, 4129.23076896, 4185.89743576,8.57
4120.64102537, 4126.66666639, 4124.10256383, 4118.58974332, 4122.94871767, 4112.94871767, 4122.56410229, 4112.30769203, 4134.48717921, 4129.61538434, 4126.15384588, 4123.84615357, 4128.97435870, 4182.82051269,8.57
4116.79487152, 4123.84615357, 4122.43589716, 4131.41025614, 4120.25640998, 4133.97435870, 4143.84615364, 4127.17948691, 4140.89743569, 4130.64102537, 4121.92307665, 4113.20512793, 4124.48717921, 4180.25641012,8.57
4130.64102537, 4131.79487152, 4133.58974332, 4120.51282024, 4124.23076896, 4123.97435870, 4129.10256383, 4113.97435870, 4121.92307665, 4129.74358947, 4127.94871767, 4129.48717921, 4134.99999973, 4189.99999986,8.57
4119.87179460, 4122.56410229, 4122.56410229, 4121.41025614, 4126.66666639, 4106.02564075, 4116.15384588, 4106.15384588, 4121.15384588, 4128.07692280, 4123.46153819, 4115.64102537, 4131.02564075, 4179.35897422,8.57
4125.25640998, 4127.05128178, 4129.87179460, 4134.35897408, 4124.61538434, 4116.79487152, 4130.51282024, 4125.38461511, 4147.82051262, 4129.23076896, 4128.33333306, 4127.94871767, 4131.79487152, 4187.56410243,8.57
4126.28205101, 4128.71794844, 4132.69230742, 4114.48717921, 4124.23076896, 4119.48717921, 4127.56410229, 4117.05128178, 4136.02564082, 4128.97435870, 4127.30769203, 4131.79487152, 4130.64102537, 4187.69230756,8.57
4120.51282024, 4118.97435870, 4122.05128178, 4094.48717914, 4127.56410229, 4110.76923050, 4110.64102537, 4094.87179453, 4106.92307665, 4128.97435870, 4120.64102537, 4115.64102537, 4126.15384588, 4182.30769217,8.57
4133.71794844, 4127.30769203, 4127.17948691, 4119.35897408, 4127.30769203, 4128.46153819, 4125.76923050, 4115.51282024, 4131.28205101, 4131.66666639, 4130.38461511, 4139.23076903, 4137.56410236, 4197.94871781,8.57
4121.66666639, 4124.23076896, 4120.76923050, 4137.05128185, 4120.76923050, 4131.92307665, 4135.76923056, 4125.12820485, 4143.33333313, 4129.61538434, 4123.07692280, 4126.92307665, 4132.05128178, 4189.61538448,8.57
4121.66666639, 4123.07692280, 4124.99999973, 4120.89743562, 4120.38461511, 4104.23076896, 4107.05128178, 4089.87179453, 4102.30769196, 4128.07692280, 4121.28205101, 4125.64102537, 4131.28205101, 4192.43589730,8.57
4125.12820485, 4124.99999973, 4122.43589716, 4119.74358947, 4124.10256383, 4111.28205101, 4101.79487145, 4084.35897402, 4098.20512786, 4130.38461511, 4128.33333306, 4130.12820485, 4135.51282031, 4194.87179474,8.57
4116.15384588, 4118.84615357, 4113.33333306, 4130.76923050, 4125.25640998, 4136.79487159, 4124.99999973, 4114.61538434, 4135.12820485, 4130.51282024, 4121.53846126, 4110.51282024, 4130.89743562, 4185.51282038,8.57
4126.79487152, 4124.99999973, 4125.89743562, 4116.02564075, 4125.76923050, 4123.58974332, 4118.46153819, 4111.66666639, 4129.61538434, 4130.12820485, 4124.48717921, 4131.66666639, 4137.43589723, 4196.02564089,8.57
4117.82051255, 4121.92307665, 4119.48717921, 4099.61538427, 4121.92307665, 4103.58974332, 4104.99999973, 4097.94871761, 4106.53846126, 4128.33333306, 4120.89743562, 4124.99999973, 4131.28205101, 4187.43589730,8.57
4119.99999973, 4123.20512793, 4123.58974332, 4120.25640998, 4124.87179460, 4122.17948691, 4129.87179460, 4126.15384588, 4135.51282031, 4127.94871767, 4122.94871767, 4119.48717921, 4129.61538434, 4186.28205115,8.57
4125.38461511, 4126.53846126, 4127.94871767, 4152.82051262, 4130.12820485, 4147.94871774, 4157.17948697, 4155.89743569, 4172.43589730, 4129.23076896, 4126.53846126, 4127.69230742, 4131.92307665, 4188.58974345,8.57
4111.28205101, 4119.35897408, 4115.12820485, 4154.61538441, 4124.10256383, 4148.46153826, 4157.56410236, 4145.76923056, 4166.02564082, 4128.33333306, 4119.87179460, 4111.53846126, 4123.33333306, 4180.51282038,8.57
4124.35897408, 4127.05128178, 4127.43589716, 4138.20512800, 4121.92307665, 4135.25640998, 4150.76923056, 4127.30769203, 4142.17948697, 4128.71794844, 4128.84615357, 4125.51282024, 4131.66666639, 4192.30769217,8.57
4122.56410229, 4123.84615357, 4125.38461511, 4122.17948691, 4125.51282024, 4123.33333306, 4142.30769210, 4134.10256383, 4139.87179467, 4129.10256383, 4124.99999973, 4118.07692280, 4129.74358947, 4184.48717935,8.57
4122.43589716, 4122.05128178, 4123.71794844, 4106.15384588, 4125.89743562, 4113.07692280, 4121.92307665, 4130.76923050, 4142.82051262, 4128.71794844, 4122.30769203, 4118.20512793, 4128.46153819, 4184.99999986,8.57
4131.66666639, 4129.87179460, 4130.64102537, 4107.69230742, 4125.38461511, 4113.84615357, 4107.69230742, 4101.66666632, 4127.56410229, 4128.07692280, 4131.79487152, 4136.79487159, 4135.89743569, 4192.82051269,8.57
