AF3,F7,F3,FC5,T7,P7,O1,O2,P8,T8,FC6,F4,F8,AF4,Label
4123.46153819, 4125.51282024, 4124.61538434, 4183.58974345, 4130.89743562, 4281.41025648, 4316.28205142, 4299.48717963, 4275.89743597, 4128.84615357, 4117.30769203, 4124.10256383, 4132.82051255, 4189.61538448,8.57
4117.56410229, 4122.05128178, 4123.97435870, 4219.99999993, 4128.58974332, 4299.10256418, 4325.51282066, 4325.38461553, 4306.53846168, 4128.71794844, 4118.33333306, 4115.12820485, 4128.33333306, 4183.20512807,8.57
4125.25640998, 4126.53846126, 4129.10256383, 4202.43589737, 4130.38461511, 4281.79487187, 4306.53846168, 4328.33333348, 4307.56410271, 4129.99999973, 4118.33333306, 4124.10256383, 4129.23076896, 4190.51282038,8.57
4121.92307665, 4126.79487152, 4123.97435870, 4153.84615364, 4129.61538434, 4240.25641026, 4255.00000000, 4262.43589744, 4239.10256411, 4130.38461511, 4115.25640998, 4126.53846126, 4132.17948691, 4188.33333320,8.57
4123.07692280, 4123.58974332, 4128.46153819, 4172.94871781, 4129.87179460, 4263.97435898, 4270.51282059, 4259.48717949, 4238.33333334, 4129.61538434, 4115.25640998, 4117.43589716, 4128.71794844, 4186.28205115,8.57
4130.64102537, 4124.48717921, 4134.74358947, 4200.51282038, 4127.82051255, 4291.28205136, 4302.43589758, 4297.05128212, 4283.97435905, 4131.28205101, 4121.53846126, 4131.66666639, 4133.84615357, 4193.71794858,8.57
4125.12820485, 4124.23076896, 4123.58974332, 4161.02564082, 4127.56410229, 4251.41025641, 4267.69230777, 4262.94871795, 4251.79487180, 4131.28205101, 4119.74358947, 4127.05128178, 4134.35897408, 4188.58974345,8.57
4128.58974332, 4129.23076896, 4128.71794844, 4131.53846126, 4130.25640998, 4223.84615378, 4247.69230770, 4228.46153840, 4218.33333327, 4129.10256383, 4119.35897408, 4130.25640998, 4134.23076896, 4192.56410243,8.57
4122.30769203, 4127.69230742, 4127.94871767, 4153.97435877, 4128.97435870, 4238.71794872, 4273.97435905, 4248.58974359, 4248.33333334, 4128.46153819, 4121.28205101, 4132.43589716, 4133.46153819, 4192.69230756,8.57
4121.53846126, 4124.87179460, 4120.25640998, 4174.35897422, 4130.38461511, 4250.51282052, 4288.20512828, 4267.69230777, 4265.76923077, 4129.74358947, 4121.41025614, 4124.23076896, 4133.58974332, 4191.92307679,8.57
4127.43589716, 4126.15384588, 4123.33333306, 4169.23076910, 4128.46153819, 4248.97435898, 4292.30769238, 4270.89743597, 4251.02564103, 4129.99999973, 4122.56410229, 4135.76923056, 4137.43589723, 4195.76923063,8.57
4118.20512793, 4121.15384588, 4120.64102537, 4163.84615364, 4124.87179460, 4243.97435898, 4296.79487187, 4282.82051289, 4251.28205129, 4128.33333306, 4117.30769203, 4124.23076896, 4131.53846126, 4186.92307679,8.57
4125.25640998, 4126.41025614, 4126.28205101, 4151.92307672, 4128.20512793, 4230.12820506, 4271.41025648, 4266.53846154, 4237.56410257, 4128.97435870, 4117.05128178, 4124.74358947, 4132.05128178, 4193.07692294,8.57
4123.46153819, 4126.41025614, 4121.66666639, 4128.71794844, 4128.84615357, 4216.15384609, 4253.58974359, 4233.33333327, 4208.58974352, 4130.25640998, 4119.23076896, 4130.12820485, 4132.94871767, 4193.97435884,8.57
4119.23076896, 4122.30769203, 4117.82051255, 4121.28205101, 4129.99999973, 4213.07692301, 4277.30769238, 4240.00000000, 4222.56410250, 4127.69230742, 4115.25640998, 4113.71794844, 4128.97435870, 4187.94871781,8.57
4122.17948691, 4126.15384588, 4127.30769203, 4131.53846126, 4130.12820485, 4221.28205122, 4290.64102571, 4258.84615385, 4251.53846154, 4126.79487152, 4115.51282024, 4124.35897408, 4132.05128178, 4192.43589730,8.57
4112.82051255, 4119.48717921, 4119.61538434, 4126.79487152, 4128.46153819, 4236.02564103, 4283.46153853, 4254.48717949, 4245.51282052, 4127.94871767, 4113.97435870, 4121.02564075, 4125.25640998, 4184.10256397,8.57
4126.15384588, 4122.56410229, 4122.82051255, 4098.58974325, 4131.28205101, 4227.82051275, 4279.35897443, 4243.33333334, 4225.12820506, 4127.56410229, 4113.46153819, 4117.43589716, 4125.64102537, 4186.66666653,8.57
4129.10256383, 4129.10256383, 4127.17948691, 4090.76923043, 4128.33333306, 4213.97435891, 4284.10256418, 4253.97435898, 4229.74358968, 4128.20512793, 4114.61538434, 4124.87179460, 4132.56410229, 4190.25641012,8.57
4118.58974332, 4124.61538434, 4122.69230742, 4103.07692280, 4127.82051255, 4229.61538455, 4293.58974366, 4271.02564110, 4241.79487180, 4129.61538434, 4113.20512793, 4115.51282024, 4127.94871767, 4184.87179474,8.57
4125.89743562, 4125.89743562, 4126.66666639, 4096.53846119, 4130.89743562, 4243.20512821, 4291.53846161, 4271.79487187, 4239.23076923, 4127.05128178, 4114.10256383, 4127.05128178, 4130.89743562, 4189.48717935,8.57
4122.69230742, 4123.58974332, 4119.74358947, 4078.46153812, 4128.97435870, 4226.41025634, 4272.82051289, 4254.87179488, 4225.38461532, 4125.64102537, 4111.66666639, 4124.23076896, 4128.84615357, 4185.12820499,8.57
4128.58974332, 4125.51282024, 4126.92307665, 4063.97435856, 4129.10256383, 4197.43589730, 4245.89743590, 4226.53846147, 4199.87179474, 4129.61538434, 4111.92307665, 4122.30769203, 4128.46153819, 4189.87179474,8.57
4128.97435870, 4125.51282024, 4132.30769203, 4055.76923036, 4127.56410229, 4193.71794858, 4236.66666667, 4216.15384609, 4193.20512807, 4131.02564075, 4114.23076896, 4137.17948697, 4135.51282031, 4195.76923063,8.57
4128.97435870, 4125.51282024, 4132.30769203, 4055.76923036, 4127.56410229, 4193.71794858, 4236.66666667, 4216.15384609, 4193.20512807, 4131.02564075, 4114.23076896, 4137.17948697, 4135.51282031, 4195.76923063,8.57
4119.99999973, 4119.87179460, 4120.25640998, 4061.28205087, 4126.92307665, 4207.17948711, 4250.76923077, 4227.05128199, 4208.97435891, 4128.33333306, 4110.25640998, 4125.38461511, 4131.02564075, 4189.35897422,8.57
4127.56410229, 4126.79487152, 4123.97435870, 4076.28205094, 4127.17948691, 4210.12820506, 4265.89743590, 4237.82051282, 4222.30769224, 4129.61538434, 4112.30769203, 4129.74358947, 4131.53846126, 4193.20512807,8.57
4124.35897408, 4128.20512793, 4123.46153819, 4080.51282017, 4124.99999973, 4209.48717942, 4266.02564103, 4233.97435898, 4220.51282045, 4129.99999973, 4111.79487152, 4132.17948691, 4133.46153819, 4193.46153833,8.57
4125.51282024, 4125.89743562, 4122.56410229, 4070.76923043, 4126.66666639, 4213.07692301, 4257.94871795, 4230.38461532, 4212.94871788, 4128.71794844, 4107.30769203, 4125.38461511, 4133.71794844, 4195.76923063,8.57
4124.23076896, 4123.84615357, 4122.05128178, 4062.82051241, 4126.53846126, 4218.20512814, 4262.43589744, 4248.33333334, 4221.15384609, 4131.02564075, 4109.61538434, 4134.35897408, 4136.28205108, 4195.76923063,8.57
4113.84615357, 4117.82051255, 4116.02564075, 4060.51282010, 4124.99999973, 4219.61538455, 4265.76923077, 4261.79487180, 4236.66666667, 4131.15384588, 4108.84615357, 4122.69230742, 4131.66666639, 4188.46153833,8.57
4123.71794844, 4122.69230742, 4125.51282024, 4074.61538427, 4128.20512793, 4230.38461532, 4271.15384623, 4259.23076923, 4244.74358975, 4129.87179460, 4112.82051255, 4125.89743562, 4133.33333306, 4195.76923063,8.57
4121.66666639, 4122.30769203, 4121.41025614, 4084.23076889, 4127.69230742, 4242.05128206, 4285.51282059, 4263.71794872, 4246.92307693, 4130.25640998, 4116.28205101, 4129.48717921, 4131.41025614, 4192.43589730,8.57
4119.87179460, 4120.89743562, 4117.56410229, 4039.61538420, 4124.61538434, 4195.89743576, 4248.58974359, 4242.05128206, 4222.30769224, 4130.25640998, 4108.97435870, 4117.30769203, 4126.15384588, 4187.30769217,8.57
4124.35897408, 4126.53846126, 4124.35897408, 4014.74358926, 4124.48717921, 4157.05128185, 4209.35897429, 4202.05128199, 4195.12820499, 4128.84615357, 4108.33333306, 4127.30769203, 4133.07692280, 4192.56410243,8.57
4116.79487152, 4122.82051255, 4121.15384588, 4071.02564068, 4129.61538434, 4220.38461532, 4258.71794872, 4229.35897429, 4223.20512814, 4128.07692280, 4112.69230742, 4119.10256383, 4130.38461511, 4188.84615371,8.57
4127.05128178, 4128.07692280, 4128.71794844, 4095.89743555, 4132.82051255, 4272.69230777, 4301.92307707, 4280.64102571, 4258.20512821, 4129.99999973, 4114.99999973, 4118.58974332, 4128.71794844, 4190.64102551,8.57
4126.92307665, 4130.25640998, 4127.69230742, 4036.15384567, 4128.46153819, 4209.61538455, 4248.84615385, 4247.94871795, 4222.05128199, 4130.64102537, 4111.15384588, 4124.87179460, 4130.25640998, 4185.51282038,8.57
4121.79487152, 4123.97435870, 4121.79487152, 4006.66666618, 4128.71794844, 4153.58974339, 4201.41025634, 4188.58974345, 4169.87179474, 4129.10256383, 4108.97435870, 4114.23076896, 4127.05128178, 4180.89743576,8.57
4129.48717921, 4128.46153819, 4127.69230742, 4045.38461497, 4129.48717921, 4193.84615371, 4231.79487173, 4208.20512814, 4185.76923063, 4129.23076896, 4114.99999973, 4127.69230742, 4132.94871767, 4191.41025628,8.57
4122.17948691, 4126.92307665, 4122.69230742, 4053.20512779, 4128.20512793, 4219.61538455, 4255.38461539, 4247.30769231, 4223.84615378, 4130.89743562, 4113.71794844, 4123.84615357, 4129.61538434, 4186.53846140,8.57
4124.35897408, 4124.87179460, 4128.46153819, 4030.38461490, 4131.02564075, 4190.89743576, 4241.92307693, 4230.25641019, 4212.43589737, 4130.76923050, 4110.51282024, 4120.51282024, 4127.43589716, 4189.87179474,8.57
4128.20512793, 4125.51282024, 4130.76923050, 4045.76923036, 4129.23076896, 4193.33333320, 4238.71794872, 4220.76923070, 4208.33333327, 4128.97435870, 4111.15384588, 4133.58974332, 4133.84615357, 4199.23076910,8.57
4127.30769203, 4124.48717921, 4123.84615357, 4070.76923043, 4128.46153819, 4216.53846147, 4233.58974352, 4244.10256411, 4240.89743590, 4128.58974332, 4111.92307665, 4125.64102537, 4131.79487152, 4194.10256397,8.57
4131.28205101, 4127.56410229, 4128.46153819, 4070.64102530, 4128.20512793, 4208.33333327, 4212.30769224, 4237.17948718, 4235.00000000, 4131.02564075, 4114.99999973, 4132.56410229, 4132.17948691, 4192.94871781,8.57
4124.35897408, 4121.79487152, 4123.58974332, 4066.15384574, 4125.25640998, 4191.28205115, 4211.53846147, 4212.82051275, 4205.25641019, 4130.64102537, 4112.69230742, 4131.15384588, 4132.43589716, 4190.12820499,8.57
4126.66666639, 4121.66666639, 4122.69230742, 4077.05128171, 4126.79487152, 4205.64102558, 4240.38461539, 4229.61538455, 4223.71794865, 4128.71794844, 4113.33333306, 4126.15384588, 4133.84615357, 4194.35897422,8.57
4125.25640998, 4123.07692280, 4122.30769203, 4077.05128171, 4126.53846126, 4213.07692301, 4237.17948718, 4245.12820513, 4245.00000000, 4129.35897408, 4115.64102537, 4133.58974332, 4133.71794844, 4197.05128192,8.57
4119.23076896, 4118.46153819, 4116.41025614, 4068.46153805, 4126.02564075, 4190.89743576, 4212.56410250, 4221.53846147, 4229.10256404, 4131.02564075, 4109.23076896, 4121.15384588, 4127.94871767, 4190.51282038,8.57
4124.87179460, 4124.61538434, 4121.53846126, 4088.84615350, 4127.69230742, 4201.41025634, 4236.53846154, 4229.61538455, 4243.20512821, 4131.79487152, 4114.10256383, 4123.97435870, 4132.69230742, 4193.46153833,8.57
4117.56410229, 4123.84615357, 4117.82051255, 4099.61538427, 4127.56410229, 4223.84615378, 4262.30769231, 4266.41025641, 4270.00000007, 4130.64102537, 4120.25640998, 4123.84615357, 4130.76923050, 4188.84615371,8.57
4119.61538434, 4121.92307665, 4121.28205101, 4062.94871754, 4128.33333306, 4187.17948704, 4218.58974352, 4233.07692301, 4219.23076917, 4127.82051255, 4113.33333306, 4117.17948691, 4124.99999973, 4186.53846140,8.57
4126.79487152, 4128.58974332, 4125.89743562, 4040.76923036, 4128.33333306, 4162.05128185, 4188.20512807, 4179.99999986, 4167.17948697, 4128.71794844, 4111.41025614, 4127.05128178, 4132.05128178, 4190.64102551,8.57
4119.61538434, 4126.79487152, 4117.43589716, 4070.76923043, 4128.58974332, 4197.05128192, 4221.28205122, 4196.92307679, 4195.89743576, 4131.28205101, 4112.82051255, 4115.89743562, 4132.05128178, 4186.92307679,8.57
4125.89743562, 4124.99999973, 4124.87179460, 4091.02564068, 4127.94871767, 4197.82051269, 4229.87179481, 4212.82051275, 4217.43589737, 4129.74358947, 4114.23076896, 4120.89743562, 4132.82051255, 4192.30769217,8.57
4124.61538434, 4123.97435870, 4128.07692280, 4094.74358940, 4127.30769203, 4186.66666653, 4231.41025634, 4216.66666660, 4210.64102558, 4127.30769203, 4116.15384588, 4128.33333306, 4133.20512793, 4187.82051269,8.57
4119.61538434, 4125.51282024, 4123.20512793, 4085.51282017, 4129.10256383, 4188.84615371, 4224.87179481, 4225.38461532, 4202.56410250, 4128.84615357, 4112.94871767, 4116.15384588, 4129.74358947, 4180.25641012,8.57
4126.41025614, 4129.23076896, 4126.28205101, 4071.92307658, 4127.69230742, 4183.07692294, 4190.76923063, 4223.07692301, 4200.38461525, 4130.38461511, 4110.76923050, 4128.58974332, 4135.89743569, 4192.05128192,8.57
4126.41025614, 4125.76923050, 4126.15384588, 4088.33333299, 4127.94871767, 4203.97435891, 4195.38461525, 4232.56410250, 4218.58974352, 4126.92307665, 4107.30769203, 4128.84615357, 4133.71794844, 4192.30769217,8.57
4127.56410229, 4126.41025614, 4129.99999973, 4091.66666632, 4131.15384588, 4201.66666660, 4203.33333327, 4232.56410250, 4221.28205122, 4124.23076896, 4106.02564075, 4129.74358947, 4130.89743562, 4193.33333320,8.57
4124.23076896, 4126.92307665, 4125.64102537, 4064.87179446, 4128.07692280, 4157.05128185, 4168.07692287, 4200.51282038, 4194.23076910, 4126.66666639, 4107.05128178, 4134.99999973, 4131.92307665, 4197.05128192,8.57
4125.89743562, 4123.97435870, 4123.07692280, 4057.94871754, 4127.82051255, 4155.76923056, 4153.58974339, 4186.53846140, 4183.07692294, 4127.05128178, 4105.89743562, 4125.12820485, 4131.66666639, 4192.56410243,8.57
4130.89743562, 4127.17948691, 4128.71794844, 4074.99999966, 4127.94871767, 4189.74358961, 4183.20512807, 4201.53846147, 4191.53846140, 4128.20512793, 4109.61538434, 4137.05128185, 4135.25640998, 4194.48717935,8.57
4120.76923050, 4126.15384588, 4119.87179460, 4068.71794830, 4124.74358947, 4173.84615371, 4179.35897422, 4182.69230756, 4168.33333320, 4129.48717921, 4109.74358947, 4130.51282024, 4129.48717921, 4194.23076910,8.57
4124.74358947, 4125.12820485, 4121.41025614, 4060.38461497, 4126.92307665, 4159.48717928, 4175.89743576, 4177.05128192, 4168.71794858, 4128.07692280, 4109.74358947, 4123.46153819, 4132.17948691, 4198.84615371,8.57
4125.89743562, 4124.35897408, 4125.38461511, 4073.84615350, 4127.43589716, 4190.25641012, 4218.71794865, 4223.58974352, 4215.12820506, 4128.58974332, 4110.38461511, 4132.43589716, 4139.74358954, 4197.56410243,8.57
4119.74358947, 4121.28205101, 4118.97435870, 4056.41025600, 4126.92307665, 4175.12820499, 4214.23076917, 4214.48717942, 4194.74358961, 4128.07692280, 4104.74358947, 4118.46153819, 4129.87179460, 4188.97435884,8.57
4122.43589716, 4123.97435870, 4121.79487152, 4038.07692266, 4127.43589716, 4145.12820492, 4183.20512807, 4183.97435884, 4165.12820492, 4125.64102537, 4106.66666639, 4122.94871767, 4130.12820485, 4190.64102551,8.57
4114.35897408, 4121.15384588, 4120.51282024, 4066.79487138, 4127.05128178, 4172.30769217, 4209.99999993, 4219.74358968, 4215.12820506, 4125.64102537, 4107.82051255, 4122.56410229, 4134.48717921, 4185.76923063,8.57
4119.35897408, 4124.99999973, 4125.89743562, 4072.17948684, 4129.61538434, 4184.35897422, 4211.53846147, 4228.71794865, 4221.41025634, 4128.33333306, 4105.51282024, 4117.94871767, 4131.15384588, 4190.12820499,8.57
4126.02564075, 4129.10256383, 4128.20512793, 4038.33333292, 4129.35897408, 4149.35897415, 4146.41025621, 4175.12820499, 4159.74358954, 4128.07692280, 4105.51282024, 4127.43589716, 4130.64102537, 4193.97435884,8.57
4118.20512793, 4122.30769203, 4120.89743562, 4053.84615343, 4127.05128178, 4162.43589723, 4147.82051262, 4177.30769217, 4172.05128192, 4126.92307665, 4107.56410229, 4117.94871767, 4130.12820485, 4184.87179474,8.57
4121.53846126, 4124.99999973, 4126.02564075, 4079.87179453, 4126.15384588, 4197.30769217, 4197.69230756, 4216.15384609, 4214.87179481, 4128.97435870, 4116.53846126, 4124.35897408, 4136.15384595, 4188.84615371,8.57
4121.53846126, 4124.10256383, 4124.99999973, 4043.58974318, 4125.25640998, 4166.53846133, 4169.35897422, 4196.41025628, 4190.51282038, 4128.71794844, 4113.58974332, 4121.53846126, 4132.94871767, 4186.02564089,8.57
4126.15384588, 4122.43589716, 4126.15384588, 4015.64102516, 4126.28205101, 4122.69230742, 4110.51282024, 4148.46153826, 4148.20512800, 4129.10256383, 4105.76923050, 4115.51282024, 4128.33333306, 4186.53846140,8.57
4129.35897408, 4127.94871767, 4127.43589716, 4040.89743548, 4126.15384588, 4132.30769203, 4115.64102537, 4137.82051262, 4136.15384595, 4131.02564075, 4111.28205101, 4132.30769203, 4134.48717921, 4195.12820499,8.57
4123.71794844, 4126.79487152, 4121.53846126, 4056.66666625, 4127.17948691, 4158.97435877, 4142.69230749, 4162.17948697, 4147.82051262, 4130.25640998, 4112.69230742, 4125.64102537, 4131.79487152, 4189.23076910,8.57
4129.61538434, 4128.58974332, 4131.41025614, 4038.71794830, 4127.43589716, 4146.79487159, 4123.33333306, 4159.99999980, 4151.28205108, 4127.56410229, 4109.74358947, 4130.38461511, 4132.17948691, 4190.25641012,8.57
4126.41025614, 4128.07692280, 4127.82051255, 4027.69230721, 4126.15384588, 4120.12820485, 4106.92307665, 4128.58974332, 4132.82051255, 4125.76923050, 4108.07692280, 4134.35897408, 4132.05128178, 4191.53846140,8.57
4126.41025614, 4125.51282024, 4123.58974332, 4046.28205087, 4128.20512793, 4135.89743569, 4152.82051262, 4145.89743569, 4139.23076903, 4127.05128178, 4108.46153819, 4126.15384588, 4131.41025614, 4195.12820499,8.57
4129.74358947, 4127.69230742, 4129.10256383, 4071.92307658, 4125.64102537, 4168.46153833, 4190.12820499, 4194.10256397, 4180.25641012, 4130.25640998, 4113.33333306, 4137.69230749, 4137.05128185, 4198.20512807,8.57
4120.51282024, 4124.10256383, 4121.02564075, 4059.48717907, 4122.94871767, 4145.51282031, 4144.35897415, 4171.15384602, 4167.43589723, 4129.35897408, 4111.02564075, 4127.05128178, 4132.30769203, 4188.33333320,8.57
4125.76923050, 4123.46153819, 4122.82051255, 4033.84615336, 4125.12820485, 4103.33333306, 4105.51282024, 4124.74358947, 4122.82051255, 4127.30769203, 4107.05128178, 4125.38461511, 4131.92307665, 4194.99999986,8.57
4123.07692280, 4123.58974332, 4122.05128178, 4037.43589702, 4125.38461511, 4112.56410229, 4128.46153819, 4140.64102544, 4130.51282024, 4128.33333306, 4108.58974332, 4130.38461511, 4133.07692280, 4196.66666653,8.57
4118.97435870, 4122.43589716, 4117.94871767, 4039.87179446, 4127.69230742, 4125.64102537, 4120.89743562, 4142.30769210, 4126.02564075, 4126.28205101, 4109.74358947, 4116.92307665, 4129.61538434, 4187.30769217,8.57
4126.28205101, 4125.51282024, 4125.25640998, 4042.17948677, 4128.20512793, 4125.25640998, 4102.30769196, 4119.74358947, 4106.28205101, 4124.10256383, 4109.74358947, 4125.64102537, 4133.58974332, 4191.66666653,8.57
4118.07692280, 4121.92307665, 4120.38461511, 4051.66666625, 4126.79487152, 4131.15384588, 4121.79487152, 4139.61538441, 4133.20512793, 4127.43589716, 4106.53846126, 4119.48717921, 4128.46153819, 4190.64102551,8.57
4120.89743562, 4125.25640998, 4122.56410229, 4038.58974318, 4128.58974332, 4119.61538434, 4112.43589716, 4150.25641005, 4139.61538441, 4131.66666639, 4108.71794844, 4115.89743562, 4126.79487152, 4191.53846140,8.57
4126.15384588, 4126.92307665, 4125.64102537, 4015.64102516, 4126.53846126, 4099.87179453, 4079.99999966, 4125.25640998, 4107.05128178, 4131.15384588, 4109.35897408, 4125.76923050, 4131.28205101, 4190.12820499,8.57
4122.94871767, 4120.89743562, 4122.05128178, 4024.99999952, 4125.51282024, 4117.82051255, 4107.94871767, 4137.17948697, 4132.05128178, 4129.87179460, 4104.61538434, 4115.76923050, 4124.87179460, 4185.51282038,8.57
4125.38461511, 4125.76923050, 4127.30769203, 4043.46153805, 4127.56410229, 4145.64102544, 4150.76923056, 4159.48717928, 4167.56410236, 4130.76923050, 4108.58974332, 4126.02564075, 4129.61538434, 4190.25641012,8.57
4119.48717921, 4127.69230742, 4124.35897408, 4024.99999952, 4126.02564075, 4121.28205101, 4132.30769203, 4134.61538434, 4128.97435870, 4129.74358947, 4109.23076896, 4126.41025614, 4134.10256383, 4182.94871781,8.57
4125.89743562, 4128.71794844, 4128.97435870, 3999.23076868, 4125.89743562, 4083.97435863, 4106.66666639, 4112.43589716, 4094.48717914, 4129.10256383, 4106.79487152, 4121.53846126, 4132.56410229, 4184.99999986,8.57
4128.84615357, 4128.71794844, 4130.51282024, 4025.25640977, 4125.64102537, 4111.41025614, 4142.43589723, 4132.82051255, 4124.61538434, 4129.48717921, 4111.79487152, 4134.61538434, 4134.61538434, 4195.64102551,8.57
4119.61538434, 4124.74358947, 4121.79487152, 4050.64102523, 4125.64102537, 4128.33333306, 4168.46153833, 4149.87179467, 4145.51282031, 4127.30769203, 4114.10256383, 4124.87179460, 4131.15384588, 4191.02564089,8.57
4126.79487152, 4128.84615357, 4126.92307665, 4025.38461490, 4125.76923050, 4072.69230735, 4134.10256383, 4131.79487152, 4120.76923050, 4127.05128178, 4115.51282024, 4126.15384588, 4133.07692280, 4191.79487166,8.57
4126.79487152, 4128.84615357, 4126.92307665, 4025.38461490, 4125.76923050, 4072.69230735, 4134.10256383, 4131.79487152, 4120.76923050, 4127.05128178, 4115.51282024, 4126.15384588, 4133.07692280, 4191.79487166,8.57
4124.61538434, 4126.66666639, 4125.64102537, 4015.89743541, 4126.53846126, 4055.89743548, 4121.79487152, 4114.48717921, 4103.58974332, 4130.64102537, 4113.71794844, 4126.41025614, 4131.79487152, 4190.38461525,8.57
4122.17948691, 4124.23076896, 4125.38461511, 4036.92307651, 4129.23076896, 4091.15384581, 4148.58974339, 4125.25640998, 4113.46153819, 4131.92307665, 4112.69230742, 4124.23076896, 4130.51282024, 4190.51282038,8.57
4123.07692280, 4127.82051255, 4125.51282024, 4032.17948670, 4124.99999973, 4079.10256376, 4142.30769210, 4130.64102537, 4110.38461511, 4129.99999973, 4114.23076896, 4136.92307672, 4135.51282031, 4195.38461525,8.57
4119.35897408, 4123.97435870, 4119.35897408, 4019.99999952, 4121.79487152, 4058.97435856, 4119.23076896, 4111.92307665, 4086.79487145, 4129.61538434, 4109.74358947, 4123.58974332, 4129.87179460, 4193.07692294,8.57
4123.46153819, 4124.23076896, 4125.38461511, 4020.89743541, 4123.97435870, 4069.48717907, 4112.05128178, 4099.48717914, 4079.35897402, 4128.84615357, 4111.28205101, 4126.15384588, 4130.51282024, 4195.38461525,8.57
4119.10256383, 4122.30769203, 4122.43589716, 4007.43589695, 4124.23076896, 4059.10256369, 4091.66666632, 4095.51282017, 4080.89743555, 4127.17948691, 4111.28205101, 4131.41025614, 4132.56410229, 4191.66666653,8.57
4120.89743562, 4121.79487152, 4121.15384588, 4011.92307644, 4126.28205101, 4059.10256369, 4088.07692273, 4094.61538427, 4084.48717914, 4127.05128178, 4106.28205101, 4117.30769203, 4127.05128178, 4190.25641012,8.57
4122.82051255, 4124.61538434, 4126.66666639, 4036.53846106, 4124.87179460, 4078.46153812, 4103.84615357, 4105.25640998, 4099.35897402, 4129.61538434, 4109.61538434, 4125.89743562, 4128.97435870, 4194.61538448,8.57
4114.87179460, 4117.94871767, 4120.76923050, 3996.92307637, 4123.07692280, 4025.76923029, 4047.82051241, 4068.58974318, 4060.51282010, 4130.89743562, 4104.74358947, 4120.51282024, 4127.94871767, 4186.41025628,8.57
4124.61538434, 4121.92307665, 4124.10256383, 3935.25640957, 4124.74358947, 3949.35897374, 3977.94871740, 3997.94871740, 3981.28205073, 4130.25640998, 4099.61538427, 4122.30769203, 4129.99999973, 4187.56410243,8.57
4123.97435870, 4126.66666639, 4123.97435870, 3936.66666598, 4125.38461511, 3944.87179425, 3994.10256355, 3993.46153791, 3974.87179432, 4129.10256383, 4104.10256383, 4127.56410229, 4131.41025614, 4189.35897422,8.57
4119.61538434, 4126.02564075, 4126.66666639, 3953.20512758, 4128.07692280, 3966.28205066, 4027.69230721, 4025.76923029, 4011.79487131, 4129.48717921, 4104.99999973, 4114.48717921, 4126.53846126, 4184.74358961,8.57
4126.15384588, 4129.10256383, 4131.02564075, 3958.58974297, 4126.66666639, 3980.64102509, 4034.48717900, 4031.02564054, 4014.74358926, 4131.92307665, 4106.53846126, 4127.05128178, 4129.23076896, 4188.33333320,8.57
4122.94871767, 4126.02564075, 4119.10256383, 3958.84615322, 4123.20512793, 3982.82051227, 4039.99999959, 4028.46153798, 4008.97435849, 4131.53846126, 4106.92307665, 4126.28205101, 4126.66666639, 4187.69230756,8.57
4130.51282024, 4130.12820485, 4126.28205101, 3940.12820451, 4126.15384588, 3957.56410194, 4028.20512772, 4023.20512772, 4011.92307644, 4129.87179460, 4105.76923050, 4122.17948691, 4128.84615357, 4194.87179474,8.57
4129.23076896, 4128.58974332, 4130.25640998, 3939.99999938, 4127.30769203, 3954.48717887, 4008.84615336, 4018.07692259, 4009.87179439, 4130.51282024, 4106.92307665, 4127.69230742, 4135.38461518, 4194.99999986,8.57
4122.69230742, 4121.66666639, 4121.66666639, 3968.33333271, 4126.79487152, 3986.66666611, 4007.30769183, 4025.89743541, 4009.23076875, 4130.25640998, 4108.71794844, 4120.12820485, 4132.56410229, 4185.51282038,8.57
4129.87179460, 4127.82051255, 4127.30769203, 3959.35897374, 4127.17948691, 3972.30769176, 3982.94871740, 4006.15384567, 3991.66666611, 4128.33333306, 4109.48717921, 4132.69230742, 4135.25640998, 4193.58974345,8.57
4124.23076896, 4125.25640998, 4122.82051255, 3923.33333264, 4125.89743562, 3922.69230700, 3950.12820451, 3976.53846099, 3968.07692246, 4126.15384588, 4102.43589709, 4129.99999973, 4134.23076896, 4193.46153833,8.57
4127.43589716, 4123.07692280, 4122.94871767, 3933.58974290, 4126.15384588, 3933.46153777, 3962.17948656, 3997.56410201, 3984.99999945, 4129.48717921, 4102.56410229, 4125.89743562, 4134.99999973, 4193.58974345,8.57
4125.64102537, 4125.76923050, 4123.20512793, 3950.89743528, 4122.69230742, 3967.82051220, 3978.07692252, 4012.17948670, 3997.56410201, 4132.94871767, 4108.46153819, 4133.33333306, 4138.71794851, 4196.53846140,8.57
4118.71794844, 4121.28205101, 4118.33333306, 3929.74358905, 4121.92307665, 3946.41025579, 3968.07692246, 3979.99999945, 3963.58974297, 4130.38461511, 4104.61538434, 4119.10256383, 4131.66666639, 4192.82051269,8.57
4126.15384588, 4122.43589716, 4123.97435870, 3914.61538392, 4127.17948691, 3922.56410187, 3971.53846099, 3960.64102502, 3939.10256348, 4129.87179460, 4103.71794844, 4127.17948691, 4131.79487152, 4196.92307679,8.57
4116.79487152, 4120.89743562, 4117.05128178, 3926.53846085, 4125.38461511, 3949.99999938, 4000.38461483, 3979.74358919, 3960.64102502, 4130.51282024, 4103.84615357, 4125.76923050, 4132.43589716, 4189.74358961,8.57
4117.94871767, 4121.92307665, 4118.97435870, 3942.05128143, 4122.94871767, 3975.38461483, 4013.84615336, 4000.64102509, 3990.12820458, 4127.69230742, 4104.61538434, 4114.99999973, 4129.87179460, 4188.97435884,8.57
4125.25640998, 4125.38461511, 4125.76923050, 3941.79487117, 4124.23076896, 3966.66666605, 3999.35897381, 4002.05128150, 3995.51281996, 4126.79487152, 4106.53846126, 4124.99999973, 4129.87179460, 4194.61538448,8.57
4118.33333306, 4123.33333306, 4118.07692280, 3933.58974290, 4124.48717921, 3950.38461476, 3970.25640963, 3990.64102509, 3984.61538406, 4129.23076896, 4101.28205094, 4115.25640998, 4125.12820485, 4187.82051269,8.57
4122.43589716, 4129.10256383, 4125.76923050, 3937.56410187, 4123.71794844, 3952.43589681, 3960.89743528, 3988.46153791, 3980.12820458, 4130.76923050, 4103.84615357, 4121.15384588, 4131.79487152, 4190.76923063,8.57
4120.64102537, 4125.76923050, 4128.33333306, 3952.17948656, 4123.33333306, 3979.74358919, 3992.69230714, 4015.12820465, 4006.79487131, 4129.48717921, 4106.66666639, 4123.71794844, 4133.84615357, 4187.43589730,8.57
4126.02564075, 4122.43589716, 4127.82051255, 3937.69230700, 4127.82051255, 3977.43589688, 3990.25640970, 4018.33333285, 4014.99999952, 4129.35897408, 4104.48717921, 4115.12820485, 4127.43589716, 4187.43589730,8.57
4132.05128178, 4127.43589716, 4128.84615357, 3914.61538392, 4125.51282024, 3939.99999938, 3944.74358912, 3976.02564047, 3973.71794817, 4130.51282024, 4106.41025614, 4129.99999973, 4130.89743562, 4194.35897422,8.57
4121.02564075, 4122.17948691, 4121.41025614, 3930.51281982, 4118.46153819, 3938.58974297, 3939.61538399, 3955.64102502, 3946.02564040, 4129.99999973, 4105.76923050, 4122.05128178, 4129.23076896, 4186.66666653,8.57
4127.56410229, 4122.94871767, 4129.35897408, 3953.07692246, 4118.07692280, 3968.58974297, 3967.17948656, 3970.51281989, 3956.79487117, 4129.99999973, 4108.07692280, 4125.51282024, 4132.69230742, 4191.15384602,8.57
4126.02564075, 4124.35897408, 4125.25640998, 3944.10256348, 4120.38461511, 3972.05128150, 3972.05128150, 3982.69230714, 3976.53846099, 4130.12820485, 4108.33333306, 4135.89743569, 4134.10256383, 4191.53846140,8.57
4121.79487152, 4125.38461511, 4119.87179460, 3915.38461469, 4124.74358947, 3939.10256348, 3949.48717887, 3979.74358919, 3975.51281996, 4128.07692280, 4100.64102530, 4125.25640998, 4129.48717921, 4188.71794858,8.57
4128.71794844, 4128.46153819, 4131.66666639, 3901.66666591, 4123.71794844, 3918.46153777, 3935.76923008, 3974.10256355, 3961.28205066, 4127.17948691, 4101.41025607, 4133.07692280, 4136.02564082, 4197.94871781,8.57
4121.79487152, 4123.20512793, 4124.99999973, 3920.12820444, 4121.02564075, 3935.64102495, 3953.71794810, 3967.82051220, 3955.51281989, 4128.20512793, 4106.28205101, 4127.94871767, 4134.10256383, 4193.20512807,8.57
4126.41025614, 4126.28205101, 4122.69230742, 3923.07692239, 4124.35897408, 3942.82051220, 3966.92307630, 3952.05128143, 3939.74358912, 4128.97435870, 4107.17948691, 4129.99999973, 4131.53846126, 4193.97435884,8.57
4124.10256383, 4126.41025614, 4122.05128178, 3897.17948642, 4123.71794844, 3924.48717880, 3944.61538399, 3946.79487117, 3923.58974290, 4128.84615357, 4104.61538434, 4134.23076896, 4131.92307665, 4195.25641012,8.57
4116.28205101, 4121.92307665, 4120.89743562, 3901.28205052, 4123.20512793, 3929.10256341, 3937.43589674, 3960.76923015, 3941.02564040, 4127.17948691, 4102.43589709, 4117.69230742, 4128.97435870, 4191.41025628,8.57
4122.17948691, 4125.76923050, 4125.38461511, 3925.89743521, 4124.48717921, 3948.20512758, 3961.66666605, 3968.33333271, 3963.46153784, 4127.30769203, 4104.35897408, 4126.66666639, 4134.74358947, 4195.89743576,8.57
4117.69230742, 4121.41025614, 4117.17948691, 3920.38461469, 4123.71794844, 3947.56410194, 3967.94871733, 3967.56410194, 3956.66666605, 4128.07692280, 4101.28205094, 4122.43589716, 4134.35897408, 4188.07692294,8.57
4120.38461511, 4121.15384588, 4123.07692280, 3930.89743521, 4124.48717921, 3967.56410194, 3974.99999945, 3991.28205073, 3970.64102502, 4127.05128178, 4103.84615357, 4117.30769203, 4131.92307665, 4185.89743576,8.57
4119.48717921, 4122.69230742, 4127.05128178, 3962.17948656, 4123.71794844, 3994.35897381, 3989.61538406, 4012.56410208, 4006.53846106, 4127.56410229, 4111.79487152, 4127.30769203, 4131.66666639, 4188.46153833,8.57
4118.71794844, 4120.12820485, 4120.25640998, 3954.23076861, 4123.97435870, 3978.20512765, 3983.84615329, 3991.41025586, 3994.48717894, 4129.61538434, 4109.10256383, 4119.23076896, 4126.66666639, 4186.02564089,8.57
4128.58974332, 4126.41025614, 4126.92307665, 3932.56410187, 4123.07692280, 3955.38461476, 3975.38461483, 3967.69230707, 3960.89743528, 4128.84615357, 4107.17948691, 4126.79487152, 4130.38461511, 4187.94871781,8.57
4119.48717921, 4122.43589716, 4123.46153819, 3944.23076861, 4121.02564075, 3966.66666605, 3988.20512765, 3988.58974304, 3977.30769176, 4128.07692280, 4104.61538434, 4121.66666639, 4128.97435870, 4180.89743576,8.57
4121.79487152, 4122.43589716, 4124.61538434, 3961.66666605, 4124.99999973, 3983.97435842, 3997.69230714, 4012.56410208, 4004.35897388, 4129.48717921, 4105.38461511, 4118.46153819, 4128.58974332, 4186.02564089,8.57
4126.66666639, 4129.23076896, 4128.58974332, 3945.76923015, 4125.38461511, 3963.07692246, 3975.25640970, 3988.07692252, 3977.43589688, 4129.74358947, 4109.87179460, 4133.07692280, 4133.97435870, 4191.53846140,8.57
4119.35897408, 4125.51282024, 4124.87179460, 3929.23076854, 4122.30769203, 3941.53846092, 3956.79487117, 3971.92307637, 3957.82051220, 4127.30769203, 4107.56410229, 4120.51282024, 4128.58974332, 4185.64102551,8.57
4125.12820485, 4127.82051255, 4129.99999973, 3962.43589681, 4121.66666639, 3976.92307637, 3996.02564047, 4019.99999952, 4013.46153798, 4127.05128178, 4111.02564075, 4128.97435870, 4133.07692280, 4194.23076910,8.57
4121.66666639, 4127.30769203, 4124.99999973, 3984.23076868, 4119.74358947, 3999.10256355, 4026.15384567, 4032.82051234, 4030.89743541, 4127.69230742, 4111.02564075, 4134.35897408, 4134.61538434, 4191.41025628,8.57
4124.23076896, 4125.51282024, 4125.64102537, 3945.76923015, 4120.76923050, 3960.89743528, 3980.89743535, 3973.07692252, 3967.17948656, 4127.94871767, 4104.74358947, 4122.56410229, 4129.61538434, 4189.61538448,8.57
4128.07692280, 4127.05128178, 4127.82051255, 3931.02564033, 4120.25640998, 3948.20512758, 3954.74358912, 3960.76923015, 3958.97435835, 4131.15384588, 4107.30769203, 4131.79487152, 4133.97435870, 4198.07692294,8.57
4120.76923050, 4125.89743562, 4118.58974332, 3958.20512758, 4120.38461511, 3970.51281989, 3980.38461483, 3984.10256355, 3988.07692252, 4132.05128178, 4107.56410229, 4124.99999973, 4131.66666639, 4192.56410243,8.57
4129.74358947, 4128.97435870, 4127.82051255, 3949.74358912, 4122.82051255, 3954.74358912, 3981.15384560, 3965.76923015, 3964.48717887, 4129.23076896, 4105.51282024, 4129.99999973, 4133.20512793, 4193.71794858,8.57
4123.58974332, 4124.48717921, 4125.38461511, 3933.84615316, 4120.89743562, 3943.33333271, 3990.76923022, 3971.66666611, 3965.89743528, 4128.20512793, 4104.48717921, 4130.89743562, 4133.46153819, 4193.46153833,8.57
4116.02564075, 4122.30769203, 4118.20512793, 3962.05128143, 4123.58974332, 3973.71794817, 4033.07692259, 4016.02564054, 4009.99999952, 4129.48717921, 4106.79487152, 4117.43589716, 4128.46153819, 4193.07692294,8.57
4122.30769203, 4127.05128178, 4124.99999973, 3985.25640970, 4125.38461511, 3990.76923022, 4048.20512779, 4019.87179439, 4008.84615336, 4131.66666639, 4113.97435870, 4130.76923050, 4131.15384588, 4196.79487166,8.57
4117.17948691, 4121.28205101, 4120.89743562, 3966.92307630, 4122.69230742, 3972.05128150, 4032.17948670, 3994.10256355, 3980.51281996, 4130.25640998, 4110.76923050, 4123.97435870, 4128.58974332, 4188.71794858,8.57
4123.97435870, 4124.48717921, 4124.10256383, 3954.35897374, 4124.61538434, 3953.84615322, 4017.56410208, 3985.51281996, 3978.58974304, 4126.79487152, 4105.89743562, 4120.89743562, 4133.33333306, 4189.87179474,8.57
4123.84615357, 4128.71794844, 4123.46153819, 3971.15384553, 4124.10256383, 3962.05128143, 4004.87179439, 3978.84615329, 3981.92307637, 4126.79487152, 4108.84615357, 4127.05128178, 4135.89743569, 4188.58974345,8.57
4120.51282024, 4126.28205101, 4121.02564075, 3977.30769176, 4123.33333306, 3969.74358912, 3991.53846099, 3968.58974297, 3977.30769176, 4129.61538434, 4110.76923050, 4116.92307665, 4127.94871767, 4184.99999986,8.57
4124.87179460, 4126.92307665, 4126.28205101, 3971.92307637, 4121.66666639, 3969.35897374, 3982.56410201, 3975.25640970, 3981.53846099, 4129.10256383, 4112.05128178, 4125.89743562, 4129.99999973, 4192.69230756,8.57
4119.87179460, 4120.64102537, 4121.02564075, 3967.69230707, 4121.53846126, 3973.20512765, 3978.33333278, 3988.58974304, 3987.05128150, 4126.66666639, 4109.48717921, 4121.15384588, 4127.69230742, 4188.46153833,8.57
4129.10256383, 4124.74358947, 4128.97435870, 3951.92307630, 4126.02564075, 3959.87179425, 3973.97435842, 3983.20512765, 3977.30769176, 4129.48717921, 4109.99999973, 4121.79487152, 4127.05128178, 4190.12820499,8.57
4127.94871767, 4129.10256383, 4129.74358947, 3941.66666605, 4122.82051255, 3949.10256348, 3971.79487124, 3966.02564040, 3961.15384553, 4131.41025614, 4111.41025614, 4132.43589716, 4129.87179460, 4192.69230756,8.57
4122.56410229, 4123.33333306, 4121.41025614, 3973.33333278, 4118.71794844, 3984.23076868, 3986.79487124, 3983.97435842, 3981.28205073, 4127.82051255, 4110.25640998, 4119.99999973, 4126.92307665, 4188.46153833,8.57
4130.51282024, 4125.51282024, 4130.12820485, 3987.56410201, 4120.25640998, 4002.05128150, 3992.30769176, 4004.61538413, 4005.25640977, 4127.56410229, 4113.71794844, 4130.76923050, 4132.43589716, 4194.74358961,8.57
4117.94871767, 4123.46153819, 4124.87179460, 3937.82051213, 4118.46153819, 3953.97435835, 3960.64102502, 3965.64102502, 3964.99999938, 4129.48717921, 4107.82051255, 4131.53846126, 4132.43589716, 4190.51282038,8.57
4117.94871767, 4123.46153819, 4124.87179460, 3937.82051213, 4118.46153819, 3953.97435835, 3960.64102502, 3965.64102502, 3964.99999938, 4129.48717921, 4107.82051255, 4131.53846126, 4132.43589716, 4190.51282038,8.57
4121.66666639, 4126.28205101, 4123.33333306, 3910.64102495, 4119.48717921, 3922.17948649, 3939.74358912, 3930.38461469, 3925.25640957, 4127.05128178, 4105.12820485, 4123.97435870, 4132.43589716, 4192.69230756,8.57
4129.23076896, 4128.71794844, 4125.89743562, 3946.79487117, 4120.51282024, 3958.84615322, 3970.51281989, 3965.76923015, 3963.97435835, 4126.66666639, 4113.46153819, 4132.17948691, 4136.79487159, 4198.33333320,8.57
4118.58974332, 4119.74358947, 4119.10256383, 3963.97435835, 4120.12820485, 3986.41025586, 3986.02564047, 3992.05128150, 4000.89743535, 4129.99999973, 4111.92307665, 4123.46153819, 4131.28205101, 4191.92307679,8.57
4123.58974332, 4122.56410229, 4126.02564075, 3949.23076861, 4121.79487152, 3971.79487124, 3959.23076861, 3972.30769176, 3984.48717894, 4129.99999973, 4108.46153819, 4131.79487152, 4133.84615357, 4195.89743576,8.57
4122.94871767, 4125.64102537, 4123.46153819, 3960.64102502, 4120.25640998, 3975.64102509, 3978.33333278, 3981.02564047, 3988.84615329, 4127.94871767, 4109.10256383, 4129.48717921, 4136.28205108, 4191.02564089,8.57
4122.94871767, 4121.92307665, 4122.56410229, 3966.15384553, 4119.35897408, 3985.12820458, 4014.48717900, 3991.02564047, 3995.76923022, 4129.10256383, 4110.76923050, 4119.48717921, 4132.94871767, 4190.12820499,8.57
4123.46153819, 4121.15384588, 4125.89743562, 3951.66666605, 4120.64102537, 3977.05128150, 3994.48717894, 3972.43589688, 3973.20512765, 4131.53846126, 4113.71794844, 4130.64102537, 4133.20512793, 4197.30769217,8.57
4115.64102537, 4120.64102537, 4118.07692280, 3951.66666605, 4123.07692280, 3973.58974304, 3961.79487117, 3971.79487124, 3968.71794810, 4130.12820485, 4109.99999973, 4116.92307665, 4128.84615357, 4189.35897422,8.57
4123.58974332, 4127.43589716, 4124.87179460, 3947.05128143, 4123.97435870, 3964.87179425, 3968.97435835, 3979.10256355, 3975.89743535, 4130.38461511, 4108.58974332, 4119.99999973, 4131.02564075, 4190.64102551,8.57
4120.38461511, 4124.87179460, 4124.61538434, 3943.58974297, 4120.76923050, 3958.46153784, 4001.66666611, 3986.28205073, 3983.58974304, 4130.38461511, 4111.53846126, 4125.76923050, 4130.25640998, 4186.92307679,8.57
4119.48717921, 4121.41025614, 4122.30769203, 3952.05128143, 4121.79487152, 3962.56410194, 4004.74358926, 3988.20512765, 3986.66666611, 4127.05128178, 4112.17948691, 4113.07692280, 4128.46153819, 4183.46153833,8.57
4128.46153819, 4128.20512793, 4128.46153819, 3953.71794810, 4121.92307665, 3963.20512758, 3973.97435842, 3965.64102502, 3967.69230707, 4128.07692280, 4111.15384588, 4126.02564075, 4135.89743569, 4190.64102551,8.57
4121.41025614, 4125.76923050, 4124.35897408, 3944.61538399, 4120.25640998, 3957.94871733, 3946.15384553, 3933.97435828, 3933.71794803, 4129.23076896, 4106.41025614, 4121.28205101, 4128.84615357, 4184.48717935,8.57
4125.12820485, 4128.07692280, 4131.28205101, 3935.51281982, 4120.51282024, 3951.41025579, 3932.05128136, 3913.71794803, 3912.56410187, 4126.66666639, 4109.35897408, 4120.12820485, 4129.10256383, 4187.05128192,8.57
4126.79487152, 4128.71794844, 4130.76923050, 3936.66666598, 4119.48717921, 3952.43589681, 3944.48717887, 3926.53846085, 3934.99999931, 4125.51282024, 4114.35897408, 4129.48717921, 4136.28205108, 4190.25641012,8.57
4125.38461511, 4124.61538434, 4124.23076896, 3948.71794810, 4123.07692280, 3971.79487124, 3986.28205073, 3973.20512765, 3981.53846099, 4127.94871767, 4113.46153819, 4121.79487152, 4130.89743562, 4187.82051269,8.57
4128.07692280, 4128.97435870, 4127.56410229, 3956.28205066, 4123.58974332, 3989.99999945, 4002.82051227, 3995.12820458, 3993.20512765, 4129.61538434, 4116.15384588, 4131.92307665, 4131.28205101, 4194.48717935,8.57
4119.10256383, 4125.76923050, 4122.56410229, 3952.69230707, 4120.12820485, 3984.35897381, 3976.41025586, 3975.64102509, 3976.41025586, 4126.53846126, 4112.30769203, 4126.41025614, 4130.25640998, 4194.10256397,8.57
4124.10256383, 4123.20512793, 4127.43589716, 3931.28205059, 4122.56410229, 3953.33333271, 3954.87179425, 3953.84615322, 3958.97435835, 4125.76923050, 4108.71794844, 4125.64102537, 4133.97435870, 4197.05128192,8.57
4125.51282024, 4123.07692280, 4128.33333306, 3912.94871726, 4123.58974332, 3940.12820451, 3967.05128143, 3950.12820451, 3951.41025579, 4129.61538434, 4110.51282024, 4135.38461518, 4138.20512800, 4196.02564089,8.57
4121.28205101, 4122.43589716, 4121.79487152, 3929.10256341, 4122.05128178, 3962.56410194, 3988.33333278, 3955.38461476, 3965.12820451, 4128.97435870, 4109.99999973, 4121.02564075, 4131.66666639, 4191.28205115,8.57
4127.69230742, 4127.30769203, 4125.38461511, 3938.71794810, 4120.51282024, 3964.48717887, 3987.94871740, 3947.05128143, 3966.02564040, 4126.02564075, 4112.05128178, 4126.41025614, 4133.20512793, 4195.38461525,8.57
4120.12820485, 4124.48717921, 4120.51282024, 3912.82051213, 4121.15384588, 3937.05128136, 3973.71794817, 3928.33333264, 3938.07692239, 4126.79487152, 4108.97435870, 4124.48717921, 4131.79487152, 4188.97435884,8.57
4119.35897408, 4123.46153819, 4124.74358947, 3911.66666598, 4123.46153819, 3947.17948656, 3969.48717887, 3935.38461469, 3934.99999931, 4127.69230742, 4109.74358947, 4118.07692280, 4130.38461511, 4190.38461525,8.57
4121.79487152, 4124.61538434, 4127.43589716, 3948.20512758, 4120.76923050, 3991.41025586, 3982.82051227, 3968.58974297, 3971.66666611, 4127.05128178, 4115.38461511, 4123.84615357, 4134.61538434, 4193.33333320,8.57
4118.58974332, 4121.79487152, 4118.20512793, 3953.20512758, 4120.12820485, 3979.74358919, 3981.15384560, 3972.17948663, 3976.41025586, 4129.48717921, 4109.48717921, 4113.71794844, 4131.41025614, 4184.74358961,8.57
4124.99999973, 4127.30769203, 4124.74358947, 3925.89743521, 4121.53846126, 3932.56410187, 3961.53846092, 3944.61538399, 3949.48717887, 4132.94871767, 4107.69230742, 4126.41025614, 4130.89743562, 4188.58974345,8.57
4117.05128178, 4125.51282024, 4124.23076896, 3909.10256341, 4118.20512793, 3928.07692239, 3948.20512758, 3930.51281982, 3941.53846092, 4130.12820485, 4107.69230742, 4124.87179460, 4125.12820485, 4184.23076910,8.57
4118.97435870, 4124.48717921, 4125.25640998, 3909.61538392, 4118.71794844, 3944.87179425, 3941.41025579, 3928.46153777, 3935.12820444, 4128.58974332, 4105.89743562, 4112.94871767, 4124.99999973, 4183.46153833,8.57
4128.20512793, 4129.87179460, 4131.66666639, 3916.28205059, 4120.76923050, 3943.97435835, 3929.74358905, 3921.79487110, 3919.35897367, 4131.92307665, 4111.66666639, 4126.79487152, 4135.76923056, 4190.89743576,8.57
4119.23076896, 4124.61538434, 4125.51282024, 3908.20512751, 4121.15384588, 3928.33333264, 3914.48717880, 3909.74358905, 3909.99999931, 4131.15384588, 4113.20512793, 4119.35897408, 4130.51282024, 4182.69230756,8.57
4119.23076896, 4124.61538434, 4125.51282024, 3908.20512751, 4121.15384588, 3928.33333264, 3914.48717880, 3909.74358905, 3909.99999931, 4131.15384588, 4113.20512793, 4119.35897408, 4130.51282024, 4182.69230756,8.57
4124.10256383, 4125.76923050, 4129.87179460, 3906.41025572, 4121.15384588, 3935.12820444, 3932.94871726, 3915.51281982, 3921.41025572, 4128.33333306, 4112.43589716, 4126.66666639, 4130.25640998, 4186.41025628,8.57
4126.15384588, 4127.30769203, 4127.82051255, 3928.07692239, 4117.94871767, 3968.97435835, 3970.25640963, 3945.38461476, 3949.87179425, 4129.10256383, 4112.56410229, 4132.69230742, 4133.71794844, 4189.61538448,8.57
4127.17948691, 4126.28205101, 4126.41025614, 3920.12820444, 4117.30769203, 3956.41025579, 3945.64102502, 3939.74358912, 3945.38461476, 4128.97435870, 4110.76923050, 4120.64102537, 4130.76923050, 4189.74358961,8.57
4126.66666639, 4129.23076896, 4129.99999973, 3886.79487103, 4118.20512793, 3904.48717873, 3890.64102488, 3903.33333257, 3912.05128136, 4125.89743562, 4111.41025614, 4134.61538434, 4136.66666646, 4195.38461525,8.57
4117.17948691, 4125.12820485, 4120.89743562, 3886.02564027, 4119.61538434, 3901.79487103, 3894.48717873, 3908.58974290, 3916.92307623, 4125.25640998, 4108.97435870, 4128.84615357, 4134.74358947, 4190.12820499,8.57
4125.89743562, 4125.12820485, 4126.41025614, 3898.33333257, 4120.51282024, 3928.58974290, 3921.02564033, 3923.20512751, 3932.05128136, 4128.71794844, 4109.23076896, 4129.48717921, 4131.41025614, 4196.41025628,8.57
4123.33333306, 4124.87179460, 4124.35897408, 3885.64102488, 4117.56410229, 3920.64102495, 3919.61538392, 3894.74358898, 3902.17948642, 4130.89743562, 4107.94871767, 4136.15384595, 4132.82051255, 4199.35897422,8.57
4120.12820485, 4124.23076896, 4118.20512793, 3880.51281975, 4119.99999973, 3916.66666598, 3928.20512751, 3881.79487103, 3886.92307616, 4130.25640998, 4106.66666639, 4121.28205101, 4131.28205101, 4194.74358961,8.57
4126.15384588, 4128.33333306, 4123.97435870, 3903.58974283, 4119.10256383, 3943.20512758, 3952.94871733, 3919.87179418, 3926.28205059, 4131.41025614, 4113.33333306, 4127.43589716, 4134.61538434, 4196.53846140,8.57
4116.53846126, 4122.82051255, 4116.41025614, 3913.20512751, 4115.12820485, 3946.02564040, 3950.38461476, 3943.20512758, 3955.76923015, 4130.51282024, 4112.43589716, 4121.92307665, 4130.89743562, 4188.20512807,8.57
4121.02564075, 4123.07692280, 4122.17948691, 3908.46153777, 4121.92307665, 3941.66666605, 3942.94871733, 3936.79487110, 3952.05128143, 4127.30769203, 4111.15384588, 4118.84615357, 4128.84615357, 4188.97435884,8.57
4121.66666639, 4124.35897408, 4127.94871767, 3909.99999931, 4124.74358947, 3953.20512758, 3945.25640963, 3930.25640957, 3938.71794810, 4127.94871767, 4113.97435870, 4125.12820485, 4131.28205101, 4189.99999986,8.57
4116.28205101, 4125.12820485, 4123.58974332, 3913.84615316, 4121.28205101, 3948.97435835, 3932.05128136, 3927.82051213, 3934.23076854, 4128.58974332, 4113.33333306, 4114.87179460, 4128.58974332, 4186.41025628,8.57
4124.35897408, 4132.94871767, 4127.94871767, 3933.33333264, 4119.87179460, 3951.66666605, 3932.94871726, 3945.89743528, 3968.46153784, 4127.30769203, 4116.53846126, 4122.94871767, 4131.28205101, 4190.38461525,8.57
4118.20512793, 4123.58974332, 4122.56410229, 3950.51281989, 4119.61538434, 3971.92307637, 3957.30769169, 3956.79487117, 3988.33333278, 4126.79487152, 4118.84615357, 4117.05128178, 4125.76923050, 4181.79487166,8.57
4119.10256383, 4120.38461511, 4126.79487152, 3936.92307623, 4120.76923050, 3966.66666605, 3962.43589681, 3931.66666598, 3946.41025579, 4128.46153819, 4119.10256383, 4117.30769203, 4126.92307665, 4184.74358961,8.57
4124.23076896, 4126.79487152, 4131.53846126, 3933.20512751, 4120.12820485, 3959.35897374, 3953.97435835, 3927.05128136, 3935.12820444, 4128.71794844, 4117.94871767, 4133.07692280, 4135.12820485, 4191.92307679,8.57
4122.82051255, 4122.69230742, 4127.69230742, 3957.43589681, 4120.12820485, 3983.33333278, 3968.07692246, 3965.76923015, 3980.76923022, 4127.30769203, 4117.30769203, 4121.15384588, 4129.87179460, 4185.76923063,8.57
4127.30769203, 4123.84615357, 4132.05128178, 3960.89743528, 4121.53846126, 3987.82051227, 3989.10256355, 3986.28205073, 3997.05128150, 4127.82051255, 4124.61538434, 4128.20512793, 4132.69230742, 4192.56410243,8.57
4116.79487152, 4121.79487152, 4123.07692280, 3936.92307623, 4120.64102537, 3962.69230707, 3984.99999945, 3958.97435835, 3966.41025579, 4128.97435870, 4120.38461511, 4128.20512793, 4132.94871767, 4190.25641012,8.57
4121.92307665, 4122.69230742, 4124.23076896, 3938.20512751, 4121.02564075, 3972.05128150, 3986.28205073, 3950.89743528, 3960.51281989, 4131.02564075, 4113.46153819, 4120.76923050, 4129.99999973, 4188.07692294,8.57
4129.61538434, 4128.46153819, 4129.74358947, 3963.58974297, 4117.94871767, 4004.48717900, 4004.10256362, 3989.99999945, 3997.43589688, 4131.02564075, 4122.69230742, 4137.43589723, 4133.20512793, 4195.25641012,8.57
4118.84615357, 4125.76923050, 4119.10256383, 3954.74358912, 4116.53846126, 3987.82051227, 3979.87179432, 3991.28205073, 3998.20512765, 4128.46153819, 4122.17948691, 4130.76923050, 4129.87179460, 4192.30769217,8.57
4124.48717921, 4126.41025614, 4123.33333306, 3929.10256341, 4118.97435870, 3956.92307630, 3939.23076861, 3949.99999938, 3958.58974297, 4129.87179460, 4114.61538434, 4131.92307665, 4131.79487152, 4193.71794858,8.57
4121.02564075, 4124.10256383, 4122.56410229, 3934.99999931, 4116.15384588, 3971.92307637, 3945.89743528, 3941.28205066, 3949.23076861, 4129.74358947, 4114.74358947, 4131.28205101, 4131.02564075, 4191.15384602,8.57
4119.48717921, 4123.97435870, 4122.30769203, 3948.20512758, 4116.41025614, 3993.20512765, 3964.10256348, 3965.64102502, 3974.10256355, 4127.17948691, 4114.61538434, 4120.64102537, 4127.69230742, 4194.23076910,8.57
4122.17948691, 4126.28205101, 4124.87179460, 3937.82051213, 4118.07692280, 3982.94871740, 3951.41025579, 3966.79487117, 3981.02564047, 4128.07692280, 4114.23076896, 4128.97435870, 4132.56410229, 4198.46153833,8.57
4114.61538434, 4120.12820485, 4116.66666639, 3934.35897367, 4118.97435870, 3975.25640970, 3950.51281989, 3956.79487117, 3977.82051227, 4130.38461511, 4115.64102537, 4118.46153819, 4129.48717921, 4187.94871781,8.57
4122.30769203, 4124.23076896, 4124.48717921, 3959.10256348, 4119.10256383, 3995.38461483, 3989.10256355, 3976.02564047, 3996.28205073, 4130.64102537, 4122.05128178, 4121.53846126, 4131.02564075, 4191.15384602,8.57
4118.46153819, 4125.64102537, 4123.97435870, 3968.33333271, 4115.76923050, 4001.28205073, 4007.17948670, 3980.38461483, 3989.99999945, 4129.23076896, 4118.71794844, 4126.66666639, 4130.51282024, 4188.97435884,8.57
4119.23076896, 4123.20512793, 4120.25640998, 3952.82051220, 4119.87179460, 3986.28205073, 3990.89743535, 3949.48717887, 3954.48717887, 4128.20512793, 4113.07692280, 4113.97435870, 4124.23076896, 4182.17948704,8.57
4127.05128178, 4128.97435870, 4128.46153819, 3961.28205066, 4121.28205101, 3995.12820458, 3993.97435842, 3950.12820451, 3959.35897374, 4129.35897408, 4122.17948691, 4125.38461511, 4131.02564075, 4187.43589730,8.57
4116.92307665, 4124.99999973, 4124.35897408, 3989.61538406, 4117.56410229, 4020.25640977, 4009.61538413, 3997.69230714, 4011.66666618, 4129.35897408, 4122.82051255, 4119.74358947, 4130.12820485, 4184.23076910,8.57
4124.35897408, 4125.64102537, 4128.58974332, 3989.87179432, 4121.53846126, 4016.15384567, 3998.97435842, 4011.28205080, 4032.30769183, 4126.92307665, 4118.33333306, 4120.64102537, 4131.41025614, 4189.23076910,8.57
4127.17948691, 4126.02564075, 4128.20512793, 3969.74358912, 4121.92307665, 3997.82051227, 4001.02564047, 3983.07692252, 4001.15384560, 4126.53846126, 4119.74358947, 4133.97435870, 4136.15384595, 4190.25641012,8.57
4120.76923050, 4120.51282024, 4123.07692280, 3972.30769176, 4119.23076896, 4012.05128157, 4035.64102516, 3991.02564047, 3995.25640970, 4127.82051255, 4121.15384588, 4122.94871767, 4129.87179460, 4184.23076910,8.57
4126.28205101, 4124.48717921, 4130.38461511, 3977.30769176, 4119.10256383, 4026.92307644, 4024.74358926, 4009.10256362, 4013.84615336, 4125.76923050, 4124.35897408, 4131.92307665, 4132.30769203, 4192.56410243,8.57
4120.51282024, 4125.12820485, 4122.94871767, 3964.74358912, 4119.61538434, 4014.61538413, 3993.07692252, 3991.92307637, 4007.30769183, 4126.41025614, 4121.92307665, 4130.51282024, 4131.92307665, 4188.71794858,8.57
4123.33333306, 4128.07692280, 4123.71794844, 3964.48717887, 4119.35897408, 4010.25640977, 4012.30769183, 3983.33333278, 3999.99999945, 4131.41025614, 4121.66666639, 4127.05128178, 4131.28205101, 4189.23076910,8.57
4124.48717921, 4130.25640998, 4125.76923050, 3965.12820451, 4115.76923050, 4013.71794824, 4032.30769183, 3988.33333278, 3999.99999945, 4130.89743562, 4123.97435870, 4136.41025621, 4135.89743569, 4195.25641012,8.57
4120.76923050, 4125.12820485, 4117.43589716, 3945.38461476, 4119.48717921, 3999.74358919, 4011.79487131, 3969.61538399, 3981.92307637, 4127.94871767, 4119.74358947, 4125.51282024, 4132.05128178, 4191.28205115,8.57
4128.84615357, 4126.41025614, 4122.56410229, 3936.15384546, 4123.33333306, 3989.74358919, 3994.10256355, 3948.84615322, 3970.51281989, 4131.79487152, 4120.25640998, 4132.94871767, 4134.10256383, 4192.17948704,8.57
4118.84615357, 4122.17948691, 4119.99999973, 3956.28205066, 4115.89743562, 4009.35897388, 4002.17948663, 3952.17948656, 3983.20512765, 4132.43589716, 4121.41025614, 4127.56410229, 4133.97435870, 4188.71794858,8.57
4118.58974332, 4121.53846126, 4122.30769203, 3975.51281996, 4115.51282024, 4023.84615336, 4010.64102516, 3968.84615322, 3993.33333278, 4129.10256383, 4122.56410229, 4119.10256383, 4132.30769203, 4193.97435884,8.57
4126.15384588, 4125.25640998, 4124.74358947, 3976.15384560, 4120.51282024, 4015.25640977, 4015.64102516, 3989.10256355, 4003.84615329, 4132.30769203, 4126.79487152, 4132.30769203, 4133.97435870, 4194.74358961,8.57
4117.05128178, 4121.41025614, 4117.17948691, 3976.53846099, 4120.12820485, 4018.33333285, 4031.15384567, 4017.05128157, 4026.15384567, 4132.56410229, 4122.94871767, 4117.69230742, 4126.92307665, 4183.84615371,8.57
4121.15384588, 4126.02564075, 4124.99999973, 3980.64102509, 4119.61538434, 4032.05128157, 4040.64102523, 4034.99999952, 4034.10256362, 4128.20512793, 4121.79487152, 4120.12820485, 4130.12820485, 4191.41025628,8.57
4118.20512793, 4124.23076896, 4122.94871767, 3978.97435842, 4117.82051255, 4034.10256362, 4037.30769189, 4029.23076875, 4024.99999952, 4126.79487152, 4122.82051255, 4124.99999973, 4132.30769203, 4188.97435884,8.57
4118.71794844, 4121.53846126, 4122.56410229, 3963.71794810, 4117.56410229, 4011.92307644, 4012.69230721, 3993.58974304, 3997.30769176, 4126.66666639, 4121.41025614, 4115.89743562, 4128.20512793, 4182.94871781,8.57
4126.28205101, 4128.07692280, 4129.35897408, 3958.84615322, 4119.10256383, 4003.58974304, 3988.07692252, 3975.64102509, 3983.33333278, 4128.71794844, 4126.53846126, 4126.66666639, 4130.76923050, 4188.46153833,8.57
4121.41025614, 4124.23076896, 4123.58974332, 3973.33333278, 4120.51282024, 4026.66666618, 3981.53846099, 3994.61538406, 4003.97435842, 4131.41025614, 4129.74358947, 4119.87179460, 4128.07692280, 4183.07692294,8.57
4126.79487152, 4125.38461511, 4128.33333306, 3971.79487124, 4120.51282024, 4017.82051234, 3961.79487117, 3983.84615329, 4002.30769176, 4129.87179460, 4131.79487152, 4123.33333306, 4132.43589716, 4188.20512807,8.57
4124.23076896, 4125.12820485, 4125.38461511, 3950.25640963, 4116.41025614, 3974.10256355, 3937.17948649, 3949.87179425, 3975.12820458, 4128.33333306, 4130.12820485, 4127.94871767, 4133.84615357, 4191.79487166,8.57
4124.48717921, 4122.30769203, 4122.17948691, 3934.74358905, 4116.41025614, 3965.38461476, 3936.92307623, 3944.23076861, 3962.17948656, 4130.51282024, 4126.41025614, 4119.23076896, 4128.71794844, 4189.61538448,8.57
4128.71794844, 4126.92307665, 4130.12820485, 3947.05128143, 4118.33333306, 4001.02564047, 3965.51281989, 3976.66666611, 3983.07692252, 4132.17948691, 4133.58974332, 4135.51282031, 4133.20512793, 4196.41025628,8.57
4119.74358947, 4124.99999973, 4123.46153819, 3966.28205066, 4118.33333306, 4021.28205080, 3987.17948663, 3996.92307637, 4000.76923022, 4129.48717921, 4134.74358947, 4129.87179460, 4130.89743562, 4190.64102551,8.57
4128.97435870, 4127.56410229, 4126.02564075, 3967.69230707, 4118.07692280, 4019.35897388, 3978.71794817, 3977.69230714, 3991.79487124, 4128.71794844, 4130.38461511, 4126.15384588, 4130.64102537, 4191.79487166,8.57
4126.79487152, 4127.82051255, 4123.33333306, 3960.12820451, 4115.64102537, 4012.17948670, 3963.20512758, 3969.10256348, 3987.30769176, 4130.25640998, 4128.33333306, 4133.20512793, 4134.87179460, 4194.48717935,8.57
4118.58974332, 4122.69230742, 4118.71794844, 3943.07692246, 4118.58974332, 3974.10256355, 3946.28205066, 3951.02564040, 3960.89743528, 4128.71794844, 4126.15384588, 4121.28205101, 4133.97435870, 4192.30769217,8.57
4125.89743562, 4123.71794844, 4127.30769203, 3926.41025572, 4118.84615357, 3946.15384553, 3944.87179425, 3915.38461469, 3926.53846085, 4128.07692280, 4127.17948691, 4130.38461511, 4136.28205108, 4197.17948704,8.57
4119.23076896, 4121.41025614, 4119.87179460, 3951.66666605, 4115.64102537, 3989.48717894, 3989.99999945, 3947.94871733, 3969.61538399, 4129.74358947, 4126.41025614, 4123.33333306, 4131.41025614, 4188.84615371,8.57
4122.17948691, 4127.69230742, 4119.99999973, 3984.87179432, 4119.61538434, 4028.20512772, 4032.69230721, 4004.61538413, 4025.38461490, 4131.66666639, 4127.17948691, 4115.64102537, 4130.64102537, 4189.23076910,8.57
4122.69230742, 4129.10256383, 4122.69230742, 3956.15384553, 4118.84615357, 3989.87179432, 3995.76923022, 3967.43589681, 3976.15384560, 4131.02564075, 4126.92307665, 4126.53846126, 4134.74358947, 4193.46153833,8.57
4116.02564075, 4121.66666639, 4118.33333306, 3918.07692239, 4116.02564075, 3953.84615322, 3936.02564033, 3914.23076854, 3919.48717880, 4129.61538434, 4121.92307665, 4117.30769203, 4125.64102537, 4186.92307679,8.57
4125.89743562, 4127.56410229, 4126.41025614, 3943.33333271, 4118.07692280, 3978.33333278, 3945.12820451, 3947.43589681, 3954.48717887, 4130.12820485, 4125.12820485, 4123.84615357, 4125.64102537, 4188.46153833,8.57
4120.64102537, 4125.64102537, 4125.12820485, 3980.64102509, 4119.61538434, 4007.05128157, 3983.71794817, 3993.07692252, 3999.10256355, 4129.87179460, 4126.53846126, 4121.41025614, 4131.02564075, 4184.23076910,8.57
4119.87179460, 4124.48717921, 4128.07692280, 3987.56410201, 4120.38461511, 4013.07692259, 3997.17948663, 3993.20512765, 4014.35897388, 4130.51282024, 4125.64102537, 4118.20512793, 4132.17948691, 4187.69230756,8.57
4126.79487152, 4129.48717921, 4131.28205101, 3989.23076868, 4115.76923050, 4022.05128157, 3995.89743535, 3988.71794817, 4022.94871747, 4131.15384588, 4126.02564075, 4131.41025614, 4132.17948691, 4191.53846140,8.57
4120.76923050, 4123.71794844, 4122.56410229, 3993.58974304, 4114.35897408, 4031.28205080, 3992.94871740, 3997.17948663, 4012.94871747, 4129.74358947, 4123.07692280, 4115.89743562, 4124.99999973, 4183.46153833,8.57
4124.99999973, 4123.20512793, 4126.53846126, 3988.58974304, 4119.74358947, 4020.64102516, 3989.48717894, 3988.07692252, 3986.15384560, 4128.33333306, 4127.17948691, 4122.30769203, 4129.87179460, 4191.15384602,8.57
4123.20512793, 4123.33333306, 4123.97435870, 3972.94871740, 4119.48717921, 3997.94871740, 3989.61538406, 3960.64102502, 3971.92307637, 4129.35897408, 4127.17948691, 4129.61538434, 4131.53846126, 4189.10256397,8.57
4123.97435870, 4123.33333306, 4123.33333306, 3963.97435835, 4116.66666639, 3990.38461483, 3981.92307637, 3955.51281989, 3973.46153791, 4130.76923050, 4123.97435870, 4121.15384588, 4128.71794844, 4184.87179474,8.57
4127.69230742, 4126.28205101, 4128.71794844, 3983.07692252, 4116.15384588, 4018.07692259, 3982.05128150, 3983.33333278, 3995.64102509, 4130.51282024, 4131.53846126, 4133.97435870, 4135.76923056, 4195.25641012,8.57
4123.33333306, 4123.71794844, 4122.82051255, 3992.17948663, 4119.23076896, 4029.87179439, 3983.97435842, 3991.92307637, 4014.48717900, 4129.99999973, 4129.48717921, 4128.58974332, 4133.07692280, 4192.69230756,8.57
4129.10256383, 4126.15384588, 4126.66666639, 3966.79487117, 4121.28205101, 3995.38461483, 3960.12820451, 3967.05128143, 3986.28205073, 4128.58974332, 4123.46153819, 4129.61538434, 4135.12820485, 4192.30769217,8.57
4122.17948691, 4125.76923050, 4122.30769203, 3958.84615322, 4118.71794844, 3986.79487124, 3953.97435835, 3966.66666605, 3966.15384553, 4127.82051255, 4124.48717921, 4131.28205101, 4136.79487159, 4192.69230756,8.57
4122.05128178, 4122.56410229, 4119.74358947, 3990.25640970, 4118.97435870, 4027.05128157, 3988.20512765, 4004.35897388, 4008.20512772, 4128.07692280, 4127.69230742, 4121.92307665, 4132.30769203, 4194.87179474,8.57
4128.07692280, 4122.94871767, 4126.66666639, 4008.71794824, 4116.66666639, 4038.33333292, 4011.53846106, 4015.76923029, 4031.53846106, 4129.35897408, 4131.28205101, 4134.10256383, 4135.51282031, 4197.82051269,8.57
4117.94871767, 4119.10256383, 4119.87179460, 3979.74358919, 4114.10256383, 3993.58974304, 3995.38461483, 3974.61538406, 3976.92307637, 4129.23076896, 4126.92307665, 4125.12820485, 4129.87179460, 4186.66666653,8.57
4123.97435870, 4126.02564075, 4122.94871767, 3945.64102502, 4119.74358947, 3962.94871733, 3970.25640963, 3937.56410187, 3930.38461469, 4130.25640998, 4123.07692280, 4120.64102537, 4128.20512793, 4189.61538448,8.57
4121.28205101, 4128.58974332, 4122.82051255, 3961.92307630, 4120.89743562, 3992.94871740, 3979.61538406, 3963.33333271, 3967.69230707, 4132.43589716, 4126.53846126, 4126.15384588, 4131.53846126, 4192.69230756,8.57
4116.66666639, 4124.23076896, 4120.76923050, 3986.79487124, 4116.53846126, 4012.30769183, 4000.12820458, 3992.17948663, 3998.46153791, 4130.89743562, 4131.41025614, 4116.28205101, 4129.74358947, 4187.94871781,8.57
4127.17948691, 4129.87179460, 4129.23076896, 3972.05128150, 4113.97435870, 3984.48717894, 3989.61538406, 3956.66666605, 3957.56410194, 4130.51282024, 4131.41025614, 4123.71794844, 4128.46153819, 4188.46153833,8.57
4119.87179460, 4125.89743562, 4122.30769203, 3960.51281989, 4114.48717921, 3977.17948663, 3976.15384560, 3942.69230707, 3944.23076861, 4130.51282024, 4124.10256383, 4115.76923050, 4121.53846126, 4182.69230756,8.57
4121.41025614, 4124.99999973, 4126.92307665, 3981.41025586, 4119.10256383, 4005.64102516, 3991.02564047, 3983.46153791, 3988.71794817, 4127.05128178, 4126.92307665, 4117.69230742, 4127.56410229, 4189.23076910,8.57
4125.38461511, 4127.69230742, 4131.28205101, 3984.74358919, 4119.87179460, 4009.87179439, 4004.48717900, 3986.79487124, 3997.05128150, 4124.74358947, 4133.46153819, 4129.61538434, 4134.87179460, 4188.97435884,8.57
4121.66666639, 4124.48717921, 4124.23076896, 3959.10256348, 4118.46153819, 3995.12820458, 4001.15384560, 3956.28205066, 3969.48717887, 4126.15384588, 4126.28205101, 4114.35897408, 4127.05128178, 4180.64102551,8.57
4127.30769203, 4127.56410229, 4128.84615357, 3958.07692246, 4115.51282024, 4000.12820458, 3996.92307637, 3952.94871733, 3969.74358912, 4127.69230742, 4124.23076896, 4127.82051255, 4131.92307665, 4190.64102551,8.57
4121.92307665, 4126.41025614, 4123.97435870, 3967.43589681, 4114.87179460, 3996.53846099, 3983.20512765, 3952.94871733, 3973.33333278, 4125.89743562, 4126.15384588, 4131.53846126, 4133.33333306, 4187.94871781,8.57
4125.12820485, 4127.56410229, 4127.56410229, 3960.51281989, 4119.48717921, 3982.82051227, 3980.89743535, 3950.51281989, 3967.69230707, 4125.12820485, 4126.02564075, 4122.43589716, 4130.38461511, 4188.71794858,8.57
4125.76923050, 4128.71794844, 4129.10256383, 3968.97435835, 4116.02564075, 3997.82051227, 4007.17948670, 3967.05128143, 3974.48717894, 4129.74358947, 4129.87179460, 4133.71794844, 4134.23076896, 4198.07692294,8.57
4121.41025614, 4125.64102537, 4118.58974332, 3977.56410201, 4114.61538434, 4001.28205073, 3998.58974304, 3953.84615322, 3957.17948656, 4131.53846126, 4127.94871767, 4127.82051255, 4129.48717921, 4193.33333320,8.57
4129.99999973, 4130.12820485, 4125.51282024, 3972.94871740, 4117.82051255, 3979.99999945, 3972.05128150, 3940.64102502, 3947.56410194, 4127.56410229, 4126.66666639, 4132.94871767, 4131.28205101, 4194.10256397,8.57
4122.56410229, 4126.41025614, 4123.46153819, 3997.17948663, 4114.61538434, 3997.82051227, 4001.15384560, 3983.07692252, 3991.66666611, 4125.51282024, 4128.71794844, 4127.94871767, 4133.20512793, 4191.53846140,8.57
4123.71794844, 4122.82051255, 4122.30769203, 4015.89743541, 4115.51282024, 4018.84615336, 4022.43589695, 3997.05128150, 4004.99999952, 4129.61538434, 4131.28205101, 4120.51282024, 4130.12820485, 4194.10256397,8.57
4127.17948691, 4123.97435870, 4122.82051255, 3991.41025586, 4116.28205101, 3994.10256355, 3986.53846099, 3961.41025579, 3973.71794817, 4132.05128178, 4131.53846126, 4133.58974332, 4132.94871767, 4199.35897422,8.57
4116.02564075, 4120.25640998, 4116.28205101, 3981.41025586, 4117.43589716, 3986.53846099, 3973.20512765, 3956.02564040, 3975.89743535, 4128.71794844, 4125.25640998, 4119.74358947, 4130.38461511, 4189.35897422,8.57
4122.69230742, 4123.97435870, 4125.51282024, 3996.41025586, 4122.17948691, 4007.82051234, 4001.41025586, 3975.76923022, 3994.48717894, 4127.82051255, 4126.92307665, 4122.69230742, 4130.76923050, 4189.35897422,8.57
4121.53846126, 4120.89743562, 4123.20512793, 3995.64102509, 4117.94871767, 4007.56410208, 4017.05128157, 3970.25640963, 3978.58974304, 4129.87179460, 4129.99999973, 4127.82051255, 4128.46153819, 4186.79487166,8.57
4119.99999973, 4118.58974332, 4120.64102537, 3983.46153791, 4115.12820485, 3996.28205073, 4019.99999952, 3954.87179425, 3958.97435835, 4130.25640998, 4127.82051255, 4114.48717921, 4125.89743562, 4183.84615371,8.57
4124.74358947, 4128.58974332, 4128.20512793, 3994.87179432, 4118.84615357, 4021.28205080, 4047.17948677, 3972.56410201, 3985.25640970, 4129.74358947, 4129.99999973, 4125.51282024, 4134.61538434, 4188.71794858,8.57
4119.61538434, 4126.15384588, 4123.84615357, 4003.97435842, 4119.23076896, 4033.20512772, 4054.35897395, 3989.10256355, 4003.46153791, 4128.46153819, 4129.48717921, 4119.23076896, 4131.15384588, 4183.20512807,8.57
4128.33333306, 4124.74358947, 4128.97435870, 3985.25640970, 4117.56410229, 3997.94871740, 4009.35897388, 3963.97435835, 3969.74358912, 4128.20512793, 4130.38461511, 4120.25640998, 4129.87179460, 4189.99999986,8.57
4126.66666639, 4126.15384588, 4127.82051255, 3992.30769176, 4116.15384588, 4006.66666618, 4007.05128157, 3971.15384553, 3978.46153791, 4128.33333306, 4132.94871767, 4128.71794844, 4131.79487152, 4190.64102551,8.57
4123.07692280, 4126.02564075, 4122.69230742, 4011.02564054, 4119.23076896, 4037.56410215, 4029.35897388, 4005.89743541, 4019.35897388, 4128.71794844, 4131.79487152, 4115.89743562, 4127.56410229, 4181.66666653,8.57
4129.23076896, 4128.58974332, 4127.56410229, 3992.05128150, 4118.33333306, 4004.48717900, 3993.71794817, 3980.89743535, 3992.05128150, 4131.02564075, 4134.23076896, 4127.82051255, 4133.20512793, 4188.71794858,8.57
4120.76923050, 4122.82051255, 4121.41025614, 3975.89743535, 4114.10256383, 3966.15384553, 3971.15384553, 3943.20512758, 3953.20512758, 4131.79487152, 4131.79487152, 4129.10256383, 4131.66666639, 4188.20512807,8.57
4126.28205101, 4124.48717921, 4126.41025614, 3989.61538406, 4116.15384588, 3987.17948663, 4006.15384567, 3948.07692246, 3956.28205066, 4129.99999973, 4129.35897408, 4127.82051255, 4129.87179460, 4191.41025628,8.57
4126.53846126, 4126.15384588, 4127.56410229, 4000.25640970, 4116.53846126, 4012.94871747, 4028.07692259, 3955.76923015, 3961.53846092, 4128.97435870, 4130.38461511, 4134.61538434, 4133.46153819, 4194.10256397,8.57
4121.66666639, 4121.15384588, 4119.48717921, 3994.74358919, 4115.76923050, 3999.35897381, 4016.53846106, 3959.74358912, 3974.99999945, 4129.10256383, 4130.51282024, 4124.35897408, 4129.74358947, 4190.64102551,8.57
4128.84615357, 4124.99999973, 4124.23076896, 3980.12820458, 4115.38461511, 3973.20512765, 3997.17948663, 3959.61538399, 3977.94871740, 4129.48717921, 4133.84615357, 4134.10256383, 4131.53846126, 4194.48717935,8.57
4119.48717921, 4123.20512793, 4120.51282024, 3964.35897374, 4114.87179460, 3964.87179425, 3984.35897381, 3943.46153784, 3950.89743528, 4128.33333306, 4130.76923050, 4126.53846126, 4131.28205101, 4185.89743576,8.57
4120.76923050, 4125.51282024, 4123.71794844, 3976.92307637, 4116.66666639, 3988.58974304, 4012.82051234, 3962.17948656, 3965.38461476, 4127.56410229, 4128.97435870, 4116.66666639, 4132.56410229, 4188.58974345,8.57
4125.38461511, 4126.79487152, 4124.61538434, 4000.38461483, 4115.51282024, 4012.30769183, 4046.02564061, 4001.53846099, 4009.35897388, 4128.71794844, 4131.92307665, 4128.58974332, 4134.74358947, 4195.64102551,8.57
4118.07692280, 4118.58974332, 4116.41025614, 3984.87179432, 4115.51282024, 3994.10256355, 4016.28205080, 3977.69230714, 3985.38461483, 4128.58974332, 4127.05128178, 4118.20512793, 4126.79487152, 4187.17948704,8.57
4122.94871767, 4125.38461511, 4125.25640998, 3961.92307630, 4116.79487152, 3971.66666611, 3980.12820458, 3930.51281982, 3939.99999938, 4129.23076896, 4128.46153819, 4122.94871767, 4129.10256383, 4187.43589730,8.57
4118.46153819, 4126.53846126, 4124.23076896, 3982.17948663, 4116.79487152, 3997.56410201, 3982.05128150, 3946.79487117, 3966.15384553, 4129.48717921, 4131.41025614, 4120.76923050, 4128.71794844, 4183.71794858,8.57
4121.28205101, 4121.66666639, 4123.97435870, 4012.30769183, 4119.23076896, 4027.05128157, 3962.17948656, 3986.28205073, 4005.89743541, 4127.30769203, 4131.02564075, 4113.07692280, 4125.38461511, 4183.97435884,8.57
4127.82051255, 4124.87179460, 4129.35897408, 3997.17948663, 4117.30769203, 4001.53846099, 3904.23076847, 3973.46153791, 3983.33333278, 4126.92307665, 4132.17948691, 4127.94871767, 4130.38461511, 4188.58974345,8.57
4120.76923050, 4123.07692280, 4123.58974332, 3964.23076861, 4115.38461511, 3972.17948663, 3877.56410180, 3936.41025572, 3945.38461476, 4128.71794844, 4128.20512793, 4119.23076896, 4126.02564075, 4184.74358961,8.57
4127.17948691, 4126.66666639, 4128.97435870, 3978.97435842, 4118.46153819, 3990.76923022, 3909.61538392, 3955.76923015, 3969.48717887, 4128.84615357, 4131.79487152, 4123.97435870, 4127.30769203, 4191.15384602,8.57
4123.07692280, 4127.43589716, 4127.82051255, 4017.43589695, 4117.94871767, 4021.92307644, 3948.97435835, 4008.46153798, 4017.82051234, 4126.15384588, 4134.99999973, 4133.07692280, 4128.46153819, 4187.94871781,8.57
4120.38461511, 4124.61538434, 4126.66666639, 4024.61538413, 4119.23076896, 4024.99999952, 3958.58974297, 4006.02564054, 4010.51282003, 4126.28205101, 4130.51282024, 4125.38461511, 4127.94871767, 4187.43589730,8.57
4126.28205101, 4127.17948691, 4130.51282024, 4019.35897388, 4117.56410229, 4014.23076875, 3947.94871733, 3981.41025586, 3992.56410201, 4130.51282024, 4132.69230742, 4135.64102544, 4135.89743569, 4198.46153833,8.57
4118.71794844, 4124.87179460, 4122.94871767, 4030.89743541, 4113.58974332, 4018.20512772, 3934.74358905, 3993.46153791, 4004.10256362, 4130.38461511, 4134.48717921, 4128.33333306, 4130.89743562, 4191.15384602,8.57
4123.71794844, 4125.64102537, 4128.97435870, 4038.07692266, 4115.51282024, 4026.92307644, 3929.99999931, 4006.66666618, 4014.35897388, 4127.43589716, 4135.76923056, 4131.41025614, 4130.25640998, 4191.66666653,8.57
4122.94871767, 4122.82051255, 4124.35897408, 4016.53846106, 4115.51282024, 4014.61538413, 3926.15384546, 3993.84615329, 4014.35897388, 4128.58974332, 4132.94871767, 4136.02564082, 4134.61538434, 4194.74358961,8.57
4119.10256383, 4121.02564075, 4117.82051255, 4001.02564047, 4114.35897408, 4002.30769176, 3923.33333264, 3982.30769176, 4004.87179439, 4130.12820485, 4127.82051255, 4120.89743562, 4131.53846126, 4193.84615371,8.57
4123.20512793, 4127.17948691, 4128.58974332, 4002.69230714, 4115.12820485, 4001.66666611, 3919.10256341, 3977.05128150, 3979.48717894, 4131.53846126, 4132.17948691, 4133.84615357, 4133.46153819, 4199.23076910,8.57
4114.10256383, 4124.23076896, 4123.33333306, 4000.89743535, 4115.38461511, 3998.07692252, 3911.66666598, 3980.76923022, 3972.69230714, 4132.69230742, 4132.56410229, 4128.71794844, 4128.20512793, 4188.58974345,8.57
4118.84615357, 4125.25640998, 4123.97435870, 4011.28205080, 4117.17948691, 4014.10256362, 3909.23076854, 3991.66666611, 3997.30769176, 4129.35897408, 4129.99999973, 4119.48717921, 4127.82051255, 4187.43589730,8.57
4122.05128178, 4123.20512793, 4126.02564075, 4039.23076882, 4117.05128178, 4048.58974318, 3915.38461469, 3996.92307637, 4013.97435849, 4125.38461511, 4129.87179460, 4123.71794844, 4133.33333306, 4193.97435884,8.57
4119.74358947, 4119.23076896, 4121.66666639, 4042.56410215, 4118.84615357, 4036.92307651, 3914.35897367, 3997.17948663, 4008.07692259, 4127.82051255, 4128.58974332, 4114.87179460, 4127.17948691, 4189.23076910,8.57
4125.51282024, 4129.10256383, 4125.89743562, 4010.64102516, 4119.48717921, 3988.84615329, 3888.46153770, 3977.56410201, 3991.02564047, 4130.38461511, 4130.89743562, 4127.56410229, 4129.61538434, 4187.94871781,8.57
4116.66666639, 4126.79487152, 4119.99999973, 4008.97435849, 4117.17948691, 3994.35897381, 3895.64102488, 3967.17948656, 3994.87179432, 4128.58974332, 4130.89743562, 4121.02564075, 4132.30769203, 4182.43589730,8.57
4122.43589716, 4124.10256383, 4125.51282024, 4046.28205087, 4117.94871767, 4030.76923029, 3949.23076861, 4000.38461483, 4021.28205080, 4129.48717921, 4135.51282031, 4113.84615357, 4131.66666639, 4186.41025628,8.57
4127.56410229, 4126.79487152, 4129.48717921, 4060.76923036, 4117.69230742, 4019.99999952, 3972.56410201, 4014.87179439, 4015.64102516, 4131.15384588, 4138.71794851, 4126.79487152, 4130.64102537, 4188.33333320,8.57
4121.02564075, 4123.46153819, 4123.58974332, 4050.38461497, 4118.33333306, 4003.07692252, 3957.94871733, 3991.02564047, 3994.10256355, 4129.35897408, 4132.56410229, 4118.71794844, 4124.48717921, 4182.94871781,8.57
4126.79487152, 4125.76923050, 4131.02564075, 4050.51282010, 4118.07692280, 4022.94871747, 3945.89743528, 3987.30769176, 4000.51281996, 4129.35897408, 4136.53846133, 4128.71794844, 4131.53846126, 4191.92307679,8.57
4120.51282024, 4123.33333306, 4124.87179460, 4043.46153805, 4115.25640998, 4026.15384567, 3934.99999931, 4008.84615336, 4011.53846106, 4128.84615357, 4138.33333313, 4129.23076896, 4132.17948691, 4188.71794858,8.57
4125.89743562, 4126.53846126, 4124.48717921, 4015.76923029, 4118.46153819, 4001.79487124, 3928.58974290, 4018.58974311, 4005.51282003, 4126.41025614, 4133.71794844, 4123.20512793, 4127.43589716, 4188.33333320,8.57
4130.38461511, 4130.38461511, 4131.66666639, 4017.82051234, 4120.51282024, 4011.66666618, 3947.43589681, 4012.30769183, 4004.35897388, 4127.05128178, 4137.82051262, 4136.53846133, 4133.07692280, 4194.87179474,8.57
4118.97435870, 4122.30769203, 4125.25640998, 4043.46153805, 4119.35897408, 4038.84615343, 3944.99999938, 3996.66666611, 4004.48717900, 4127.43589716, 4137.82051262, 4126.79487152, 4130.51282024, 4192.30769217,8.57
4126.66666639, 4125.12820485, 4126.92307665, 4054.10256369, 4117.30769203, 4033.84615336, 3909.87179418, 3995.12820458, 4003.97435842, 4125.64102537, 4134.87179460, 4132.05128178, 4132.30769203, 4200.38461525,8.57
4123.58974332, 4127.69230742, 4120.64102537, 4047.82051241, 4114.23076896, 4013.58974311, 3897.17948642, 3996.28205073, 4005.76923029, 4124.99999973, 4134.61538434, 4131.02564075, 4134.48717921, 4196.79487166,8.57
4119.99999973, 4126.28205101, 4122.05128178, 4039.87179446, 4116.15384588, 4001.66666611, 3899.23076847, 3974.23076868, 3996.15384560, 4127.69230742, 4134.99999973, 4117.69230742, 4132.56410229, 4192.30769217,8.57
4124.48717921, 4128.07692280, 4130.25640998, 4055.76923036, 4116.15384588, 4018.71794824, 3916.41025572, 3992.17948663, 4014.10256362, 4131.53846126, 4138.58974339, 4133.58974332, 4135.25640998, 4201.02564096,8.57
4118.58974332, 4124.35897408, 4120.12820485, 4064.99999959, 4113.07692280, 4040.25640984, 3946.41025579, 4023.84615336, 4032.43589695, 4129.87179460, 4137.05128185, 4123.84615357, 4129.99999973, 4195.51282038,8.57
4123.97435870, 4126.53846126, 4121.92307665, 4049.23076882, 4117.05128178, 4028.46153798, 3948.33333271, 3992.94871740, 3999.23076868, 4127.69230742, 4136.53846133, 4118.46153819, 4130.51282024, 4191.66666653,8.57
4119.35897408, 4122.82051255, 4124.61538434, 4052.43589702, 4118.07692280, 4011.41025593, 3935.76923008, 3989.87179432, 3993.20512765, 4129.87179460, 4137.05128185, 4124.35897408, 4130.12820485, 4186.66666653,8.57
4115.64102537, 4121.02564075, 4123.58974332, 4060.25640984, 4116.53846126, 4001.79487124, 3919.74358905, 4009.74358926, 4004.23076875, 4130.12820485, 4136.41025621, 4113.97435870, 4124.48717921, 4182.69230756,8.57
4123.84615357, 4128.46153819, 4126.15384588, 4055.51282010, 4116.02564075, 4008.84615336, 3915.12820444, 3989.23076868, 3990.76923022, 4128.84615357, 4139.87179467, 4122.05128178, 4128.84615357, 4188.20512807,8.57
4119.74358947, 4123.46153819, 4121.41025614, 4057.05128164, 4117.17948691, 4021.79487131, 3934.87179418, 3982.82051227, 3994.61538406, 4129.48717921, 4136.41025621, 4116.41025614, 4127.69230742, 4183.97435884,8.57
4125.12820485, 4125.76923050, 4131.53846126, 4052.30769189, 4119.61538434, 4007.05128157, 3947.05128143, 3992.69230714, 3997.94871740, 4128.84615357, 4135.51282031, 4117.94871767, 4129.23076896, 4188.33333320,8.57
4123.58974332, 4129.35897408, 4129.23076896, 4055.51282010, 4117.17948691, 4010.64102516, 3947.69230707, 3990.38461483, 3992.30769176, 4126.66666639, 4139.35897415, 4129.23076896, 4130.12820485, 4187.43589730,8.57
4122.94871767, 4126.92307665, 4119.87179460, 4081.66666632, 4117.43589716, 4040.51282010, 3956.41025579, 4015.76923029, 4028.07692259, 4126.28205101, 4139.87179467, 4121.15384588, 4124.74358947, 4183.07692294,8.57
4129.61538434, 4128.84615357, 4125.89743562, 4075.51282017, 4117.30769203, 4029.74358926, 3958.46153784, 4035.89743541, 4049.74358933, 4128.84615357, 4142.94871774, 4133.58974332, 4131.53846126, 4193.46153833,8.57
4118.58974332, 4122.69230742, 4120.76923050, 4034.23076875, 4115.51282024, 4003.46153791, 3939.23076861, 3994.48717894, 4000.25640970, 4128.97435870, 4136.66666646, 4129.99999973, 4131.15384588, 4189.35897422,8.57
4127.43589716, 4125.64102537, 4129.10256383, 4038.20512779, 4120.12820485, 4030.64102516, 3932.17948649, 3976.53846099, 3983.20512765, 4126.79487152, 4132.30769203, 4125.76923050, 4131.02564075, 4191.79487166,8.57
4128.84615357, 4128.71794844, 4129.99999973, 4068.33333292, 4117.56410229, 4056.02564061, 3932.94871726, 4005.76923029, 4017.17948670, 4127.43589716, 4137.94871774, 4135.51282031, 4136.66666646, 4196.15384602,8.57
4119.61538434, 4121.28205101, 4117.05128178, 4063.07692266, 4113.84615357, 4031.92307644, 3922.17948649, 4004.35897388, 4012.43589695, 4129.23076896, 4137.17948697, 4126.02564075, 4131.92307665, 4190.64102551,8.57
4129.99999973, 4124.74358947, 4124.74358947, 4055.51282010, 4115.89743562, 4021.15384567, 3941.28205066, 3992.94871740, 3996.41025586, 4129.61538434, 4136.28205108, 4135.12820485, 4132.69230742, 4196.28205115,8.57
4120.89743562, 4124.61538434, 4121.92307665, 4067.17948677, 4114.87179460, 4032.43589695, 3969.61538399, 4008.46153798, 4011.92307644, 4127.82051255, 4136.53846133, 4125.51282024, 4131.02564075, 4191.41025628,8.57
4117.69230742, 4123.20512793, 4119.61538434, 4066.41025600, 4115.38461511, 4019.99999952, 3947.43589681, 4002.43589688, 4010.76923029, 4128.97435870, 4136.66666646, 4115.89743562, 4129.61538434, 4193.07692294,8.57
4123.71794844, 4121.79487152, 4122.43589716, 4078.07692273, 4116.02564075, 4028.97435849, 3953.46153784, 3999.99999945, 4017.30769183, 4132.30769203, 4138.84615364, 4133.84615357, 4134.61538434, 4196.92307679,8.57
4118.46153819, 4117.94871767, 4118.33333306, 4109.48717921, 4118.07692280, 4074.87179453, 4012.30769183, 4054.48717907, 4067.05128164, 4130.64102537, 4137.05128185, 4121.53846126, 4127.94871767, 4186.53846140,8.57
4122.56410229, 4127.30769203, 4123.84615357, 4092.05128171, 4119.23076896, 4064.23076882, 3993.33333278, 4062.17948677, 4058.33333292, 4127.05128178, 4136.92307672, 4122.69230742, 4126.53846126, 4189.61538448,8.57
4119.35897408, 4125.64102537, 4120.38461511, 4049.10256369, 4116.92307665, 4014.99999952, 3929.74358905, 3996.53846099, 3988.20512765, 4126.66666639, 4134.23076896, 4125.89743562, 4126.92307665, 4187.56410243,8.57
4122.30769203, 4119.74358947, 4124.10256383, 4057.69230728, 4118.84615357, 4019.35897388, 3948.20512758, 3984.23076868, 3978.46153791, 4128.58974332, 4132.30769203, 4116.66666639, 4128.20512793, 4187.30769217,8.57
4124.61538434, 4124.61538434, 4132.30769203, 4087.43589709, 4118.46153819, 4052.30769189, 3997.82051227, 4033.07692259, 4031.53846106, 4130.51282024, 4136.53846133, 4126.28205101, 4133.71794844, 4191.15384602,8.57
4115.89743562, 4124.10256383, 4123.33333306, 4089.87179453, 4117.17948691, 4064.61538420, 4003.71794817, 4047.43589702, 4055.89743548, 4131.02564075, 4133.33333306, 4117.17948691, 4126.66666639, 4183.07692294,8.57
4127.43589716, 4127.05128178, 4127.94871767, 4083.07692273, 4118.97435870, 4060.25640984, 3984.10256355, 4026.15384567, 4040.51282010, 4129.61538434, 4133.58974332, 4121.28205101, 4129.10256383, 4190.25641012,8.57
4124.87179460, 4126.15384588, 4128.71794844, 4077.56410222, 4118.46153819, 4051.92307651, 3983.07692252, 4024.61538413, 4035.64102516, 4128.84615357, 4138.58974339, 4129.61538434, 4132.17948691, 4193.20512807,8.57
4120.51282024, 4124.48717921, 4125.12820485, 4076.41025607, 4118.58974332, 4053.20512779, 4022.69230721, 4046.15384574, 4054.74358933, 4128.46153819, 4139.23076903, 4122.05128178, 4126.41025614, 4188.58974345,8.57
4127.05128178, 4129.74358947, 4127.17948691, 4085.12820478, 4116.15384588, 4060.76923036, 4034.48717900, 4046.41025600, 4054.74358933, 4127.56410229, 4138.97435877, 4131.02564075, 4131.92307665, 4193.46153833,8.57
4120.51282024, 4126.15384588, 4119.23076896, 4075.12820478, 4115.38461511, 4042.43589702, 3978.84615329, 4004.74358926, 4008.46153798, 4126.41025614, 4135.38461518, 4122.30769203, 4132.17948691, 4188.97435884,8.57
4128.97435870, 4126.28205101, 4127.94871767, 4061.53846113, 4119.10256383, 4028.84615336, 3960.12820451, 3989.10256355, 3990.64102509, 4126.92307665, 4140.12820492, 4126.15384588, 4131.53846126, 4191.79487166,8.57
4128.84615357, 4125.64102537, 4129.48717921, 4080.25640991, 4116.66666639, 4049.99999959, 3999.35897381, 4022.17948670, 4029.10256362, 4128.07692280, 4144.87179467, 4136.66666646, 4132.56410229, 4191.66666653,8.57
4119.99999973, 4122.94871767, 4121.41025614, 4094.23076889, 4115.89743562, 4061.53846113, 4006.28205080, 4036.79487131, 4041.79487138, 4127.30769203, 4137.05128185, 4123.71794844, 4128.97435870, 4186.41025628,8.57
4124.23076896, 4126.28205101, 4126.79487152, 4088.33333299, 4117.30769203, 4055.12820472, 3989.99999945, 4032.30769183, 4028.46153798, 4128.46153819, 4136.66666646, 4133.58974332, 4133.97435870, 4192.17948704,8.57
4120.64102537, 4120.25640998, 4122.05128178, 4081.66666632, 4115.38461511, 4056.15384574, 3985.12820458, 4037.43589702, 4031.28205080, 4130.51282024, 4139.23076903, 4127.43589716, 4133.20512793, 4189.10256397,8.57
4125.38461511, 4121.79487152, 4123.97435870, 4066.28205087, 4118.58974332, 4058.46153805, 3969.10256348, 4022.05128157, 4018.20512772, 4128.71794844, 4136.15384595, 4120.64102537, 4133.33333306, 4192.30769217,8.57
4124.10256383, 4126.15384588, 4125.64102537, 4059.10256369, 4119.87179460, 4058.97435856, 3966.15384553, 4001.66666611, 4003.20512765, 4126.28205101, 4132.05128178, 4130.12820485, 4136.79487159, 4193.46153833,8.57
4117.43589716, 4120.12820485, 4120.12820485, 4083.46153812, 4118.46153819, 4064.99999959, 3990.51281996, 4025.12820465, 4030.89743541, 4128.07692280, 4131.53846126, 4117.17948691, 4129.48717921, 4184.35897422,8.57
4123.97435870, 4123.20512793, 4126.66666639, 4103.58974332, 4119.48717921, 4067.43589702, 3999.99999945, 4055.64102523, 4060.38461497, 4131.66666639, 4138.07692287, 4124.35897408, 4130.38461511, 4187.56410243,8.57
4117.30769203, 4124.10256383, 4122.56410229, 4090.76923043, 4116.79487152, 4054.74358933, 3974.10256355, 4032.43589695, 4034.99999952, 4130.89743562, 4136.53846133, 4122.94871767, 4131.15384588, 4185.25641012,8.57
4118.97435870, 4126.41025614, 4125.38461511, 4088.20512786, 4115.25640998, 4047.17948677, 3955.89743528, 3998.33333278, 4003.20512765, 4130.64102537, 4133.97435870, 4116.66666639, 4129.35897408, 4188.33333320,8.57
4123.07692280, 4129.74358947, 4130.25640998, 4098.20512786, 4116.15384588, 4045.76923036, 3967.94871733, 4008.46153798, 4012.56410208, 4131.41025614, 4138.71794851, 4128.46153819, 4130.89743562, 4191.02564089,8.57
4118.46153819, 4123.33333306, 4120.64102537, 4090.64102530, 4116.66666639, 4043.84615343, 3980.12820458, 4029.35897388, 4028.71794824, 4131.28205101, 4135.51282031, 4116.66666639, 4124.74358947, 4181.41025628,8.57
4130.64102537, 4124.35897408, 4126.41025614, 4085.25640991, 4118.71794844, 4058.71794830, 3989.48717894, 4042.05128164, 4040.76923036, 4132.43589716, 4135.51282031, 4124.87179460, 4128.58974332, 4186.79487166,8.57
4125.12820485, 4127.82051255, 4126.53846126, 4085.38461504, 4120.64102537, 4076.02564068, 4013.07692259, 4052.43589702, 4055.25640984, 4129.87179460, 4137.05128185, 4130.38461511, 4129.87179460, 4188.07692294,8.57
4117.56410229, 4129.74358947, 4123.97435870, 4078.07692273, 4120.38461511, 4074.35897402, 4026.92307644, 4045.12820472, 4053.33333292, 4128.07692280, 4134.10256383, 4119.23076896, 4128.84615357, 4188.58974345,8.57
4126.79487152, 4130.25640998, 4127.05128178, 4073.84615350, 4116.53846126, 4066.92307651, 4014.48717900, 4036.66666618, 4043.58974318, 4129.87179460, 4135.51282031, 4134.23076896, 4135.64102544, 4194.87179474,8.57
4126.66666639, 4125.25640998, 4122.05128178, 4079.23076889, 4116.53846126, 4063.46153805, 4009.35897388, 4043.71794830, 4046.79487138, 4129.48717921, 4135.64102544, 4129.87179460, 4131.53846126, 4187.82051269,8.57
4127.82051255, 4126.28205101, 4129.23076896, 4082.30769196, 4119.10256383, 4057.56410215, 4017.30769183, 4039.10256369, 4040.64102523, 4128.84615357, 4137.30769210, 4127.69230742, 4132.17948691, 4192.43589730,8.57
4122.69230742, 4124.99999973, 4125.89743562, 4082.17948684, 4116.66666639, 4056.41025600, 4012.17948670, 4022.17948670, 4026.28205080, 4128.97435870, 4135.12820485, 4130.12820485, 4132.43589716, 4193.84615371,8.57
4122.30769203, 4123.84615357, 4116.79487152, 4087.05128171, 4118.58974332, 4060.64102523, 4006.15384567, 4019.87179439, 4031.02564054, 4128.46153819, 4132.30769203, 4122.05128178, 4127.17948691, 4191.41025628,8.57
4125.64102537, 4126.41025614, 4118.58974332, 4098.46153812, 4117.69230742, 4069.48717907, 4026.41025593, 4027.43589695, 4037.69230728, 4129.48717921, 4137.30769210, 4131.28205101, 4133.71794844, 4198.20512807,8.57
4118.07692280, 4120.51282024, 4116.53846126, 4100.38461504, 4114.35897408, 4071.28205094, 4039.74358933, 4028.46153798, 4032.05128157, 4129.48717921, 4133.97435870, 4122.30769203, 4132.94871767, 4190.38461525,8.57
4124.35897408, 4125.89743562, 4124.87179460, 4083.07692273, 4120.12820485, 4049.61538420, 4017.56410208, 4023.46153798, 4024.10256362, 4127.82051255, 4131.79487152, 4122.56410229, 4129.48717921, 4189.87179474,8.57
4122.17948691, 4128.07692280, 4123.71794844, 4092.82051248, 4120.89743562, 4055.38461497, 4024.74358926, 4049.35897395, 4046.66666625, 4127.82051255, 4134.74358947, 4129.10256383, 4129.61538434, 4191.41025628,8.57
4118.33333306, 4121.53846126, 4118.58974332, 4125.64102537, 4118.07692280, 4093.20512786, 4061.28205087, 4084.74358940, 4076.79487145, 4127.56410229, 4133.84615357, 4115.64102537, 4127.17948691, 4186.66666653,8.57
4125.38461511, 4127.43589716, 4126.92307665, 4136.02564082, 4118.58974332, 4115.38461511, 4072.30769196, 4086.92307658, 4084.74358940, 4127.69230742, 4136.02564082, 4125.38461511, 4129.74358947, 4190.51282038,8.57
4117.05128178, 4124.87179460, 4121.92307665, 4134.87179460, 4118.07692280, 4118.97435870, 4076.66666632, 4089.61538427, 4096.15384581, 4129.35897408, 4135.89743569, 4121.02564075, 4127.43589716, 4186.15384602,8.57
4124.10256383, 4123.07692280, 4126.66666639, 4131.66666639, 4118.46153819, 4104.61538434, 4080.12820478, 4097.17948684, 4099.35897402, 4130.25640998, 4138.07692287, 4118.58974332, 4130.38461511, 4190.64102551,8.57
4128.58974332, 4126.15384588, 4129.10256383, 4117.69230742, 4118.84615357, 4085.38461504, 4049.61538420, 4069.74358940, 4069.61538420, 4130.12820485, 4140.25641005, 4128.07692280, 4132.56410229, 4191.92307679,8.57
4120.12820485, 4124.10256383, 4120.89743562, 4108.46153819, 4120.89743562, 4085.25640991, 4012.30769183, 4037.69230728, 4044.23076882, 4129.61538434, 4135.25640998, 4114.99999973, 4123.58974332, 4182.94871781,8.57
4125.38461511, 4127.43589716, 4126.41025614, 4110.25640998, 4119.99999973, 4088.07692273, 4012.82051234, 4043.46153805, 4058.07692266, 4132.69230742, 4137.43589723, 4127.56410229, 4130.38461511, 4189.23076910,8.57
4120.25640998, 4126.79487152, 4123.71794844, 4104.35897408, 4117.30769203, 4075.12820478, 4022.05128157, 4057.05128164, 4075.51282017, 4132.94871767, 4138.33333313, 4130.51282024, 4132.82051255, 4187.17948704,8.57
4123.97435870, 4127.43589716, 4124.35897408, 4097.69230735, 4118.71794844, 4065.12820472, 4004.23076875, 4044.87179446, 4058.84615343, 4128.71794844, 4134.99999973, 4123.20512793, 4129.10256383, 4188.71794858,8.57
4127.69230742, 4126.92307665, 4124.87179460, 4116.66666639, 4117.69230742, 4089.35897402, 4010.76923029, 4045.51282010, 4050.38461497, 4128.46153819, 4137.17948697, 4135.76923056, 4133.58974332, 4196.28205115,8.57
4120.89743562, 4123.71794844, 4120.12820485, 4142.30769210, 4119.61538434, 4120.89743562, 4050.38461497, 4083.84615350, 4081.41025607, 4130.38461511, 4138.97435877, 4127.43589716, 4131.02564075, 4191.66666653,8.57
4126.02564075, 4128.07692280, 4128.33333306, 4146.92307672, 4119.10256383, 4116.79487152, 4059.61538420, 4111.92307665, 4105.76923050, 4130.76923050, 4139.87179467, 4132.17948691, 4133.20512793, 4195.51282038,8.57
4119.10256383, 4124.61538434, 4122.82051255, 4136.53846133, 4112.17948691, 4095.76923043, 4038.07692266, 4092.43589709, 4085.25640991, 4130.38461511, 4135.89743569, 4128.71794844, 4132.30769203, 4193.46153833,8.57
4121.79487152, 4123.97435870, 4122.17948691, 4139.87179467, 4114.48717921, 4101.15384581, 4042.82051241, 4086.02564068, 4087.94871761, 4130.25640998, 4131.66666639, 4118.58974332, 4128.71794844, 4192.56410243,8.57
4127.30769203, 4125.64102537, 4127.17948691, 4148.58974339, 4117.94871767, 4110.64102537, 4053.07692266, 4098.46153812, 4114.87179460, 4131.53846126, 4132.82051255, 4131.66666639, 4132.94871767, 4194.99999986,8.57
4117.43589716, 4118.71794844, 4118.97435870, 4134.87179460, 4117.43589716, 4093.58974325, 4027.05128157, 4064.99999959, 4083.20512786, 4130.76923050, 4131.02564075, 4119.99999973, 4129.61538434, 4188.97435884,8.57
4121.28205101, 4125.51282024, 4124.87179460, 4131.41025614, 4119.61538434, 4092.05128171, 4016.92307644, 4039.99999959, 4052.05128164, 4128.20512793, 4133.71794844, 4123.20512793, 4131.53846126, 4192.94871781,8.57
4118.20512793, 4126.79487152, 4122.05128178, 4163.84615364, 4119.87179460, 4128.46153819, 4068.07692266, 4088.71794837, 4099.74358940, 4126.41025614, 4136.79487159, 4127.17948691, 4130.51282024, 4188.46153833,8.57
4121.15384588, 4120.89743562, 4118.20512793, 4178.84615371, 4120.89743562, 4146.92307672, 4098.84615350, 4123.33333306, 4131.92307665, 4128.20512793, 4135.76923056, 4115.89743562, 4126.79487152, 4186.02564089,8.57
4129.10256383, 4126.53846126, 4124.87179460, 4145.25641005, 4119.99999973, 4119.10256383, 4052.30769189, 4083.97435863, 4091.66666632, 4132.05128178, 4136.28205108, 4127.43589716, 4131.53846126, 4190.51282038,8.57
4122.17948691, 4127.43589716, 4122.17948691, 4122.17948691, 4118.97435870, 4102.56410229, 4022.30769183, 4063.46153805, 4075.76923043, 4129.99999973, 4130.89743562, 4119.48717921, 4126.79487152, 4183.07692294,8.57
4127.43589716, 4127.17948691, 4128.33333306, 4141.15384595, 4120.25640998, 4121.66666639, 4056.15384574, 4097.05128171, 4111.15384588, 4125.89743562, 4132.43589716, 4120.76923050, 4129.35897408, 4189.74358961,8.57
4123.20512793, 4123.20512793, 4124.10256383, 4156.79487159, 4117.17948691, 4128.33333306, 4070.38461504, 4119.48717921, 4135.89743569, 4127.69230742, 4136.92307672, 4127.05128178, 4132.69230742, 4189.61538448,8.57
4122.43589716, 4123.84615357, 4121.66666639, 4149.48717928, 4119.99999973, 4117.30769203, 4045.12820472, 4103.97435870, 4121.15384588, 4129.23076896, 4132.17948691, 4116.53846126, 4128.97435870, 4183.97435884,8.57
4131.15384588, 4130.51282024, 4129.74358947, 4141.53846133, 4123.46153819, 4110.89743562, 4033.46153798, 4074.35897402, 4084.99999966, 4126.92307665, 4133.46153819, 4132.30769203, 4134.74358947, 4193.20512807,8.57
4121.53846126, 4125.38461511, 4120.76923050, 4158.20512800, 4120.12820485, 4119.74358947, 4054.35897395, 4086.28205094, 4094.61538427, 4126.41025614, 4136.28205108, 4129.48717921, 4131.15384588, 4189.87179474,8.57
4128.33333306, 4126.41025614, 4127.30769203, 4178.84615371, 4117.56410229, 4139.74358954, 4078.07692273, 4119.99999973, 4133.71794844, 4130.38461511, 4138.20512800, 4123.97435870, 4130.12820485, 4191.92307679,8.57
4128.97435870, 4129.23076896, 4128.33333306, 4171.92307679, 4115.76923050, 4138.20512800, 4074.35897402, 4104.35897408, 4116.15384588, 4131.41025614, 4138.33333313, 4132.69230742, 4134.74358947, 4194.74358961,8.57
4118.07692280, 4123.46153819, 4117.05128178, 4174.35897422, 4118.46153819, 4128.33333306, 4068.20512779, 4079.48717914, 4087.17948684, 4126.41025614, 4136.41025621, 4125.25640998, 4128.20512793, 4189.74358961,8.57
4124.99999973, 4124.10256383, 4124.35897408, 4194.35897422, 4119.23076896, 4137.17948697, 4082.30769196, 4111.66666639, 4121.28205101, 4125.12820485, 4139.87179467, 4135.38461518, 4130.76923050, 4195.38461525,8.57
4120.76923050, 4121.53846126, 4120.51282024, 4169.61538448, 4115.51282024, 4126.79487152, 4080.76923043, 4126.15384588, 4132.82051255, 4129.87179460, 4133.97435870, 4127.17948691, 4131.92307665, 4191.41025628,8.57
4121.66666639, 4126.02564075, 4119.74358947, 4135.64102544, 4116.66666639, 4102.17948684, 4062.82051241, 4087.94871761, 4090.89743555, 4128.97435870, 4127.43589716, 4119.23076896, 4129.48717921, 4192.17948704,8.57
4124.87179460, 4130.12820485, 4123.33333306, 4159.35897415, 4116.02564075, 4115.25640998, 4065.25640984, 4084.48717914, 4094.61538427, 4124.10256383, 4130.76923050, 4132.30769203, 4130.76923050, 4193.84615371,8.57
4118.84615357, 4122.17948691, 4118.33333306, 4179.48717935, 4116.28205101, 4136.02564082, 4076.41025607, 4121.92307665, 4131.53846126, 4128.07692280, 4132.43589716, 4118.71794844, 4127.56410229, 4186.53846140,8.57
4121.92307665, 4124.74358947, 4123.46153819, 4172.17948704, 4120.51282024, 4138.07692287, 4087.05128171, 4147.43589723, 4145.76923056, 4133.46153819, 4136.15384595, 4122.30769203, 4130.51282024, 4192.43589730,8.57
4117.69230742, 4125.89743562, 4120.89743562, 4172.56410243, 4119.35897408, 4143.46153826, 4091.66666632, 4136.92307672, 4138.33333313, 4127.94871767, 4135.89743569, 4123.84615357, 4128.33333306, 4189.87179474,8.57
4122.94871767, 4125.89743562, 4123.58974332, 4157.43589723, 4119.87179460, 4129.48717921, 4064.35897395, 4098.97435863, 4113.84615357, 4123.97435870, 4133.20512793, 4115.64102537, 4126.53846126, 4186.28205115,8.57
4126.41025614, 4128.58974332, 4127.43589716, 4138.07692287, 4121.92307665, 4101.28205094, 4038.07692266, 4080.25640991, 4096.15384581, 4127.82051255, 4134.87179460, 4124.10256383, 4133.07692280, 4189.23076910,8.57
4117.17948691, 4124.10256383, 4119.74358947, 4147.94871774, 4120.64102537, 4103.71794844, 4049.10256369, 4097.82051248, 4103.33333306, 4128.97435870, 4132.17948691, 4113.20512793, 4127.05128178, 4186.53846140,8.57
4126.28205101, 4125.89743562, 4127.05128178, 4159.74358954, 4118.84615357, 4123.58974332, 4068.46153805, 4114.74358947, 4114.87179460, 4128.97435870, 4134.74358947, 4121.79487152, 4126.92307665, 4193.07692294,8.57
4125.64102537, 4123.20512793, 4125.38461511, 4153.97435877, 4117.30769203, 4130.38461511, 4070.89743555, 4105.76923050, 4112.69230742, 4128.33333306, 4135.64102544, 4130.12820485, 4129.87179460, 4189.23076910,8.57
4124.87179460, 4121.79487152, 4121.66666639, 4150.89743569, 4119.35897408, 4123.33333306, 4064.10256369, 4094.99999966, 4105.25640998, 4127.69230742, 4129.48717921, 4122.43589716, 4129.35897408, 4187.30769217,8.57
4127.69230742, 4127.43589716, 4128.20512793, 4164.48717928, 4118.71794844, 4132.69230742, 4073.46153812, 4112.30769203, 4116.53846126, 4129.87179460, 4133.58974332, 4135.38461518, 4134.74358947, 4197.17948704,8.57
4119.23076896, 4124.35897408, 4123.33333306, 4173.58974345, 4117.30769203, 4146.79487159, 4091.15384581, 4133.71794844, 4134.23076896, 4129.23076896, 4137.69230749, 4129.61538434, 4131.02564075, 4190.76923063,8.57
4128.84615357, 4126.41025614, 4127.17948691, 4159.61538441, 4119.87179460, 4131.02564075, 4087.05128171, 4125.38461511, 4125.51282024, 4126.02564075, 4136.66666646, 4133.58974332, 4133.46153819, 4192.56410243,8.57
4127.82051255, 4127.82051255, 4125.76923050, 4152.43589723, 4118.20512793, 4119.61538434, 4079.99999966, 4109.99999973, 4108.58974332, 4126.15384588, 4134.10256383, 4136.15384595, 4137.43589723, 4193.71794858,8.57
4120.12820485, 4124.35897408, 4120.51282024, 4159.48717928, 4119.87179460, 4127.69230742, 4083.46153812, 4104.99999973, 4108.58974332, 4129.48717921, 4131.28205101, 4119.48717921, 4131.79487152, 4190.38461525,8.57
4126.02564075, 4127.05128178, 4123.46153819, 4158.20512800, 4121.41025614, 4124.87179460, 4081.66666632, 4112.43589716, 4122.56410229, 4131.53846126, 4133.71794844, 4132.94871767, 4133.20512793, 4197.94871781,8.57
4120.38461511, 4123.84615357, 4117.17948691, 4151.92307672, 4117.17948691, 4113.20512793, 4072.82051248, 4112.05128178, 4117.69230742, 4129.74358947, 4132.05128178, 4127.82051255, 4129.35897408, 4192.82051269,8.57
4123.58974332, 4124.10256383, 4123.20512793, 4147.69230749, 4118.58974332, 4109.10256383, 4064.23076882, 4082.82051248, 4080.38461504, 4126.92307665, 4131.41025614, 4119.74358947, 4129.99999973, 4192.82051269,8.57
4124.35897408, 4124.10256383, 4124.23076896, 4147.82051262, 4122.30769203, 4117.56410229, 4068.58974318, 4071.66666632, 4066.02564061, 4128.97435870, 4132.05128178, 4125.12820485, 4134.87179460, 4193.07692294,8.57
4120.64102537, 4120.89743562, 4117.43589716, 4155.25641005, 4123.07692280, 4126.28205101, 4080.12820478, 4101.66666632, 4099.35897402, 4130.12820485, 4127.94871767, 4114.61538434, 4130.64102537, 4187.94871781,8.57
4125.64102537, 4127.43589716, 4126.92307665, 4157.05128185, 4121.92307665, 4115.25640998, 4071.53846119, 4108.97435870, 4118.84615357, 4126.41025614, 4129.35897408, 4125.38461511, 4132.94871767, 4192.69230756,8.57
4117.69230742, 4125.76923050, 4124.74358947, 4139.61538441, 4121.92307665, 4094.23076889, 4045.89743548, 4081.02564068, 4101.53846119, 4125.25640998, 4127.69230742, 4121.02564075, 4129.35897408, 4185.38461525,8.57
4122.82051255, 4124.23076896, 4125.64102537, 4131.41025614, 4122.94871767, 4092.30769196, 4040.76923036, 4078.58974325, 4100.25640991, 4129.61538434, 4128.20512793, 4114.99999973, 4126.53846126, 4185.38461525,8.57
4128.58974332, 4127.17948691, 4126.79487152, 4156.15384595, 4119.87179460, 4114.48717921, 4073.58974325, 4112.17948691, 4135.51282031, 4131.28205101, 4134.35897408, 4129.74358947, 4130.76923050, 4190.38461525,8.57
4124.10256383, 4124.23076896, 4121.53846126, 4168.20512807, 4120.51282024, 4129.87179460, 4096.66666632, 4125.12820485, 4151.02564082, 4128.71794844, 4132.56410229, 4117.94871767, 4126.79487152, 4187.82051269,8.57
4130.38461511, 4127.05128178, 4126.79487152, 4148.84615364, 4122.30769203, 4123.97435870, 4080.25640991, 4096.28205094, 4118.71794844, 4128.33333306, 4131.79487152, 4122.30769203, 4130.76923050, 4193.46153833,8.57
4123.84615357, 4127.56410229, 4122.30769203, 4149.35897415, 4119.61538434, 4133.97435870, 4082.82051248, 4097.30769196, 4110.38461511, 4127.69230742, 4131.66666639, 4127.69230742, 4130.38461511, 4186.15384602,8.57
4124.10256383, 4128.33333306, 4126.53846126, 4164.74358954, 4120.76923050, 4152.30769210, 4106.66666639, 4127.43589716, 4141.92307672, 4127.94871767, 4131.79487152, 4124.35897408, 4129.10256383, 4186.66666653,8.57
4127.43589716, 4128.84615357, 4131.53846126, 4147.56410236, 4119.10256383, 4131.15384588, 4084.74358940, 4105.12820485, 4134.99999973, 4131.02564075, 4132.43589716, 4134.61538434, 4137.94871774, 4198.20512807,8.57
4121.79487152, 4123.84615357, 4123.07692280, 4118.71794844, 4118.58974332, 4086.02564068, 4043.33333292, 4063.58974318, 4096.66666632, 4129.35897408, 4128.58974332, 4123.46153819, 4134.61538434, 4192.56410243,8.57
4130.12820485, 4126.28205101, 4128.58974332, 4125.38461511, 4121.79487152, 4078.84615350, 4042.94871754, 4064.35897395, 4088.71794837, 4126.28205101, 4130.51282024, 4131.66666639, 4132.43589716, 4191.02564089,8.57
4124.35897408, 4123.58974332, 4123.84615357, 4168.58974345, 4118.84615357, 4122.82051255, 4074.61538427, 4090.64102530, 4118.58974332, 4128.07692280, 4131.92307665, 4135.64102544, 4132.94871767, 4188.33333320,8.57
4118.84615357, 4123.33333306, 4120.76923050, 4196.15384602, 4119.35897408, 4154.87179467, 4094.61538427, 4112.30769203, 4146.92307672, 4131.02564075, 4132.94871767, 4122.43589716, 4131.92307665, 4192.43589730,8.57
4124.23076896, 4127.05128178, 4125.12820485, 4168.97435884, 4119.61538434, 4133.20512793, 4087.43589709, 4114.48717921, 4141.02564082, 4131.92307665, 4135.76923056, 4132.94871767, 4134.87179460, 4199.87179474,8.57
4118.07692280, 4118.84615357, 4115.51282024, 4135.89743569, 4117.05128178, 4101.28205094, 4071.02564068, 4089.99999966, 4104.99999973, 4128.33333306, 4129.10256383, 4122.69230742, 4130.12820485, 4189.74358961,8.57
4121.53846126, 4124.35897408, 4121.66666639, 4145.76923056, 4121.15384588, 4109.48717921, 4076.02564068, 4084.35897402, 4095.51282017, 4125.38461511, 4129.48717921, 4121.66666639, 4131.92307665, 4191.41025628,8.57
4121.41025614, 4129.61538434, 4126.53846126, 4162.17948697, 4124.23076896, 4134.74358947, 4096.41025607, 4115.51282024, 4128.58974332, 4128.97435870, 4134.48717921, 4126.41025614, 4130.89743562, 4191.92307679,8.57
4121.02564075, 4122.56410229, 4122.17948691, 4152.69230749, 4122.17948691, 4134.10256383, 4091.92307658, 4118.97435870, 4137.17948697, 4131.15384588, 4129.10256383, 4113.97435870, 4124.10256383, 4185.38461525,8.57
4124.61538434, 4124.99999973, 4125.76923050, 4147.94871774, 4119.23076896, 4129.61538434, 4080.89743555, 4106.79487152, 4131.15384588, 4128.20512793, 4129.23076896, 4124.99999973, 4129.87179460, 4189.61538448,8.57
4119.61538434, 4126.92307665, 4121.79487152, 4146.66666646, 4121.79487152, 4124.99999973, 4078.46153812, 4102.69230742, 4131.66666639, 4126.79487152, 4130.64102537, 4119.99999973, 4128.84615357, 4187.05128192,8.57
4131.15384588, 4129.48717921, 4127.43589716, 4141.92307672, 4125.12820485, 4117.05128178, 4078.46153812, 4086.79487145, 4109.23076896, 4129.23076896, 4130.12820485, 4119.87179460, 4129.74358947, 4190.51282038,8.57
4129.48717921, 4129.23076896, 4129.48717921, 4144.99999980, 4120.76923050, 4121.66666639, 4090.12820478, 4090.64102530, 4106.15384588, 4129.61538434, 4132.43589716, 4129.35897408, 4131.53846126, 4191.79487166,8.57
4120.89743562, 4126.41025614, 4126.02564075, 4132.05128178, 4120.38461511, 4111.92307665, 4081.15384581, 4105.25640998, 4121.92307665, 4127.30769203, 4130.12820485, 4119.23076896, 4125.25640998, 4187.82051269,8.57
4128.33333306, 4130.12820485, 4131.41025614, 4120.25640998, 4124.35897408, 4094.74358940, 4058.58974318, 4087.69230735, 4106.02564075, 4127.05128178, 4128.07692280, 4133.71794844, 4131.41025614, 4194.74358961,8.57
4120.89743562, 4123.71794844, 4123.71794844, 4144.48717928, 4122.56410229, 4118.84615357, 4081.41025607, 4091.28205094, 4107.94871767, 4126.92307665, 4129.61538434, 4132.30769203, 4131.53846126, 4192.17948704,8.57
4126.66666639, 4121.41025614, 4125.64102537, 4157.82051262, 4119.74358947, 4137.56410236, 4106.53846126, 4120.89743562, 4138.71794851, 4127.56410229, 4134.48717921, 4125.38461511, 4131.02564075, 4197.05128192,8.57
4131.15384588, 4126.02564075, 4127.30769203, 4132.30769203, 4118.33333306, 4100.12820478, 4072.43589709, 4091.79487145, 4112.69230742, 4128.20512793, 4132.82051255, 4136.92307672, 4136.41025621, 4202.69230763,8.57
4119.48717921, 4124.61538434, 4117.56410229, 4125.25640998, 4119.87179460, 4086.28205094, 4056.15384574, 4060.76923036, 4080.38461504, 4128.46153819, 4126.15384588, 4125.51282024, 4131.79487152, 4192.56410243,8.57
4122.94871767, 4126.28205101, 4122.69230742, 4141.15384595, 4118.58974332, 4115.38461511, 4084.23076889, 4089.23076889, 4108.33333306, 4130.25640998, 4131.66666639, 4130.25640998, 4131.92307665, 4195.76923063,8.57
4120.12820485, 4122.56410229, 4121.02564075, 4124.23076896, 4115.89743562, 4105.25640998, 4076.53846119, 4090.51282017, 4105.12820485, 4130.76923050, 4128.97435870, 4129.23076896, 4133.84615357, 4195.12820499,8.57
4122.82051255, 4122.17948691, 4122.30769203, 4106.66666639, 4121.28205101, 4086.15384581, 4061.15384574, 4069.48717907, 4076.53846119, 4130.25640998, 4123.07692280, 4119.99999973, 4133.58974332, 4194.48717935,8.57
4123.97435870, 4125.76923050, 4123.71794844, 4122.69230742, 4123.33333306, 4104.48717921, 4078.46153812, 4091.66666632, 4106.41025614, 4130.89743562, 4129.87179460, 4126.79487152, 4133.84615357, 4195.64102551,8.57
4115.38461511, 4121.79487152, 4117.82051255, 4118.58974332, 4122.17948691, 4102.56410229, 4071.02564068, 4096.02564068, 4118.46153819, 4131.53846126, 4126.41025614, 4116.15384588, 4127.43589716, 4188.71794858,8.57
4123.46153819, 4127.43589716, 4128.46153819, 4095.38461504, 4122.94871767, 4080.51282017, 4045.25640984, 4063.07692266, 4072.05128171, 4132.43589716, 4122.69230742, 4123.20512793, 4130.51282024, 4193.07692294,8.57
4121.66666639, 4126.28205101, 4125.51282024, 4112.30769203, 4119.48717921, 4099.99999966, 4065.76923036, 4079.35897402, 4086.41025607, 4129.99999973, 4128.58974332, 4122.17948691, 4132.69230742, 4187.69230756,8.57
4123.58974332, 4122.05128178, 4121.28205101, 4142.69230749, 4119.87179460, 4119.35897408, 4085.89743555, 4108.97435870, 4133.71794844, 4125.64102537, 4132.82051255, 4112.82051255, 4129.48717921, 4184.99999986,8.57
4127.94871767, 4127.05128178, 4127.17948691, 4130.76923050, 4122.56410229, 4090.76923043, 4057.82051241, 4076.79487145, 4092.05128171, 4127.30769203, 4133.20512793, 4131.15384588, 4133.20512793, 4191.28205115,8.57
4119.23076896, 4125.51282024, 4123.33333306, 4120.51282024, 4123.46153819, 4083.97435863, 4056.15384574, 4067.56410215, 4059.10256369, 4129.99999973, 4130.38461511, 4121.79487152, 4130.76923050, 4186.92307679,8.57
4128.71794844, 4127.30769203, 4130.51282024, 4158.07692287, 4122.30769203, 4131.79487152, 4104.48717921, 4121.41025614, 4124.35897408, 4127.94871767, 4135.64102544, 4122.05128178, 4133.20512793, 4192.69230756,8.57
4128.07692280, 4124.10256383, 4125.38461511, 4169.61538448, 4117.82051255, 4140.25641005, 4104.48717921, 4122.05128178, 4144.48717928, 4127.17948691, 4134.99999973, 4131.28205101, 4133.46153819, 4187.82051269,8.57
4124.10256383, 4122.43589716, 4120.12820485, 4119.23076896, 4120.64102537, 4076.41025607, 4041.92307651, 4055.51282010, 4072.94871761, 4128.97435870, 4128.84615357, 4120.89743562, 4129.48717921, 4184.35897422,8.57
4127.82051255, 4128.33333306, 4130.12820485, 4104.10256383, 4124.10256383, 4051.79487138, 4036.53846106, 4044.10256369, 4057.43589702, 4128.97435870, 4135.51282031, 4132.05128178, 4135.51282031, 4196.79487166,8.57
4121.02564075, 4125.12820485, 4124.35897408, 4149.35897415, 4122.82051255, 4097.82051248, 4090.64102530, 4098.84615350, 4113.84615357, 4126.15384588, 4139.10256390, 4126.53846126, 4131.15384588, 4190.12820499,8.57
4129.48717921, 4128.58974332, 4125.64102537, 4159.61538441, 4121.66666639, 4112.56410229, 4097.56410222, 4111.02564075, 4125.38461511, 4128.58974332, 4135.51282031, 4125.51282024, 4131.79487152, 4190.12820499,8.57
4127.17948691, 4128.07692280, 4124.48717921, 4121.02564075, 4119.74358947, 4091.41025607, 4083.07692273, 4082.30769196, 4098.97435863, 4132.69230742, 4131.02564075, 4132.56410229, 4134.23076896, 4195.89743576,8.57
4119.61538434, 4119.87179460, 4119.48717921, 4097.82051248, 4121.66666639, 4083.58974325, 4080.12820478, 4064.48717907, 4080.51282017, 4129.87179460, 4126.79487152, 4120.64102537, 4127.43589716, 4194.74358961,8.57
4127.30769203, 4123.71794844, 4124.87179460, 4115.51282024, 4122.30769203, 4088.97435863, 4068.46153805, 4061.92307651, 4076.28205094, 4128.33333306, 4129.61538434, 4130.64102537, 4132.94871767, 4198.07692294,8.57
4122.30769203, 4123.20512793, 4118.20512793, 4145.64102544, 4121.41025614, 4105.38461511, 4077.05128171, 4080.25640991, 4096.28205094, 4130.89743562, 4131.53846126, 4125.38461511, 4134.35897408, 4190.89743576,8.57
4124.74358947, 4124.48717921, 4123.84615357, 4144.87179467, 4125.12820485, 4108.07692280, 4091.92307658, 4094.99999966, 4106.66666639, 4130.12820485, 4133.07692280, 4119.87179460, 4131.92307665, 4192.94871781,8.57
4122.94871767, 4125.76923050, 4127.94871767, 4130.12820485, 4123.71794844, 4093.46153812, 4082.30769196, 4093.20512786, 4095.89743555, 4127.05128178, 4135.12820485, 4126.66666639, 4132.56410229, 4195.25641012,8.57
4115.12820485, 4121.28205101, 4119.99999973, 4132.69230742, 4121.53846126, 4091.66666632, 4072.69230735, 4087.82051248, 4090.25640991, 4129.48717921, 4129.99999973, 4112.56410229, 4127.30769203, 4184.23076910,8.57
4125.51282024, 4127.43589716, 4125.12820485, 4129.99999973, 4124.61538434, 4090.25640991, 4063.97435856, 4070.89743555, 4079.87179453, 4133.20512793, 4126.53846126, 4121.53846126, 4131.02564075, 4185.64102551,8.57
4122.43589716, 4125.89743562, 4121.66666639, 4120.12820485, 4122.94871767, 4082.30769196, 4052.05128164, 4057.30769189, 4072.17948684, 4129.48717921, 4125.25640998, 4121.28205101, 4128.58974332, 4184.35897422,8.57
4122.43589716, 4123.07692280, 4123.97435870, 4135.76923056, 4121.41025614, 4098.84615350, 4067.69230728, 4074.23076889, 4093.58974325, 4127.30769203, 4129.61538434, 4115.25640998, 4126.79487152, 4187.30769217,8.57
4127.05128178, 4126.02564075, 4128.71794844, 4144.23076903, 4120.89743562, 4112.69230742, 4081.66666632, 4089.23076889, 4104.99999973, 4130.25640998, 4131.28205101, 4127.43589716, 4132.17948691, 4191.79487166,8.57
4124.48717921, 4124.99999973, 4123.97435870, 4109.87179460, 4122.43589716, 4081.66666632, 4057.30769189, 4061.53846113, 4067.82051241, 4128.58974332, 4121.53846126, 4116.15384588, 4126.28205101, 4186.41025628,8.57
4132.30769203, 4129.10256383, 4129.87179460, 4082.05128171, 4124.23076896, 4053.97435856, 4045.38461497, 4049.35897395, 4048.58974318, 4127.17948691, 4122.17948691, 4122.17948691, 4129.35897408, 4192.30769217,8.57
4124.35897408, 4126.79487152, 4125.38461511, 4097.69230735, 4121.28205101, 4079.99999966, 4071.92307658, 4082.05128171, 4080.89743555, 4129.99999973, 4126.53846126, 4126.15384588, 4132.17948691, 4188.71794858,8.57
4124.74358947, 4126.79487152, 4125.25640998, 4119.61538434, 4123.07692280, 4112.82051255, 4090.89743555, 4099.23076889, 4105.25640998, 4128.58974332, 4126.15384588, 4121.02564075, 4131.41025614, 4188.20512807,8.57
4133.20512793, 4130.38461511, 4129.23076896, 4116.53846126, 4123.46153819, 4103.46153819, 4081.66666632, 4082.69230735, 4091.28205094, 4126.28205101, 4130.25640998, 4135.51282031, 4137.56410236, 4194.61538448,8.57
4123.07692280, 4125.89743562, 4119.23076896, 4106.79487152, 4122.94871767, 4078.07692273, 4065.76923036, 4062.05128164, 4070.64102530, 4129.23076896, 4127.94871767, 4124.35897408, 4131.66666639, 4187.94871781,8.57
4126.15384588, 4128.07692280, 4126.53846126, 4121.02564075, 4126.28205101, 4088.33333299, 4070.76923043, 4063.20512779, 4081.02564068, 4130.76923050, 4127.30769203, 4130.12820485, 4132.17948691, 4194.48717935,8.57
4123.46153819, 4125.89743562, 4126.02564075, 4146.02564082, 4125.76923050, 4115.76923050, 4086.53846119, 4073.71794837, 4093.58974325, 4127.30769203, 4130.64102537, 4136.41025621, 4135.64102544, 4194.10256397,8.57
4119.23076896, 4124.35897408, 4119.10256383, 4140.76923056, 4125.38461511, 4104.87179460, 4077.56410222, 4066.92307651, 4072.17948684, 4125.76923050, 4128.97435870, 4119.10256383, 4130.89743562, 4189.99999986,8.57
4122.05128178, 4127.69230742, 4123.46153819, 4125.64102537, 4124.61538434, 4083.33333299, 4061.79487138, 4060.25640984, 4062.30769189, 4126.79487152, 4128.58974332, 4128.07692280, 4130.89743562, 4196.53846140,8.57
4116.66666639, 4119.61538434, 4118.46153819, 4135.38461518, 4123.84615357, 4089.35897402, 4064.23076882, 4071.15384581, 4081.66666632, 4128.97435870, 4127.30769203, 4122.17948691, 4126.02564075, 4189.23076910,8.57
4124.99999973, 4124.61538434, 4122.69230742, 4144.48717928, 4123.84615357, 4089.74358940, 4060.89743548, 4066.02564061, 4070.89743555, 4132.05128178, 4129.35897408, 4119.61538434, 4128.07692280, 4189.35897422,8.57
4120.76923050, 4131.15384588, 4123.20512793, 4140.25641005, 4121.28205101, 4082.69230735, 4059.23076882, 4062.69230728, 4055.89743548, 4131.02564075, 4131.15384588, 4124.10256383, 4131.66666639, 4191.28205115,8.57
4116.79487152, 4125.12820485, 4121.53846126, 4143.46153826, 4123.58974332, 4096.28205094, 4077.05128171, 4085.76923043, 4077.05128171, 4130.12820485, 4127.69230742, 4113.20512793, 4128.20512793, 4187.43589730,8.57
4128.84615357, 4128.58974332, 4128.07692280, 4152.56410236, 4127.17948691, 4116.41025614, 4094.99999966, 4099.35897402, 4093.33333299, 4130.51282024, 4130.89743562, 4124.74358947, 4132.17948691, 4187.69230756,8.57
4119.61538434, 4127.56410229, 4119.48717921, 4142.43589723, 4123.46153819, 4113.84615357, 4091.79487145, 4092.69230735, 4096.28205094, 4127.69230742, 4128.84615357, 4118.97435870, 4127.05128178, 4177.82051269,8.57
4122.82051255, 4126.66666639, 4125.51282024, 4120.64102537, 4120.12820485, 4093.84615350, 4069.48717907, 4074.48717914, 4094.23076889, 4128.20512793, 4126.79487152, 4118.07692280, 4127.43589716, 4185.25641012,8.57
4129.74358947, 4126.28205101, 4129.35897408, 4112.56410229, 4121.92307665, 4084.87179453, 4054.10256369, 4060.12820472, 4085.25640991, 4131.02564075, 4128.71794844, 4130.12820485, 4133.71794844, 4191.79487166,8.57
4125.64102537, 4124.10256383, 4122.05128178, 4115.76923050, 4125.76923050, 4093.46153812, 4061.53846113, 4058.20512779, 4073.33333299, 4127.56410229, 4124.61538434, 4118.07692280, 4128.07692280, 4183.71794858,8.57
4128.46153819, 4128.58974332, 4128.46153819, 4135.25640998, 4123.84615357, 4117.17948691, 4092.17948684, 4082.69230735, 4088.84615350, 4126.66666639, 4127.82051255, 4129.74358947, 4131.66666639, 4191.53846140,8.57
4122.17948691, 4124.61538434, 4122.69230742, 4150.38461518, 4119.35897408, 4125.25640998, 4106.53846126, 4108.33333306, 4109.48717921, 4129.99999973, 4129.61538434, 4130.12820485, 4131.92307665, 4189.99999986,8.57
4129.61538434, 4125.25640998, 4122.82051255, 4145.38461518, 4122.05128178, 4105.51282024, 4087.30769196, 4097.69230735, 4094.87179453, 4129.74358947, 4129.23076896, 4122.69230742, 4128.46153819, 4190.25641012,8.57
4132.43589716, 4128.58974332, 4126.53846126, 4142.17948697, 4120.76923050, 4100.38461504, 4077.69230735, 4080.64102530, 4084.35897402, 4130.38461511, 4132.17948691, 4134.99999973, 4133.97435870, 4197.69230756,8.57
4122.30769203, 4124.23076896, 4119.61538434, 4142.30769210, 4119.87179460, 4113.58974332, 4091.28205094, 4087.69230735, 4100.25640991, 4129.74358947, 4129.61538434, 4125.64102537, 4133.71794844, 4191.02564089,8.57
4127.05128178, 4126.02564075, 4123.97435870, 4135.76923056, 4122.43589716, 4111.28205101, 4096.66666632, 4091.41025607, 4106.15384588, 4128.07692280, 4130.89743562, 4131.53846126, 4133.20512793, 4192.69230756,8.57
4120.51282024, 4122.82051255, 4120.38461511, 4140.64102544, 4118.97435870, 4106.92307665, 4088.07692273, 4073.07692273, 4091.15384581, 4129.35897408, 4131.66666639, 4129.74358947, 4131.79487152, 4192.82051269,8.57
4121.66666639, 4122.30769203, 4121.53846126, 4153.46153826, 4120.38461511, 4119.35897408, 4089.61538427, 4078.33333299, 4089.35897402, 4129.23076896, 4132.69230742, 4117.43589716, 4132.43589716, 4193.20512807,8.57
4125.12820485, 4124.99999973, 4126.66666639, 4142.69230749, 4123.84615357, 4119.99999973, 4096.28205094, 4101.15384581, 4098.33333299, 4128.46153819, 4132.82051255, 4126.02564075, 4134.87179460, 4191.79487166,8.57
4117.43589716, 4118.97435870, 4119.99999973, 4130.38461511, 4123.07692280, 4107.82051255, 4097.17948684, 4099.99999966, 4099.74358940, 4127.82051255, 4124.87179460, 4116.28205101, 4128.07692280, 4186.41025628,8.57
4124.23076896, 4124.48717921, 4125.89743562, 4132.94871767, 4121.15384588, 4095.25640991, 4084.10256376, 4085.64102530, 4094.48717914, 4126.41025614, 4125.64102537, 4121.66666639, 4129.48717921, 4192.56410243,8.57
4119.87179460, 4126.15384588, 4123.84615357, 4125.38461511, 4121.66666639, 4084.87179453, 4068.97435856, 4078.97435863, 4084.61538427, 4126.79487152, 4128.71794844, 4123.97435870, 4128.84615357, 4185.12820499,8.57
4119.87179460, 4126.15384588, 4123.84615357, 4125.38461511, 4121.66666639, 4084.87179453, 4068.97435856, 4078.97435863, 4084.61538427, 4126.79487152, 4128.71794844, 4123.97435870, 4128.84615357, 4185.12820499,8.57
4120.38461511, 4121.92307665, 4121.28205101, 4128.46153819, 4126.66666639, 4104.74358947, 4090.64102530, 4095.38461504, 4094.61538427, 4128.46153819, 4127.94871767, 4110.89743562, 4126.02564075, 4185.12820499,8.57
4126.79487152, 4126.02564075, 4128.20512793, 4146.41025621, 4123.58974332, 4123.71794844, 4110.12820485, 4105.76923050, 4105.38461511, 4128.97435870, 4131.41025614, 4127.05128178, 4132.30769203, 4194.74358961,8.57
4117.17948691, 4122.56410229, 4123.33333306, 4145.76923056, 4118.07692280, 4102.82051255, 4091.92307658, 4089.35897402, 4093.20512786, 4128.07692280, 4132.30769203, 4123.07692280, 4125.89743562, 4185.25641012,8.57
4128.20512793, 4123.58974332, 4127.94871767, 4141.92307672, 4120.76923050, 4094.23076889, 4084.10256376, 4082.69230735, 4088.84615350, 4127.43589716, 4134.35897408, 4120.64102537, 4127.56410229, 4191.41025628,8.57
4132.05128178, 4124.99999973, 4126.66666639, 4154.48717928, 4120.76923050, 4121.28205101, 4097.43589709, 4091.79487145, 4093.84615350, 4127.43589716, 4135.25640998, 4126.28205101, 4134.10256383, 4193.46153833,8.57
4123.46153819, 4124.10256383, 4125.12820485, 4160.64102544, 4119.74358947, 4134.23076896, 4099.61538427, 4092.05128171, 4091.02564068, 4128.84615357, 4132.17948691, 4119.99999973, 4129.23076896, 4185.12820499,8.57
4124.99999973, 4128.07692280, 4132.43589716, 4171.28205115, 4120.12820485, 4134.48717921, 4113.58974332, 4107.56410229, 4115.38461511, 4128.71794844, 4135.12820485, 4135.51282031, 4132.82051255, 4194.23076910,8.57
4122.05128178, 4124.61538434, 4123.84615357, 4181.02564089, 4122.43589716, 4133.71794844, 4128.20512793, 4131.66666639, 4148.33333313, 4127.30769203, 4133.46153819, 4128.20512793, 4130.89743562, 4192.05128192,8.57
4130.64102537, 4126.28205101, 4126.02564075, 4161.15384595, 4128.20512793, 4116.15384588, 4102.43589709, 4109.10256383, 4117.94871767, 4129.61538434, 4131.41025614, 4122.94871767, 4129.99999973, 4189.74358961,8.57
4127.30769203, 4125.12820485, 4126.15384588, 4152.82051262, 4126.02564075, 4110.89743562, 4092.69230735, 4076.66666632, 4073.33333299, 4130.12820485, 4133.33333306, 4132.94871767, 4134.74358947, 4192.94871781,8.57
4119.35897408, 4119.87179460, 4121.15384588, 4159.10256390, 4121.92307665, 4120.64102537, 4119.10256383, 4086.15384581, 4078.46153812, 4128.20512793, 4130.89743562, 4121.66666639, 4131.79487152, 4194.10256397,8.57
4125.76923050, 4125.38461511, 4127.17948691, 4146.53846133, 4122.56410229, 4114.48717921, 4125.12820485, 4103.71794844, 4101.66666632, 4129.23076896, 4131.53846126, 4129.87179460, 4132.56410229, 4198.97435884,8.57
4119.99999973, 4121.28205101, 4117.69230742, 4155.51282031, 4121.79487152, 4121.92307665, 4132.69230742, 4115.12820485, 4121.66666639, 4128.97435870, 4131.92307665, 4123.71794844, 4129.35897408, 4190.38461525,8.57
4124.87179460, 4122.30769203, 4120.89743562, 4182.82051269, 4122.43589716, 4143.84615364, 4152.43589723, 4119.99999973, 4130.89743562, 4127.94871767, 4133.71794844, 4116.53846126, 4129.10256383, 4189.35897422,8.57
4127.05128178, 4128.46153819, 4127.17948691, 4174.48717935, 4122.30769203, 4139.61538441, 4143.07692287, 4117.69230742, 4133.71794844, 4127.43589716, 4136.41025621, 4126.02564075, 4132.82051255, 4191.41025628,8.57
4118.84615357, 4120.76923050, 4118.33333306, 4159.23076903, 4125.12820485, 4123.84615357, 4114.99999973, 4117.94871767, 4140.76923056, 4127.30769203, 4134.10256383, 4113.58974332, 4127.17948691, 4183.97435884,8.57
4125.64102537, 4122.56410229, 4125.64102537, 4174.87179474, 4127.56410229, 4127.69230742, 4105.38461511, 4118.46153819, 4134.87179460, 4130.38461511, 4138.33333313, 4122.43589716, 4128.71794844, 4187.94871781,8.57
4122.17948691, 4126.53846126, 4126.15384588, 4176.02564089, 4123.71794844, 4132.69230742, 4115.89743562, 4112.43589716, 4112.05128178, 4130.76923050, 4138.58974339, 4123.33333306, 4126.66666639, 4185.51282038,8.57
4124.35897408, 4126.28205101, 4124.87179460, 4150.89743569, 4122.94871767, 4109.10256383, 4116.41025614, 4091.15384581, 4090.12820478, 4126.53846126, 4132.94871767, 4114.48717921, 4125.64102537, 4187.17948704,8.57
4129.48717921, 4126.41025614, 4128.33333306, 4156.66666646, 4123.71794844, 4101.15384581, 4126.53846126, 4090.12820478, 4097.82051248, 4125.64102537, 4134.87179460, 4129.35897408, 4131.41025614, 4193.20512807,8.57
