AF3,F7,F3,FC5,T7,P7,O1,O2,P8,T8,FC6,F4,F8,AF4,Label
4128.58974332, 4130.12820485, 4129.48717921, 4127.94871767, 4122.94871767, 4285.64102571, 4120.25640998, 4112.94871767, 4142.17948697, 4128.97435870, 4125.25640998, 4119.10256383, 4128.33333306, 4192.05128192,8.57
4117.94871767, 4124.74358947, 4124.74358947, 4122.56410229, 4124.10256383, 4286.15384623, 4115.76923050, 4098.84615350, 4106.28205101, 4129.74358947, 4128.97435870, 4125.76923050, 4128.46153819, 4194.99999986,8.57
4116.92307665, 4119.87179460, 4118.46153819, 4116.92307665, 4123.33333306, 4286.79487187, 4119.61538434, 4095.38461504, 4098.84615350, 4127.43589716, 4126.28205101, 4130.51282024, 4132.43589716, 4194.23076910,8.57
4133.20512793, 4130.25640998, 4127.69230742, 4123.33333306, 4127.05128178, 4294.10256418, 4122.17948691, 4097.82051248, 4113.84615357, 4125.64102537, 4120.64102537, 4122.56410229, 4129.10256383, 4193.46153833,8.57
4116.28205101, 4123.71794844, 4117.56410229, 4117.82051255, 4122.94871767, 4311.02564117, 4128.33333306, 4112.05128178, 4124.61538434, 4129.99999973, 4129.48717921, 4129.99999973, 4131.15384588, 4195.38461525,8.57
4129.87179460, 4128.58974332, 4126.53846126, 4123.97435870, 4128.71794844, 4292.69230777, 4126.02564075, 4118.58974332, 4124.48717921, 4130.64102537, 4123.58974332, 4128.07692280, 4130.38461511, 4195.89743576,8.57
4122.82051255, 4125.38461511, 4125.25640998, 4125.51282024, 4127.56410229, 4268.07692315, 4122.94871767, 4120.89743562, 4134.61538434, 4127.05128178, 4120.89743562, 4129.48717921, 4131.66666639, 4194.87179474,8.57
4110.38461511, 4120.38461511, 4117.43589716, 4120.12820485, 4120.25640998, 4279.10256418, 4125.76923050, 4131.92307665, 4149.10256390, 4125.89743562, 4124.23076896, 4124.23076896, 4128.84615357, 4190.76923063,8.57
4132.43589716, 4131.53846126, 4132.56410229, 4125.64102537, 4126.66666639, 4275.64102571, 4119.61538434, 4127.56410229, 4136.53846133, 4125.89743562, 4123.20512793, 4118.46153819, 4128.07692280, 4195.51282038,8.57
4118.33333306, 4121.66666639, 4122.82051255, 4119.74358947, 4123.84615357, 4260.12820513, 4117.30769203, 4107.94871767, 4109.10256383, 4126.92307665, 4128.33333306, 4126.92307665, 4133.84615357, 4193.07692294,8.57
4129.61538434, 4123.46153819, 4127.56410229, 4123.71794844, 4125.76923050, 4265.12820513, 4117.43589716, 4094.61538427, 4100.12820478, 4127.43589716, 4123.33333306, 4122.05128178, 4127.69230742, 4186.02564089,8.57
4130.25640998, 4122.43589716, 4128.07692280, 4125.89743562, 4126.41025614, 4265.25641026, 4106.41025614, 4088.97435863, 4109.87179460, 4125.51282024, 4124.23076896, 4125.51282024, 4129.48717921, 4190.76923063,8.57
4112.05128178, 4116.41025614, 4113.58974332, 4116.66666639, 4119.61538434, 4258.58974359, 4105.51282024, 4093.07692273, 4111.53846126, 4125.89743562, 4127.69230742, 4126.15384588, 4132.43589716, 4188.33333320,8.57
4134.35897408, 4132.05128178, 4129.10256383, 4124.87179460, 4126.02564075, 4267.30769238, 4124.35897408, 4113.84615357, 4119.87179460, 4127.82051255, 4124.74358947, 4125.12820485, 4129.48717921, 4188.97435884,8.57
4117.82051255, 4120.76923050, 4118.07692280, 4124.35897408, 4121.53846126, 4268.84615392, 4129.48717921, 4122.69230742, 4133.97435870, 4126.15384588, 4128.58974332, 4129.74358947, 4132.05128178, 4190.38461525,8.57
4123.97435870, 4120.76923050, 4120.76923050, 4122.05128178, 4121.66666639, 4252.05128206, 4116.92307665, 4111.28205101, 4118.84615357, 4124.87179460, 4125.89743562, 4124.35897408, 4127.94871767, 4190.89743576,8.57
4136.02564082, 4127.82051255, 4133.07692280, 4121.66666639, 4126.79487152, 4256.92307693, 4121.79487152, 4120.38461511, 4111.02564075, 4128.33333306, 4128.84615357, 4134.74358947, 4131.92307665, 4194.10256397,8.57
4108.33333306, 4114.48717921, 4112.30769203, 4116.66666639, 4119.87179460, 4270.51282059, 4134.23076896, 4136.02564082, 4126.15384588, 4128.58974332, 4126.66666639, 4127.82051255, 4133.84615357, 4185.51282038,8.57
4129.99999973, 4127.17948691, 4125.25640998, 4124.48717921, 4125.51282024, 4254.23076923, 4120.51282024, 4119.35897408, 4111.53846126, 4126.41025614, 4118.71794844, 4121.15384588, 4128.58974332, 4193.71794858,8.57
4120.38461511, 4126.28205101, 4122.69230742, 4117.82051255, 4121.53846126, 4242.43589744, 4111.66666639, 4109.61538434, 4101.53846119, 4128.71794844, 4128.20512793, 4131.41025614, 4133.20512793, 4197.69230756,8.57
4113.07692280, 4122.43589716, 4117.43589716, 4120.12820485, 4121.41025614, 4259.87179488, 4129.35897408, 4129.74358947, 4133.07692280, 4128.58974332, 4124.61538434, 4118.97435870, 4130.38461511, 4188.58974345,8.57
4131.15384588, 4126.41025614, 4130.51282024, 4128.71794844, 4134.35897408, 4269.35897443, 4133.20512793, 4131.66666639, 4145.89743569, 4126.53846126, 4122.56410229, 4121.92307665, 4129.10256383, 4196.28205115,8.57
4109.99999973, 4118.84615357, 4114.74358947, 4115.89743562, 4124.99999973, 4254.23076923, 4110.12820485, 4105.12820485, 4122.43589716, 4127.30769203, 4125.76923050, 4120.25640998, 4128.97435870, 4190.25641012,8.57
4128.84615357, 4131.41025614, 4126.41025614, 4121.15384588, 4123.20512793, 4245.12820513, 4099.87179453, 4095.76923043, 4106.02564075, 4127.43589716, 4121.15384588, 4117.43589716, 4128.84615357, 4188.20512807,8.57
4124.35897408, 4123.33333306, 4125.76923050, 4121.15384588, 4122.30769203, 4250.00000000, 4119.35897408, 4118.46153819, 4117.82051255, 4128.20512793, 4124.99999973, 4129.23076896, 4133.58974332, 4191.79487166,8.57
4114.61538434, 4117.17948691, 4118.58974332, 4120.25640998, 4119.61538434, 4258.58974359, 4136.41025621, 4133.58974332, 4131.41025614, 4127.69230742, 4122.94871767, 4120.38461511, 4127.43589716, 4187.56410243,8.57
4134.48717921, 4131.41025614, 4133.20512793, 4129.35897408, 4127.17948691, 4261.53846154, 4134.61538434, 4128.07692280, 4124.10256383, 4126.53846126, 4128.07692280, 4129.48717921, 4131.66666639, 4196.41025628,8.57
4113.20512793, 4122.05128178, 4116.41025614, 4118.33333306, 4119.10256383, 4251.41025641, 4134.10256383, 4127.17948691, 4116.02564075, 4127.43589716, 4132.17948691, 4130.38461511, 4135.89743569, 4191.02564089,8.57
4127.43589716, 4125.51282024, 4126.41025614, 4119.10256383, 4120.64102537, 4235.89743590, 4128.84615357, 4117.43589716, 4110.25640998, 4128.07692280, 4125.38461511, 4122.05128178, 4129.48717921, 4192.17948704,8.57
4125.12820485, 4118.84615357, 4127.43589716, 4122.05128178, 4123.20512793, 4231.53846147, 4116.53846126, 4103.97435870, 4106.15384588, 4128.71794844, 4130.12820485, 4134.99999973, 4134.23076896, 4197.69230756,8.57
4111.66666639, 4113.46153819, 4112.69230742, 4120.38461511, 4119.87179460, 4236.41025641, 4112.17948691, 4104.74358947, 4102.82051255, 4128.84615357, 4124.48717921, 4125.51282024, 4132.43589716, 4187.94871781,8.57
4134.23076896, 4126.66666639, 4127.94871767, 4124.23076896, 4127.30769203, 4233.71794865, 4107.30769203, 4101.02564068, 4092.56410222, 4129.61538434, 4123.84615357, 4128.46153819, 4132.94871767, 4196.15384602,8.57
4117.05128178, 4118.46153819, 4115.89743562, 4118.33333306, 4121.92307665, 4230.89743583, 4111.79487152, 4102.30769196, 4093.97435863, 4130.76923050, 4125.89743562, 4131.15384588, 4134.23076896, 4193.71794858,8.57
4122.82051255, 4124.35897408, 4119.74358947, 4124.23076896, 4122.17948691, 4228.71794865, 4123.97435870, 4117.30769203, 4109.61538434, 4129.99999973, 4115.38461511, 4118.97435870, 4129.10256383, 4188.33333320,8.57
4122.30769203, 4123.84615357, 4126.02564075, 4123.97435870, 4125.89743562, 4229.99999993, 4127.05128178, 4119.23076896, 4111.66666639, 4129.48717921, 4123.58974332, 4129.35897408, 4136.15384595, 4192.82051269,8.57
4110.64102537, 4119.23076896, 4117.17948691, 4117.69230742, 4123.71794844, 4241.79487180, 4127.94871767, 4111.79487152, 4103.20512793, 4128.20512793, 4124.61538434, 4119.35897408, 4131.02564075, 4184.23076910,8.57
4127.69230742, 4132.56410229, 4127.56410229, 4123.58974332, 4129.10256383, 4237.56410257, 4120.12820485, 4108.20512793, 4102.05128171, 4126.66666639, 4121.92307665, 4117.69230742, 4127.43589716, 4189.87179474,8.57
4114.23076896, 4123.58974332, 4117.05128178, 4117.82051255, 4123.07692280, 4227.56410250, 4108.20512793, 4105.12820485, 4102.94871767, 4127.05128178, 4130.25640998, 4129.35897408, 4132.43589716, 4191.41025628,8.57
4128.07692280, 4126.02564075, 4125.38461511, 4119.10256383, 4125.51282024, 4242.43589744, 4122.30769203, 4119.61538434, 4113.33333306, 4127.56410229, 4125.38461511, 4122.56410229, 4128.20512793, 4186.66666653,8.57
4126.66666639, 4126.02564075, 4129.99999973, 4120.25640998, 4127.30769203, 4248.97435898, 4138.33333313, 4139.48717928, 4135.12820485, 4129.48717921, 4127.30769203, 4129.35897408, 4133.97435870, 4194.74358961,8.57
4106.15384588, 4116.53846126, 4112.82051255, 4116.79487152, 4117.69230742, 4227.17948711, 4121.92307665, 4121.53846126, 4126.28205101, 4130.64102537, 4124.99999973, 4122.94871767, 4131.15384588, 4192.43589730,8.57
4131.15384588, 4126.79487152, 4126.28205101, 4125.64102537, 4127.30769203, 4225.89743583, 4109.10256383, 4094.23076889, 4097.82051248, 4128.20512793, 4123.20512793, 4124.61538434, 4126.02564075, 4194.48717935,8.57
4117.30769203, 4121.28205101, 4120.51282024, 4117.94871767, 4125.64102537, 4247.17948718, 4116.28205101, 4094.61538427, 4100.76923043, 4126.79487152, 4131.53846126, 4134.23076896, 4131.66666639, 4192.69230756,8.57
4119.35897408, 4125.51282024, 4121.02564075, 4116.79487152, 4121.02564075, 4237.69230770, 4110.51282024, 4095.12820478, 4106.15384588, 4127.05128178, 4124.35897408, 4124.74358947, 4131.92307665, 4192.17948704,8.57
4129.48717921, 4129.10256383, 4128.07692280, 4124.61538434, 4126.66666639, 4212.05128199, 4108.97435870, 4092.82051248, 4090.51282017, 4129.48717921, 4125.76923050, 4131.41025614, 4137.56410236, 4198.84615371,8.57
4109.48717921, 4117.82051255, 4115.89743562, 4121.66666639, 4122.94871767, 4215.12820506, 4121.92307665, 4101.92307658, 4092.17948684, 4129.99999973, 4127.94871767, 4121.92307665, 4132.94871767, 4188.07692294,8.57
4132.56410229, 4129.23076896, 4131.41025614, 4124.87179460, 4127.17948691, 4234.10256411, 4117.82051255, 4102.30769196, 4098.58974325, 4128.07692280, 4126.53846126, 4123.46153819, 4129.48717921, 4193.58974345,8.57
4125.25640998, 4124.48717921, 4127.30769203, 4119.61538434, 4124.10256383, 4237.69230770, 4113.33333306, 4104.87179460, 4092.82051248, 4129.48717921, 4128.84615357, 4133.58974332, 4134.23076896, 4194.61538448,8.57
4119.61538434, 4124.48717921, 4125.76923050, 4123.20512793, 4122.17948691, 4227.17948711, 4117.94871767, 4114.23076896, 4095.51282017, 4129.99999973, 4118.84615357, 4112.05128178, 4128.20512793, 4185.51282038,8.57
4130.12820485, 4131.53846126, 4133.71794844, 4126.66666639, 4125.25640998, 4226.28205122, 4108.20512793, 4105.76923050, 4100.25640991, 4129.10256383, 4124.10256383, 4120.64102537, 4133.46153819, 4194.35897422,8.57
4117.17948691, 4122.30769203, 4118.84615357, 4116.92307665, 4122.69230742, 4232.82051275, 4097.43589709, 4092.56410222, 4092.69230735, 4127.94871767, 4126.41025614, 4126.15384588, 4132.05128178, 4188.58974345,8.57
4134.87179460, 4130.12820485, 4131.53846126, 4124.23076896, 4131.66666639, 4225.76923070, 4098.97435863, 4096.79487145, 4089.48717914, 4126.53846126, 4123.71794844, 4124.10256383, 4126.15384588, 4190.76923063,8.57
4124.87179460, 4125.25640998, 4126.53846126, 4122.56410229, 4127.56410229, 4223.84615378, 4105.25640998, 4108.33333306, 4111.79487152, 4128.97435870, 4134.48717921, 4132.94871767, 4134.87179460, 4197.17948704,8.57
4123.71794844, 4123.84615357, 4120.25640998, 4120.64102537, 4123.84615357, 4240.76923077, 4106.02564075, 4103.71794844, 4124.99999973, 4128.58974332, 4126.41025614, 4121.28205101, 4132.69230742, 4189.87179474,8.57
4127.56410229, 4126.41025614, 4128.33333306, 4124.10256383, 4129.48717921, 4245.38461539, 4099.61538427, 4091.41025607, 4105.12820485, 4125.76923050, 4125.12820485, 4130.38461511, 4133.97435870, 4194.87179474,8.57
4113.46153819, 4122.05128178, 4121.66666639, 4120.51282024, 4125.89743562, 4231.92307686, 4102.30769196, 4097.69230735, 4092.43589709, 4126.92307665, 4131.41025614, 4138.07692287, 4136.79487159, 4197.30769217,8.57
4138.07692287, 4136.02564082, 4133.20512793, 4126.66666639, 4129.74358947, 4228.46153840, 4114.74358947, 4114.74358947, 4094.99999966, 4129.87179460, 4122.69230742, 4127.56410229, 4131.41025614, 4196.15384602,8.57
4129.23076896, 4129.99999973, 4130.64102537, 4126.79487152, 4129.23076896, 4236.53846154, 4112.30769203, 4106.79487152, 4087.05128171, 4131.02564075, 4126.15384588, 4135.89743569, 4134.74358947, 4195.38461525,8.57
4137.82051262, 4133.84615357, 4140.12820492, 4132.56410229, 4132.43589716, 4235.38461539, 4094.23076889, 4077.82051248, 4080.25640991, 4130.12820485, 4128.07692280, 4136.41025621, 4133.71794844, 4194.87179474,8.57
4145.89743569, 4138.58974339, 4143.58974339, 4131.79487152, 4133.71794844, 4227.56410250, 4089.48717914, 4079.10256376, 4102.69230742, 4130.38461511, 4126.28205101, 4133.33333306, 4133.58974332, 4198.20512807,8.57
4126.66666639, 4129.74358947, 4131.02564075, 4124.87179460, 4128.20512793, 4235.51282052, 4101.41025607, 4099.87179453, 4115.38461511, 4130.51282024, 4128.33333306, 4135.12820485, 4136.79487159, 4193.07692294,8.57
4141.92307672, 4136.79487159, 4139.23076903, 4132.05128178, 4134.99999973, 4245.64102564, 4101.28205094, 4094.48717914, 4091.02564068, 4127.69230742, 4122.30769203, 4124.87179460, 4129.74358947, 4187.82051269,8.57
4119.48717921, 4122.17948691, 4118.97435870, 4121.66666639, 4126.28205101, 4231.41025634, 4081.41025607, 4072.94871761, 4072.43589709, 4127.30769203, 4126.15384588, 4123.58974332, 4129.74358947, 4188.58974345,8.57
4123.97435870, 4122.94871767, 4124.10256383, 4120.12820485, 4120.76923050, 4223.33333327, 4072.30769196, 4067.05128164, 4069.35897395, 4128.84615357, 4128.20512793, 4125.64102537, 4132.56410229, 4190.25641012,8.57
4127.05128178, 4125.25640998, 4124.99999973, 4121.15384588, 4123.84615357, 4250.89743590, 4094.74358940, 4096.41025607, 4087.69230735, 4129.61538434, 4122.17948691, 4119.99999973, 4128.97435870, 4190.38461525,8.57
4105.51282024, 4112.94871767, 4105.64102537, 4114.48717921, 4120.38461511, 4269.23076930, 4115.12820485, 4129.23076896, 4119.10256383, 4130.25640998, 4128.58974332, 4127.69230742, 4131.28205101, 4194.48717935,8.57
4133.07692280, 4127.05128178, 4126.02564075, 4124.87179460, 4126.79487152, 4255.89743590, 4107.43589716, 4117.43589716, 4134.48717921, 4129.35897408, 4126.79487152, 4125.25640998, 4130.51282024, 4194.23076910,8.57
4108.20512793, 4116.02564075, 4110.25640998, 4115.76923050, 4117.30769203, 4255.25641026, 4107.69230742, 4099.99999966, 4141.53846133, 4127.69230742, 4124.10256383, 4120.25640998, 4131.02564075, 4185.51282038,8.57
4109.61538434, 4114.48717921, 4112.05128178, 4115.12820485, 4116.92307665, 4265.25641026, 4116.79487152, 4110.76923050, 4129.87179460, 4127.56410229, 4126.28205101, 4129.99999973, 4133.71794844, 4190.25641012,8.57
4124.10256383, 4122.30769203, 4119.10256383, 4120.76923050, 4123.20512793, 4276.28205136, 4120.76923050, 4117.94871767, 4096.41025607, 4128.71794844, 4122.05128178, 4122.43589716, 4129.61538434, 4192.05128192,8.57
4099.23076889, 4111.66666639, 4103.71794844, 4113.71794844, 4114.74358947, 4293.07692315, 4130.64102537, 4120.76923050, 4101.41025607, 4129.61538434, 4126.15384588, 4122.17948691, 4131.92307665, 4191.53846140,8.57
4125.64102537, 4124.23076896, 4127.43589716, 4122.30769203, 4121.79487152, 4288.46153853, 4133.07692280, 4131.66666639, 4137.69230749, 4128.97435870, 4123.84615357, 4122.69230742, 4132.43589716, 4193.71794858,8.57
4103.58974332, 4115.12820485, 4107.69230742, 4113.33333306, 4119.10256383, 4283.71794879, 4142.05128185, 4144.10256390, 4146.15384595, 4129.35897408, 4119.35897408, 4111.15384588, 4127.82051255, 4188.07692294,8.57
4103.84615357, 4117.43589716, 4106.79487152, 4114.10256383, 4120.38461511, 4293.46153853, 4153.84615364, 4145.12820492, 4141.28205108, 4129.87179460, 4124.10256383, 4122.05128178, 4132.43589716, 4192.69230756,8.57
4119.61538434, 4124.23076896, 4119.10256383, 4120.64102537, 4124.23076896, 4280.76923084, 4136.41025621, 4127.82051255, 4139.61538441, 4127.82051255, 4118.20512793, 4113.84615357, 4128.71794844, 4185.51282038,8.57
4089.23076889, 4105.76923050, 4096.15384581, 4110.64102537, 4115.12820485, 4260.51282052, 4115.25640998, 4114.87179460, 4119.23076896, 4127.05128178, 4120.76923050, 4113.71794844, 4126.28205101, 4184.99999986,8.57
4124.87179460, 4123.20512793, 4119.23076896, 4123.07692280, 4126.28205101, 4267.17948725, 4111.79487152, 4112.56410229, 4095.76923043, 4127.94871767, 4125.12820485, 4125.89743562, 4129.48717921, 4196.15384602,8.57
4110.64102537, 4118.58974332, 4108.71794844, 4118.20512793, 4119.48717921, 4287.82051289, 4118.46153819, 4117.56410229, 4128.33333306, 4126.15384588, 4119.99999973, 4112.30769203, 4127.56410229, 4186.92307679,8.57
4109.23076896, 4116.28205101, 4118.07692280, 4117.43589716, 4115.12820485, 4275.12820520, 4121.28205101, 4115.51282024, 4158.84615364, 4125.38461511, 4124.35897408, 4128.20512793, 4134.35897408, 4196.15384602,8.57
4135.64102544, 4129.99999973, 4136.92307672, 4125.76923050, 4128.46153819, 4245.76923077, 4117.17948691, 4103.33333306, 4124.87179460, 4126.28205101, 4120.51282024, 4126.02564075, 4132.17948691, 4196.66666653,8.57
4101.15384581, 4114.23076896, 4105.25640998, 4111.66666639, 4120.89743562, 4253.97435898, 4121.28205101, 4108.84615357, 4114.61538434, 4127.94871767, 4120.64102537, 4118.46153819, 4130.25640998, 4188.84615371,8.57
4131.66666639, 4125.64102537, 4129.61538434, 4122.94871767, 4122.82051255, 4270.25641033, 4127.30769203, 4117.82051255, 4131.15384588, 4129.23076896, 4126.02564075, 4136.28205108, 4136.28205108, 4199.35897422,8.57
4116.92307665, 4119.74358947, 4117.56410229, 4121.02564075, 4117.94871767, 4270.12820520, 4133.84615357, 4127.05128178, 4127.05128178, 4130.12820485, 4119.99999973, 4115.64102537, 4130.64102537, 4189.35897422,8.57
4108.71794844, 4116.41025614, 4111.02564075, 4116.79487152, 4116.28205101, 4269.48717956, 4132.05128178, 4135.38461518, 4122.43589716, 4130.38461511, 4127.17948691, 4127.30769203, 4134.23076896, 4193.58974345,8.57
4140.38461518, 4128.07692280, 4132.43589716, 4125.25640998, 4127.43589716, 4267.43589751, 4125.25640998, 4128.71794844, 4125.12820485, 4127.82051255, 4124.61538434, 4127.30769203, 4132.30769203, 4194.23076910,8.57
4098.71794837, 4110.12820485, 4103.84615357, 4113.07692280, 4117.69230742, 4251.79487180, 4117.17948691, 4108.46153819, 4104.35897408, 4126.66666639, 4118.58974332, 4107.94871767, 4126.41025614, 4185.25641012,8.57
4124.10256383, 4129.87179460, 4131.15384588, 4125.76923050, 4122.30769203, 4235.76923077, 4102.69230742, 4093.33333299, 4092.56410222, 4128.07692280, 4123.84615357, 4132.43589716, 4131.53846126, 4196.02564089,8.57
4113.84615357, 4124.23076896, 4116.02564075, 4118.58974332, 4121.92307665, 4239.74358975, 4104.87179460, 4100.38461504, 4120.12820485, 4127.56410229, 4115.76923050, 4113.58974332, 4125.12820485, 4181.15384602,8.57
4103.33333306, 4113.46153819, 4109.23076896, 4110.76923050, 4117.17948691, 4252.69230770, 4121.53846126, 4110.89743562, 4119.99999973, 4127.05128178, 4121.41025614, 4125.25640998, 4130.76923050, 4188.84615371,8.57
4144.23076903, 4134.48717921, 4140.89743569, 4126.15384588, 4127.05128178, 4255.64102564, 4127.17948691, 4120.64102537, 4115.76923050, 4127.69230742, 4122.05128178, 4135.38461518, 4131.66666639, 4197.94871781,8.57
4099.74358940, 4113.84615357, 4100.38461504, 4110.51282024, 4116.79487152, 4242.94871795, 4123.33333306, 4126.28205101, 4142.56410236, 4128.07692280, 4118.20512793, 4109.23076896, 4124.74358947, 4183.20512807,8.57
4129.74358947, 4127.30769203, 4131.28205101, 4123.33333306, 4123.84615357, 4236.41025641, 4118.71794844, 4118.97435870, 4136.02564082, 4129.10256383, 4132.43589716, 4141.92307672, 4137.17948697, 4199.35897422,8.57
4129.99999973, 4127.30769203, 4126.66666639, 4119.99999973, 4126.53846126, 4242.56410257, 4108.58974332, 4104.48717921, 4099.74358940, 4129.48717921, 4125.51282024, 4121.53846126, 4130.12820485, 4188.71794858,8.57
4103.58974332, 4111.92307665, 4106.02564075, 4110.25640998, 4116.02564075, 4242.82051282, 4104.48717921, 4099.74358940, 4101.79487145, 4129.61538434, 4124.23076896, 4120.12820485, 4127.82051255, 4189.10256397,8.57
4148.20512800, 4132.05128178, 4143.58974339, 4130.89743562, 4130.12820485, 4245.38461539, 4119.61538434, 4113.46153819, 4125.64102537, 4129.35897408, 4126.92307665, 4142.30769210, 4136.53846133, 4199.61538448,8.57
4104.10256383, 4110.89743562, 4104.61538434, 4112.43589716, 4123.33333306, 4255.64102564, 4142.30769210, 4140.89743569, 4133.71794844, 4129.61538434, 4117.43589716, 4108.46153819, 4131.02564075, 4182.94871781,8.57
4123.46153819, 4122.82051255, 4128.71794844, 4124.10256383, 4121.79487152, 4253.71794872, 4156.92307672, 4167.05128185, 4142.43589723, 4129.61538434, 4125.76923050, 4132.43589716, 4135.89743569, 4197.05128192,8.57
4133.71794844, 4129.48717921, 4132.17948691, 4127.17948691, 4125.89743562, 4246.02564103, 4154.61538441, 4162.82051262, 4141.02564082, 4126.66666639, 4123.20512793, 4124.23076896, 4130.38461511, 4189.74358961,8.57
4098.33333299, 4113.71794844, 4105.76923050, 4110.25640998, 4118.84615357, 4253.07692308, 4141.28205108, 4148.97435877, 4144.48717928, 4126.92307665, 4123.46153819, 4113.20512793, 4129.74358947, 4185.38461525,8.57
4142.82051262, 4138.46153826, 4146.92307672, 4131.41025614, 4130.12820485, 4257.43589744, 4126.28205101, 4134.74358947, 4145.25641005, 4130.12820485, 4126.15384588, 4132.17948691, 4134.23076896, 4197.56410243,8.57
4108.97435870, 4116.53846126, 4109.10256383, 4115.12820485, 4122.05128178, 4258.46153847, 4132.17948691, 4125.25640998, 4126.79487152, 4127.69230742, 4117.05128178, 4107.17948691, 4125.89743562, 4182.30769217,8.57
4120.89743562, 4117.05128178, 4120.64102537, 4117.94871767, 4121.41025614, 4255.12820513, 4142.05128185, 4137.94871774, 4118.33333306, 4125.25640998, 4127.56410229, 4129.74358947, 4134.48717921, 4194.48717935,8.57
4139.10256390, 4131.66666639, 4138.84615364, 4125.89743562, 4131.15384588, 4230.25641019, 4126.66666639, 4139.61538441, 4121.15384588, 4127.17948691, 4126.53846126, 4126.53846126, 4134.35897408, 4194.74358961,8.57
4095.89743555, 4112.05128178, 4106.92307665, 4108.97435870, 4118.07692280, 4219.61538455, 4116.41025614, 4117.82051255, 4106.02564075, 4129.48717921, 4122.94871767, 4117.43589716, 4132.05128178, 4187.82051269,8.57
4136.41025621, 4128.97435870, 4137.69230749, 4127.56410229, 4121.15384588, 4242.17948718, 4128.97435870, 4110.64102537, 4099.35897402, 4129.61538434, 4126.79487152, 4139.74358954, 4137.30769210, 4195.76923063,8.57
4117.82051255, 4119.61538434, 4115.51282024, 4119.23076896, 4121.53846126, 4234.61538462, 4130.25640998, 4123.33333306, 4128.58974332, 4127.82051255, 4119.99999973, 4114.35897408, 4130.89743562, 4186.02564089,8.57
4111.53846126, 4117.30769203, 4118.20512793, 4118.46153819, 4121.53846126, 4192.56410243, 4114.87179460, 4125.25640998, 4138.97435877, 4127.43589716, 4126.41025614, 4128.97435870, 4133.46153819, 4197.56410243,8.57
4139.10256390, 4133.58974332, 4138.33333313, 4127.43589716, 4126.66666639, 4201.92307686, 4121.92307665, 4124.48717921, 4114.10256383, 4127.43589716, 4123.71794844, 4133.33333306, 4132.69230742, 4199.99999986,8.57
4108.46153819, 4118.20512793, 4106.92307665, 4112.69230742, 4116.53846126, 4241.41025641, 4134.10256383, 4118.71794844, 4093.71794837, 4127.43589716, 4122.05128178, 4118.97435870, 4132.30769203, 4192.17948704,8.57
4134.48717921, 4128.46153819, 4130.64102537, 4126.66666639, 4125.64102537, 4224.10256404, 4115.76923050, 4093.07692273, 4077.43589709, 4128.20512793, 4124.99999973, 4129.87179460, 4133.07692280, 4198.20512807,8.57
4128.46153819, 4124.87179460, 4128.20512793, 4121.92307665, 4129.35897408, 4194.23076910, 4107.30769203, 4095.89743555, 4078.97435863, 4126.92307665, 4117.69230742, 4113.33333306, 4128.58974332, 4189.23076910,8.57
4111.15384588, 4119.35897408, 4121.28205101, 4115.64102537, 4121.79487152, 4208.71794865, 4110.64102537, 4110.64102537, 4099.48717914, 4126.41025614, 4125.89743562, 4124.99999973, 4137.43589723, 4192.05128192,8.57
4134.74358947, 4132.69230742, 4137.94871774, 4127.17948691, 4126.28205101, 4219.35897429, 4102.17948684, 4096.79487145, 4109.35897408, 4126.92307665, 4124.99999973, 4127.17948691, 4133.71794844, 4193.20512807,8.57
4117.17948691, 4121.79487152, 4121.41025614, 4119.87179460, 4121.92307665, 4209.61538455, 4121.28205101, 4109.99999973, 4110.12820485, 4127.94871767, 4123.33333306, 4119.74358947, 4127.82051255, 4190.38461525,8.57
4126.02564075, 4128.97435870, 4131.02564075, 4125.25640998, 4125.12820485, 4201.02564096, 4146.66666646, 4149.87179467, 4107.43589716, 4128.46153819, 4128.33333306, 4129.87179460, 4134.48717921, 4193.71794858,8.57
4124.87179460, 4128.58974332, 4124.61538434, 4122.56410229, 4126.02564075, 4193.20512807, 4125.51282024, 4136.92307672, 4096.28205094, 4128.71794844, 4123.07692280, 4118.71794844, 4131.53846126, 4186.66666653,8.57
4113.58974332, 4120.38461511, 4118.58974332, 4116.53846126, 4121.92307665, 4198.58974345, 4108.46153819, 4107.69230742, 4104.87179460, 4127.94871767, 4128.33333306, 4129.87179460, 4130.51282024, 4193.46153833,8.57
4131.66666639, 4129.23076896, 4134.23076896, 4124.48717921, 4129.23076896, 4219.35897429, 4131.41025614, 4127.69230742, 4126.41025614, 4125.89743562, 4124.48717921, 4127.43589716, 4128.71794844, 4195.89743576,8.57
4114.35897408, 4121.53846126, 4120.76923050, 4118.46153819, 4124.99999973, 4224.48717942, 4137.69230749, 4134.23076896, 4120.64102537, 4128.20512793, 4122.94871767, 4124.48717921, 4132.56410229, 4190.12820499,8.57
4122.05128178, 4128.46153819, 4129.10256383, 4122.17948691, 4125.12820485, 4195.64102551, 4095.51282017, 4079.87179453, 4082.43589709, 4129.61538434, 4130.25640998, 4136.02564082, 4137.17948697, 4194.99999986,8.57
4130.25640998, 4129.87179460, 4127.82051255, 4123.20512793, 4127.56410229, 4178.07692294, 4084.48717914, 4070.38461504, 4079.48717914, 4127.17948691, 4123.07692280, 4119.74358947, 4129.10256383, 4197.30769217,8.57
4117.05128178, 4118.84615357, 4120.38461511, 4121.41025614, 4123.20512793, 4195.89743576, 4136.15384595, 4142.05128185, 4125.51282024, 4126.79487152, 4125.51282024, 4129.23076896, 4134.23076896, 4199.35897422,8.57
4130.25640998, 4126.92307665, 4132.30769203, 4126.92307665, 4127.30769203, 4204.23076917, 4133.20512793, 4132.82051255, 4100.38461504, 4128.33333306, 4124.74358947, 4126.15384588, 4134.74358947, 4189.48717935,8.57
4118.58974332, 4122.43589716, 4118.20512793, 4116.66666639, 4122.05128178, 4192.43589730, 4087.94871761, 4071.02564068, 4048.71794830, 4129.48717921, 4122.69230742, 4117.05128178, 4129.35897408, 4186.53846140,8.57
4126.53846126, 4126.15384588, 4127.56410229, 4121.92307665, 4122.43589716, 4192.56410243, 4105.76923050, 4098.97435863, 4084.87179453, 4129.99999973, 4129.10256383, 4134.48717921, 4134.74358947, 4196.92307679,8.57
4131.28205101, 4127.82051255, 4128.58974332, 4124.23076896, 4125.12820485, 4197.56410243, 4128.97435870, 4132.82051255, 4118.71794844, 4128.97435870, 4122.30769203, 4116.66666639, 4130.38461511, 4185.89743576,8.57
4117.30769203, 4121.53846126, 4117.56410229, 4119.10256383, 4118.71794844, 4191.53846140, 4107.56410229, 4099.23076889, 4073.84615350, 4130.51282024, 4127.05128178, 4122.56410229, 4132.82051255, 4187.43589730,8.57
4137.94871774, 4131.92307665, 4131.53846126, 4129.48717921, 4124.61538434, 4192.43589730, 4111.28205101, 4094.10256376, 4055.12820472, 4129.99999973, 4128.46153819, 4133.71794844, 4133.71794844, 4195.12820499,8.57
4118.71794844, 4123.07692280, 4118.46153819, 4122.17948691, 4122.30769203, 4202.56410250, 4144.74358954, 4148.84615364, 4122.82051255, 4125.12820485, 4120.64102537, 4117.56410229, 4124.35897408, 4187.94871781,8.57
4119.87179460, 4126.02564075, 4128.20512793, 4122.30769203, 4125.76923050, 4203.84615378, 4139.99999980, 4144.87179467, 4142.94871774, 4125.89743562, 4129.35897408, 4130.89743562, 4131.15384588, 4193.58974345,8.57
4119.87179460, 4126.02564075, 4128.20512793, 4122.30769203, 4125.76923050, 4203.84615378, 4139.99999980, 4144.87179467, 4142.94871774, 4125.89743562, 4129.35897408, 4130.89743562, 4131.15384588, 4193.58974345,8.57
4129.99999973, 4129.23076896, 4128.71794844, 4120.51282024, 4129.87179460, 4194.99999986, 4123.46153819, 4104.23076896, 4094.87179453, 4127.17948691, 4125.89743562, 4122.43589716, 4130.76923050, 4190.51282038,8.57
4111.53846126, 4118.97435870, 4115.89743562, 4115.38461511, 4122.30769203, 4186.92307679, 4128.46153819, 4114.87179460, 4069.35897395, 4126.41025614, 4125.51282024, 4128.33333306, 4128.46153819, 4193.33333320,8.57
4133.20512793, 4132.69230742, 4139.23076903, 4129.23076896, 4128.97435870, 4177.17948704, 4119.23076896, 4117.30769203, 4061.92307651, 4127.30769203, 4129.48717921, 4140.51282031, 4133.07692280, 4197.56410243,8.57
4117.05128178, 4121.28205101, 4117.82051255, 4121.28205101, 4123.07692280, 4171.53846140, 4106.79487152, 4095.51282017, 4076.15384581, 4128.58974332, 4124.74358947, 4119.48717921, 4129.87179460, 4187.17948704,8.57
4123.46153819, 4118.20512793, 4122.82051255, 4123.20512793, 4122.69230742, 4175.76923063, 4114.10256383, 4098.71794837, 4097.43589709, 4131.02564075, 4130.25640998, 4137.30769210, 4135.38461518, 4200.89743576,8.57
4138.84615364, 4129.23076896, 4135.38461518, 4126.41025614, 4127.56410229, 4179.23076910, 4128.71794844, 4119.87179460, 4099.48717914, 4131.66666639, 4119.74358947, 4126.15384588, 4131.41025614, 4196.66666653,8.57
4110.76923050, 4119.10256383, 4112.56410229, 4116.28205101, 4115.51282024, 4175.64102551, 4127.30769203, 4113.58974332, 4090.89743555, 4129.10256383, 4119.74358947, 4117.69230742, 4130.25640998, 4188.97435884,8.57
4138.07692287, 4128.84615357, 4135.25640998, 4130.76923050, 4124.99999973, 4174.10256397, 4124.87179460, 4108.97435870, 4086.79487145, 4126.79487152, 4132.43589716, 4137.94871774, 4136.41025621, 4197.05128192,8.57
4120.76923050, 4121.02564075, 4120.38461511, 4122.82051255, 4125.89743562, 4191.53846140, 4139.48717928, 4140.38461518, 4091.53846119, 4128.07692280, 4119.23076896, 4111.53846126, 4125.89743562, 4181.15384602,8.57
4115.76923050, 4122.69230742, 4123.46153819, 4120.25640998, 4121.79487152, 4190.25641012, 4123.84615357, 4135.76923056, 4094.87179453, 4132.17948691, 4122.30769203, 4129.74358947, 4132.43589716, 4190.64102551,8.57
4141.66666646, 4133.71794844, 4137.82051262, 4126.53846126, 4128.58974332, 4160.12820492, 4092.94871761, 4097.94871761, 4096.66666632, 4129.35897408, 4125.76923050, 4131.41025614, 4131.79487152, 4192.56410243,8.57
4105.51282024, 4117.05128178, 4107.30769203, 4113.58974332, 4120.51282024, 4158.46153826, 4111.15384588, 4108.46153819, 4093.84615350, 4123.07692280, 4122.17948691, 4112.82051255, 4125.76923050, 4183.58974345,8.57
4130.64102537, 4131.92307665, 4137.30769210, 4128.07692280, 4126.02564075, 4172.94871781, 4128.33333306, 4136.79487159, 4094.74358940, 4126.53846126, 4129.48717921, 4141.53846133, 4140.51282031, 4197.56410243,8.57
4126.53846126, 4127.43589716, 4126.92307665, 4123.97435870, 4126.41025614, 4167.94871774, 4114.23076896, 4125.12820485, 4093.71794837, 4129.87179460, 4121.92307665, 4120.64102537, 4133.20512793, 4183.33333320,8.57
4111.66666639, 4118.84615357, 4113.46153819, 4119.10256383, 4124.61538434, 4169.35897422, 4127.17948691, 4126.28205101, 4092.17948684, 4127.43589716, 4127.30769203, 4128.46153819, 4130.89743562, 4191.28205115,8.57
4138.84615364, 4132.94871767, 4136.28205108, 4130.51282024, 4133.07692280, 4173.07692294, 4140.89743569, 4145.38461518, 4097.05128171, 4127.17948691, 4125.89743562, 4136.79487159, 4134.61538434, 4200.12820499,8.57
4107.94871767, 4118.07692280, 4112.30769203, 4114.87179460, 4120.89743562, 4155.38461518, 4116.15384588, 4123.20512793, 4092.69230735, 4128.58974332, 4118.84615357, 4115.38461511, 4131.41025614, 4186.79487166,8.57
4130.12820485, 4128.58974332, 4133.84615357, 4122.94871767, 4123.33333306, 4151.28205108, 4107.56410229, 4103.58974332, 4084.61538427, 4128.84615357, 4130.64102537, 4137.43589723, 4138.58974339, 4199.23076910,8.57
4128.20512793, 4126.92307665, 4126.92307665, 4124.99999973, 4125.25640998, 4177.17948704, 4129.48717921, 4121.28205101, 4084.87179453, 4127.94871767, 4121.41025614, 4115.64102537, 4129.23076896, 4191.53846140,8.57
4105.38461511, 4117.43589716, 4113.46153819, 4119.87179460, 4121.28205101, 4177.05128192, 4128.97435870, 4124.35897408, 4078.33333299, 4128.33333306, 4121.53846126, 4120.64102537, 4131.66666639, 4193.33333320,8.57
4139.35897415, 4135.51282031, 4137.69230749, 4127.82051255, 4132.30769203, 4150.25641005, 4116.79487152, 4111.28205101, 4060.76923036, 4128.33333306, 4126.02564075, 4132.82051255, 4135.38461518, 4193.33333320,8.57
4113.07692280, 4119.87179460, 4110.76923050, 4114.74358947, 4123.07692280, 4158.97435877, 4124.87179460, 4120.76923050, 4082.05128171, 4128.71794844, 4116.15384588, 4108.07692280, 4124.99999973, 4180.25641012,8.57
4121.92307665, 4123.97435870, 4128.33333306, 4124.10256383, 4123.58974332, 4173.97435884, 4117.43589716, 4116.02564075, 4099.99999966, 4129.87179460, 4125.51282024, 4133.46153819, 4134.99999973, 4197.05128192,8.57
4130.76923050, 4130.12820485, 4128.97435870, 4123.46153819, 4127.94871767, 4150.12820492, 4098.33333299, 4084.99999966, 4051.92307651, 4128.46153819, 4122.82051255, 4120.76923050, 4132.69230742, 4186.41025628,8.57
4114.74358947, 4121.53846126, 4113.46153819, 4115.25640998, 4121.79487152, 4141.41025621, 4109.35897408, 4099.99999966, 4043.33333292, 4128.84615357, 4122.82051255, 4120.25640998, 4131.66666639, 4185.89743576,8.57
4141.41025621, 4134.35897408, 4141.28205108, 4127.94871767, 4129.10256383, 4161.92307672, 4127.82051255, 4131.02564075, 4087.05128171, 4130.64102537, 4126.28205101, 4136.66666646, 4134.99999973, 4197.94871781,8.57
4113.07692280, 4121.53846126, 4116.92307665, 4116.28205101, 4121.66666639, 4165.38461518, 4119.35897408, 4105.64102537, 4073.84615350, 4128.20512793, 4122.43589716, 4117.30769203, 4124.99999973, 4186.28205115,8.57
4121.53846126, 4125.64102537, 4126.66666639, 4122.69230742, 4122.82051255, 4151.79487159, 4103.97435870, 4081.79487145, 4049.48717907, 4125.76923050, 4133.20512793, 4139.74358954, 4132.56410229, 4199.61538448,8.57
4133.20512793, 4130.64102537, 4130.25640998, 4125.76923050, 4127.94871767, 4157.05128185, 4119.23076896, 4116.15384588, 4091.15384581, 4127.43589716, 4123.58974332, 4128.97435870, 4133.07692280, 4195.38461525,8.57
4107.05128178, 4116.79487152, 4108.71794844, 4116.02564075, 4119.10256383, 4164.87179467, 4141.79487159, 4139.35897415, 4116.53846126, 4131.15384588, 4120.25640998, 4124.87179460, 4130.76923050, 4191.53846140,8.57
4135.51282031, 4130.38461511, 4135.89743569, 4129.87179460, 4125.38461511, 4152.43589723, 4133.33333306, 4118.84615357, 4086.53846119, 4130.38461511, 4128.20512793, 4139.23076903, 4136.53846133, 4200.38461525,8.57
4116.02564075, 4121.15384588, 4116.15384588, 4119.61538434, 4119.23076896, 4154.23076903, 4123.33333306, 4116.79487152, 4076.41025607, 4127.17948691, 4117.94871767, 4111.15384588, 4132.17948691, 4188.46153833,8.57
4116.15384588, 4121.41025614, 4120.38461511, 4119.35897408, 4119.99999973, 4160.64102544, 4123.33333306, 4120.76923050, 4076.41025607, 4129.10256383, 4124.35897408, 4129.87179460, 4134.74358947, 4195.12820499,8.57
4134.61538434, 4128.58974332, 4131.79487152, 4127.69230742, 4128.84615357, 4141.02564082, 4114.87179460, 4101.92307658, 4058.71794830, 4128.97435870, 4121.02564075, 4123.71794844, 4127.82051255, 4187.43589730,8.57
4112.82051255, 4118.97435870, 4110.51282024, 4120.38461511, 4120.25640998, 4120.76923050, 4110.51282024, 4095.12820478, 4045.64102523, 4127.05128178, 4117.43589716, 4114.35897408, 4129.61538434, 4185.38461525,8.57
4136.02564082, 4133.84615357, 4133.07692280, 4128.07692280, 4127.43589716, 4114.10256383, 4099.23076889, 4092.82051248, 4034.87179439, 4129.48717921, 4125.64102537, 4134.99999973, 4136.28205108, 4195.76923063,8.57
4117.17948691, 4124.48717921, 4117.56410229, 4117.43589716, 4126.53846126, 4125.89743562, 4095.89743555, 4092.43589709, 4049.87179446, 4129.10256383, 4118.71794844, 4113.20512793, 4123.46153819, 4180.38461525,8.57
4116.53846126, 4123.07692280, 4121.28205101, 4118.71794844, 4122.30769203, 4159.48717928, 4128.58974332, 4119.87179460, 4079.10256376, 4125.38461511, 4125.51282024, 4131.28205101, 4132.94871767, 4189.74358961,8.57
4140.51282031, 4133.33333306, 4134.10256383, 4124.35897408, 4127.05128178, 4167.30769210, 4147.82051262, 4140.89743569, 4079.99999966, 4126.41025614, 4123.71794844, 4131.66666639, 4134.99999973, 4190.38461525,8.57
4112.43589716, 4117.69230742, 4110.64102537, 4113.07692280, 4118.71794844, 4132.30769203, 4125.89743562, 4129.74358947, 4076.92307658, 4129.35897408, 4120.51282024, 4121.66666639, 4127.69230742, 4184.23076910,8.57
4130.51282024, 4128.20512793, 4133.84615357, 4126.92307665, 4121.66666639, 4111.28205101, 4104.35897408, 4109.48717921, 4074.35897402, 4128.58974332, 4132.43589716, 4144.48717928, 4136.79487159, 4197.05128192,8.57
4122.82051255, 4122.94871767, 4121.41025614, 4119.99999973, 4119.61538434, 4115.38461511, 4103.20512793, 4095.51282017, 4047.43589702, 4125.64102537, 4123.97435870, 4119.74358947, 4133.20512793, 4190.89743576,8.57
4116.15384588, 4117.43589716, 4117.82051255, 4117.05128178, 4118.84615357, 4098.58974325, 4089.87179453, 4078.07692273, 4013.46153798, 4127.43589716, 4123.84615357, 4129.61538434, 4136.02564082, 4196.41025628,8.57
4136.28205108, 4129.87179460, 4133.58974332, 4129.35897408, 4128.07692280, 4079.87179453, 4069.74358940, 4065.64102523, 4008.71794824, 4129.35897408, 4122.43589716, 4132.94871767, 4133.84615357, 4192.43589730,8.57
4112.17948691, 4120.38461511, 4113.58974332, 4118.71794844, 4121.15384588, 4093.84615350, 4082.56410222, 4079.61538427, 4035.38461490, 4129.74358947, 4121.92307665, 4116.53846126, 4129.10256383, 4184.48717935,8.57
4126.28205101, 4128.07692280, 4133.84615357, 4125.64102537, 4126.15384588, 4126.28205101, 4124.74358947, 4122.82051255, 4075.12820478, 4130.89743562, 4130.38461511, 4135.12820485, 4137.43589723, 4195.89743576,8.57
4122.56410229, 4123.46153819, 4124.35897408, 4121.66666639, 4128.20512793, 4151.92307672, 4151.28205108, 4150.38461518, 4101.79487145, 4129.10256383, 4117.56410229, 4113.97435870, 4127.43589716, 4186.53846140,8.57
4113.07692280, 4116.66666639, 4118.97435870, 4119.35897408, 4122.30769203, 4134.35897408, 4129.74358947, 4126.15384588, 4087.17948684, 4128.33333306, 4123.58974332, 4121.53846126, 4127.05128178, 4191.41025628,8.57
4132.56410229, 4131.53846126, 4134.74358947, 4127.43589716, 4128.71794844, 4111.15384588, 4117.17948691, 4109.48717921, 4063.97435856, 4128.71794844, 4129.99999973, 4128.46153819, 4132.30769203, 4191.41025628,8.57
4114.74358947, 4125.38461511, 4113.20512793, 4114.74358947, 4125.89743562, 4131.41025614, 4136.53846133, 4130.76923050, 4078.97435863, 4128.20512793, 4121.15384588, 4113.84615357, 4129.35897408, 4182.30769217,8.57
4128.97435870, 4127.69230742, 4130.51282024, 4124.74358947, 4123.58974332, 4149.23076903, 4132.82051255, 4130.76923050, 4095.12820478, 4129.10256383, 4126.66666639, 4137.69230749, 4135.12820485, 4194.61538448,8.57
4128.58974332, 4124.35897408, 4124.74358947, 4124.74358947, 4123.33333306, 4154.48717928, 4125.76923050, 4115.12820485, 4077.05128171, 4128.33333306, 4120.25640998, 4120.25640998, 4130.89743562, 4187.56410243,8.57
4116.92307665, 4120.76923050, 4113.84615357, 4117.94871767, 4122.82051255, 4156.79487159, 4138.58974339, 4116.28205101, 4069.10256369, 4127.05128178, 4124.61538434, 4128.33333306, 4135.38461518, 4192.05128192,8.57
4133.97435870, 4131.15384588, 4130.25640998, 4126.92307665, 4125.38461511, 4129.23076896, 4126.79487152, 4091.92307658, 4065.12820472, 4127.94871767, 4128.07692280, 4139.48717928, 4136.28205108, 4197.94871781,8.57
4113.71794844, 4119.23076896, 4111.15384588, 4117.05128178, 4119.61538434, 4108.07692280, 4096.28205094, 4054.99999959, 4032.17948670, 4128.71794844, 4120.51282024, 4114.35897408, 4128.97435870, 4192.43589730,8.57
4123.07692280, 4123.58974332, 4125.38461511, 4122.82051255, 4122.94871767, 4124.74358947, 4095.25640991, 4062.94871754, 4013.46153798, 4128.46153819, 4130.12820485, 4135.12820485, 4136.92307672, 4202.56410250,8.57
4124.74358947, 4124.74358947, 4122.05128178, 4123.84615357, 4124.48717921, 4129.74358947, 4116.53846126, 4094.10256376, 4050.76923036, 4127.56410229, 4121.02564075, 4118.33333306, 4128.84615357, 4189.48717935,8.57
4110.51282024, 4117.17948691, 4110.38461511, 4116.79487152, 4120.51282024, 4131.28205101, 4135.25640998, 4108.97435870, 4086.15384581, 4127.94871767, 4119.61538434, 4118.58974332, 4128.46153819, 4191.28205115,8.57
4132.56410229, 4129.61538434, 4131.92307665, 4124.74358947, 4126.92307665, 4141.02564082, 4130.64102537, 4100.51282017, 4069.35897395, 4129.48717921, 4127.56410229, 4137.05128185, 4134.74358947, 4199.35897422,8.57
4114.99999973, 4121.53846126, 4115.12820485, 4116.41025614, 4122.56410229, 4127.30769203, 4116.02564075, 4095.25640991, 4058.07692266, 4126.28205101, 4119.48717921, 4108.84615357, 4125.76923050, 4184.23076910,8.57
4120.89743562, 4123.07692280, 4126.92307665, 4122.82051255, 4122.17948691, 4129.74358947, 4124.48717921, 4098.46153812, 4061.28205087, 4124.23076896, 4127.30769203, 4128.20512793, 4133.07692280, 4188.97435884,8.57
4130.64102537, 4125.76923050, 4128.84615357, 4123.58974332, 4128.84615357, 4150.25641005, 4128.97435870, 4101.53846119, 4057.05128164, 4126.28205101, 4123.97435870, 4123.84615357, 4129.87179460, 4182.56410243,8.57
4113.97435870, 4118.97435870, 4116.79487152, 4113.71794844, 4125.12820485, 4121.15384588, 4091.28205094, 4075.89743555, 4031.28205080, 4129.74358947, 4123.46153819, 4120.12820485, 4126.28205101, 4186.53846140,8.57
4131.66666639, 4131.66666639, 4137.82051262, 4125.64102537, 4125.89743562, 4087.94871761, 4071.79487145, 4051.02564061, 4010.89743541, 4131.15384588, 4130.25640998, 4138.84615364, 4135.76923056, 4197.56410243,8.57
4120.89743562, 4123.84615357, 4119.61538434, 4120.64102537, 4125.76923050, 4116.53846126, 4113.07692280, 4090.89743555, 4051.41025600, 4127.05128178, 4119.61538434, 4114.48717921, 4132.05128178, 4185.64102551,8.57
4123.46153819, 4122.30769203, 4124.74358947, 4121.28205101, 4126.28205101, 4131.79487152, 4117.82051255, 4102.30769196, 4073.71794837, 4126.79487152, 4127.30769203, 4133.46153819, 4135.89743569, 4195.25641012,8.57
4134.99999973, 4129.48717921, 4132.05128178, 4123.97435870, 4126.02564075, 4127.30769203, 4094.35897402, 4068.46153805, 4058.07692266, 4130.25640998, 4127.05128178, 4131.79487152, 4132.43589716, 4194.48717935,8.57
4119.23076896, 4121.28205101, 4117.05128178, 4120.12820485, 4122.30769203, 4149.74358954, 4126.28205101, 4104.10256383, 4084.35897402, 4128.58974332, 4122.94871767, 4121.92307665, 4129.61538434, 4190.76923063,8.57
4127.82051255, 4125.76923050, 4131.02564075, 4130.76923050, 4126.41025614, 4146.15384595, 4145.38461518, 4140.76923056, 4102.05128171, 4125.38461511, 4128.58974332, 4138.71794851, 4134.23076896, 4197.69230756,8.57
4116.53846126, 4123.20512793, 4119.10256383, 4123.33333306, 4125.64102537, 4119.10256383, 4110.25640998, 4097.17948684, 4061.28205087, 4126.66666639, 4117.94871767, 4111.79487152, 4124.99999973, 4189.74358961,8.57
4130.38461511, 4128.33333306, 4134.48717921, 4128.97435870, 4127.56410229, 4114.87179460, 4093.71794837, 4062.30769189, 4025.76923029, 4130.64102537, 4126.15384588, 4132.05128178, 4133.58974332, 4196.41025628,8.57
4117.30769203, 4120.76923050, 4116.15384588, 4120.38461511, 4122.56410229, 4118.97435870, 4106.92307665, 4087.17948684, 4040.89743548, 4128.84615357, 4121.66666639, 4115.51282024, 4130.89743562, 4185.89743576,8.57
4132.94871767, 4126.41025614, 4132.94871767, 4126.02564075, 4125.64102537, 4118.33333306, 4108.97435870, 4104.10256383, 4068.20512779, 4126.66666639, 4133.33333306, 4138.71794851, 4139.10256390, 4195.38461525,8.57
4122.82051255, 4124.61538434, 4121.02564075, 4121.02564075, 4124.99999973, 4126.41025614, 4113.46153819, 4104.99999973, 4086.53846119, 4125.25640998, 4122.05128178, 4118.84615357, 4131.66666639, 4189.10256397,8.57
4115.64102537, 4120.76923050, 4116.41025614, 4117.94871767, 4121.66666639, 4125.25640998, 4110.25640998, 4101.02564068, 4086.15384581, 4126.41025614, 4125.76923050, 4127.30769203, 4133.46153819, 4197.17948704,8.57
4132.82051255, 4126.79487152, 4131.28205101, 4124.23076896, 4125.51282024, 4102.30769196, 4082.43589709, 4065.25640984, 4036.66666618, 4125.76923050, 4132.43589716, 4136.66666646, 4136.92307672, 4198.71794858,8.57
4113.20512793, 4123.58974332, 4112.69230742, 4114.74358947, 4122.69230742, 4093.84615350, 4075.38461504, 4048.84615343, 4003.46153791, 4126.15384588, 4116.79487152, 4108.33333306, 4127.82051255, 4185.25641012,8.57
4122.56410229, 4131.15384588, 4126.02564075, 4122.05128178, 4123.97435870, 4116.02564075, 4102.69230742, 4091.79487145, 4052.69230728, 4131.28205101, 4122.69230742, 4132.30769203, 4136.41025621, 4196.41025628,8.57
4125.64102537, 4124.48717921, 4121.53846126, 4120.76923050, 4125.89743562, 4124.74358947, 4103.71794844, 4095.76923043, 4069.23076882, 4129.99999973, 4121.79487152, 4117.69230742, 4131.41025614, 4186.53846140,8.57
4114.74358947, 4119.74358947, 4117.82051255, 4118.84615357, 4124.35897408, 4113.07692280, 4084.74358940, 4056.66666625, 4020.64102516, 4128.07692280, 4122.82051255, 4115.76923050, 4127.82051255, 4187.94871781,8.57
4128.20512793, 4132.82051255, 4136.28205108, 4126.53846126, 4128.46153819, 4119.35897408, 4094.35897402, 4063.97435856, 4012.43589695, 4132.56410229, 4128.07692280, 4132.30769203, 4131.28205101, 4192.56410243,8.57
4115.64102537, 4123.84615357, 4114.61538434, 4116.15384588, 4124.74358947, 4126.66666639, 4104.48717921, 4090.76923043, 4042.43589702, 4132.69230742, 4120.64102537, 4106.41025614, 4124.48717921, 4179.35897422,8.57
4127.17948691, 4124.99999973, 4124.74358947, 4120.38461511, 4123.33333306, 4109.10256383, 4079.87179453, 4072.56410222, 4047.56410215, 4128.07692280, 4130.64102537, 4133.33333306, 4137.17948697, 4195.25641012,8.57
4128.97435870, 4128.20512793, 4126.53846126, 4120.64102537, 4125.12820485, 4099.48717914, 4070.25640991, 4058.07692266, 4039.99999959, 4125.12820485, 4123.84615357, 4128.71794844, 4134.35897408, 4190.38461525,8.57
4112.82051255, 4119.87179460, 4117.17948691, 4118.84615357, 4122.05128178, 4122.56410229, 4099.87179453, 4093.07692273, 4050.25640984, 4127.82051255, 4118.46153819, 4120.12820485, 4127.17948691, 4187.56410243,8.57
4130.12820485, 4125.38461511, 4132.05128178, 4128.20512793, 4123.46153819, 4126.41025614, 4099.23076889, 4092.82051248, 4049.87179446, 4130.89743562, 4131.02564075, 4139.48717928, 4134.99999973, 4199.61538448,8.57
4117.05128178, 4123.58974332, 4112.05128178, 4118.07692280, 4122.05128178, 4108.71794844, 4080.38461504, 4053.46153805, 4024.99999952, 4129.10256383, 4123.84615357, 4114.35897408, 4130.76923050, 4188.97435884,8.57
4116.53846126, 4128.20512793, 4122.43589716, 4122.56410229, 4125.12820485, 4116.15384588, 4100.64102530, 4068.58974318, 4022.56410208, 4128.58974332, 4125.38461511, 4132.69230742, 4135.76923056, 4196.92307679,8.57
4125.89743562, 4129.48717921, 4130.38461511, 4128.33333306, 4125.76923050, 4126.92307665, 4118.33333306, 4108.07692280, 4057.30769189, 4128.46153819, 4121.02564075, 4126.53846126, 4129.74358947, 4194.10256397,8.57
4116.41025614, 4124.61538434, 4115.38461511, 4118.97435870, 4120.64102537, 4105.89743562, 4092.17948684, 4088.97435863, 4064.74358933, 4127.56410229, 4119.87179460, 4113.07692280, 4123.84615357, 4190.25641012,8.57
4127.82051255, 4130.51282024, 4127.05128178, 4122.56410229, 4126.02564075, 4077.69230735, 4065.25640984, 4054.61538420, 4027.30769183, 4130.12820485, 4131.15384588, 4135.25640998, 4132.82051255, 4197.94871781,8.57
4119.48717921, 4120.76923050, 4118.46153819, 4122.82051255, 4124.87179460, 4092.43589709, 4080.38461504, 4071.53846119, 4022.69230721, 4128.97435870, 4120.25640998, 4110.25640998, 4125.64102537, 4185.51282038,8.57
4121.53846126, 4121.79487152, 4125.89743562, 4125.89743562, 4121.53846126, 4130.64102537, 4107.82051255, 4097.94871761, 4054.74358933, 4124.99999973, 4124.23076896, 4121.53846126, 4129.99999973, 4192.69230756,8.57
4126.92307665, 4130.51282024, 4126.92307665, 4119.61538434, 4125.89743562, 4131.41025614, 4112.69230742, 4102.82051255, 4073.07692273, 4126.15384588, 4125.64102537, 4123.71794844, 4130.38461511, 4188.07692294,8.57
4114.61538434, 4122.56410229, 4117.05128178, 4113.97435870, 4124.48717921, 4098.97435863, 4098.07692273, 4087.56410222, 4061.92307651, 4128.07692280, 4121.79487152, 4112.94871767, 4125.64102537, 4181.15384602,8.57
4127.17948691, 4122.69230742, 4133.33333306, 4126.28205101, 4122.05128178, 4092.43589709, 4093.07692273, 4072.30769196, 4048.20512779, 4127.56410229, 4131.15384588, 4135.64102544, 4134.87179460, 4193.71794858,8.57
4122.05128178, 4120.25640998, 4120.25640998, 4119.10256383, 4121.53846126, 4112.17948691, 4103.46153819, 4088.71794837, 4064.61538420, 4125.89743562, 4121.66666639, 4116.28205101, 4128.97435870, 4185.89743576,8.57
4122.56410229, 4122.56410229, 4123.71794844, 4120.38461511, 4126.28205101, 4115.12820485, 4104.99999973, 4107.69230742, 4088.33333299, 4125.25640998, 4126.79487152, 4132.05128178, 4130.89743562, 4193.84615371,8.57
4128.84615357, 4125.25640998, 4129.35897408, 4127.30769203, 4127.69230742, 4115.38461511, 4101.28205094, 4098.97435863, 4079.87179453, 4125.89743562, 4129.48717921, 4137.94871774, 4131.79487152, 4194.99999986,8.57
4116.66666639, 4120.76923050, 4117.82051255, 4120.25640998, 4119.99999973, 4120.89743562, 4104.87179460, 4080.51282017, 4052.82051241, 4127.56410229, 4121.66666639, 4118.46153819, 4129.10256383, 4191.02564089,8.57
4126.53846126, 4124.35897408, 4130.25640998, 4123.71794844, 4119.74358947, 4114.74358947, 4108.71794844, 4089.99999966, 4061.02564061, 4128.97435870, 4129.99999973, 4137.05128185, 4140.64102544, 4201.28205122,8.57
4121.28205101, 4118.58974332, 4119.10256383, 4121.28205101, 4122.43589716, 4108.71794844, 4108.46153819, 4115.89743562, 4095.76923043, 4126.66666639, 4120.38461511, 4116.53846126, 4132.43589716, 4188.20512807,8.57
4120.12820485, 4122.43589716, 4122.94871767, 4123.84615357, 4125.38461511, 4111.66666639, 4100.76923043, 4101.53846119, 4088.84615350, 4126.15384588, 4122.69230742, 4124.10256383, 4129.10256383, 4193.71794858,8.57
4127.82051255, 4128.84615357, 4130.51282024, 4123.20512793, 4127.17948691, 4122.17948691, 4099.10256376, 4076.02564068, 4069.99999966, 4128.46153819, 4127.94871767, 4128.33333306, 4131.41025614, 4193.97435884,8.57
4118.46153819, 4121.53846126, 4116.02564075, 4116.28205101, 4122.05128178, 4127.82051255, 4108.97435870, 4092.30769196, 4082.94871761, 4129.74358947, 4118.71794844, 4106.66666639, 4126.02564075, 4183.46153833,8.57
4127.30769203, 4125.25640998, 4126.41025614, 4125.51282024, 4125.25640998, 4103.84615357, 4097.17948684, 4089.61538427, 4062.94871754, 4129.35897408, 4126.53846126, 4133.84615357, 4133.20512793, 4193.46153833,8.57
4122.05128178, 4121.41025614, 4116.02564075, 4119.23076896, 4127.82051255, 4084.48717914, 4086.66666632, 4071.79487145, 4036.02564054, 4126.79487152, 4121.53846126, 4120.38461511, 4124.48717921, 4178.97435884,8.57
4121.02564075, 4120.64102537, 4120.51282024, 4119.23076896, 4125.12820485, 4108.84615357, 4105.51282024, 4094.10256376, 4072.17948684, 4129.10256383, 4123.07692280, 4124.99999973, 4126.28205101, 4181.53846140,8.57
4127.43589716, 4128.33333306, 4132.94871767, 4126.92307665, 4124.99999973, 4120.38461511, 4100.12820478, 4084.87179453, 4078.20512786, 4131.66666639, 4128.71794844, 4136.41025621, 4135.51282031, 4192.43589730,8.57
4114.74358947, 4124.35897408, 4117.56410229, 4119.48717921, 4123.07692280, 4092.05128171, 4068.33333292, 4049.10256369, 4039.48717907, 4127.56410229, 4119.61538434, 4113.46153819, 4127.30769203, 4185.89743576,8.57
4127.43589716, 4125.64102537, 4130.51282024, 4123.33333306, 4125.51282024, 4084.87179453, 4074.87179453, 4077.69230735, 4060.76923036, 4127.82051255, 4129.23076896, 4140.38461518, 4135.25640998, 4197.56410243,8.57
4126.28205101, 4124.99999973, 4122.69230742, 4121.02564075, 4124.10256383, 4108.97435870, 4103.97435870, 4105.12820485, 4084.99999966, 4131.66666639, 4123.84615357, 4124.35897408, 4131.66666639, 4192.56410243,8.57
4118.84615357, 4125.12820485, 4117.94871767, 4120.76923050, 4119.61538434, 4117.05128178, 4099.10256376, 4067.17948677, 4044.23076882, 4131.15384588, 4120.12820485, 4119.10256383, 4127.30769203, 4194.74358961,8.57
4129.35897408, 4125.12820485, 4130.12820485, 4124.48717921, 4122.43589716, 4111.28205101, 4087.05128171, 4063.33333292, 4041.66666625, 4128.33333306, 4128.07692280, 4139.87179467, 4136.41025621, 4198.84615371,8.57
4119.35897408, 4115.76923050, 4111.53846126, 4114.61538434, 4122.43589716, 4111.41025614, 4093.84615350, 4099.35897402, 4088.33333299, 4127.30769203, 4117.30769203, 4112.43589716, 4132.05128178, 4187.82051269,8.57
4125.25640998, 4122.94871767, 4121.92307665, 4121.66666639, 4124.74358947, 4108.97435870, 4091.41025607, 4082.05128171, 4082.30769196, 4127.17948691, 4123.07692280, 4129.23076896, 4134.35897408, 4198.33333320,8.57
4124.23076896, 4124.10256383, 4124.48717921, 4123.58974332, 4126.41025614, 4103.84615357, 4084.61538427, 4065.38461497, 4068.20512779, 4125.12820485, 4122.56410229, 4122.30769203, 4128.46153819, 4188.46153833,8.57
4117.43589716, 4120.25640998, 4118.97435870, 4121.66666639, 4125.38461511, 4100.51282017, 4089.87179453, 4087.56410222, 4086.15384581, 4125.64102537, 4121.15384588, 4113.46153819, 4129.10256383, 4186.02564089,8.57
4129.48717921, 4127.30769203, 4129.99999973, 4127.43589716, 4127.94871767, 4094.74358940, 4096.41025607, 4098.07692273, 4087.17948684, 4129.99999973, 4127.56410229, 4132.69230742, 4136.28205108, 4192.94871781,8.57
4117.56410229, 4122.05128178, 4114.35897408, 4117.30769203, 4123.07692280, 4090.64102530, 4089.48717914, 4088.71794837, 4074.48717914, 4128.71794844, 4116.02564075, 4105.89743562, 4122.82051255, 4175.76923063,8.57
4123.46153819, 4125.89743562, 4127.43589716, 4122.56410229, 4121.41025614, 4086.53846119, 4076.02564068, 4078.33333299, 4063.07692266, 4125.38461511, 4124.87179460, 4127.30769203, 4131.15384588, 4189.99999986,8.57
4128.71794844, 4128.46153819, 4131.28205101, 4124.10256383, 4126.92307665, 4079.99999966, 4071.41025607, 4065.76923036, 4053.97435856, 4125.51282024, 4127.30769203, 4130.12820485, 4137.82051262, 4193.71794858,8.57
4117.17948691, 4120.89743562, 4116.92307665, 4114.74358947, 4124.87179460, 4074.61538427, 4074.23076889, 4063.84615343, 4062.94871754, 4126.66666639, 4121.15384588, 4114.48717921, 4129.99999973, 4187.30769217,8.57
4130.64102537, 4124.48717921, 4132.30769203, 4123.97435870, 4123.97435870, 4073.07692273, 4063.97435856, 4059.10256369, 4059.87179446, 4127.69230742, 4131.92307665, 4140.25641005, 4135.25640998, 4199.48717935,8.57
4121.02564075, 4121.15384588, 4120.12820485, 4120.25640998, 4123.46153819, 4076.02564068, 4048.97435856, 4039.99999959, 4035.25640977, 4126.41025614, 4123.84615357, 4121.41025614, 4129.74358947, 4193.84615371,8.57
4117.82051255, 4123.97435870, 4122.17948691, 4119.10256383, 4123.33333306, 4073.46153812, 4052.30769189, 4053.07692266, 4048.84615343, 4127.30769203, 4127.94871767, 4132.56410229, 4133.71794844, 4201.92307686,8.57
4125.89743562, 4127.05128178, 4127.43589716, 4123.58974332, 4123.58974332, 4071.28205094, 4067.43589702, 4072.43589709, 4077.69230735, 4131.66666639, 4128.97435870, 4135.25640998, 4135.76923056, 4198.71794858,8.57
4116.41025614, 4121.92307665, 4114.99999973, 4121.92307665, 4122.69230742, 4079.61538427, 4072.43589709, 4061.66666625, 4069.87179453, 4131.41025614, 4116.92307665, 4113.58974332, 4127.17948691, 4188.71794858,8.57
4125.51282024, 4129.35897408, 4128.84615357, 4126.79487152, 4127.05128178, 4072.43589709, 4063.58974318, 4060.51282010, 4062.43589702, 4129.10256383, 4125.25640998, 4135.25640998, 4132.82051255, 4198.46153833,8.57
4117.43589716, 4125.25640998, 4118.71794844, 4118.71794844, 4124.99999973, 4047.94871754, 4058.58974318, 4066.79487138, 4070.64102530, 4125.89743562, 4119.23076896, 4112.56410229, 4128.33333306, 4184.61538448,8.57
4115.76923050, 4123.33333306, 4123.33333306, 4122.94871767, 4122.56410229, 4052.43589702, 4062.17948677, 4054.35897395, 4059.99999959, 4125.64102537, 4121.28205101, 4116.92307665, 4131.66666639, 4189.35897422,8.57
4127.43589716, 4127.94871767, 4132.30769203, 4130.25640998, 4125.64102537, 4071.15384581, 4059.99999959, 4047.82051241, 4047.05128164, 4129.99999973, 4126.79487152, 4128.46153819, 4132.17948691, 4193.20512807,8.57
4117.82051255, 4121.92307665, 4115.38461511, 4118.07692280, 4122.69230742, 4061.92307651, 4058.07692266, 4067.30769189, 4070.89743555, 4131.41025614, 4117.17948691, 4106.02564075, 4121.15384588, 4179.87179474,8.57
4127.30769203, 4127.94871767, 4130.89743562, 4120.76923050, 4121.53846126, 4049.74358933, 4063.71794830, 4076.53846119, 4089.87179453, 4129.35897408, 4127.69230742, 4133.20512793, 4133.33333306, 4189.35897422,8.57
4125.76923050, 4125.76923050, 4124.23076896, 4120.38461511, 4121.41025614, 4059.48717907, 4070.12820478, 4068.20512779, 4071.02564068, 4126.92307665, 4126.15384588, 4122.82051255, 4132.43589716, 4185.89743576,8.57
4123.84615357, 4122.56410229, 4120.25640998, 4118.71794844, 4121.53846126, 4072.05128171, 4075.64102530, 4072.69230735, 4062.56410215, 4127.69230742, 4125.25640998, 4123.84615357, 4130.89743562, 4192.56410243,8.57
4131.66666639, 4128.33333306, 4131.92307665, 4122.43589716, 4121.41025614, 4067.69230728, 4079.35897402, 4083.71794837, 4085.51282017, 4128.20512793, 4128.97435870, 4138.33333313, 4137.17948697, 4197.82051269,8.57
4116.15384588, 4123.20512793, 4116.02564075, 4116.41025614, 4119.35897408, 4058.33333292, 4079.35897402, 4081.02564068, 4096.28205094, 4126.28205101, 4121.15384588, 4113.71794844, 4127.43589716, 4186.79487166,8.57
4122.17948691, 4124.10256383, 4126.15384588, 4121.66666639, 4124.87179460, 4060.76923036, 4084.48717914, 4085.25640991, 4093.97435863, 4127.82051255, 4129.61538434, 4135.38461518, 4131.28205101, 4198.46153833,8.57
4123.97435870, 4122.43589716, 4121.79487152, 4121.28205101, 4125.12820485, 4071.92307658, 4093.58974325, 4103.20512793, 4107.17948691, 4128.84615357, 4121.66666639, 4123.84615357, 4130.38461511, 4193.97435884,8.57
4118.46153819, 4124.48717921, 4118.07692280, 4122.82051255, 4121.53846126, 4073.33333299, 4086.66666632, 4094.61538427, 4113.58974332, 4126.02564075, 4118.07692280, 4117.43589716, 4130.25640998, 4193.20512807,8.57
4125.38461511, 4131.28205101, 4133.46153819, 4126.41025614, 4126.41025614, 4057.17948677, 4061.66666625, 4059.23076882, 4087.05128171, 4125.12820485, 4128.46153819, 4134.61538434, 4133.71794844, 4194.87179474,8.57
4114.74358947, 4121.79487152, 4116.28205101, 4113.07692280, 4123.71794844, 4049.23076882, 4056.28205087, 4061.79487138, 4075.38461504, 4128.46153819, 4117.05128178, 4106.66666639, 4122.94871767, 4182.43589730,8.57
4126.53846126, 4125.51282024, 4127.82051255, 4121.66666639, 4122.43589716, 4059.35897395, 4075.12820478, 4092.30769196, 4096.79487145, 4130.76923050, 4124.99999973, 4127.94871767, 4130.64102537, 4195.25641012,8.57
4128.33333306, 4127.82051255, 4130.89743562, 4126.66666639, 4126.28205101, 4071.02564068, 4080.51282017, 4082.69230735, 4092.69230735, 4126.28205101, 4124.74358947, 4124.48717921, 4127.56410229, 4186.66666653,8.57
4116.02564075, 4120.51282024, 4119.10256383, 4118.46153819, 4124.61538434, 4073.84615350, 4074.61538427, 4069.10256369, 4078.97435863, 4125.51282024, 4116.92307665, 4109.87179460, 4121.28205101, 4181.66666653,8.57
4130.64102537, 4126.41025614, 4134.61538434, 4125.25640998, 4123.58974332, 4068.07692266, 4077.69230735, 4087.05128171, 4093.58974325, 4130.89743562, 4129.74358947, 4136.92307672, 4133.71794844, 4195.64102551,8.57
4121.92307665, 4123.97435870, 4119.35897408, 4119.99999973, 4121.41025614, 4060.12820472, 4081.15384581, 4092.94871761, 4106.15384588, 4128.07692280, 4124.35897408, 4117.43589716, 4128.07692280, 4183.07692294,8.57
4122.43589716, 4124.87179460, 4122.43589716, 4120.38461511, 4125.12820485, 4062.30769189, 4075.89743555, 4081.41025607, 4107.43589716, 4125.51282024, 4125.76923050, 4129.99999973, 4130.12820485, 4191.66666653,8.57
4127.69230742, 4127.17948691, 4128.33333306, 4123.33333306, 4127.30769203, 4074.10256376, 4072.17948684, 4078.58974325, 4107.30769203, 4128.07692280, 4127.05128178, 4132.30769203, 4132.43589716, 4196.66666653,8.57
4114.74358947, 4121.02564075, 4114.23076896, 4116.66666639, 4119.61538434, 4066.15384574, 4072.30769196, 4082.94871761, 4095.76923043, 4127.69230742, 4123.33333306, 4116.66666639, 4129.35897408, 4194.35897422,8.57
4128.07692280, 4124.99999973, 4127.69230742, 4121.66666639, 4120.38461511, 4051.28205087, 4065.76923036, 4081.15384581, 4088.33333299, 4127.56410229, 4129.48717921, 4141.41025621, 4137.94871774, 4202.30769224,8.57
4123.84615357, 4118.71794844, 4116.79487152, 4118.20512793, 4125.64102537, 4058.71794830, 4052.17948677, 4064.74358933, 4099.74358940, 4127.69230742, 4116.28205101, 4116.92307665, 4129.23076896, 4190.51282038,8.57
4122.05128178, 4119.61538434, 4119.74358947, 4121.02564075, 4127.94871767, 4062.82051241, 4042.43589702, 4042.82051241, 4092.94871761, 4128.71794844, 4121.53846126, 4122.43589716, 4129.48717921, 4200.76923063,8.57
4130.64102537, 4127.43589716, 4131.02564075, 4124.61538434, 4126.53846126, 4067.94871754, 4064.23076882, 4063.58974318, 4090.64102530, 4130.64102537, 4127.69230742, 4131.02564075, 4132.94871767, 4199.35897422,8.57
4117.05128178, 4121.92307665, 4117.43589716, 4114.99999973, 4121.41025614, 4089.87179453, 4103.07692280, 4109.35897408, 4129.87179460, 4130.51282024, 4117.17948691, 4108.33333306, 4125.25640998, 4183.58974345,8.57
4125.38461511, 4126.28205101, 4127.69230742, 4123.33333306, 4122.69230742, 4098.84615350, 4110.76923050, 4121.28205101, 4166.92307672, 4130.76923050, 4127.30769203, 4130.51282024, 4131.28205101, 4193.97435884,8.57
4120.64102537, 4122.56410229, 4117.17948691, 4120.51282024, 4122.30769203, 4089.99999966, 4098.07692273, 4112.05128178, 4161.66666646, 4129.87179460, 4121.53846126, 4114.10256383, 4126.53846126, 4184.48717935,8.57
4117.17948691, 4120.89743562, 4121.02564075, 4117.05128178, 4120.25640998, 4080.76923043, 4085.64102530, 4095.89743555, 4130.38461511, 4126.79487152, 4121.41025614, 4121.28205101, 4128.46153819, 4187.82051269,8.57
4130.51282024, 4128.71794844, 4135.89743569, 4124.87179460, 4124.10256383, 4070.76923043, 4081.92307658, 4093.20512786, 4134.35897408, 4127.43589716, 4130.12820485, 4139.35897415, 4133.97435870, 4193.58974345,8.57
4116.79487152, 4121.41025614, 4113.46153819, 4115.64102537, 4124.23076896, 4067.56410215, 4087.56410222, 4101.92307658, 4148.58974339, 4129.35897408, 4121.41025614, 4111.53846126, 4125.51282024, 4182.05128192,8.57
4125.38461511, 4125.76923050, 4126.53846126, 4119.23076896, 4125.76923050, 4069.61538420, 4082.69230735, 4086.92307658, 4117.43589716, 4128.33333306, 4126.92307665, 4135.38461518, 4135.25640998, 4196.02564089,8.57
4125.76923050, 4127.05128178, 4124.87179460, 4119.61538434, 4126.28205101, 4063.97435856, 4074.74358940, 4078.46153812, 4100.89743555, 4125.89743562, 4121.79487152, 4127.82051255, 4132.56410229, 4192.30769217,8.57
4115.64102537, 4121.41025614, 4115.89743562, 4117.30769203, 4124.61538434, 4075.89743555, 4095.76923043, 4114.99999973, 4145.89743569, 4127.69230742, 4123.07692280, 4122.30769203, 4129.10256383, 4191.53846140,8.57
4131.02564075, 4126.66666639, 4132.30769203, 4126.79487152, 4128.07692280, 4099.48717914, 4119.61538434, 4133.97435870, 4167.82051262, 4128.71794844, 4132.69230742, 4139.10256390, 4135.12820485, 4196.92307679,8.57
4120.12820485, 4119.87179460, 4114.48717921, 4118.84615357, 4124.48717921, 4088.58974325, 4098.71794837, 4099.74358940, 4131.92307665, 4126.15384588, 4118.97435870, 4109.48717921, 4127.30769203, 4185.76923063,8.57
4123.71794844, 4123.58974332, 4121.53846126, 4121.41025614, 4123.58974332, 4070.51282017, 4077.05128171, 4087.94871761, 4121.28205101, 4129.35897408, 4124.48717921, 4129.87179460, 4133.46153819, 4199.48717935,8.57
4125.64102537, 4126.79487152, 4126.66666639, 4124.74358947, 4125.51282024, 4089.35897402, 4096.15384581, 4105.12820485, 4150.76923056, 4131.66666639, 4124.48717921, 4126.15384588, 4130.12820485, 4194.10256397,8.57
4112.30769203, 4118.46153819, 4114.74358947, 4117.94871767, 4122.05128178, 4105.64102537, 4119.10256383, 4120.76923050, 4172.82051269, 4128.97435870, 4118.58974332, 4109.10256383, 4126.79487152, 4188.71794858,8.57
4127.05128178, 4123.84615357, 4129.35897408, 4122.56410229, 4125.25640998, 4082.30769196, 4114.10256383, 4128.46153819, 4167.43589723, 4127.69230742, 4126.15384588, 4131.02564075, 4136.15384595, 4196.53846140,8.57
4120.25640998, 4122.94871767, 4119.74358947, 4117.56410229, 4125.12820485, 4070.64102530, 4107.43589716, 4116.28205101, 4148.84615364, 4127.17948691, 4118.20512793, 4111.15384588, 4124.61538434, 4180.76923063,8.57
4123.84615357, 4125.25640998, 4125.76923050, 4124.74358947, 4123.71794844, 4084.61538427, 4109.61538434, 4103.07692280, 4147.94871774, 4129.48717921, 4125.76923050, 4126.66666639, 4129.10256383, 4189.23076910,8.57
4129.23076896, 4125.64102537, 4125.76923050, 4126.02564075, 4126.02564075, 4076.66666632, 4101.41025607, 4103.46153819, 4150.51282031, 4130.76923050, 4127.82051255, 4126.92307665, 4134.74358947, 4190.38461525,8.57
4114.74358947, 4120.38461511, 4112.94871767, 4114.23076896, 4122.82051255, 4062.94871754, 4092.30769196, 4106.02564075, 4141.15384595, 4126.66666639, 4121.28205101, 4114.48717921, 4129.10256383, 4185.64102551,8.57
4128.46153819, 4130.64102537, 4133.33333306, 4124.61538434, 4122.56410229, 4075.76923043, 4092.43589709, 4103.58974332, 4138.07692287, 4125.89743562, 4130.38461511, 4141.53846133, 4134.35897408, 4198.07692294,8.57
4121.28205101, 4124.74358947, 4118.58974332, 4121.66666639, 4123.33333306, 4081.79487145, 4095.12820478, 4109.61538434, 4146.28205108, 4127.56410229, 4122.56410229, 4117.82051255, 4129.87179460, 4190.89743576,8.57
4118.20512793, 4119.48717921, 4117.30769203, 4121.15384588, 4124.23076896, 4059.61538420, 4084.23076889, 4100.51282017, 4129.10256383, 4128.71794844, 4126.79487152, 4130.25640998, 4137.82051262, 4197.82051269,8.57
4126.41025614, 4125.38461511, 4127.69230742, 4126.92307665, 4123.84615357, 4057.43589702, 4080.89743555, 4095.76923043, 4122.30769203, 4130.12820485, 4129.10256383, 4136.79487159, 4136.92307672, 4195.12820499,8.57
4113.46153819, 4121.02564075, 4114.61538434, 4121.02564075, 4121.53846126, 4086.92307658, 4096.15384581, 4120.25640998, 4155.25641005, 4130.51282024, 4120.38461511, 4109.23076896, 4124.35897408, 4186.02564089,8.57
4124.99999973, 4123.20512793, 4130.51282024, 4125.89743562, 4125.25640998, 4091.66666632, 4103.33333306, 4117.05128178, 4157.69230749, 4129.99999973, 4128.97435870, 4131.66666639, 4136.28205108, 4197.94871781,8.57
4120.38461511, 4120.64102537, 4120.12820485, 4119.61538434, 4123.33333306, 4075.89743555, 4107.82051255, 4107.30769203, 4138.97435877, 4129.10256383, 4121.02564075, 4115.76923050, 4130.76923050, 4186.15384602,8.57
4115.89743562, 4123.20512793, 4117.56410229, 4121.53846126, 4120.51282024, 4090.76923043, 4123.97435870, 4132.05128178, 4158.84615364, 4129.48717921, 4123.58974332, 4119.10256383, 4127.05128178, 4188.46153833,8.57
4127.56410229, 4128.07692280, 4128.71794844, 4127.94871767, 4125.64102537, 4107.43589716, 4130.89743562, 4137.56410236, 4171.41025628, 4127.69230742, 4131.28205101, 4129.48717921, 4130.51282024, 4191.02564089,8.57
4115.89743562, 4119.74358947, 4114.74358947, 4119.10256383, 4125.51282024, 4085.12820478, 4113.33333306, 4102.05128171, 4137.82051262, 4124.74358947, 4121.28205101, 4108.46153819, 4123.58974332, 4180.89743576,8.57
4123.71794844, 4125.38461511, 4129.35897408, 4126.79487152, 4126.79487152, 4066.41025600, 4102.69230742, 4099.23076889, 4123.46153819, 4127.69230742, 4128.84615357, 4133.07692280, 4132.56410229, 4194.23076910,8.57
4122.82051255, 4125.12820485, 4123.33333306, 4123.71794844, 4123.97435870, 4084.61538427, 4113.58974332, 4133.33333306, 4153.20512800, 4128.97435870, 4123.33333306, 4119.10256383, 4130.51282024, 4188.84615371,8.57
4122.17948691, 4123.07692280, 4122.69230742, 4120.25640998, 4120.51282024, 4101.79487145, 4118.71794844, 4129.48717921, 4165.51282031, 4126.66666639, 4123.46153819, 4124.10256383, 4129.61538434, 4191.79487166,8.57
4134.23076896, 4129.35897408, 4134.35897408, 4128.97435870, 4124.99999973, 4091.79487145, 4117.43589716, 4121.02564075, 4158.84615364, 4125.76923050, 4130.38461511, 4142.69230749, 4135.12820485, 4197.82051269,8.57
4119.48717921, 4123.20512793, 4113.20512793, 4120.12820485, 4122.56410229, 4083.20512786, 4119.99999973, 4134.99999973, 4158.84615364, 4126.02564075, 4119.10256383, 4115.25640998, 4128.58974332, 4190.12820499,8.57
4125.25640998, 4126.41025614, 4123.33333306, 4120.38461511, 4122.05128178, 4082.17948684, 4105.12820485, 4116.41025614, 4142.82051262, 4127.69230742, 4128.84615357, 4137.69230749, 4133.46153819, 4201.53846147,8.57
4123.46153819, 4126.28205101, 4120.76923050, 4119.61538434, 4124.48717921, 4079.48717914, 4082.17948684, 4086.92307658, 4115.76923050, 4127.94871767, 4126.15384588, 4126.02564075, 4130.38461511, 4191.28205115,8.57
4116.66666639, 4122.30769203, 4116.28205101, 4120.38461511, 4124.48717921, 4082.30769196, 4099.87179453, 4117.69230742, 4135.38461518, 4126.66666639, 4121.15384588, 4115.12820485, 4130.38461511, 4193.84615371,8.57
4129.87179460, 4126.66666639, 4132.43589716, 4127.43589716, 4124.23076896, 4088.58974325, 4129.48717921, 4147.56410236, 4166.53846133, 4126.53846126, 4128.58974332, 4132.82051255, 4134.61538434, 4200.76923063,8.57
4118.71794844, 4120.76923050, 4116.79487152, 4118.20512793, 4119.99999973, 4091.53846119, 4125.64102537, 4119.99999973, 4156.66666646, 4126.92307665, 4116.66666639, 4106.15384588, 4124.10256383, 4181.15384602,8.57
4123.71794844, 4123.97435870, 4124.87179460, 4121.66666639, 4123.07692280, 4092.82051248, 4121.92307665, 4120.12820485, 4160.64102544, 4128.84615357, 4124.23076896, 4125.38461511, 4131.41025614, 4191.41025628,8.57
4124.99999973, 4123.84615357, 4125.89743562, 4121.53846126, 4127.43589716, 4094.87179453, 4132.30769203, 4150.76923056, 4179.99999986, 4127.56410229, 4126.02564075, 4122.30769203, 4127.05128178, 4186.92307679,8.57
4114.99999973, 4121.15384588, 4117.82051255, 4117.56410229, 4123.46153819, 4084.23076889, 4128.07692280, 4141.92307672, 4156.66666646, 4126.53846126, 4120.51282024, 4109.35897408, 4120.64102537, 4180.51282038,8.57
4129.10256383, 4130.12820485, 4134.10256383, 4127.05128178, 4124.10256383, 4081.79487145, 4120.64102537, 4122.05128178, 4130.89743562, 4129.48717921, 4128.97435870, 4132.30769203, 4135.51282031, 4194.23076910,8.57
4122.94871767, 4124.35897408, 4121.53846126, 4120.12820485, 4124.23076896, 4103.71794844, 4128.20512793, 4133.97435870, 4158.58974339, 4128.58974332, 4120.51282024, 4113.07692280, 4128.84615357, 4185.25641012,8.57
4126.53846126, 4123.46153819, 4131.15384588, 4122.82051255, 4123.84615357, 4108.58974332, 4132.94871767, 4144.74358954, 4172.05128192, 4126.79487152, 4126.15384588, 4129.87179460, 4130.64102537, 4191.53846140,8.57
4128.46153819, 4123.33333306, 4132.05128178, 4125.25640998, 4123.71794844, 4091.15384581, 4127.56410229, 4129.48717921, 4144.10256390, 4127.30769203, 4129.10256383, 4128.97435870, 4135.25640998, 4192.69230756,8.57
4116.28205101, 4119.23076896, 4111.28205101, 4117.69230742, 4122.30769203, 4085.89743555, 4123.58974332, 4124.61538434, 4144.23076903, 4127.69230742, 4122.82051255, 4116.28205101, 4130.25640998, 4188.46153833,8.57
4129.99999973, 4129.10256383, 4126.79487152, 4127.05128178, 4127.05128178, 4088.97435863, 4126.02564075, 4143.07692287, 4179.35897422, 4131.41025614, 4131.28205101, 4145.89743569, 4137.56410236, 4195.64102551,8.57
4120.12820485, 4123.71794844, 4117.82051255, 4122.43589716, 4125.64102537, 4087.17948684, 4126.53846126, 4145.76923056, 4189.87179474, 4132.05128178, 4122.30769203, 4117.94871767, 4131.66666639, 4186.66666653,8.57
4117.94871767, 4121.66666639, 4118.46153819, 4119.87179460, 4122.56410229, 4093.97435863, 4119.99999973, 4121.15384588, 4143.97435877, 4127.82051255, 4122.94871767, 4122.56410229, 4132.94871767, 4198.20512807,8.57
4129.10256383, 4126.79487152, 4124.35897408, 4123.58974332, 4124.87179460, 4099.87179453, 4121.92307665, 4119.74358947, 4113.07692280, 4127.56410229, 4123.84615357, 4132.05128178, 4133.07692280, 4195.76923063,8.57
4116.15384588, 4118.84615357, 4111.41025614, 4119.35897408, 4124.61538434, 4094.48717914, 4139.10256390, 4152.82051262, 4162.05128185, 4129.61538434, 4117.94871767, 4108.97435870, 4123.20512793, 4182.69230756,8.57
4125.25640998, 4123.46153819, 4129.87179460, 4126.79487152, 4126.28205101, 4094.48717914, 4148.97435877, 4161.15384595, 4198.71794858, 4126.79487152, 4129.61538434, 4130.76923050, 4130.64102537, 4194.10256397,8.57
4122.43589716, 4122.94871767, 4121.02564075, 4121.92307665, 4122.56410229, 4108.46153819, 4145.76923056, 4143.46153826, 4159.35897415, 4121.53846126, 4119.87179460, 4112.82051255, 4128.07692280, 4182.30769217,8.57
4119.99999973, 4122.05128178, 4120.51282024, 4122.94871767, 4122.05128178, 4118.84615357, 4133.71794844, 4129.35897408, 4123.20512793, 4124.23076896, 4121.53846126, 4118.33333306, 4130.38461511, 4186.28205115,8.57
4130.38461511, 4127.56410229, 4136.53846133, 4131.15384588, 4127.43589716, 4106.28205101, 4118.84615357, 4122.82051255, 4137.30769210, 4129.61538434, 4131.02564075, 4133.97435870, 4133.33333306, 4190.89743576,8.57
4118.20512793, 4123.58974332, 4119.87179460, 4120.12820485, 4123.58974332, 4083.71794837, 4130.64102537, 4148.33333313, 4173.20512807, 4126.15384588, 4119.10256383, 4111.41025614, 4125.12820485, 4182.56410243,8.57
4129.10256383, 4130.25640998, 4128.33333306, 4124.35897408, 4126.02564075, 4077.30769196, 4147.82051262, 4168.07692287, 4175.38461525, 4124.10256383, 4126.41025614, 4136.53846133, 4135.38461518, 4199.87179474,8.57
4125.12820485, 4124.99999973, 4121.79487152, 4122.94871767, 4128.46153819, 4121.15384588, 4137.17948697, 4134.74358947, 4125.76923050, 4126.92307665, 4124.48717921, 4122.30769203, 4132.30769203, 4193.07692294,8.57
4116.02564075, 4117.69230742, 4118.84615357, 4118.71794844, 4122.56410229, 4128.84615357, 4141.28205108, 4129.35897408, 4126.92307665, 4127.05128178, 4124.74358947, 4120.64102537, 4130.38461511, 4193.97435884,8.57
4134.48717921, 4128.07692280, 4135.25640998, 4126.79487152, 4124.10256383, 3982.43589688, 4163.97435877, 4179.74358961, 4198.71794858, 4126.66666639, 4132.17948691, 4141.53846133, 4137.17948697, 4202.69230763,8.57
4121.02564075, 4123.71794844, 4113.97435870, 4119.99999973, 4124.23076896, 3819.48717859, 4152.56410236, 4177.82051269, 4195.12820499, 4128.46153819, 4119.35897408, 4111.41025614, 4126.41025614, 4191.53846140,8.57
4120.64102537, 4125.12820485, 4122.30769203, 4125.51282024, 4123.07692280, 3809.61538372, 4126.92307665, 4131.66666639, 4130.38461511, 4129.99999973, 4126.66666639, 4130.25640998, 4133.71794844, 4199.99999986,8.57
4123.33333306, 4125.89743562, 4122.82051255, 4125.51282024, 4122.94871767, 3855.76922994, 4132.69230742, 4139.87179467, 4146.15384595, 4127.82051255, 4124.99999973, 4124.23076896, 4132.69230742, 4188.58974345,8.57
4117.56410229, 4121.92307665, 4114.48717921, 4117.30769203, 4123.46153819, 3854.87179404, 4137.82051262, 4157.05128185, 4176.79487166, 4128.20512793, 4118.33333306, 4111.28205101, 4126.41025614, 4183.71794858,8.57
4129.87179460, 4130.12820485, 4131.41025614, 4124.48717921, 4126.92307665, 3858.97435814, 4126.15384588, 4129.10256383, 4139.23076903, 4129.99999973, 4127.43589716, 4131.15384588, 4133.20512793, 4192.43589730,8.57
4119.74358947, 4126.15384588, 4114.61538434, 4119.99999973, 4124.48717921, 3864.35897353, 4136.28205108, 4123.84615357, 4123.46153819, 4128.46153819, 4118.58974332, 4108.58974332, 4124.48717921, 4178.58974345,8.57
4125.25640998, 4129.48717921, 4126.15384588, 4123.97435870, 4125.51282024, 3849.35897353, 4146.15384595, 4149.99999980, 4150.12820492, 4128.71794844, 4123.20512793, 4128.20512793, 4130.38461511, 4189.35897422,8.57
4126.53846126, 4128.71794844, 4132.17948691, 4125.12820485, 4127.30769203, 3864.87179404, 4135.12820485, 4148.71794851, 4152.69230749, 4127.56410229, 4124.99999973, 4127.94871767, 4134.35897408, 4187.56410243,8.57
4112.69230742, 4118.58974332, 4117.30769203, 4120.12820485, 4123.07692280, 3901.53846078, 4153.07692287, 4161.15384595, 4160.51282031, 4126.53846126, 4122.43589716, 4113.84615357, 4130.64102537, 4183.33333320,8.57
4128.58974332, 4126.28205101, 4131.15384588, 4129.23076896, 4126.41025614, 3912.30769162, 4181.15384602, 4199.99999986, 4181.66666653, 4128.46153819, 4133.71794844, 4139.99999980, 4134.87179460, 4199.35897422,8.57
4119.23076896, 4122.43589716, 4115.76923050, 4122.43589716, 4126.28205101, 3901.15384539, 4164.61538441, 4181.41025628, 4176.79487166, 4126.79487152, 4123.71794844, 4119.35897408, 4126.02564075, 4191.92307679,8.57
4119.23076896, 4119.74358947, 4121.92307665, 4123.46153819, 4124.48717921, 3898.84615309, 4141.66666646, 4136.79487159, 4174.99999986, 4126.79487152, 4127.56410229, 4134.61538434, 4133.84615357, 4199.74358961,8.57
4130.25640998, 4125.76923050, 4131.15384588, 4126.15384588, 4126.02564075, 3908.58974290, 4152.69230749, 4148.58974339, 4188.20512807, 4130.89743562, 4131.02564075, 4137.17948697, 4136.53846133, 4199.35897422,8.57
4117.69230742, 4124.48717921, 4113.20512793, 4117.69230742, 4123.97435870, 3911.66666598, 4155.38461518, 4171.15384602, 4177.69230756, 4130.51282024, 4119.48717921, 4111.66666639, 4128.58974332, 4192.69230756,8.57
4125.76923050, 4129.10256383, 4125.12820485, 4125.38461511, 4125.51282024, 3917.05128136, 4146.41025621, 4165.51282031, 4158.97435877, 4130.12820485, 4127.69230742, 4136.02564082, 4138.71794851, 4202.17948711,8.57
4121.02564075, 4121.92307665, 4118.33333306, 4121.41025614, 4123.33333306, 3929.35897367, 4156.28205108, 4161.15384595, 4157.05128185, 4131.92307665, 4122.43589716, 4116.02564075, 4131.15384588, 4185.89743576,8.57
4121.53846126, 4122.30769203, 4119.87179460, 4122.05128178, 4123.33333306, 3926.28205059, 4152.94871774, 4146.28205108, 4138.97435877, 4131.66666639, 4123.84615357, 4118.33333306, 4128.33333306, 4189.10256397,8.57
4126.41025614, 4130.38461511, 4127.17948691, 4126.41025614, 4126.28205101, 3910.89743521, 4134.23076896, 4123.33333306, 4118.84615357, 4128.97435870, 4126.15384588, 4124.99999973, 4132.69230742, 4191.79487166,8.57
4109.74358947, 4123.97435870, 4114.48717921, 4117.17948691, 4122.05128178, 3909.61538392, 4144.74358954, 4142.82051262, 4151.02564082, 4128.46153819, 4116.66666639, 4103.84615357, 4126.79487152, 4180.12820499,8.57
4123.97435870, 4126.02564075, 4132.05128178, 4125.12820485, 4125.38461511, 3918.46153777, 4164.99999980, 4181.02564089, 4189.87179474, 4130.38461511, 4129.23076896, 4133.20512793, 4134.35897408, 4191.79487166,8.57
4125.12820485, 4123.46153819, 4122.30769203, 4123.46153819, 4126.02564075, 3924.87179418, 4156.79487159, 4177.17948704, 4188.58974345, 4128.84615357, 4124.61538434, 4117.94871767, 4129.61538434, 4186.02564089,8.57
4121.15384588, 4123.97435870, 4118.33333306, 4122.30769203, 4121.15384588, 3932.94871726, 4134.61538434, 4139.35897415, 4157.30769210, 4128.33333306, 4121.79487152, 4118.71794844, 4129.10256383, 4190.76923063,8.57
4129.35897408, 4130.51282024, 4134.23076896, 4131.92307665, 4123.20512793, 3937.69230700, 4127.69230742, 4122.69230742, 4135.64102544, 4129.10256383, 4127.69230742, 4139.10256390, 4136.79487159, 4196.41025628,8.57
4116.15384588, 4121.15384588, 4117.82051255, 4123.84615357, 4122.56410229, 3924.87179418, 4125.64102537, 4127.82051255, 4132.43589716, 4126.15384588, 4120.76923050, 4117.30769203, 4130.25640998, 4187.30769217,8.57
4128.07692280, 4123.20512793, 4128.33333306, 4127.69230742, 4123.20512793, 3917.17948649, 4125.89743562, 4134.10256383, 4141.15384595, 4126.66666639, 4132.94871767, 4141.15384595, 4135.76923056, 4199.74358961,8.57
4125.89743562, 4123.71794844, 4122.05128178, 4128.33333306, 4122.69230742, 3939.61538399, 4136.02564082, 4145.76923056, 4156.92307672, 4130.12820485, 4129.87179460, 4127.05128178, 4131.28205101, 4188.58974345,8.57
4114.61538434, 4121.92307665, 4112.94871767, 4123.33333306, 4122.69230742, 3951.53846092, 4138.33333313, 4145.25641005, 4152.82051262, 4131.66666639, 4124.35897408, 4118.58974332, 4130.12820485, 4190.38461525,8.57
4129.87179460, 4130.64102537, 4128.58974332, 4128.58974332, 4127.17948691, 3932.94871726, 4132.30769203, 4125.25640998, 4126.02564075, 4131.66666639, 4129.87179460, 4139.10256390, 4138.71794851, 4205.38461532,8.57
4120.64102537, 4124.87179460, 4114.99999973, 4118.97435870, 4123.07692280, 3944.74358912, 4144.10256390, 4134.87179460, 4131.66666639, 4129.10256383, 4117.56410229, 4108.84615357, 4128.46153819, 4190.25641012,8.57
4123.46153819, 4125.25640998, 4126.92307665, 4123.84615357, 4121.92307665, 3982.43589688, 4164.61538441, 4174.10256397, 4186.15384602, 4129.48717921, 4123.33333306, 4126.92307665, 4132.17948691, 4194.23076910,8.57
4122.82051255, 4124.61538434, 4124.10256383, 4127.56410229, 4125.89743562, 3980.12820458, 4162.17948697, 4181.41025628, 4208.71794865, 4131.02564075, 4121.66666639, 4124.35897408, 4131.28205101, 4188.71794858,8.57
4116.66666639, 4121.15384588, 4112.43589716, 4120.51282024, 4125.64102537, 3962.17948656, 4150.89743569, 4161.92307672, 4171.66666653, 4127.94871767, 4116.41025614, 4109.48717921, 4126.02564075, 4184.48717935,8.57
4134.61538434, 4129.87179460, 4132.94871767, 4126.41025614, 4126.28205101, 3971.66666611, 4138.97435877, 4141.28205108, 4137.69230749, 4127.69230742, 4126.79487152, 4132.17948691, 4132.30769203, 4192.69230756,8.57
4117.56410229, 4123.58974332, 4118.71794844, 4119.87179460, 4122.56410229, 3974.48717894, 4131.41025614, 4136.15384595, 4139.23076903, 4128.71794844, 4119.35897408, 4112.56410229, 4125.12820485, 4181.92307679,8.57
4117.94871767, 4123.46153819, 4124.61538434, 4122.82051255, 4123.84615357, 3962.56410194, 4146.79487159, 4161.53846133, 4160.51282031, 4127.17948691, 4128.84615357, 4130.12820485, 4133.07692280, 4194.74358961,8.57
4128.58974332, 4123.46153819, 4129.35897408, 4126.28205101, 4126.66666639, 3973.97435842, 4166.79487159, 4181.28205115, 4166.79487159, 4124.74358947, 4131.79487152, 4132.17948691, 4134.23076896, 4195.64102551,8.57
4113.71794844, 4116.79487152, 4114.35897408, 4120.38461511, 4122.56410229, 3981.28205073, 4156.92307672, 4163.58974339, 4159.74358954, 4127.69230742, 4120.12820485, 4119.35897408, 4126.79487152, 4189.23076910,8.57
4124.35897408, 4126.02564075, 4133.20512793, 4127.94871767, 4124.23076896, 3964.61538399, 4138.71794851, 4148.33333313, 4166.92307672, 4131.66666639, 4129.61538434, 4146.53846133, 4137.43589723, 4200.76923063,8.57
4119.99999973, 4121.15384588, 4121.66666639, 4121.15384588, 4123.97435870, 3974.48717894, 4157.43589723, 4170.64102551, 4179.10256397, 4128.33333306, 4122.82051255, 4118.20512793, 4131.02564075, 4192.05128192,8.57
4119.35897408, 4121.66666639, 4121.41025614, 4122.82051255, 4122.56410229, 3996.53846099, 4172.94871781, 4181.28205115, 4167.56410236, 4127.43589716, 4122.30769203, 4123.84615357, 4131.53846126, 4200.64102551,8.57
4126.15384588, 4129.23076896, 4129.74358947, 4127.56410229, 4125.25640998, 3981.66666611, 4156.15384595, 4154.35897415, 4143.58974339, 4129.74358947, 4124.74358947, 4134.10256383, 4132.30769203, 4197.82051269,8.57
4116.41025614, 4119.74358947, 4116.66666639, 4118.97435870, 4123.46153819, 3965.51281989, 4158.20512800, 4154.48717928, 4151.15384595, 4126.41025614, 4116.79487152, 4110.76923050, 4122.56410229, 4185.12820499,8.57
4128.97435870, 4121.92307665, 4131.53846126, 4125.64102537, 4123.97435870, 3972.94871740, 4170.38461525, 4178.97435884, 4174.61538448, 4127.17948691, 4126.28205101, 4132.43589716, 4130.76923050, 4197.30769217,8.57
4120.25640998, 4123.84615357, 4120.38461511, 4120.51282024, 4124.61538434, 3970.76923015, 4150.25641005, 4161.02564082, 4171.15384602, 4131.79487152, 4118.97435870, 4113.20512793, 4126.41025614, 4185.64102551,8.57
4118.33333306, 4124.23076896, 4121.92307665, 4118.20512793, 4126.02564075, 3968.46153784, 4133.33333306, 4138.71794851, 4166.41025621, 4131.79487152, 4120.64102537, 4117.94871767, 4128.46153819, 4188.20512807,8.57
4131.53846126, 4124.61538434, 4134.99999973, 4126.15384588, 4127.69230742, 3981.53846099, 4147.94871774, 4163.07692287, 4181.28205115, 4128.97435870, 4131.41025614, 4133.20512793, 4131.79487152, 4191.53846140,8.57
4116.79487152, 4118.07692280, 4114.23076896, 4120.76923050, 4124.48717921, 3997.69230714, 4147.30769210, 4171.41025628, 4176.66666653, 4127.82051255, 4122.43589716, 4106.79487152, 4123.33333306, 4181.53846140,8.57
4125.64102537, 4127.43589716, 4127.94871767, 4125.25640998, 4126.28205101, 3999.48717894, 4126.15384588, 4141.79487159, 4142.43589723, 4130.51282024, 4128.58974332, 4133.33333306, 4135.89743569, 4197.69230756,8.57
4125.12820485, 4125.12820485, 4126.79487152, 4120.38461511, 4126.15384588, 3983.84615329, 4127.43589716, 4137.30769210, 4133.07692280, 4130.51282024, 4124.35897408, 4126.79487152, 4132.43589716, 4191.53846140,8.57
4122.05128178, 4120.64102537, 4121.28205101, 4119.74358947, 4123.33333306, 3989.74358919, 4150.25641005, 4159.35897415, 4155.38461518, 4126.15384588, 4123.84615357, 4126.28205101, 4127.43589716, 4191.28205115,8.57
4132.56410229, 4128.20512793, 4130.51282024, 4127.94871767, 4124.99999973, 4016.66666618, 4165.64102544, 4169.48717935, 4181.79487166, 4124.99999973, 4132.05128178, 4141.66666646, 4136.41025621, 4199.10256397,8.57
4114.87179460, 4120.76923050, 4112.69230742, 4115.38461511, 4122.43589716, 4018.46153798, 4166.66666646, 4184.99999986, 4210.12820506, 4127.05128178, 4121.66666639, 4112.69230742, 4131.53846126, 4190.38461525,8.57
4121.15384588, 4124.87179460, 4125.51282024, 4122.05128178, 4124.48717921, 4002.17948663, 4149.23076903, 4174.74358961, 4178.33333320, 4128.07692280, 4126.92307665, 4133.58974332, 4136.28205108, 4200.64102551,8.57
4123.46153819, 4125.12820485, 4122.94871767, 4127.05128178, 4125.76923050, 4006.41025593, 4141.53846133, 4139.48717928, 4112.17948691, 4126.66666639, 4123.20512793, 4126.66666639, 4132.17948691, 4190.51282038,8.57
4115.25640998, 4116.79487152, 4115.51282024, 4122.30769203, 4121.79487152, 4024.10256362, 4165.12820492, 4156.79487159, 4135.51282031, 4126.66666639, 4121.79487152, 4113.71794844, 4126.53846126, 4187.43589730,8.57
4126.92307665, 4123.33333306, 4131.92307665, 4127.82051255, 4125.38461511, 4018.71794824, 4157.69230749, 4177.30769217, 4195.38461525, 4127.17948691, 4131.15384588, 4127.56410229, 4129.74358947, 4196.53846140,8.57
4116.41025614, 4122.17948691, 4113.97435870, 4118.58974332, 4125.89743562, 3997.17948663, 4119.35897408, 4142.69230749, 4177.56410243, 4123.97435870, 4117.69230742, 4102.17948684, 4120.12820485, 4181.79487166,8.57
4122.56410229, 4124.61538434, 4124.74358947, 4123.97435870, 4125.51282024, 3995.38461483, 4124.87179460, 4128.58974332, 4139.10256390, 4125.12820485, 4124.74358947, 4127.17948691, 4127.30769203, 4189.61538448,8.57
4126.92307665, 4123.07692280, 4128.20512793, 4127.17948691, 4123.58974332, 4014.87179439, 4149.61538441, 4152.43589723, 4135.12820485, 4128.58974332, 4127.30769203, 4127.94871767, 4126.53846126, 4186.02564089,8.57
4116.53846126, 4121.15384588, 4113.84615357, 4116.02564075, 4120.64102537, 4022.17948670, 4151.79487159, 4165.89743569, 4145.76923056, 4127.05128178, 4118.84615357, 4112.82051255, 4119.48717921, 4184.48717935,8.57
4128.07692280, 4131.92307665, 4132.05128178, 4123.07692280, 4127.94871767, 4015.38461490, 4153.46153826, 4171.53846140, 4172.69230756, 4124.74358947, 4128.84615357, 4140.51282031, 4133.58974332, 4200.12820499,8.57
4117.43589716, 4123.20512793, 4118.07692280, 4119.99999973, 4125.89743562, 4019.99999952, 4153.33333313, 4164.23076903, 4179.99999986, 4124.87179460, 4121.79487152, 4118.58974332, 4129.35897408, 4188.20512807,8.57
4122.82051255, 4121.79487152, 4120.51282024, 4119.99999973, 4122.05128178, 4034.35897388, 4148.71794851, 4148.84615364, 4150.89743569, 4128.71794844, 4127.56410229, 4132.30769203, 4130.89743562, 4195.12820499,8.57
4131.79487152, 4128.33333306, 4129.10256383, 4121.79487152, 4127.43589716, 4034.87179439, 4156.15384595, 4155.38461518, 4147.94871774, 4129.23076896, 4130.89743562, 4139.10256390, 4134.99999973, 4196.92307679,8.57
4114.48717921, 4120.64102537, 4114.74358947, 4117.30769203, 4123.84615357, 4030.51282003, 4172.43589730, 4178.33333320, 4182.56410243, 4125.64102537, 4119.99999973, 4114.61538434, 4129.23076896, 4188.97435884,8.57
4124.87179460, 4123.33333306, 4128.20512793, 4126.66666639, 4121.53846126, 4035.25640977, 4174.99999986, 4185.76923063, 4187.94871781, 4127.05128178, 4127.82051255, 4135.38461518, 4136.15384595, 4198.71794858,8.57
4119.23076896, 4120.12820485, 4117.56410229, 4120.51282024, 4121.02564075, 4043.71794830, 4163.20512800, 4174.35897422, 4164.74358954, 4129.10256383, 4122.30769203, 4114.35897408, 4126.79487152, 4187.69230756,8.57
4116.92307665, 4121.41025614, 4118.58974332, 4122.82051255, 4122.43589716, 4047.82051241, 4161.53846133, 4179.10256397, 4168.58974345, 4127.94871767, 4125.25640998, 4120.64102537, 4127.17948691, 4193.07692294,8.57
4126.66666639, 4125.64102537, 4126.53846126, 4132.05128178, 4126.28205101, 4048.84615343, 4169.87179474, 4183.97435884, 4176.66666653, 4126.53846126, 4129.74358947, 4129.61538434, 4134.35897408, 4194.48717935,8.57
4113.84615357, 4117.56410229, 4111.02564075, 4122.17948691, 4124.74358947, 4030.12820465, 4143.58974339, 4146.28205108, 4146.02564082, 4126.28205101, 4120.51282024, 4105.12820485, 4125.25640998, 4182.94871781,8.57
4127.17948691, 4126.53846126, 4131.02564075, 4129.87179460, 4127.17948691, 4008.84615336, 4112.17948691, 4127.05128178, 4124.74358947, 4127.82051255, 4131.53846126, 4135.51282031, 4129.35897408, 4194.61538448,8.57
4124.61538434, 4126.15384588, 4123.58974332, 4129.87179460, 4125.89743562, 4034.87179439, 4149.48717928, 4175.25641012, 4158.20512800, 4127.30769203, 4126.02564075, 4119.61538434, 4124.23076896, 4183.58974345,8.57
4118.20512793, 4122.05128178, 4118.07692280, 4124.99999973, 4123.07692280, 4072.43589709, 4190.51282038, 4200.12820499, 4198.84615371, 4125.89743562, 4123.20512793, 4114.99999973, 4125.89743562, 4187.17948704,8.57
4130.51282024, 4128.33333306, 4134.48717921, 4129.61538434, 4127.05128178, 4069.61538420, 4180.25641012, 4190.89743576, 4216.92307686, 4127.56410229, 4130.51282024, 4138.84615364, 4132.69230742, 4196.92307679,8.57
4116.92307665, 4120.76923050, 4114.87179460, 4122.56410229, 4123.71794844, 4066.53846113, 4173.97435884, 4199.48717935, 4212.94871788, 4126.41025614, 4123.07692280, 4117.82051255, 4124.74358947, 4184.35897422,8.57
4126.02564075, 4126.41025614, 4122.30769203, 4127.05128178, 4122.30769203, 4070.64102530, 4169.23076910, 4178.20512807, 4164.10256390, 4126.41025614, 4131.53846126, 4135.64102544, 4134.87179460, 4197.05128192,8.57
4126.66666639, 4127.43589716, 4121.79487152, 4125.89743562, 4124.74358947, 4061.79487138, 4158.07692287, 4153.33333313, 4137.69230749, 4129.99999973, 4124.61538434, 4125.12820485, 4134.48717921, 4193.97435884,8.57
4116.41025614, 4119.99999973, 4116.02564075, 4124.61538434, 4124.35897408, 4070.76923043, 4170.51282038, 4184.10256397, 4172.69230756, 4129.99999973, 4119.99999973, 4119.10256383, 4129.10256383, 4193.33333320,8.57
4130.38461511, 4125.51282024, 4129.35897408, 4131.28205101, 4123.58974332, 4081.53846119, 4169.10256397, 4186.02564089, 4166.02564082, 4126.66666639, 4129.74358947, 4137.69230749, 4132.30769203, 4201.92307686,8.57
4116.15384588, 4121.41025614, 4114.35897408, 4120.76923050, 4120.64102537, 4061.79487138, 4143.07692287, 4149.74358954, 4130.76923050, 4123.97435870, 4117.94871767, 4108.97435870, 4123.84615357, 4187.69230756,8.57
4119.10256383, 4123.07692280, 4125.89743562, 4126.15384588, 4125.25640998, 4056.79487138, 4153.58974339, 4171.66666653, 4160.76923056, 4126.15384588, 4125.25640998, 4125.89743562, 4130.25640998, 4193.46153833,8.57
4126.28205101, 4123.71794844, 4123.97435870, 4126.92307665, 4126.28205101, 4066.79487138, 4169.23076910, 4196.02564089, 4182.30769217, 4127.05128178, 4126.15384588, 4121.79487152, 4130.76923050, 4185.25641012,8.57
4116.28205101, 4120.38461511, 4112.05128178, 4119.61538434, 4121.66666639, 4067.43589702, 4154.61538441, 4172.56410243, 4159.48717928, 4125.51282024, 4118.33333306, 4111.15384588, 4126.28205101, 4181.41025628,8.57
4126.92307665, 4127.56410229, 4131.92307665, 4128.84615357, 4127.82051255, 4078.71794837, 4154.74358954, 4174.35897422, 4184.48717935, 4126.41025614, 4129.61538434, 4138.46153826, 4133.46153819, 4194.61538448,8.57
4117.17948691, 4123.07692280, 4117.94871767, 4121.02564075, 4126.66666639, 4075.64102530, 4160.38461518, 4178.33333320, 4208.71794865, 4125.51282024, 4123.33333306, 4112.43589716, 4125.12820485, 4182.82051269,8.57
4123.20512793, 4127.82051255, 4125.51282024, 4120.89743562, 4122.82051255, 4050.38461497, 4136.92307672, 4133.97435870, 4154.48717928, 4127.17948691, 4126.79487152, 4125.38461511, 4129.35897408, 4191.02564089,8.57
4129.48717921, 4130.51282024, 4130.89743562, 4124.99999973, 4123.97435870, 4079.23076889, 4144.61538441, 4137.56410236, 4146.15384595, 4127.56410229, 4128.46153819, 4131.15384588, 4132.56410229, 4192.69230756,8.57
4112.43589716, 4119.35897408, 4113.71794844, 4119.48717921, 4120.51282024, 4115.89743562, 4180.51282038, 4195.76923063, 4198.07692294, 4126.41025614, 4124.10256383, 4115.51282024, 4128.07692280, 4189.74358961,8.57
4127.43589716, 4124.87179460, 4132.05128178, 4127.56410229, 4124.48717921, 4074.48717914, 4166.41025621, 4182.17948704, 4170.38461525, 4127.05128178, 4132.69230742, 4142.82051262, 4135.76923056, 4200.25641012,8.57
4123.46153819, 4124.48717921, 4118.20512793, 4122.69230742, 4125.89743562, 4058.71794830, 4157.82051262, 4157.69230749, 4137.69230749, 4126.02564075, 4120.12820485, 4119.23076896, 4125.64102537, 4187.69230756,8.57
4119.74358947, 4123.20512793, 4117.17948691, 4124.48717921, 4122.82051255, 4097.56410222, 4180.64102551, 4194.87179474, 4184.87179474, 4129.10256383, 4125.38461511, 4125.25640998, 4129.10256383, 4197.17948704,8.57
4125.12820485, 4124.99999973, 4129.48717921, 4127.94871767, 4122.30769203, 4094.48717914, 4164.99999980, 4189.48717935, 4191.66666653, 4130.89743562, 4132.94871767, 4130.76923050, 4133.33333306, 4196.41025628,8.57
4111.92307665, 4119.61538434, 4110.89743562, 4116.92307665, 4119.74358947, 4077.05128171, 4140.76923056, 4142.94871774, 4150.38461518, 4125.89743562, 4118.33333306, 4106.02564075, 4122.94871767, 4183.20512807,8.57
4123.97435870, 4126.92307665, 4122.17948691, 4124.87179460, 4123.46153819, 4097.82051248, 4166.15384595, 4166.53846133, 4170.76923063, 4127.30769203, 4125.38461511, 4134.61538434, 4134.48717921, 4194.48717935,8.57
4118.97435870, 4125.25640998, 4119.61538434, 4124.23076896, 4121.79487152, 4114.23076896, 4199.48717935, 4219.35897429, 4222.94871788, 4130.89743562, 4121.41025614, 4115.25640998, 4129.74358947, 4182.17948704,8.57
4118.46153819, 4123.58974332, 4123.46153819, 4123.20512793, 4120.51282024, 4105.25640998, 4196.53846140, 4213.84615378, 4226.41025634, 4126.41025614, 4122.05128178, 4112.30769203, 4124.74358947, 4187.05128192,8.57
4130.76923050, 4127.05128178, 4133.07692280, 4126.92307665, 4127.69230742, 4095.51282017, 4174.35897422, 4191.66666653, 4194.23076910, 4124.61538434, 4128.84615357, 4129.61538434, 4130.12820485, 4192.69230756,8.57
4114.35897408, 4121.28205101, 4115.38461511, 4116.66666639, 4124.48717921, 4089.61538427, 4158.07692287, 4185.12820499, 4156.79487159, 4128.71794844, 4120.76923050, 4111.28205101, 4125.89743562, 4179.10256397,8.57
4125.76923050, 4129.48717921, 4132.69230742, 4124.48717921, 4122.94871767, 4086.92307658, 4158.20512800, 4172.56410243, 4147.43589723, 4127.94871767, 4129.23076896, 4136.79487159, 4133.71794844, 4194.23076910,8.57
4127.43589716, 4124.99999973, 4123.33333306, 4123.58974332, 4125.89743562, 4089.23076889, 4165.51282031, 4161.15384595, 4164.23076903, 4126.28205101, 4125.25640998, 4124.61538434, 4129.35897408, 4190.64102551,8.57
4120.89743562, 4118.84615357, 4113.33333306, 4120.89743562, 4125.25640998, 4096.41025607, 4167.69230749, 4164.74358954, 4161.53846133, 4129.61538434, 4126.02564075, 4124.48717921, 4129.99999973, 4190.38461525,8.57
4133.71794844, 4128.97435870, 4132.05128178, 4130.76923050, 4125.12820485, 4111.02564075, 4172.69230756, 4179.61538448, 4168.71794858, 4128.71794844, 4133.84615357, 4144.99999980, 4137.05128185, 4197.17948704,8.57
4116.41025614, 4120.12820485, 4114.35897408, 4121.53846126, 4123.71794844, 4115.25640998, 4184.23076910, 4193.20512807, 4192.05128192, 4123.20512793, 4119.61538434, 4115.89743562, 4126.41025614, 4188.84615371,8.57
4120.51282024, 4121.53846126, 4122.69230742, 4124.74358947, 4124.61538434, 4108.33333306, 4186.41025628, 4189.61538448, 4186.28205115, 4126.02564075, 4127.05128178, 4136.66666646, 4132.30769203, 4202.43589737,8.57
4126.15384588, 4126.53846126, 4124.48717921, 4125.25640998, 4122.56410229, 4100.38461504, 4162.69230749, 4166.53846133, 4181.02564089, 4128.97435870, 4126.53846126, 4127.17948691, 4129.48717921, 4193.84615371,8.57
4117.30769203, 4122.56410229, 4114.23076896, 4117.43589716, 4120.51282024, 4095.76923043, 4145.25641005, 4158.71794851, 4194.87179474, 4125.64102537, 4119.35897408, 4110.76923050, 4126.28205101, 4188.07692294,8.57
4125.51282024, 4126.92307665, 4126.28205101, 4124.35897408, 4125.12820485, 4097.94871761, 4156.66666646, 4172.17948704, 4186.15384602, 4125.12820485, 4126.02564075, 4133.71794844, 4135.25640998, 4197.56410243,8.57
4112.94871767, 4121.92307665, 4112.94871767, 4120.38461511, 4123.58974332, 4100.25640991, 4165.25641005, 4176.92307679, 4158.58974339, 4125.12820485, 4117.17948691, 4109.61538434, 4123.33333306, 4186.02564089,8.57
4120.51282024, 4123.71794844, 4126.41025614, 4124.74358947, 4124.87179460, 4097.05128171, 4159.10256390, 4173.97435884, 4158.46153826, 4124.61538434, 4124.99999973, 4124.74358947, 4127.43589716, 4194.48717935,8.57
4126.15384588, 4122.94871767, 4127.56410229, 4125.38461511, 4127.69230742, 4090.12820478, 4149.99999980, 4166.02564082, 4166.41025621, 4124.74358947, 4126.28205101, 4126.02564075, 4132.17948691, 4188.33333320,8.57
4113.97435870, 4118.46153819, 4113.33333306, 4118.84615357, 4123.20512793, 4107.43589716, 4158.46153826, 4169.23076910, 4164.99999980, 4125.76923050, 4120.12820485, 4111.66666639, 4126.66666639, 4182.94871781,8.57
4130.76923050, 4128.20512793, 4132.05128178, 4126.02564075, 4125.89743562, 4137.94871774, 4186.41025628, 4196.41025628, 4183.71794858, 4127.05128178, 4129.87179460, 4136.41025621, 4133.07692280, 4197.30769217,8.57
4124.74358947, 4122.05128178, 4117.69230742, 4120.25640998, 4125.12820485, 4124.48717921, 4178.58974345, 4194.35897422, 4202.94871788, 4125.38461511, 4122.69230742, 4118.84615357, 4127.56410229, 4187.43589730,8.57
4124.87179460, 4121.92307665, 4121.53846126, 4123.71794844, 4121.41025614, 4091.92307658, 4148.58974339, 4168.20512807, 4183.84615371, 4125.38461511, 4129.23076896, 4132.94871767, 4133.33333306, 4195.64102551,8.57
4131.41025614, 4125.64102537, 4128.71794844, 4124.99999973, 4124.23076896, 4093.33333299, 4156.66666646, 4178.20512807, 4157.56410236, 4126.41025614, 4130.38461511, 4135.12820485, 4136.66666646, 4195.25641012,8.57
4117.17948691, 4120.25640998, 4113.20512793, 4116.66666639, 4124.74358947, 4104.10256383, 4170.12820499, 4192.69230756, 4176.66666653, 4127.17948691, 4118.71794844, 4116.53846126, 4129.23076896, 4189.35897422,8.57
4124.87179460, 4128.84615357, 4128.71794844, 4124.10256383, 4126.02564075, 4096.66666632, 4145.12820492, 4159.23076903, 4187.94871781, 4129.87179460, 4126.41025614, 4140.64102544, 4136.53846133, 4204.10256404,8.57
4116.02564075, 4121.79487152, 4119.23076896, 4117.05128178, 4122.82051255, 4109.35897408, 4148.71794851, 4148.33333313, 4163.33333313, 4128.46153819, 4119.99999973, 4115.25640998, 4130.76923050, 4190.38461525,8.57
4116.79487152, 4118.58974332, 4118.97435870, 4120.38461511, 4121.15384588, 4107.94871767, 4165.25641005, 4169.61538448, 4154.35897415, 4127.56410229, 4124.74358947, 4119.23076896, 4132.82051255, 4192.43589730,8.57
4128.33333306, 4127.82051255, 4128.33333306, 4130.89743562, 4125.12820485, 4087.05128171, 4147.56410236, 4160.64102544, 4161.92307672, 4128.20512793, 4128.71794844, 4129.35897408, 4136.92307672, 4195.12820499,8.57
4112.82051255, 4121.79487152, 4112.17948691, 4121.15384588, 4121.92307665, 4108.46153819, 4153.58974339, 4161.79487159, 4167.94871774, 4126.41025614, 4116.41025614, 4103.58974332, 4126.79487152, 4182.05128192,8.57
4124.35897408, 4123.58974332, 4126.79487152, 4127.05128178, 4120.64102537, 4116.15384588, 4163.84615364, 4176.28205115, 4165.51282031, 4127.30769203, 4127.17948691, 4129.23076896, 4132.30769203, 4191.28205115,8.57
4121.92307665, 4122.17948691, 4121.15384588, 4126.02564075, 4121.92307665, 4080.64102530, 4141.15384595, 4161.53846133, 4159.99999980, 4127.56410229, 4122.94871767, 4116.15384588, 4127.05128178, 4182.30769217,8.57
4118.58974332, 4124.87179460, 4120.89743562, 4123.20512793, 4125.76923050, 4088.33333299, 4140.64102544, 4157.69230749, 4176.02564089, 4125.51282024, 4120.51282024, 4117.43589716, 4127.56410229, 4186.66666653,8.57
4132.94871767, 4130.76923050, 4135.89743569, 4128.58974332, 4128.97435870, 4128.33333306, 4171.41025628, 4179.99999986, 4187.30769217, 4125.76923050, 4129.87179460, 4136.66666646, 4134.23076896, 4196.15384602,8.57
4117.43589716, 4120.76923050, 4116.15384588, 4119.87179460, 4122.17948691, 4134.35897408, 4189.23076910, 4199.10256397, 4185.12820499, 4126.53846126, 4123.71794844, 4114.35897408, 4126.53846126, 4185.89743576,8.57
4125.76923050, 4127.17948691, 4127.43589716, 4124.74358947, 4124.35897408, 4119.99999973, 4180.12820499, 4198.84615371, 4193.46153833, 4126.79487152, 4130.51282024, 4140.25641005, 4135.38461518, 4196.28205115,8.57
4126.66666639, 4127.30769203, 4124.10256383, 4122.94871767, 4125.12820485, 4101.66666632, 4159.35897415, 4182.69230756, 4197.30769217, 4127.17948691, 4124.74358947, 4130.25640998, 4132.69230742, 4191.15384602,8.57
4114.48717921, 4120.64102537, 4115.76923050, 4121.28205101, 4119.35897408, 4093.58974325, 4145.76923056, 4159.99999980, 4181.15384602, 4128.20512793, 4121.92307665, 4120.12820485, 4131.02564075, 4194.23076910,8.57
4128.71794844, 4126.79487152, 4133.46153819, 4130.76923050, 4123.97435870, 4117.17948691, 4156.41025621, 4159.74358954, 4158.84615364, 4131.28205101, 4131.79487152, 4136.79487159, 4138.84615364, 4202.05128199,8.57
4117.56410229, 4118.84615357, 4115.25640998, 4117.69230742, 4121.41025614, 4127.43589716, 4163.07692287, 4180.12820499, 4145.64102544, 4129.74358947, 4120.25640998, 4109.23076896, 4124.99999973, 4187.17948704,8.57
4120.25640998, 4121.66666639, 4121.66666639, 4121.28205101, 4120.89743562, 4104.10256383, 4153.58974339, 4179.48717935, 4157.82051262, 4126.92307665, 4124.99999973, 4130.51282024, 4129.99999973, 4198.33333320,8.57
4123.20512793, 4126.66666639, 4123.07692280, 4125.51282024, 4127.17948691, 4097.17948684, 4158.07692287, 4178.20512807, 4192.05128192, 4129.99999973, 4124.35897408, 4123.58974332, 4133.84615357, 4190.25641012,8.57
4113.84615357, 4119.99999973, 4114.87179460, 4117.69230742, 4125.12820485, 4100.89743555, 4157.56410236, 4181.53846140, 4188.07692294, 4133.71794844, 4119.10256383, 4107.30769203, 4127.17948691, 4181.53846140,8.57
4129.35897408, 4124.23076896, 4135.12820485, 4126.02564075, 4126.28205101, 4098.97435863, 4144.74358954, 4167.94871774, 4152.82051262, 4130.25640998, 4128.58974332, 4135.76923056, 4133.33333306, 4192.56410243,8.57
4117.82051255, 4122.94871767, 4117.94871767, 4121.92307665, 4125.12820485, 4122.30769203, 4156.53846133, 4165.89743569, 4158.33333313, 4124.87179460, 4118.46153819, 4113.33333306, 4127.82051255, 4180.76923063,8.57
4121.79487152, 4126.15384588, 4123.84615357, 4124.35897408, 4124.99999973, 4141.92307672, 4167.82051262, 4174.74358961, 4177.43589730, 4126.41025614, 4123.84615357, 4125.12820485, 4131.66666639, 4189.74358961,8.57
4130.51282024, 4125.12820485, 4130.25640998, 4126.02564075, 4126.53846126, 4136.02564082, 4162.82051262, 4180.51282038, 4189.87179474, 4125.38461511, 4127.94871767, 4129.61538434, 4132.56410229, 4189.48717935,8.57
4113.58974332, 4118.20512793, 4111.92307665, 4116.92307665, 4123.33333306, 4123.07692280, 4175.25641012, 4197.82051269, 4200.51282038, 4124.99999973, 4122.43589716, 4116.79487152, 4127.94871767, 4184.35897422,8.57
4130.64102537, 4128.97435870, 4130.64102537, 4126.66666639, 4129.35897408, 4108.71794844, 4177.43589730, 4200.38461525, 4183.84615371, 4130.12820485, 4133.20512793, 4145.25641005, 4137.94871774, 4199.61538448,8.57
4122.94871767, 4123.97435870, 4117.94871767, 4121.79487152, 4125.51282024, 4110.76923050, 4151.79487159, 4168.97435884, 4167.94871774, 4128.84615357, 4121.28205101, 4119.61538434, 4128.97435870, 4188.97435884,8.57
4115.51282024, 4121.79487152, 4115.12820485, 4119.61538434, 4119.74358947, 4128.71794844, 4156.15384595, 4171.28205115, 4191.53846140, 4127.69230742, 4122.43589716, 4127.43589716, 4131.02564075, 4196.02564089,8.57
4128.46153819, 4128.71794844, 4126.15384588, 4125.89743562, 4126.66666639, 4130.76923050, 4182.94871781, 4199.99999986, 4198.84615371, 4129.74358947, 4130.12820485, 4137.17948697, 4137.17948697, 4198.07692294,8.57
4116.28205101, 4119.23076896, 4110.64102537, 4120.25640998, 4123.97435870, 4119.10256383, 4173.46153833, 4184.23076910, 4168.71794858, 4126.92307665, 4120.38461511, 4110.89743562, 4129.10256383, 4186.66666653,8.57
4126.28205101, 4123.07692280, 4125.25640998, 4126.02564075, 4122.56410229, 4113.20512793, 4145.38461518, 4163.07692287, 4168.71794858, 4125.38461511, 4127.69230742, 4135.64102544, 4138.20512800, 4201.28205122,8.57
4120.64102537, 4121.92307665, 4116.79487152, 4119.99999973, 4123.58974332, 4114.99999973, 4145.51282031, 4171.92307679, 4186.92307679, 4126.66666639, 4120.51282024, 4117.30769203, 4132.30769203, 4187.05128192,8.57
4114.61538434, 4119.99999973, 4117.94871767, 4119.74358947, 4124.35897408, 4125.51282024, 4166.66666646, 4185.76923063, 4188.71794858, 4126.15384588, 4118.97435870, 4117.30769203, 4127.43589716, 4181.92307679,8.57
4129.87179460, 4128.58974332, 4133.33333306, 4128.46153819, 4127.43589716, 4135.12820485, 4174.74358961, 4189.61538448, 4191.15384602, 4126.02564075, 4127.17948691, 4134.35897408, 4132.82051255, 4189.87179474,8.57
4117.43589716, 4124.35897408, 4112.94871767, 4121.15384588, 4121.92307665, 4142.17948697, 4173.20512807, 4187.56410243, 4197.05128192, 4125.89743562, 4119.74358947, 4109.35897408, 4126.92307665, 4181.66666653,8.57
4127.69230742, 4129.35897408, 4127.05128178, 4128.07692280, 4122.56410229, 4137.94871774, 4171.66666653, 4187.17948704, 4198.71794858, 4125.89743562, 4126.79487152, 4133.20512793, 4134.35897408, 4192.82051269,8.57
4127.17948691, 4128.58974332, 4126.28205101, 4124.23076896, 4124.74358947, 4122.94871767, 4168.58974345, 4190.12820499, 4197.56410243, 4127.30769203, 4124.10256383, 4125.38461511, 4129.35897408, 4185.25641012,8.57
4117.94871767, 4125.89743562, 4118.71794844, 4118.71794844, 4122.82051255, 4122.17948691, 4164.35897415, 4187.30769217, 4184.10256397, 4127.82051255, 4124.87179460, 4122.30769203, 4125.64102537, 4188.71794858,8.57
4132.17948691, 4131.15384588, 4129.99999973, 4126.53846126, 4127.05128178, 4128.84615357, 4156.92307672, 4173.84615371, 4169.48717935, 4127.82051255, 4130.64102537, 4138.97435877, 4134.87179460, 4200.25641012,8.57
4118.46153819, 4120.89743562, 4110.64102537, 4117.56410229, 4126.53846126, 4122.82051255, 4149.48717928, 4167.94871774, 4186.02564089, 4126.92307665, 4120.38461511, 4114.61538434, 4133.07692280, 4187.94871781,8.57
4123.97435870, 4125.89743562, 4122.56410229, 4120.38461511, 4126.66666639, 4124.87179460, 4148.71794851, 4174.87179474, 4197.69230756, 4128.07692280, 4132.17948691, 4140.51282031, 4140.25641005, 4198.46153833,8.57
4123.84615357, 4127.30769203, 4123.84615357, 4122.82051255, 4126.28205101, 4138.07692287, 4156.15384595, 4181.15384602, 4188.97435884, 4126.79487152, 4127.17948691, 4131.15384588, 4133.20512793, 4192.69230756,8.57
4110.25640998, 4118.58974332, 4112.94871767, 4120.76923050, 4123.33333306, 4129.48717921, 4158.20512800, 4181.28205115, 4183.58974345, 4125.25640998, 4117.56410229, 4113.33333306, 4128.97435870, 4190.64102551,8.57
4127.43589716, 4123.84615357, 4128.07692280, 4126.66666639, 4125.76923050, 4124.48717921, 4162.43589723, 4190.12820499, 4188.07692294, 4127.43589716, 4127.56410229, 4135.89743569, 4138.33333313, 4198.07692294,8.57
4122.05128178, 4119.99999973, 4115.12820485, 4119.23076896, 4123.33333306, 4144.48717928, 4182.69230756, 4212.43589737, 4214.61538455, 4127.17948691, 4116.41025614, 4112.69230742, 4126.92307665, 4180.89743576,8.57
4123.20512793, 4125.51282024, 4125.89743562, 4124.99999973, 4124.74358947, 4143.07692287, 4179.48717935, 4194.48717935, 4211.79487173, 4127.17948691, 4123.71794844, 4127.43589716, 4131.02564075, 4190.12820499,8.57
4122.69230742, 4129.23076896, 4127.69230742, 4125.51282024, 4125.76923050, 4124.23076896, 4159.74358954, 4163.33333313, 4172.30769217, 4128.84615357, 4129.87179460, 4124.23076896, 4132.30769203, 4187.30769217,8.57
4115.38461511, 4123.20512793, 4113.71794844, 4119.74358947, 4121.53846126, 4127.56410229, 4164.61538441, 4185.64102551, 4182.43589730, 4130.64102537, 4122.43589716, 4108.71794844, 4126.41025614, 4182.17948704,8.57
4129.87179460, 4128.20512793, 4129.23076896, 4129.87179460, 4127.56410229, 4129.23076896, 4166.92307672, 4202.94871788, 4214.48717942, 4132.82051255, 4129.23076896, 4132.56410229, 4136.53846133, 4194.99999986,8.57
4116.53846126, 4120.25640998, 4115.76923050, 4120.76923050, 4126.66666639, 4113.33333306, 4152.69230749, 4181.02564089, 4196.02564089, 4128.46153819, 4123.20512793, 4114.61538434, 4129.23076896, 4184.99999986,8.57
4122.05128178, 4121.66666639, 4125.12820485, 4121.28205101, 4122.30769203, 4111.15384588, 4147.94871774, 4167.17948697, 4167.30769210, 4124.61538434, 4129.74358947, 4133.58974332, 4129.61538434, 4194.87179474,8.57
4130.51282024, 4127.30769203, 4130.76923050, 4126.15384588, 4124.23076896, 4114.74358947, 4145.12820492, 4161.15384595, 4162.05128185, 4130.12820485, 4131.79487152, 4136.28205108, 4134.87179460, 4196.15384602,8.57
4114.35897408, 4121.41025614, 4112.05128178, 4117.69230742, 4120.64102537, 4113.71794844, 4144.74358954, 4161.53846133, 4168.71794858, 4134.35897408, 4124.48717921, 4116.79487152, 4133.97435870, 4189.99999986,8.57
4126.41025614, 4126.92307665, 4130.76923050, 4126.53846126, 4121.02564075, 4128.20512793, 4153.33333313, 4172.30769217, 4174.87179474, 4131.66666639, 4134.48717921, 4144.48717928, 4141.15384595, 4201.28205122,8.57
4118.58974332, 4118.97435870, 4118.46153819, 4122.69230742, 4121.41025614, 4136.15384595, 4150.38461518, 4171.53846140, 4177.05128192, 4127.82051255, 4123.58974332, 4120.38461511, 4129.23076896, 4189.23076910,8.57
4116.53846126, 4118.20512793, 4114.87179460, 4119.99999973, 4122.43589716, 4124.87179460, 4137.17948697, 4157.56410236, 4167.56410236, 4127.94871767, 4122.82051255, 4123.84615357, 4131.66666639, 4195.38461525,8.57
4124.35897408, 4128.33333306, 4126.66666639, 4123.33333306, 4123.97435870, 4139.48717928, 4147.94871774, 4163.20512800, 4161.28205108, 4130.64102537, 4128.20512793, 4133.71794844, 4136.66666646, 4196.02564089,8.57
4112.69230742, 4121.66666639, 4116.02564075, 4117.43589716, 4120.38461511, 4164.87179467, 4165.25641005, 4176.28205115, 4186.66666653, 4129.87179460, 4117.30769203, 4109.10256383, 4123.97435870, 4184.48717935,8.57
4126.79487152, 4124.74358947, 4128.46153819, 4126.53846126, 4124.99999973, 4156.41025621, 4167.05128185, 4178.71794858, 4215.64102558, 4126.66666639, 4126.41025614, 4132.94871767, 4132.05128178, 4195.76923063,8.57
4119.10256383, 4123.58974332, 4115.12820485, 4122.69230742, 4123.97435870, 4131.53846126, 4167.56410236, 4178.97435884, 4199.61538448, 4124.23076896, 4123.46153819, 4115.12820485, 4128.20512793, 4182.56410243,8.57
4113.20512793, 4125.12820485, 4119.74358947, 4120.38461511, 4120.38461511, 4112.05128178, 4149.74358954, 4165.12820492, 4159.48717928, 4126.79487152, 4122.43589716, 4114.61538434, 4126.02564075, 4183.71794858,8.57
4126.41025614, 4131.41025614, 4135.76923056, 4126.53846126, 4125.12820485, 4109.87179460, 4124.61538434, 4143.20512800, 4148.33333313, 4128.07692280, 4129.10256383, 4131.79487152, 4133.20512793, 4189.48717935,8.57
4114.99999973, 4122.05128178, 4112.94871767, 4119.74358947, 4124.48717921, 4144.10256390, 4150.51282031, 4163.20512800, 4181.28205115, 4126.02564075, 4120.51282024, 4109.35897408, 4127.17948691, 4178.07692294,8.57
4126.66666639, 4126.41025614, 4126.15384588, 4126.66666639, 4123.58974332, 4170.12820499, 4191.66666653, 4208.58974352, 4216.28205122, 4128.20512793, 4129.48717921, 4135.51282031, 4134.74358947, 4193.07692294,8.57
4124.61538434, 4124.87179460, 4123.71794844, 4123.20512793, 4121.15384588, 4153.58974339, 4192.05128192, 4214.74358968, 4218.07692301, 4127.82051255, 4125.25640998, 4127.94871767, 4132.94871767, 4191.92307679,8.57
4119.23076896, 4120.51282024, 4117.94871767, 4120.64102537, 4121.79487152, 4140.76923056, 4179.35897422, 4192.82051269, 4208.97435891, 4128.84615357, 4122.94871767, 4125.12820485, 4133.33333306, 4195.76923063,8.57
4131.66666639, 4126.79487152, 4132.43589716, 4131.02564075, 4125.51282024, 4146.53846133, 4167.05128185, 4174.10256397, 4192.69230756, 4132.17948691, 4132.43589716, 4141.66666646, 4140.12820492, 4198.97435884,8.57
4115.76923050, 4121.41025614, 4114.23076896, 4121.02564075, 4121.66666639, 4144.35897415, 4149.99999980, 4160.25641005, 4162.05128185, 4127.05128178, 4121.02564075, 4113.71794844, 4130.25640998, 4186.02564089,8.57
4120.89743562, 4123.84615357, 4123.46153819, 4125.25640998, 4123.97435870, 4128.33333306, 4151.41025621, 4166.92307672, 4164.87179467, 4126.02564075, 4126.02564075, 4133.84615357, 4135.64102544, 4199.61538448,8.57
4120.51282024, 4123.71794844, 4123.71794844, 4129.87179460, 4125.25640998, 4131.15384588, 4167.30769210, 4183.71794858, 4197.17948704, 4130.89743562, 4123.71794844, 4123.97435870, 4131.66666639, 4189.48717935,8.57
4113.07692280, 4122.43589716, 4117.17948691, 4123.07692280, 4120.51282024, 4154.74358954, 4159.23076903, 4164.74358954, 4173.20512807, 4130.89743562, 4119.23076896, 4109.23076896, 4124.61538434, 4183.97435884,8.57
4126.66666639, 4128.84615357, 4130.12820485, 4127.94871767, 4123.58974332, 4144.87179467, 4141.02564082, 4138.58974339, 4125.25640998, 4129.10256383, 4129.23076896, 4130.89743562, 4133.84615357, 4194.23076910,8.57
4117.82051255, 4122.56410229, 4112.43589716, 4122.69230742, 4124.23076896, 4128.20512793, 4162.17948697, 4171.53846140, 4157.82051262, 4127.82051255, 4117.82051255, 4107.56410229, 4127.05128178, 4181.66666653,8.57
4127.82051255, 4127.05128178, 4127.05128178, 4127.56410229, 4123.71794844, 4142.69230749, 4180.64102551, 4202.30769224, 4196.15384602, 4127.30769203, 4124.35897408, 4127.94871767, 4130.89743562, 4191.41025628,8.57
4129.10256383, 4127.56410229, 4130.89743562, 4129.87179460, 4124.23076896, 4139.35897415, 4149.87179467, 4168.97435884, 4161.53846133, 4126.41025614, 4129.99999973, 4129.35897408, 4133.20512793, 4187.69230756,8.57
4116.02564075, 4120.25640998, 4113.07692280, 4121.66666639, 4124.10256383, 4120.76923050, 4138.84615364, 4156.53846133, 4144.35897415, 4126.15384588, 4121.53846126, 4113.07692280, 4129.87179460, 4184.35897422,8.57
4131.66666639, 4128.46153819, 4130.51282024, 4128.20512793, 4127.56410229, 4143.33333313, 4175.76923063, 4187.05128192, 4176.02564089, 4128.97435870, 4127.30769203, 4141.79487159, 4136.41025621, 4199.48717935,8.57
4117.82051255, 4122.82051255, 4115.76923050, 4121.79487152, 4124.23076896, 4175.38461525, 4196.66666653, 4196.41025628, 4199.74358961, 4127.82051255, 4119.87179460, 4119.87179460, 4128.46153819, 4188.97435884,8.57
4118.84615357, 4121.66666639, 4119.35897408, 4122.30769203, 4124.74358947, 4163.71794851, 4181.15384602, 4196.15384602, 4213.84615378, 4126.15384588, 4127.30769203, 4129.99999973, 4134.99999973, 4198.33333320,8.57
4131.41025614, 4125.38461511, 4130.25640998, 4126.02564075, 4126.79487152, 4143.58974339, 4155.51282031, 4178.84615371, 4191.28205115, 4126.66666639, 4131.66666639, 4137.05128185, 4136.92307672, 4198.07692294,8.57
4113.58974332, 4119.48717921, 4112.43589716, 4118.58974332, 4123.07692280, 4156.79487159, 4157.30769210, 4155.76923056, 4144.74358954, 4126.66666639, 4120.64102537, 4112.43589716, 4126.92307665, 4188.84615371,8.57
4123.07692280, 4126.15384588, 4124.87179460, 4128.46153819, 4126.41025614, 4161.92307672, 4166.66666646, 4167.05128185, 4149.99999980, 4127.17948691, 4128.97435870, 4135.12820485, 4137.30769210, 4200.76923063,8.57
4121.92307665, 4120.89743562, 4117.43589716, 4124.23076896, 4124.87179460, 4142.82051262, 4148.97435877, 4173.58974345, 4172.30769217, 4127.43589716, 4121.41025614, 4115.12820485, 4130.51282024, 4186.41025628,8.57
4117.69230742, 4120.25640998, 4120.89743562, 4123.84615357, 4123.97435870, 4143.46153826, 4147.82051262, 4173.58974345, 4172.05128192, 4127.30769203, 4122.82051255, 4117.05128178, 4128.58974332, 4191.02564089,8.57
4124.35897408, 4129.10256383, 4130.76923050, 4132.05128178, 4127.56410229, 4153.20512800, 4171.15384602, 4186.15384602, 4187.43589730, 4126.92307665, 4127.17948691, 4130.25640998, 4132.69230742, 4195.38461525,8.57
4115.51282024, 4121.79487152, 4112.43589716, 4122.43589716, 4125.25640998, 4137.17948697, 4160.51282031, 4174.74358961, 4189.74358961, 4126.15384588, 4114.87179460, 4107.30769203, 4123.46153819, 4180.64102551,8.57
4127.05128178, 4126.28205101, 4130.38461511, 4127.43589716, 4127.69230742, 4145.51282031, 4154.35897415, 4167.94871774, 4173.33333320, 4128.33333306, 4127.43589716, 4133.97435870, 4134.74358947, 4191.41025628,8.57
4118.97435870, 4127.17948691, 4125.25640998, 4124.74358947, 4124.99999973, 4188.33333320, 4196.53846140, 4207.69230763, 4202.17948711, 4131.53846126, 4126.79487152, 4120.76923050, 4133.58974332, 4184.23076910,8.57
4116.41025614, 4123.97435870, 4119.23076896, 4123.20512793, 4119.99999973, 4179.23076910, 4198.97435884, 4208.71794865, 4210.64102558, 4132.43589716, 4123.58974332, 4118.07692280, 4127.94871767, 4186.15384602,8.57
4133.33333306, 4127.69230742, 4132.82051255, 4131.28205101, 4124.10256383, 4138.20512800, 4164.23076903, 4168.33333320, 4162.56410236, 4129.61538434, 4131.15384588, 4142.43589723, 4132.43589716, 4195.12820499,8.57
4114.35897408, 4121.15384588, 4110.25640998, 4119.74358947, 4121.15384588, 4139.87179467, 4170.25641012, 4178.58974345, 4159.74358954, 4125.38461511, 4122.69230742, 4116.92307665, 4125.51282024, 4185.38461525,8.57
4122.82051255, 4127.82051255, 4123.46153819, 4124.99999973, 4119.99999973, 4165.89743569, 4184.61538448, 4200.64102551, 4194.35897422, 4126.53846126, 4132.30769203, 4138.07692287, 4135.12820485, 4199.10256397,8.57
4127.30769203, 4127.43589716, 4126.66666639, 4127.05128178, 4123.58974332, 4162.56410236, 4170.38461525, 4189.61538448, 4198.97435884, 4127.43589716, 4128.07692280, 4130.51282024, 4132.82051255, 4194.61538448,8.57
4112.94871767, 4120.25640998, 4113.46153819, 4120.89743562, 4123.71794844, 4155.51282031, 4162.69230749, 4174.74358961, 4181.79487166, 4123.58974332, 4118.46153819, 4112.82051255, 4126.02564075, 4193.46153833,8.57
4128.07692280, 4129.61538434, 4128.71794844, 4128.46153819, 4125.64102537, 4165.25641005, 4163.58974339, 4171.53846140, 4168.33333320, 4127.17948691, 4127.69230742, 4135.12820485, 4135.64102544, 4202.30769224,8.57
4116.53846126, 4122.17948691, 4113.97435870, 4121.28205101, 4122.17948691, 4143.97435877, 4152.17948697, 4177.94871781, 4168.07692287, 4133.33333306, 4120.25640998, 4109.61538434, 4127.94871767, 4184.35897422,8.57
4119.10256383, 4119.61538434, 4124.61538434, 4124.99999973, 4124.48717921, 4114.87179460, 4147.56410236, 4178.33333320, 4180.89743576, 4131.53846126, 4126.15384588, 4123.58974332, 4131.41025614, 4193.84615371,8.57
4127.43589716, 4122.94871767, 4128.71794844, 4130.12820485, 4125.64102537, 4139.87179467, 4159.35897415, 4172.94871781, 4184.87179474, 4125.89743562, 4124.61538434, 4125.51282024, 4132.17948691, 4191.02564089,8.57
4114.35897408, 4120.38461511, 4110.76923050, 4124.48717921, 4118.07692280, 4179.23076910, 4169.87179474, 4180.25641012, 4187.43589730, 4124.61538434, 4114.99999973, 4110.25640998, 4127.05128178, 4178.20512807,8.57
