AF3,F7,F3,FC5,T7,P7,O1,O2,P8,T8,FC6,F4,F8,AF4,Label
4133.07692280, 4126.53846126, 4134.48717921, 4130.38461511, 4128.58974332, 3978.20512765, 3932.82051213, 3940.25640963, 4010.64102516, 4129.87179460, 4129.23076896, 4132.69230742, 4135.64102544, 4196.53846140,8.57
4118.46153819, 4125.38461511, 4119.23076896, 4123.33333306, 4127.94871767, 3978.97435842, 3931.53846085, 3932.94871726, 4005.25640977, 4130.89743562, 4124.23076896, 4122.30769203, 4133.97435870, 4190.25641012,8.57
4126.92307665, 4123.71794844, 4122.69230742, 4121.28205101, 4124.23076896, 3989.87179432, 3939.48717887, 3933.84615316, 4003.97435842, 4128.07692280, 4126.02564075, 4122.05128178, 4136.15384595, 4196.66666653,8.57
4136.53846133, 4129.10256383, 4135.89743569, 4129.35897408, 4124.35897408, 3995.38461483, 3943.97435835, 3948.84615322, 4018.33333285, 4127.56410229, 4132.69230742, 4133.33333306, 4138.20512800, 4195.64102551,8.57
4114.61538434, 4120.25640998, 4118.33333306, 4119.99999973, 4123.33333306, 3994.23076868, 3944.61538399, 3962.94871733, 4038.58974318, 4129.23076896, 4127.94871767, 4118.46153819, 4131.28205101, 4191.15384602,8.57
4131.66666639, 4126.53846126, 4128.33333306, 4125.89743562, 4128.07692280, 3988.46153791, 3936.41025572, 3948.46153784, 4028.33333285, 4129.74358947, 4131.15384588, 4136.15384595, 4140.51282031, 4201.66666660,8.57
4125.25640998, 4119.99999973, 4121.28205101, 4123.20512793, 4126.28205101, 3980.89743535, 3925.89743521, 3928.33333264, 4007.69230721, 4127.30769203, 4128.07692280, 4127.43589716, 4138.71794851, 4197.17948704,8.57
4121.28205101, 4118.07692280, 4117.30769203, 4120.51282024, 4123.20512793, 3980.25640970, 3927.05128136, 3928.58974290, 4006.41025593, 4128.33333306, 4125.51282024, 4120.89743562, 4133.58974332, 4198.20512807,8.57
4131.02564075, 4125.64102537, 4124.74358947, 4125.76923050, 4127.30769203, 3985.89743535, 3931.15384546, 3933.20512751, 4006.15384567, 4129.87179460, 4128.58974332, 4132.05128178, 4135.76923056, 4197.17948704,8.57
4112.94871767, 4114.87179460, 4113.33333306, 4117.56410229, 4126.02564075, 3986.28205073, 3930.64102495, 3935.12820444, 4004.99999952, 4126.41025614, 4123.58974332, 4111.02564075, 4128.58974332, 4192.43589730,8.57
4124.10256383, 4124.74358947, 4129.48717921, 4126.66666639, 4123.97435870, 3982.30769176, 3932.30769162, 3943.71794810, 4014.61538413, 4124.61538434, 4127.69230742, 4119.74358947, 4133.20512793, 4197.56410243,8.57
4118.84615357, 4124.99999973, 4122.17948691, 4123.84615357, 4119.99999973, 3988.07692252, 3934.61538392, 3946.15384553, 4014.74358926, 4126.28205101, 4126.92307665, 4117.56410229, 4133.71794844, 4188.84615371,8.57
4118.07692280, 4121.15384588, 4118.07692280, 4120.64102537, 4121.53846126, 3987.94871740, 3930.89743521, 3934.61538392, 3997.30769176, 4127.94871767, 4125.38461511, 4114.48717921, 4133.33333306, 4192.43589730,8.57
4132.43589716, 4129.48717921, 4134.99999973, 4132.05128178, 4126.41025614, 3976.79487124, 3924.61538392, 3930.76923008, 3995.89743535, 4128.58974332, 4130.89743562, 4128.84615357, 4137.56410236, 4194.87179474,8.57
4114.99999973, 4118.33333306, 4117.94871767, 4118.97435870, 4120.89743562, 3977.17948663, 3922.56410187, 3930.89743521, 4005.25640977, 4126.66666639, 4124.74358947, 4116.28205101, 4129.10256383, 4187.56410243,8.57
4132.30769203, 4127.17948691, 4127.82051255, 4123.20512793, 4122.30769203, 3979.48717894, 3920.51281982, 3918.71794803, 3996.28205073, 4126.66666639, 4128.46153819, 4133.46153819, 4134.48717921, 4198.20512807,8.57
4131.41025614, 4131.02564075, 4129.48717921, 4126.15384588, 4124.48717921, 3975.89743535, 3922.94871726, 3922.05128136, 4000.89743535, 4128.58974332, 4132.30769203, 4132.69230742, 4138.33333313, 4192.82051269,8.57
4116.41025614, 4121.15384588, 4119.74358947, 4118.07692280, 4123.07692280, 3979.23076868, 3931.02564033, 3949.48717887, 4030.89743541, 4127.69230742, 4127.43589716, 4120.89743562, 4136.41025621, 4192.05128192,8.57
4131.79487152, 4129.61538434, 4130.38461511, 4128.46153819, 4127.05128178, 3985.51281996, 3933.46153777, 3951.15384553, 4033.58974311, 4125.12820485, 4129.87179460, 4139.10256390, 4142.05128185, 4202.05128199,8.57
4118.46153819, 4125.89743562, 4114.87179460, 4121.92307665, 4124.48717921, 3985.25640970, 3933.71794803, 3934.35897367, 4013.46153798, 4124.10256383, 4127.43589716, 4121.66666639, 4132.43589716, 4195.38461525,8.57
4128.84615357, 4128.07692280, 4124.23076896, 4123.71794844, 4125.64102537, 3984.10256355, 3935.89743521, 3939.87179425, 4014.48717900, 4126.79487152, 4128.33333306, 4128.71794844, 4133.46153819, 4199.74358961,8.57
4131.15384588, 4124.35897408, 4125.89743562, 4123.97435870, 4127.56410229, 3986.92307637, 3937.82051213, 3947.94871733, 4018.07692259, 4129.35897408, 4129.87179460, 4134.23076896, 4137.43589723, 4196.79487166,8.57
4116.92307665, 4114.87179460, 4113.20512793, 4115.51282024, 4124.61538434, 3986.41025586, 3935.38461469, 3936.79487110, 4007.30769183, 4128.33333306, 4127.82051255, 4115.38461511, 4133.97435870, 4190.25641012,8.57
4129.35897408, 4127.43589716, 4126.92307665, 4125.76923050, 4126.15384588, 3980.76923022, 3931.15384546, 3930.51281982, 4006.41025593, 4127.82051255, 4130.12820485, 4128.84615357, 4138.97435877, 4192.43589730,8.57
4112.82051255, 4119.99999973, 4114.87179460, 4118.84615357, 4123.46153819, 3980.51281996, 3930.25640957, 3938.97435835, 4020.12820465, 4127.56410229, 4124.35897408, 4117.56410229, 4132.94871767, 4192.43589730,8.57
4121.41025614, 4120.12820485, 4121.79487152, 4123.46153819, 4124.48717921, 3981.41025586, 3928.20512751, 3936.15384546, 4021.41025593, 4127.56410229, 4124.87179460, 4119.87179460, 4133.46153819, 4199.48717935,8.57
4127.69230742, 4126.15384588, 4127.94871767, 4131.15384588, 4127.17948691, 3975.64102509, 3924.10256341, 3926.53846085, 4009.74358926, 4128.20512793, 4124.87179460, 4125.12820485, 4135.76923056, 4189.10256397,8.57
4112.05128178, 4119.23076896, 4116.92307665, 4119.48717921, 4124.99999973, 3974.74358919, 3925.51281982, 3933.33333264, 4013.07692259, 4126.28205101, 4119.23076896, 4112.94871767, 4131.92307665, 4187.82051269,8.57
4131.66666639, 4129.87179460, 4133.84615357, 4129.99999973, 4128.20512793, 3979.61538406, 3928.58974290, 3939.35897374, 4017.30769183, 4126.66666639, 4126.41025614, 4131.66666639, 4137.82051262, 4201.66666660,8.57
4119.87179460, 4123.46153819, 4123.20512793, 4127.43589716, 4125.12820485, 3979.10256355, 3928.84615316, 3935.64102495, 4012.56410208, 4128.71794844, 4122.05128178, 4121.02564075, 4132.05128178, 4189.87179474,8.57
4123.58974332, 4122.56410229, 4126.92307665, 4123.97435870, 4124.10256383, 3975.64102509, 3927.69230700, 3933.58974290, 4013.97435849, 4127.94871767, 4116.28205101, 4126.28205101, 4132.05128178, 4191.53846140,8.57
4135.25640998, 4130.76923050, 4136.66666646, 4130.12820485, 4126.66666639, 3974.61538406, 3924.23076854, 3934.74358905, 4019.99999952, 4126.53846126, 4121.92307665, 4139.61538441, 4135.89743569, 4198.33333320,8.57
4115.89743562, 4122.30769203, 4119.87179460, 4122.56410229, 4122.82051255, 3978.58974304, 3925.51281982, 3940.89743528, 4026.92307644, 4127.94871767, 4123.46153819, 4118.97435870, 4129.99999973, 4194.23076910,8.57
4129.48717921, 4130.38461511, 4136.15384595, 4129.74358947, 4126.15384588, 3983.33333278, 3931.79487110, 3949.48717887, 4035.51282003, 4129.48717921, 4129.87179460, 4134.74358947, 4138.33333313, 4197.94871781,8.57
4123.33333306, 4124.48717921, 4128.46153819, 4123.46153819, 4126.79487152, 3987.69230714, 3933.07692239, 3950.38461476, 4043.33333292, 4127.69230742, 4127.82051255, 4129.87179460, 4136.79487159, 4195.12820499,8.57
4122.82051255, 4118.84615357, 4118.84615357, 4118.46153819, 4124.48717921, 3988.07692252, 3925.64102495, 3941.28205066, 4033.20512772, 4127.43589716, 4127.17948691, 4124.35897408, 4134.48717921, 4199.99999986,8.57
4131.92307665, 4126.41025614, 4126.53846126, 4124.99999973, 4125.12820485, 3975.12820458, 3915.38461469, 3929.35897367, 4013.07692259, 4129.48717921, 4131.41025614, 4137.69230749, 4141.41025621, 4197.69230756,8.57
4112.56410229, 4117.43589716, 4113.46153819, 4113.97435870, 4122.43589716, 3968.84615322, 3918.46153777, 3934.23076854, 4018.20512772, 4129.23076896, 4122.82051255, 4116.92307665, 4133.71794844, 4189.48717935,8.57
4127.43589716, 4123.71794844, 4125.51282024, 4122.69230742, 4123.58974332, 3981.92307637, 3928.33333264, 3945.76923015, 4028.46153798, 4128.97435870, 4124.99999973, 4123.97435870, 4133.58974332, 4197.94871781,8.57
4122.43589716, 4121.66666639, 4118.20512793, 4124.48717921, 4122.30769203, 3985.51281996, 3924.10256341, 3934.87179418, 4015.38461490, 4129.74358947, 4126.15384588, 4122.69230742, 4133.07692280, 4193.33333320,8.57
4115.89743562, 4115.89743562, 4114.87179460, 4118.84615357, 4122.94871767, 3973.71794817, 3918.71794803, 3923.46153777, 4004.74358926, 4127.56410229, 4123.58974332, 4118.46153819, 4132.82051255, 4195.38461525,8.57
4130.38461511, 4126.28205101, 4131.79487152, 4128.84615357, 4127.82051255, 3979.74358919, 3930.76923008, 3932.17948649, 4012.43589695, 4126.28205101, 4128.58974332, 4132.82051255, 4137.17948697, 4195.76923063,8.57
4111.41025614, 4117.30769203, 4114.61538434, 4121.28205101, 4123.97435870, 3989.61538406, 3934.23076854, 3932.56410187, 4009.10256362, 4127.30769203, 4122.05128178, 4113.58974332, 4128.71794844, 4183.20512807,8.57
4124.74358947, 4122.17948691, 4127.05128178, 4128.46153819, 4125.25640998, 3976.41025586, 3917.82051213, 3919.61538392, 3998.33333278, 4127.43589716, 4122.43589716, 4124.87179460, 4132.94871767, 4191.41025628,8.57
4127.05128178, 4125.25640998, 4132.56410229, 4131.92307665, 4125.38461511, 3973.97435842, 3917.82051213, 3923.71794803, 4003.97435842, 4127.43589716, 4126.02564075, 4130.38461511, 4133.84615357, 4191.53846140,8.57
4115.89743562, 4119.99999973, 4122.56410229, 4120.89743562, 4122.82051255, 3987.30769176, 3934.10256341, 3934.23076854, 4013.97435849, 4128.46153819, 4124.87179460, 4121.41025614, 4129.35897408, 4191.53846140,8.57
4134.23076896, 4130.76923050, 4133.97435870, 4128.07692280, 4127.69230742, 3986.28205073, 3937.43589674, 3935.51281982, 4021.02564054, 4128.58974332, 4129.23076896, 4139.61538441, 4139.87179467, 4196.02564089,8.57
4117.05128178, 4120.64102537, 4118.84615357, 4120.12820485, 4125.76923050, 3980.25640970, 3932.69230700, 3937.17948649, 4026.15384567, 4125.64102537, 4124.74358947, 4122.17948691, 4135.89743569, 4190.25641012,8.57
4124.74358947, 4123.58974332, 4127.82051255, 4122.82051255, 4125.76923050, 3982.82051227, 3929.61538392, 3934.35897367, 4019.61538413, 4125.12820485, 4128.84615357, 4124.87179460, 4135.25640998, 4200.51282038,8.57
4136.02564082, 4129.99999973, 4133.97435870, 4128.46153819, 4127.82051255, 3987.94871740, 3930.25640957, 3934.23076854, 4017.69230721, 4127.30769203, 4131.92307665, 4135.51282031, 4137.69230749, 4201.15384609,8.57
4120.64102537, 4118.71794844, 4116.53846126, 4117.69230742, 4124.74358947, 3988.71794817, 3933.46153777, 3941.92307630, 4031.66666618, 4126.15384588, 4124.10256383, 4123.33333306, 4130.25640998, 4197.43589730,8.57
4129.61538434, 4126.92307665, 4125.12820485, 4124.99999973, 4127.05128178, 3981.15384560, 3924.99999931, 3934.99999931, 4029.99999952, 4125.64102537, 4130.12820485, 4135.12820485, 4136.28205108, 4200.38461525,8.57
4114.35897408, 4121.15384588, 4114.35897408, 4120.51282024, 4124.61538434, 3980.12820458, 3918.84615316, 3926.41025572, 4021.66666618, 4127.17948691, 4128.33333306, 4122.17948691, 4136.92307672, 4190.64102551,8.57
4119.74358947, 4119.99999973, 4123.07692280, 4120.51282024, 4121.92307665, 3990.12820458, 3930.38461469, 3937.69230700, 4035.64102516, 4127.82051255, 4123.46153819, 4126.28205101, 4136.92307672, 4197.17948704,8.57
4129.35897408, 4128.20512793, 4131.53846126, 4125.89743562, 4123.20512793, 3988.07692252, 3930.38461469, 3935.89743521, 4033.71794824, 4127.17948691, 4125.25640998, 4133.07692280, 4135.25640998, 4197.30769217,8.57
4109.87179460, 4120.51282024, 4112.82051255, 4118.20512793, 4122.82051255, 3985.89743535, 3923.20512751, 3924.10256341, 4016.28205080, 4127.05128178, 4120.89743562, 4109.10256383, 4127.30769203, 4186.92307679,8.57
4126.66666639, 4128.20512793, 4131.15384588, 4128.84615357, 4126.15384588, 3993.46153791, 3930.76923008, 3936.15384546, 4028.58974311, 4127.82051255, 4123.58974332, 4125.12820485, 4134.35897408, 4192.43589730,8.57
4122.05128178, 4123.07692280, 4125.89743562, 4122.69230742, 4121.92307665, 3991.53846099, 3932.17948649, 3945.12820451, 4046.02564061, 4125.89743562, 4124.74358947, 4122.43589716, 4130.76923050, 4189.61538448,8.57
4121.53846126, 4120.64102537, 4120.12820485, 4117.82051255, 4120.12820485, 3989.35897381, 3928.46153777, 3932.69230700, 4031.41025593, 4126.28205101, 4126.92307665, 4119.35897408, 4129.74358947, 4191.28205115,8.57
4133.97435870, 4131.66666639, 4134.10256383, 4130.25640998, 4127.94871767, 4002.30769176, 3942.56410194, 3943.33333271, 4033.20512772, 4128.07692280, 4131.41025614, 4133.33333306, 4134.87179460, 4191.15384602,8.57
4116.66666639, 4121.53846126, 4120.76923050, 4120.38461511, 4125.38461511, 4009.99999952, 3958.33333271, 3976.53846099, 4067.94871754, 4126.79487152, 4128.46153819, 4119.48717921, 4126.66666639, 4189.99999986,8.57
4133.71794844, 4128.58974332, 4132.56410229, 4126.79487152, 4123.84615357, 4002.43589688, 3954.99999938, 3975.51281996, 4065.51282010, 4128.71794844, 4134.10256383, 4137.43589723, 4135.89743569, 4200.51282038,8.57
4128.58974332, 4129.35897408, 4129.10256383, 4125.76923050, 4123.71794844, 4009.74358926, 3963.07692246, 3974.10256355, 4059.35897395, 4129.35897408, 4132.94871767, 4135.38461518, 4137.56410236, 4193.71794858,8.57
4117.43589716, 4120.89743562, 4120.12820485, 4115.51282024, 4122.56410229, 4029.23076875, 3983.46153791, 3993.71794817, 4084.23076889, 4126.28205101, 4129.74358947, 4126.92307665, 4131.02564075, 4197.56410243,8.57
4135.51282031, 4125.89743562, 4133.20512793, 4129.23076896, 4126.41025614, 4022.43589695, 3971.02564040, 3975.25640970, 4074.35897402, 4126.66666639, 4134.10256383, 4143.33333313, 4138.71794851, 4205.12820506,8.57
4116.92307665, 4116.79487152, 4119.10256383, 4123.58974332, 4124.61538434, 3998.46153791, 3938.97435835, 3940.12820451, 4041.92307651, 4128.07692280, 4127.56410229, 4120.64102537, 4134.74358947, 4194.23076910,8.57
4124.10256383, 4124.61538434, 4126.41025614, 4123.46153819, 4121.92307665, 3988.46153791, 3930.25640957, 3940.12820451, 4047.56410215, 4128.07692280, 4130.12820485, 4128.84615357, 4134.99999973, 4195.25641012,8.57
4126.15384588, 4126.79487152, 4122.43589716, 4126.41025614, 4119.23076896, 3999.10256355, 3944.48717887, 3953.46153784, 4068.71794830, 4129.35897408, 4133.33333306, 4133.33333306, 4134.61538434, 4191.92307679,8.57
4113.58974332, 4115.12820485, 4112.30769203, 4118.84615357, 4120.51282024, 4015.38461490, 3954.87179425, 3956.02564040, 4070.25640991, 4129.10256383, 4127.17948691, 4117.56410229, 4132.94871767, 4194.35897422,8.57
4129.10256383, 4125.51282024, 4129.87179460, 4126.41025614, 4126.92307665, 4015.25640977, 3953.58974297, 3956.66666605, 4070.64102530, 4126.53846126, 4128.97435870, 4131.41025614, 4138.97435877, 4199.23076910,8.57
4112.17948691, 4118.58974332, 4112.56410229, 4118.20512793, 4123.71794844, 4004.99999952, 3948.71794810, 3949.23076861, 4066.79487138, 4124.74358947, 4126.15384588, 4115.38461511, 4129.48717921, 4189.10256397,8.57
4119.35897408, 4120.25640998, 4118.71794844, 4122.94871767, 4124.35897408, 4006.41025593, 3948.20512758, 3942.30769169, 4055.12820472, 4126.28205101, 4128.46153819, 4120.89743562, 4131.15384588, 4195.12820499,8.57
4125.51282024, 4128.46153819, 4128.58974332, 4129.99999973, 4127.43589716, 4012.82051234, 3952.69230707, 3950.64102502, 4057.05128164, 4128.58974332, 4129.61538434, 4129.48717921, 4135.51282031, 4191.41025628,8.57
4109.74358947, 4119.23076896, 4117.94871767, 4119.48717921, 4125.51282024, 4008.07692259, 3951.41025579, 3954.99999938, 4064.48717907, 4127.82051255, 4126.15384588, 4116.15384588, 4129.61538434, 4186.66666653,8.57
4131.28205101, 4127.43589716, 4137.17948697, 4129.99999973, 4126.92307665, 4007.69230721, 3952.69230707, 3960.25640963, 4073.97435863, 4126.66666639, 4133.58974332, 4135.76923056, 4137.43589723, 4194.23076910,8.57
4118.97435870, 4124.10256383, 4123.46153819, 4123.46153819, 4123.07692280, 4024.48717900, 3966.15384553, 3974.23076868, 4083.58974325, 4128.07692280, 4128.71794844, 4124.74358947, 4134.35897408, 4187.94871781,8.57
4121.41025614, 4127.56410229, 4122.94871767, 4122.56410229, 4122.94871767, 4022.94871747, 3963.46153784, 3969.61538399, 4079.10256376, 4129.61538434, 4125.76923050, 4125.89743562, 4132.56410229, 4195.76923063,8.57
4136.92307672, 4135.25640998, 4137.82051262, 4134.48717921, 4124.87179460, 4000.25640970, 3942.82051220, 3949.48717887, 4065.89743548, 4127.56410229, 4129.61538434, 4139.48717928, 4137.05128185, 4198.58974345,8.57
4114.74358947, 4119.10256383, 4119.74358947, 4120.51282024, 4120.25640998, 4004.10256362, 3949.87179425, 3958.46153784, 4074.99999966, 4124.99999973, 4125.12820485, 4122.17948691, 4133.71794844, 4194.48717935,8.57
4128.84615357, 4128.07692280, 4129.87179460, 4124.87179460, 4126.28205101, 4021.15384567, 3969.23076861, 3978.71794817, 4090.25640991, 4126.79487152, 4130.76923050, 4139.23076903, 4140.12820492, 4202.56410250,8.57
4125.64102537, 4127.05128178, 4124.10256383, 4123.97435870, 4127.30769203, 4014.35897388, 3961.02564040, 3968.84615322, 4081.41025607, 4127.30769203, 4130.12820485, 4133.46153819, 4134.61538434, 4194.48717935,8.57
4118.46153819, 4118.84615357, 4118.58974332, 4118.58974332, 4122.82051255, 4009.99999952, 3954.23076861, 3961.02564040, 4075.12820478, 4127.82051255, 4127.69230742, 4125.89743562, 4132.69230742, 4197.30769217,8.57
4128.58974332, 4126.15384588, 4128.33333306, 4127.17948691, 4125.51282024, 4025.76923029, 3968.97435835, 3979.10256355, 4087.56410222, 4130.38461511, 4131.15384588, 4138.71794851, 4138.84615364, 4199.74358961,8.57
4113.07692280, 4117.05128178, 4111.92307665, 4119.10256383, 4124.35897408, 4033.71794824, 3978.46153791, 3991.28205073, 4094.99999966, 4127.56410229, 4124.99999973, 4118.07692280, 4128.20512793, 4189.74358961,8.57
4126.66666639, 4124.99999973, 4124.61538434, 4127.56410229, 4124.23076896, 4028.46153798, 3973.58974304, 3982.94871740, 4086.92307658, 4125.12820485, 4127.30769203, 4124.48717921, 4128.97435870, 4194.74358961,8.57
4121.79487152, 4126.02564075, 4122.82051255, 4128.58974332, 4122.82051255, 4022.30769183, 3963.71794810, 3968.71794810, 4071.28205094, 4126.28205101, 4126.02564075, 4119.61538434, 4130.25640998, 4189.74358961,8.57
4114.74358947, 4117.69230742, 4118.07692280, 4119.87179460, 4123.46153819, 4019.61538413, 3961.41025579, 3967.82051220, 4065.38461497, 4126.15384588, 4122.17948691, 4112.43589716, 4129.23076896, 4189.35897422,8.57
4130.64102537, 4127.69230742, 4133.84615357, 4126.66666639, 4127.56410229, 4029.99999952, 3972.17948663, 3979.35897381, 4075.64102530, 4126.41025614, 4125.64102537, 4129.10256383, 4131.92307665, 4192.82051269,8.57
4113.58974332, 4121.53846126, 4118.58974332, 4115.89743562, 4122.94871767, 4039.23076882, 3978.33333278, 3985.25640970, 4084.61538427, 4127.69230742, 4122.43589716, 4116.28205101, 4126.41025614, 4188.71794858,8.57
4127.56410229, 4126.02564075, 4131.15384588, 4124.48717921, 4124.87179460, 4026.41025593, 3969.23076861, 3979.23076868, 4081.66666632, 4128.58974332, 4129.48717921, 4131.02564075, 4134.48717921, 4195.89743576,8.57
4127.82051255, 4128.84615357, 4132.43589716, 4130.25640998, 4126.79487152, 4019.23076875, 3966.66666605, 3980.64102509, 4086.92307658, 4127.05128178, 4133.20512793, 4131.53846126, 4136.02564082, 4187.94871781,8.57
4116.41025614, 4122.69230742, 4122.05128178, 4121.28205101, 4123.20512793, 4035.76923029, 3981.02564047, 3991.92307637, 4094.35897402, 4125.76923050, 4126.53846126, 4120.51282024, 4131.28205101, 4187.82051269,8.57
4136.66666646, 4131.28205101, 4136.79487159, 4130.89743562, 4124.61538434, 4044.87179446, 3991.15384560, 4000.25640970, 4091.41025607, 4127.69230742, 4127.69230742, 4142.17948697, 4136.79487159, 4197.05128192,8.57
4120.38461511, 4122.43589716, 4120.25640998, 4122.30769203, 4123.97435870, 4035.51282003, 3983.71794817, 3995.89743535, 4086.79487145, 4127.30769203, 4125.89743562, 4126.53846126, 4129.35897408, 4192.05128192,8.57
4127.30769203, 4127.43589716, 4126.28205101, 4123.84615357, 4126.53846126, 4028.97435849, 3973.33333278, 3976.15384560, 4073.33333299, 4126.02564075, 4129.87179460, 4130.51282024, 4130.51282024, 4199.99999986,8.57
4130.89743562, 4129.87179460, 4128.71794844, 4128.71794844, 4126.41025614, 4035.76923029, 3978.84615329, 3968.71794810, 4063.71794830, 4126.02564075, 4130.64102537, 4135.12820485, 4135.38461518, 4198.71794858,8.57
4117.05128178, 4117.17948691, 4116.92307665, 4118.84615357, 4124.23076896, 4043.71794830, 3990.12820458, 3989.35897381, 4081.53846119, 4126.41025614, 4125.89743562, 4119.48717921, 4134.61538434, 4196.79487166,8.57
4131.41025614, 4126.28205101, 4128.46153819, 4124.61538434, 4128.07692280, 4036.79487131, 3986.15384560, 3998.84615329, 4093.07692273, 4126.92307665, 4130.76923050, 4134.23076896, 4139.23076903, 4201.41025634,8.57
4114.10256383, 4121.41025614, 4111.15384588, 4118.71794844, 4123.84615357, 4031.92307644, 3981.53846099, 3989.23076868, 4086.53846119, 4127.94871767, 4126.66666639, 4120.51282024, 4131.02564075, 4190.25641012,8.57
4118.07692280, 4122.56410229, 4120.51282024, 4123.84615357, 4125.76923050, 4037.94871754, 3985.25640970, 3990.38461483, 4086.41025607, 4129.99999973, 4125.64102537, 4122.69230742, 4134.35897408, 4193.58974345,8.57
4121.66666639, 4125.38461511, 4129.48717921, 4129.35897408, 4130.51282024, 4043.97435856, 3991.15384560, 4001.41025586, 4092.17948684, 4131.02564075, 4127.56410229, 4127.05128178, 4137.69230749, 4193.20512807,8.57
4108.84615357, 4118.97435870, 4116.02564075, 4120.12820485, 4126.79487152, 4050.38461497, 3997.94871740, 4008.07692259, 4103.58974332, 4128.97435870, 4127.17948691, 4110.12820485, 4128.46153819, 4189.87179474,8.57
4129.10256383, 4131.53846126, 4133.46153819, 4131.02564075, 4128.33333306, 4054.10256369, 4001.28205073, 4012.17948670, 4117.30769203, 4126.79487152, 4136.92307672, 4128.46153819, 4136.28205108, 4195.38461525,8.57
4114.99999973, 4120.12820485, 4121.41025614, 4122.69230742, 4125.64102537, 4064.10256369, 4009.99999952, 4022.94871747, 4128.84615357, 4127.05128178, 4131.53846126, 4120.12820485, 4135.25640998, 4187.94871781,8.57
4122.94871767, 4119.74358947, 4124.35897408, 4120.76923050, 4124.10256383, 4075.51282017, 4019.87179439, 4031.79487131, 4134.35897408, 4126.53846126, 4129.48717921, 4124.35897408, 4134.61538434, 4194.61538448,8.57
4135.89743569, 4131.92307665, 4135.64102544, 4131.41025614, 4127.17948691, 4068.33333292, 4014.61538413, 4023.20512772, 4122.43589716, 4126.02564075, 4138.58974339, 4137.94871774, 4140.12820492, 4195.38461525,8.57
4115.12820485, 4118.97435870, 4116.41025614, 4118.20512793, 4124.48717921, 4060.12820472, 4016.02564054, 4026.92307644, 4122.69230742, 4127.30769203, 4133.07692280, 4120.12820485, 4133.84615357, 4190.51282038,8.57
4134.35897408, 4127.17948691, 4131.15384588, 4124.35897408, 4123.20512793, 4063.58974318, 4025.38461490, 4039.87179446, 4137.05128185, 4128.46153819, 4133.07692280, 4137.94871774, 4138.84615364, 4201.92307686,8.57
4124.74358947, 4126.41025614, 4126.41025614, 4122.05128178, 4122.05128178, 4070.89743555, 4023.71794824, 4031.79487131, 4126.92307665, 4129.99999973, 4133.07692280, 4130.89743562, 4136.92307672, 4199.23076910,8.57
4121.15384588, 4123.71794844, 4123.07692280, 4118.58974332, 4124.48717921, 4073.07692273, 4020.76923029, 4023.58974311, 4111.53846126, 4130.64102537, 4130.51282024, 4124.35897408, 4134.74358947, 4199.74358961,8.57
4134.99999973, 4132.05128178, 4132.56410229, 4128.71794844, 4124.35897408, 4063.58974318, 4012.69230721, 4018.46153798, 4107.94871767, 4129.23076896, 4131.92307665, 4138.33333313, 4138.46153826, 4197.17948704,8.57
4112.43589716, 4118.46153819, 4113.33333306, 4115.38461511, 4121.15384588, 4051.15384574, 3998.46153791, 4003.33333278, 4100.25640991, 4127.82051255, 4124.99999973, 4117.82051255, 4131.53846126, 4193.20512807,8.57
4127.30769203, 4122.94871767, 4124.35897408, 4119.87179460, 4130.38461511, 4052.82051241, 4003.97435842, 4006.66666618, 4108.58974332, 4129.48717921, 4127.56410229, 4130.76923050, 4137.17948697, 4204.23076917,8.57
4125.25640998, 4123.07692280, 4120.38461511, 4123.84615357, 4129.99999973, 4076.02564068, 4031.79487131, 4041.15384574, 4144.23076903, 4127.43589716, 4130.64102537, 4128.97435870, 4136.28205108, 4194.61538448,8.57
4117.43589716, 4119.35897408, 4114.99999973, 4119.99999973, 4119.74358947, 4092.05128171, 4046.28205087, 4054.48717907, 4153.97435877, 4123.33333306, 4127.30769203, 4116.79487152, 4129.61538434, 4190.25641012,8.57
4129.74358947, 4126.92307665, 4129.10256383, 4128.71794844, 4122.17948691, 4079.74358940, 4036.53846106, 4037.82051241, 4135.51282031, 4126.41025614, 4129.35897408, 4129.48717921, 4134.61538434, 4193.20512807,8.57
4109.99999973, 4114.61538434, 4112.56410229, 4117.30769203, 4123.97435870, 4075.12820478, 4034.99999952, 4043.33333292, 4144.74358954, 4127.94871767, 4128.20512793, 4112.43589716, 4129.99999973, 4186.66666653,8.57
4126.79487152, 4125.51282024, 4126.92307665, 4123.33333306, 4124.61538434, 4089.99999966, 4043.46153805, 4052.56410215, 4155.12820492, 4125.64102537, 4133.20512793, 4126.41025614, 4132.56410229, 4193.71794858,8.57
4127.94871767, 4131.28205101, 4128.84615357, 4126.79487152, 4125.25640998, 4091.02564068, 4040.89743548, 4041.41025600, 4140.51282031, 4126.15384588, 4130.64102537, 4130.25640998, 4132.43589716, 4189.61538448,8.57
4113.97435870, 4118.97435870, 4119.35897408, 4115.38461511, 4124.35897408, 4080.38461504, 4031.53846106, 4031.92307644, 4129.35897408, 4128.58974332, 4126.79487152, 4116.92307665, 4128.97435870, 4189.23076910,8.57
4134.74358947, 4129.10256383, 4137.30769210, 4129.23076896, 4125.76923050, 4087.56410222, 4037.94871754, 4042.94871754, 4139.74358954, 4129.35897408, 4138.33333313, 4136.79487159, 4138.20512800, 4197.56410243,8.57
4118.07692280, 4120.38461511, 4119.48717921, 4123.58974332, 4122.30769203, 4103.33333306, 4057.56410215, 4064.35897395, 4158.46153826, 4124.48717921, 4132.56410229, 4122.43589716, 4132.56410229, 4190.89743576,8.57
4122.69230742, 4120.51282024, 4127.94871767, 4124.10256383, 4124.61538434, 4099.99999966, 4057.94871754, 4065.38461497, 4155.12820492, 4123.33333306, 4128.97435870, 4128.07692280, 4133.33333306, 4195.64102551,8.57
4130.12820485, 4128.71794844, 4136.15384595, 4132.30769203, 4124.87179460, 4088.84615350, 4045.64102523, 4051.41025600, 4142.17948697, 4127.30769203, 4135.12820485, 4138.20512800, 4137.17948697, 4195.51282038,8.57
4114.99999973, 4119.10256383, 4114.87179460, 4119.10256383, 4120.25640998, 4087.17948684, 4045.38461497, 4050.51282010, 4147.82051262, 4127.82051255, 4132.94871767, 4122.05128178, 4133.07692280, 4196.41025628,8.57
4132.94871767, 4126.53846126, 4126.92307665, 4123.33333306, 4126.28205101, 4091.79487145, 4048.58974318, 4055.12820472, 4155.51282031, 4127.17948691, 4135.76923056, 4135.89743569, 4139.87179467, 4203.97435891,8.57
4117.94871767, 4121.41025614, 4117.94871767, 4117.43589716, 4126.92307665, 4098.58974325, 4049.61538420, 4054.48717907, 4156.53846133, 4127.56410229, 4132.82051255, 4119.48717921, 4133.58974332, 4194.35897422,8.57
4117.17948691, 4120.25640998, 4118.20512793, 4116.79487152, 4123.07692280, 4103.71794844, 4053.20512779, 4058.84615343, 4161.02564082, 4127.17948691, 4133.07692280, 4117.05128178, 4133.33333306, 4199.99999986,8.57
4130.38461511, 4128.20512793, 4126.79487152, 4125.12820485, 4120.89743562, 4107.69230742, 4056.79487138, 4069.23076882, 4172.05128192, 4126.92307665, 4135.12820485, 4131.28205101, 4137.69230749, 4199.74358961,8.57
4107.17948691, 4116.53846126, 4112.30769203, 4115.25640998, 4119.74358947, 4113.84615357, 4062.56410215, 4079.35897402, 4181.53846140, 4127.82051255, 4129.74358947, 4111.66666639, 4129.35897408, 4190.64102551,8.57
4120.76923050, 4124.74358947, 4129.74358947, 4128.33333306, 4125.89743562, 4115.76923050, 4070.76923043, 4082.56410222, 4174.87179474, 4127.69230742, 4136.53846133, 4123.20512793, 4135.89743569, 4197.17948704,8.57
4118.07692280, 4123.33333306, 4121.66666639, 4126.02564075, 4123.84615357, 4111.02564075, 4074.61538427, 4088.33333299, 4179.35897422, 4125.38461511, 4137.05128185, 4116.28205101, 4135.12820485, 4188.97435884,8.57
4113.20512793, 4118.20512793, 4117.17948691, 4116.53846126, 4120.51282024, 4117.56410229, 4079.23076889, 4107.30769203, 4211.53846147, 4126.66666639, 4134.99999973, 4111.41025614, 4132.82051255, 4189.35897422,8.57
4128.46153819, 4131.02564075, 4135.51282031, 4129.48717921, 4124.61538434, 4128.33333306, 4084.35897402, 4105.76923050, 4217.05128199, 4128.71794844, 4138.20512800, 4127.30769203, 4137.82051262, 4191.92307679,8.57
4112.69230742, 4120.89743562, 4116.41025614, 4119.48717921, 4123.97435870, 4121.02564075, 4080.51282017, 4086.15384581, 4192.17948704, 4125.89743562, 4133.07692280, 4112.43589716, 4131.02564075, 4186.66666653,8.57
4128.84615357, 4126.28205101, 4127.69230742, 4124.10256383, 4126.53846126, 4111.41025614, 4072.82051248, 4086.41025607, 4187.94871781, 4123.71794844, 4137.05128185, 4130.38461511, 4134.35897408, 4194.35897422,8.57
4125.64102537, 4130.51282024, 4130.76923050, 4129.61538434, 4125.64102537, 4112.69230742, 4066.02564061, 4085.38461504, 4189.35897422, 4123.97435870, 4136.15384595, 4128.46153819, 4133.97435870, 4189.35897422,8.57
4114.48717921, 4119.61538434, 4120.89743562, 4122.56410229, 4121.79487152, 4119.10256383, 4069.61538420, 4078.84615350, 4189.48717935, 4125.12820485, 4133.20512793, 4117.43589716, 4133.20512793, 4193.20512807,8.57
4135.38461518, 4129.99999973, 4135.12820485, 4131.53846126, 4126.28205101, 4124.87179460, 4074.48717914, 4087.56410222, 4201.15384609, 4128.97435870, 4138.07692287, 4140.64102544, 4140.12820492, 4199.48717935,8.57
4112.56410229, 4122.69230742, 4116.15384588, 4119.61538434, 4125.64102537, 4118.07692280, 4061.15384574, 4080.51282017, 4189.74358961, 4128.33333306, 4129.10256383, 4121.92307665, 4132.82051255, 4191.41025628,8.57
4121.28205101, 4122.69230742, 4122.94871767, 4122.17948691, 4124.48717921, 4106.28205101, 4050.89743548, 4063.58974318, 4174.10256397, 4124.74358947, 4131.53846126, 4123.33333306, 4137.17948697, 4199.35897422,8.57
4130.25640998, 4126.53846126, 4125.51282024, 4126.79487152, 4125.12820485, 4109.74358947, 4061.41025600, 4082.17948684, 4201.92307686, 4125.76923050, 4137.05128185, 4128.71794844, 4138.71794851, 4195.76923063,8.57
4112.30769203, 4116.92307665, 4107.56410229, 4113.33333306, 4123.46153819, 4118.97435870, 4070.25640991, 4100.76923043, 4222.30769224, 4128.07692280, 4130.76923050, 4115.38461511, 4131.02564075, 4193.33333320,8.57
4127.69230742, 4125.76923050, 4123.33333306, 4125.51282024, 4124.61538434, 4115.51282024, 4071.53846119, 4088.97435863, 4209.35897429, 4128.20512793, 4132.43589716, 4128.84615357, 4137.43589723, 4197.69230756,8.57
4113.97435870, 4118.84615357, 4115.25640998, 4123.07692280, 4122.56410229, 4117.30769203, 4083.07692273, 4092.82051248, 4218.33333327, 4124.87179460, 4130.51282024, 4112.82051255, 4133.58974332, 4188.20512807,8.57
4117.69230742, 4122.82051255, 4120.25640998, 4124.10256383, 4124.35897408, 4123.58974332, 4092.82051248, 4112.05128178, 4240.00000000, 4123.71794844, 4132.82051255, 4115.89743562, 4132.82051255, 4194.23076910,8.57
4122.94871767, 4128.97435870, 4124.10256383, 4128.97435870, 4125.76923050, 4125.12820485, 4096.92307658, 4118.97435870, 4245.25641026, 4126.28205101, 4133.33333306, 4122.30769203, 4133.46153819, 4193.71794858,8.57
4111.15384588, 4118.58974332, 4115.12820485, 4117.82051255, 4123.84615357, 4142.30769210, 4113.84615357, 4128.84615357, 4251.92307693, 4126.53846126, 4129.61538434, 4107.56410229, 4129.99999973, 4190.25641012,8.57
4133.07692280, 4131.92307665, 4137.30769210, 4128.33333306, 4128.33333306, 4151.66666646, 4120.25640998, 4133.33333306, 4250.64102564, 4125.89743562, 4138.07692287, 4126.79487152, 4137.94871774, 4193.71794858,8.57
4118.97435870, 4125.38461511, 4123.33333306, 4121.66666639, 4125.89743562, 4136.53846133, 4108.71794844, 4122.17948691, 4237.56410257, 4127.17948691, 4135.64102544, 4117.69230742, 4132.82051255, 4184.48717935,8.57
4123.58974332, 4122.43589716, 4124.87179460, 4120.12820485, 4123.20512793, 4128.07692280, 4102.82051255, 4113.20512793, 4228.20512814, 4127.56410229, 4133.58974332, 4122.17948691, 4135.25640998, 4193.58974345,8.57
4137.17948697, 4131.41025614, 4136.28205108, 4130.25640998, 4126.15384588, 4134.35897408, 4105.38461511, 4118.84615357, 4227.56410250, 4125.76923050, 4137.43589723, 4135.51282031, 4143.07692287, 4198.20512807,8.57
4117.05128178, 4121.28205101, 4120.64102537, 4119.48717921, 4124.61538434, 4144.23076903, 4114.87179460, 4131.79487152, 4236.53846154, 4125.51282024, 4133.20512793, 4119.61538434, 4135.89743569, 4192.17948704,8.57
4131.53846126, 4128.33333306, 4133.58974332, 4130.12820485, 4128.20512793, 4147.05128185, 4122.94871767, 4133.97435870, 4242.43589744, 4126.92307665, 4140.89743569, 4136.15384595, 4139.61538441, 4199.99999986,8.57
4122.17948691, 4123.97435870, 4121.41025614, 4129.35897408, 4127.69230742, 4139.35897415, 4116.79487152, 4123.97435870, 4237.43589744, 4126.92307665, 4141.28205108, 4125.25640998, 4137.17948697, 4198.84615371,8.57
4121.92307665, 4122.94871767, 4122.05128178, 4123.58974332, 4126.66666639, 4130.76923050, 4104.61538434, 4118.58974332, 4234.48717949, 4128.58974332, 4135.64102544, 4120.38461511, 4136.15384595, 4201.28205122,8.57
4131.02564075, 4130.25640998, 4132.17948691, 4126.92307665, 4127.69230742, 4134.35897408, 4107.94871767, 4122.94871767, 4239.35897436, 4128.58974332, 4138.33333313, 4131.92307665, 4138.33333313, 4195.25641012,8.57
4115.89743562, 4119.99999973, 4111.53846126, 4117.69230742, 4122.69230742, 4145.38461518, 4118.71794844, 4126.02564075, 4241.66666667, 4126.92307665, 4134.87179460, 4112.30769203, 4131.02564075, 4191.53846140,8.57
4131.41025614, 4129.10256383, 4123.46153819, 4126.53846126, 4125.38461511, 4146.92307672, 4112.43589716, 4116.79487152, 4230.25641019, 4127.94871767, 4136.53846133, 4126.15384588, 4138.20512800, 4204.35897429,8.57
4116.15384588, 4123.97435870, 4118.58974332, 4122.69230742, 4125.12820485, 4142.30769210, 4103.58974332, 4104.99999973, 4216.15384609, 4127.69230742, 4135.89743569, 4119.35897408, 4136.02564082, 4194.99999986,8.57
4113.97435870, 4119.10256383, 4116.53846126, 4119.99999973, 4123.71794844, 4138.20512800, 4105.89743562, 4106.53846126, 4213.84615378, 4128.07692280, 4134.74358947, 4111.66666639, 4130.64102537, 4193.58974345,8.57
4127.30769203, 4129.23076896, 4127.17948691, 4126.66666639, 4127.82051255, 4135.25640998, 4106.79487152, 4116.02564075, 4219.48717942, 4130.12820485, 4137.30769210, 4123.97435870, 4135.51282031, 4192.94871781,8.57
4108.71794844, 4120.76923050, 4116.02564075, 4116.92307665, 4124.35897408, 4136.79487159, 4104.99999973, 4116.28205101, 4219.61538455, 4128.84615357, 4132.30769203, 4108.58974332, 4130.25640998, 4184.61538448,8.57
4129.61538434, 4130.51282024, 4136.79487159, 4133.07692280, 4125.12820485, 4135.38461518, 4105.89743562, 4113.07692280, 4217.43589737, 4125.89743562, 4138.84615364, 4125.76923050, 4135.76923056, 4194.61538448,8.57
4123.46153819, 4125.76923050, 4126.66666639, 4130.89743562, 4124.87179460, 4134.61538434, 4109.74358947, 4121.66666639, 4227.43589737, 4126.66666639, 4140.76923056, 4124.74358947, 4135.64102544, 4191.66666653,8.57
4115.25640998, 4119.74358947, 4116.41025614, 4117.82051255, 4123.97435870, 4142.17948697, 4118.20512793, 4129.61538434, 4233.46153840, 4128.20512793, 4136.79487159, 4119.23076896, 4133.97435870, 4191.41025628,8.57
4133.58974332, 4134.99999973, 4135.76923056, 4129.48717921, 4127.94871767, 4145.51282031, 4124.23076896, 4128.71794844, 4226.53846147, 4127.30769203, 4141.41025621, 4135.89743569, 4142.43589723, 4193.71794858,8.57
4114.10256383, 4121.66666639, 4115.25640998, 4120.25640998, 4126.41025614, 4145.64102544, 4126.28205101, 4137.94871774, 4232.56410250, 4127.43589716, 4135.89743569, 4113.58974332, 4135.89743569, 4191.53846140,8.57
4128.46153819, 4125.64102537, 4125.89743562, 4126.53846126, 4127.82051255, 4147.17948697, 4127.94871767, 4143.84615364, 4241.28205129, 4128.33333306, 4139.74358954, 4126.53846126, 4139.10256390, 4201.15384609,8.57
4128.46153819, 4128.07692280, 4131.66666639, 4128.33333306, 4124.35897408, 4140.25641005, 4119.99999973, 4131.41025614, 4233.46153840, 4128.84615357, 4141.41025621, 4133.97435870, 4140.12820492, 4193.84615371,8.57
4112.30769203, 4117.05128178, 4117.30769203, 4117.56410229, 4118.58974332, 4131.28205101, 4111.66666639, 4123.46153819, 4223.20512814, 4128.07692280, 4132.05128178, 4119.35897408, 4133.58974332, 4194.99999986,8.57
4130.76923050, 4129.48717921, 4128.20512793, 4129.10256383, 4124.23076896, 4135.38461518, 4116.15384588, 4128.71794844, 4217.56410250, 4128.97435870, 4136.92307672, 4137.43589723, 4140.12820492, 4203.97435891,8.57
4114.61538434, 4120.25640998, 4113.58974332, 4118.20512793, 4122.94871767, 4141.02564082, 4120.51282024, 4133.71794844, 4218.71794865, 4128.84615357, 4136.92307672, 4121.53846126, 4134.35897408, 4192.17948704,8.57
4121.79487152, 4121.41025614, 4123.46153819, 4121.02564075, 4123.46153819, 4134.74358947, 4108.97435870, 4118.58974332, 4210.38461532, 4125.64102537, 4135.76923056, 4122.69230742, 4135.51282031, 4197.94871781,8.57
4126.15384588, 4127.43589716, 4129.61538434, 4131.15384588, 4126.79487152, 4131.15384588, 4099.10256376, 4101.79487145, 4192.69230756, 4126.02564075, 4135.51282031, 4126.92307665, 4139.48717928, 4196.92307679,8.57
4106.79487152, 4115.76923050, 4114.74358947, 4119.61538434, 4123.07692280, 4140.38461518, 4113.33333306, 4117.05128178, 4204.35897429, 4126.92307665, 4133.07692280, 4105.51282024, 4131.92307665, 4188.58974345,8.57
4126.66666639, 4126.28205101, 4132.17948691, 4129.74358947, 4125.12820485, 4144.74358954, 4125.38461511, 4136.28205108, 4230.12820506, 4128.46153819, 4139.87179467, 4122.43589716, 4137.43589723, 4193.97435884,8.57
4114.10256383, 4121.28205101, 4120.51282024, 4122.56410229, 4126.15384588, 4139.99999980, 4117.43589716, 4128.71794844, 4224.61538455, 4129.35897408, 4138.20512800, 4112.17948691, 4133.84615357, 4187.05128192,8.57
4116.02564075, 4122.69230742, 4126.53846126, 4120.25640998, 4125.76923050, 4136.53846133, 4113.58974332, 4117.56410229, 4207.17948711, 4127.94871767, 4138.71794851, 4113.07692280, 4131.02564075, 4191.02564089,8.57
4131.02564075, 4133.58974332, 4137.82051262, 4131.15384588, 4125.89743562, 4139.87179467, 4124.23076896, 4125.89743562, 4213.07692301, 4127.43589716, 4141.66666646, 4131.28205101, 4136.28205108, 4192.05128192,8.57
4113.20512793, 4121.66666639, 4114.74358947, 4117.30769203, 4121.66666639, 4145.25641005, 4131.28205101, 4135.89743569, 4223.33333327, 4127.94871767, 4136.28205108, 4115.64102537, 4132.94871767, 4188.71794858,8.57
4131.53846126, 4130.76923050, 4133.20512793, 4126.79487152, 4123.33333306, 4142.82051262, 4127.69230742, 4131.15384588, 4214.35897429, 4129.10256383, 4141.41025621, 4132.69230742, 4139.99999980, 4199.99999986,8.57
4121.53846126, 4124.99999973, 4127.30769203, 4127.30769203, 4121.53846126, 4142.94871774, 4133.97435870, 4131.41025614, 4204.61538455, 4127.30769203, 4140.76923056, 4128.71794844, 4137.82051262, 4194.74358961,8.57
4115.12820485, 4117.82051255, 4115.76923050, 4119.35897408, 4122.82051255, 4149.35897415, 4141.92307672, 4142.56410236, 4210.25641019, 4124.99999973, 4136.15384595, 4122.05128178, 4134.61538434, 4197.17948704,8.57
4135.38461518, 4129.87179460, 4131.79487152, 4127.94871767, 4129.99999973, 4151.28205108, 4133.58974332, 4139.61538441, 4213.20512814, 4126.02564075, 4139.23076903, 4135.89743569, 4139.23076903, 4199.23076910,8.57
4115.12820485, 4118.71794844, 4117.05128178, 4118.58974332, 4125.64102537, 4147.05128185, 4123.97435870, 4124.10256383, 4204.35897429, 4127.43589716, 4133.20512793, 4115.12820485, 4133.46153819, 4192.56410243,8.57
4125.89743562, 4125.64102537, 4124.23076896, 4124.35897408, 4125.38461511, 4138.20512800, 4119.61538434, 4117.82051255, 4198.71794858, 4128.58974332, 4134.99999973, 4128.71794844, 4139.48717928, 4201.53846147,8.57
4126.02564075, 4127.17948691, 4121.92307665, 4122.94871767, 4126.53846126, 4133.46153819, 4113.20512793, 4116.79487152, 4201.79487173, 4126.79487152, 4134.74358947, 4129.61538434, 4137.69230749, 4196.02564089,8.57
4115.25640998, 4116.28205101, 4113.46153819, 4115.64102537, 4122.56410229, 4129.61538434, 4106.15384588, 4108.84615357, 4195.25641012, 4126.28205101, 4133.46153819, 4115.25640998, 4131.66666639, 4194.61538448,8.57
4115.25640998, 4116.28205101, 4113.46153819, 4115.64102537, 4122.56410229, 4129.61538434, 4106.15384588, 4108.84615357, 4195.25641012, 4126.28205101, 4133.46153819, 4115.25640998, 4131.66666639, 4194.61538448,8.57
4127.94871767, 4124.23076896, 4124.23076896, 4126.28205101, 4124.61538434, 4124.35897408, 4106.53846126, 4106.53846126, 4182.94871781, 4129.61538434, 4138.97435877, 4127.69230742, 4138.58974339, 4198.46153833,8.57
4108.84615357, 4117.69230742, 4109.99999973, 4116.41025614, 4123.07692280, 4129.48717921, 4111.41025614, 4114.35897408, 4180.89743576, 4129.61538434, 4131.15384588, 4109.74358947, 4131.53846126, 4190.12820499,8.57
4120.89743562, 4123.46153819, 4123.33333306, 4123.58974332, 4124.35897408, 4134.10256383, 4115.12820485, 4116.41025614, 4184.87179474, 4127.82051255, 4134.87179460, 4117.94871767, 4133.84615357, 4196.66666653,8.57
4123.33333306, 4127.56410229, 4126.66666639, 4127.69230742, 4126.53846126, 4133.58974332, 4125.76923050, 4124.23076896, 4201.41025634, 4126.92307665, 4140.12820492, 4121.66666639, 4135.76923056, 4193.46153833,8.57
4111.41025614, 4122.05128178, 4120.12820485, 4116.66666639, 4124.48717921, 4141.79487159, 4138.97435877, 4145.76923056, 4226.15384609, 4127.05128178, 4134.48717921, 4109.87179460, 4128.46153819, 4192.05128192,8.57
4132.69230742, 4132.56410229, 4138.84615364, 4128.33333306, 4127.17948691, 4148.20512800, 4136.66666646, 4144.48717928, 4221.15384609, 4128.71794844, 4139.10256390, 4129.87179460, 4133.97435870, 4196.66666653,8.57
4117.17948691, 4121.79487152, 4117.82051255, 4121.41025614, 4123.46153819, 4139.99999980, 4121.53846126, 4121.28205101, 4194.87179474, 4127.69230742, 4137.43589723, 4117.05128178, 4132.30769203, 4186.41025628,8.57
4125.64102537, 4125.76923050, 4121.66666639, 4123.20512793, 4121.66666639, 4124.99999973, 4111.41025614, 4113.33333306, 4185.89743576, 4127.17948691, 4138.97435877, 4121.79487152, 4136.15384595, 4192.82051269,8.57
4133.46153819, 4132.94871767, 4131.28205101, 4131.02564075, 4123.84615357, 4119.99999973, 4110.89743562, 4116.53846126, 4185.51282038, 4128.33333306, 4140.89743569, 4130.25640998, 4136.28205108, 4197.56410243,8.57
4115.51282024, 4120.12820485, 4118.58974332, 4120.51282024, 4121.92307665, 4128.58974332, 4119.35897408, 4120.51282024, 4187.30769217, 4126.53846126, 4135.89743569, 4118.84615357, 4129.10256383, 4198.46153833,8.57
4133.97435870, 4127.43589716, 4135.51282031, 4128.20512793, 4124.99999973, 4140.64102544, 4131.53846126, 4131.15384588, 4203.33333327, 4126.41025614, 4141.66666646, 4138.58974339, 4138.33333313, 4199.10256397,8.57
4120.25640998, 4121.15384588, 4121.41025614, 4122.05128178, 4123.33333306, 4141.79487159, 4132.56410229, 4134.87179460, 4209.10256404, 4128.84615357, 4138.33333313, 4122.05128178, 4135.76923056, 4189.35897422,8.57
4121.28205101, 4124.35897408, 4120.64102537, 4122.69230742, 4125.12820485, 4128.84615357, 4120.76923050, 4121.15384588, 4184.10256397, 4130.64102537, 4135.38461518, 4120.51282024, 4133.84615357, 4201.41025634,8.57
4130.38461511, 4133.97435870, 4131.28205101, 4128.20512793, 4128.07692280, 4123.07692280, 4117.56410229, 4116.28205101, 4174.48717935, 4130.12820485, 4138.20512800, 4133.84615357, 4137.30769210, 4200.89743576,8.57
4109.87179460, 4118.07692280, 4114.23076896, 4114.10256383, 4121.15384588, 4135.76923056, 4129.74358947, 4133.97435870, 4201.92307686, 4128.46153819, 4133.84615357, 4113.97435870, 4130.76923050, 4189.74358961,8.57
4125.89743562, 4123.71794844, 4124.10256383, 4124.74358947, 4122.69230742, 4141.79487159, 4133.07692280, 4137.56410236, 4204.48717942, 4129.61538434, 4137.94871774, 4127.30769203, 4134.48717921, 4197.69230756,8.57
4116.79487152, 4121.15384588, 4117.43589716, 4121.66666639, 4124.61538434, 4134.10256383, 4125.51282024, 4118.71794844, 4176.53846140, 4130.64102537, 4134.99999973, 4118.46153819, 4131.28205101, 4192.56410243,8.57
4114.99999973, 4118.71794844, 4123.20512793, 4118.33333306, 4124.10256383, 4133.07692280, 4128.84615357, 4119.74358947, 4181.53846140, 4128.46153819, 4134.61538434, 4112.17948691, 4130.89743562, 4193.71794858,8.57
4127.82051255, 4129.87179460, 4133.46153819, 4132.56410229, 4123.97435870, 4141.15384595, 4138.20512800, 4145.64102544, 4214.23076917, 4126.92307665, 4141.02564082, 4124.61538434, 4135.89743569, 4194.10256397,8.57
4109.48717921, 4118.33333306, 4113.33333306, 4122.30769203, 4122.05128178, 4145.64102544, 4139.23076903, 4153.07692287, 4221.41025634, 4127.43589716, 4138.07692287, 4109.99999973, 4129.74358947, 4188.58974345,8.57
4128.58974332, 4125.12820485, 4131.92307665, 4126.53846126, 4128.58974332, 4141.92307672, 4132.30769203, 4135.76923056, 4202.05128199, 4127.82051255, 4140.51282031, 4129.35897408, 4135.89743569, 4196.02564089,8.57
4123.07692280, 4125.38461511, 4126.15384588, 4124.48717921, 4128.33333306, 4137.82051262, 4131.02564075, 4133.33333306, 4193.58974345, 4127.69230742, 4137.17948697, 4126.53846126, 4134.74358947, 4188.71794858,8.57
4118.33333306, 4119.99999973, 4118.84615357, 4118.97435870, 4123.71794844, 4140.64102544, 4140.12820492, 4152.94871774, 4211.53846147, 4128.33333306, 4137.30769210, 4120.38461511, 4132.82051255, 4190.89743576,8.57
4137.30769210, 4130.38461511, 4136.92307672, 4131.79487152, 4125.38461511, 4149.74358954, 4148.58974339, 4157.69230749, 4222.82051275, 4128.71794844, 4147.05128185, 4138.84615364, 4140.64102544, 4197.82051269,8.57
4115.38461511, 4120.12820485, 4117.43589716, 4120.64102537, 4120.89743562, 4156.66666646, 4149.35897415, 4146.41025621, 4206.92307686, 4128.46153819, 4142.56410236, 4121.02564075, 4132.30769203, 4193.20512807,8.57
4129.10256383, 4128.33333306, 4129.23076896, 4126.15384588, 4120.64102537, 4146.66666646, 4141.79487159, 4144.10256390, 4201.53846147, 4128.46153819, 4142.30769210, 4134.23076896, 4133.20512793, 4199.23076910,8.57
4127.94871767, 4127.56410229, 4130.38461511, 4128.07692280, 4121.28205101, 4131.66666639, 4135.64102544, 4148.71794851, 4218.20512814, 4127.17948691, 4140.89743569, 4132.17948691, 4135.51282031, 4194.87179474,8.57
4113.33333306, 4115.38461511, 4114.87179460, 4118.71794844, 4120.89743562, 4134.23076896, 4139.87179467, 4151.92307672, 4220.89743583, 4126.41025614, 4138.97435877, 4114.48717921, 4133.84615357, 4199.74358961,8.57
4133.46153819, 4128.07692280, 4126.53846126, 4127.69230742, 4126.53846126, 4144.87179467, 4146.53846133, 4153.58974339, 4205.64102558, 4129.48717921, 4145.51282031, 4133.84615357, 4139.74358954, 4204.87179481,8.57
4115.51282024, 4119.87179460, 4109.74358947, 4116.92307665, 4122.30769203, 4150.38461518, 4151.28205108, 4158.33333313, 4207.17948711, 4130.38461511, 4136.66666646, 4117.82051255, 4130.89743562, 4191.92307679,8.57
4119.48717921, 4122.17948691, 4119.99999973, 4125.89743562, 4121.92307665, 4150.64102544, 4152.69230749, 4162.56410236, 4214.87179481, 4128.46153819, 4134.61538434, 4118.97435870, 4133.20512793, 4199.10256397,8.57
4122.05128178, 4124.74358947, 4126.53846126, 4133.84615357, 4127.43589716, 4151.92307672, 4156.41025621, 4167.05128185, 4214.74358968, 4127.94871767, 4137.94871774, 4123.97435870, 4136.79487159, 4194.87179474,8.57
4111.66666639, 4117.69230742, 4114.61538434, 4121.28205101, 4126.79487152, 4157.30769210, 4167.05128185, 4180.89743576, 4225.76923070, 4126.66666639, 4133.33333306, 4112.30769203, 4131.15384588, 4189.10256397,8.57
4131.41025614, 4132.17948691, 4131.53846126, 4131.02564075, 4127.69230742, 4153.33333313, 4167.69230749, 4188.71794858, 4239.10256411, 4126.41025614, 4139.35897415, 4128.07692280, 4139.10256390, 4195.76923063,8.57
4114.87179460, 4120.89743562, 4116.28205101, 4120.76923050, 4124.10256383, 4150.38461518, 4165.38461518, 4186.53846140, 4244.48717949, 4126.79487152, 4139.99999980, 4113.71794844, 4134.10256383, 4186.02564089,8.57
4124.87179460, 4121.28205101, 4124.10256383, 4119.35897408, 4124.74358947, 4164.35897415, 4176.92307679, 4190.12820499, 4248.46153847, 4128.46153819, 4143.07692287, 4122.94871767, 4134.87179460, 4190.38461525,8.57
4136.28205108, 4131.79487152, 4133.58974332, 4129.10256383, 4127.56410229, 4174.99999986, 4186.15384602, 4198.58974345, 4255.38461539, 4128.84615357, 4149.35897415, 4134.74358947, 4143.71794851, 4193.33333320,8.57
4117.94871767, 4120.89743562, 4114.35897408, 4120.76923050, 4124.23076896, 4173.58974345, 4185.38461525, 4201.66666660, 4263.84615385, 4126.15384588, 4148.71794851, 4115.89743562, 4139.10256390, 4193.71794858,8.57
4135.38461518, 4128.71794844, 4130.51282024, 4129.35897408, 4125.38461511, 4171.41025628, 4184.61538448, 4198.58974345, 4257.82051282, 4126.28205101, 4153.20512800, 4137.94871774, 4141.28205108, 4201.41025634,8.57
4122.17948691, 4121.66666639, 4122.69230742, 4124.35897408, 4124.35897408, 4169.35897422, 4178.84615371, 4187.17948704, 4235.89743590, 4127.43589716, 4145.76923056, 4130.25640998, 4137.17948697, 4193.84615371,8.57
4123.20512793, 4123.07692280, 4123.33333306, 4122.56410229, 4127.82051255, 4163.20512800, 4170.89743576, 4178.71794858, 4230.64102558, 4128.97435870, 4143.71794851, 4124.99999973, 4141.15384595, 4199.61538448,8.57
4135.25640998, 4132.43589716, 4130.38461511, 4126.79487152, 4130.51282024, 4161.66666646, 4176.02564089, 4194.48717935, 4254.61538462, 4130.25640998, 4153.58974339, 4137.17948697, 4147.69230749, 4200.38461525,8.57
4114.23076896, 4117.56410229, 4111.79487152, 4112.82051255, 4121.53846126, 4168.20512807, 4184.35897422, 4206.66666660, 4261.53846154, 4127.30769203, 4149.61538441, 4116.02564075, 4138.07692287, 4193.71794858,8.57
4130.38461511, 4126.92307665, 4126.66666639, 4126.15384588, 4121.02564075, 4173.97435884, 4186.28205115, 4194.99999986, 4242.94871795, 4127.82051255, 4150.38461518, 4128.71794844, 4139.48717928, 4201.02564096,8.57
4120.76923050, 4124.74358947, 4117.82051255, 4125.12820485, 4123.20512793, 4175.38461525, 4193.84615371, 4205.12820506, 4255.64102564, 4130.25640998, 4149.10256390, 4123.71794844, 4134.99999973, 4192.94871781,8.57
4114.10256383, 4116.41025614, 4111.41025614, 4115.51282024, 4124.74358947, 4169.48717935, 4198.46153833, 4225.51282045, 4278.97435905, 4128.33333306, 4145.76923056, 4114.35897408, 4132.56410229, 4193.84615371,8.57
4127.17948691, 4124.99999973, 4125.38461511, 4125.25640998, 4127.30769203, 4168.07692287, 4196.41025628, 4217.94871788, 4272.30769238, 4126.79487152, 4150.89743569, 4125.64102537, 4138.58974339, 4196.28205115,8.57
4109.99999973, 4117.56410229, 4116.28205101, 4121.53846126, 4121.53846126, 4178.71794858, 4203.20512814, 4217.56410250, 4270.64102571, 4127.43589716, 4151.15384595, 4110.51282024, 4130.64102537, 4188.33333320,8.57
4125.76923050, 4125.76923050, 4132.43589716, 4131.53846126, 4124.23076896, 4179.61538448, 4205.51282045, 4227.30769224, 4274.61538469, 4126.53846126, 4155.25641005, 4124.23076896, 4134.10256383, 4193.46153833,8.57
4120.76923050, 4125.51282024, 4123.84615357, 4124.48717921, 4127.69230742, 4175.25641012, 4201.15384609, 4226.66666660, 4273.84615392, 4126.15384588, 4156.15384595, 4119.99999973, 4133.58974332, 4188.33333320,8.57
4117.56410229, 4123.58974332, 4118.84615357, 4117.05128178, 4125.25640998, 4181.28205115, 4206.66666660, 4226.41025634, 4278.33333341, 4127.69230742, 4155.12820492, 4112.17948691, 4132.43589716, 4190.12820499,8.57
4135.89743569, 4135.38461518, 4138.71794851, 4134.74358947, 4126.79487152, 4186.66666653, 4211.41025634, 4229.48717942, 4276.92307700, 4128.46153819, 4157.43589723, 4131.66666639, 4141.79487159, 4193.33333320,8.57
4112.17948691, 4119.99999973, 4117.56410229, 4122.94871767, 4123.97435870, 4186.66666653, 4208.33333327, 4230.51282045, 4273.84615392, 4127.05128178, 4150.76923056, 4116.53846126, 4135.12820485, 4189.10256397,8.57
4127.30769203, 4126.15384588, 4127.30769203, 4126.15384588, 4125.64102537, 4186.02564089, 4204.10256404, 4224.99999993, 4273.71794879, 4125.64102537, 4156.28205108, 4129.35897408, 4137.17948697, 4199.99999986,8.57
4131.41025614, 4129.87179460, 4130.12820485, 4130.38461511, 4125.25640998, 4185.38461525, 4203.46153840, 4222.56410250, 4268.71794879, 4126.66666639, 4157.05128185, 4133.33333306, 4143.20512800, 4197.17948704,8.57
4116.66666639, 4116.28205101, 4117.30769203, 4119.10256383, 4121.28205101, 4186.28205115, 4210.51282045, 4231.79487173, 4268.33333341, 4128.71794844, 4151.15384595, 4120.51282024, 4140.89743569, 4197.43589730,8.57
4130.64102537, 4127.43589716, 4132.30769203, 4128.07692280, 4123.84615357, 4182.30769217, 4213.71794865, 4233.07692301, 4266.79487187, 4129.10256383, 4159.48717928, 4137.17948697, 4144.61538441, 4202.17948711,8.57
4112.43589716, 4120.76923050, 4114.23076896, 4118.71794844, 4121.53846126, 4179.23076910, 4213.58974352, 4228.97435891, 4261.28205129, 4126.79487152, 4154.74358954, 4120.12820485, 4138.97435877, 4192.69230756,8.57
4127.82051255, 4121.53846126, 4119.74358947, 4119.87179460, 4124.74358947, 4191.28205115, 4225.64102558, 4248.97435898, 4282.43589751, 4127.05128178, 4153.33333313, 4125.64102537, 4142.43589723, 4198.33333320,8.57
4133.71794844, 4128.20512793, 4127.30769203, 4128.33333306, 4126.66666639, 4201.28205122, 4236.02564103, 4268.71794879, 4308.20512835, 4127.82051255, 4158.33333313, 4130.51282024, 4142.94871774, 4194.23076910,8.57
4109.10256383, 4120.25640998, 4113.58974332, 4118.20512793, 4120.25640998, 4196.53846140, 4230.89743583, 4257.30769231, 4292.82051289, 4128.20512793, 4152.94871774, 4111.02564075, 4132.17948691, 4188.58974345,8.57
4124.61538434, 4126.66666639, 4126.92307665, 4126.41025614, 4123.71794844, 4193.84615371, 4229.35897429, 4248.84615385, 4274.48717956, 4130.12820485, 4154.99999980, 4129.23076896, 4139.10256390, 4193.97435884,8.57
4116.41025614, 4119.35897408, 4114.35897408, 4122.17948691, 4126.02564075, 4201.02564096, 4237.56410257, 4262.94871795, 4291.15384623, 4128.20512793, 4152.05128185, 4118.58974332, 4136.53846133, 4188.07692294,8.57
4124.35897408, 4122.94871767, 4122.56410229, 4125.89743562, 4126.53846126, 4205.25641019, 4240.00000000, 4272.56410264, 4306.28205142, 4125.64102537, 4151.28205108, 4117.17948691, 4133.58974332, 4195.25641012,8.57
4128.97435870, 4130.64102537, 4132.82051255, 4132.69230742, 4127.17948691, 4203.33333327, 4234.61538462, 4260.76923077, 4289.48717956, 4126.28205101, 4154.61538441, 4127.43589716, 4136.79487159, 4192.69230756,8.57
4106.15384588, 4119.35897408, 4112.30769203, 4114.99999973, 4124.10256383, 4201.92307686, 4228.97435891, 4241.53846154, 4265.25641026, 4127.56410229, 4149.10256390, 4112.43589716, 4131.02564075, 4186.66666653,8.57
4132.05128178, 4131.53846126, 4132.05128178, 4126.41025614, 4129.23076896, 4200.12820499, 4227.82051275, 4239.23076923, 4262.94871795, 4129.87179460, 4153.46153826, 4132.56410229, 4138.20512800, 4197.82051269,8.57
4126.66666639, 4126.15384588, 4125.25640998, 4127.69230742, 4128.20512793, 4199.87179474, 4231.66666660, 4248.97435898, 4272.56410264, 4129.99999973, 4152.43589723, 4125.76923050, 4136.92307672, 4194.35897422,8.57
4118.46153819, 4121.15384588, 4118.71794844, 4121.66666639, 4122.82051255, 4197.30769217, 4232.17948711, 4243.33333334, 4268.84615392, 4129.35897408, 4148.71794851, 4120.38461511, 4134.48717921, 4197.17948704,8.57
4132.17948691, 4132.17948691, 4133.97435870, 4128.97435870, 4126.15384588, 4198.97435884, 4233.97435898, 4234.61538462, 4254.74358975, 4130.76923050, 4153.33333313, 4135.64102544, 4138.71794851, 4197.43589730,8.57
4115.12820485, 4116.53846126, 4117.17948691, 4117.17948691, 4125.64102537, 4212.30769224, 4248.58974359, 4250.64102564, 4253.07692308, 4129.61538434, 4149.87179467, 4117.30769203, 4132.82051255, 4190.51282038,8.57
4132.94871767, 4123.97435870, 4129.23076896, 4127.05128178, 4124.74358947, 4219.61538455, 4261.28205129, 4270.76923084, 4265.89743590, 4126.79487152, 4150.64102544, 4134.48717921, 4139.10256390, 4199.74358961,8.57
4127.17948691, 4128.33333306, 4125.38461511, 4127.82051255, 4122.69230742, 4215.64102558, 4262.43589744, 4274.23076930, 4278.71794879, 4126.53846126, 4151.28205108, 4131.15384588, 4137.94871774, 4194.74358961,8.57
4113.71794844, 4118.97435870, 4115.51282024, 4118.71794844, 4124.10256383, 4215.51282045, 4260.64102564, 4272.82051289, 4276.66666674, 4125.76923050, 4150.89743569, 4115.25640998, 4133.20512793, 4196.79487166,8.57
4130.76923050, 4126.92307665, 4128.33333306, 4128.71794844, 4131.41025614, 4215.12820506, 4255.64102564, 4267.17948725, 4257.43589744, 4126.15384588, 4151.02564082, 4133.46153819, 4138.20512800, 4201.41025634,8.57
4110.25640998, 4118.20512793, 4112.30769203, 4119.74358947, 4126.28205101, 4206.02564096, 4246.92307693, 4253.71794872, 4240.64102564, 4129.10256383, 4139.74358954, 4115.12820485, 4130.89743562, 4191.28205115,8.57
4119.48717921, 4123.20512793, 4124.74358947, 4125.76923050, 4123.97435870, 4199.87179474, 4239.48717949, 4243.20512821, 4229.35897429, 4127.69230742, 4142.17948697, 4118.46153819, 4134.74358947, 4196.28205115,8.57
4124.99999973, 4125.12820485, 4124.99999973, 4128.71794844, 4125.25640998, 4209.23076917, 4241.66666667, 4242.82051282, 4226.15384609, 4125.51282024, 4143.58974339, 4121.28205101, 4135.51282031, 4189.87179474,8.57
4114.99999973, 4118.58974332, 4113.58974332, 4118.97435870, 4121.02564075, 4215.51282045, 4242.69230770, 4238.84615385, 4222.56410250, 4126.41025614, 4134.61538434, 4111.79487152, 4129.10256383, 4186.92307679,8.57
4129.61538434, 4131.41025614, 4133.33333306, 4129.35897408, 4123.58974332, 4202.05128199, 4231.15384609, 4225.25641019, 4207.17948711, 4128.20512793, 4138.71794851, 4131.28205101, 4137.30769210, 4195.51282038,8.57
4110.64102537, 4119.99999973, 4117.17948691, 4119.74358947, 4124.74358947, 4203.84615378, 4234.35897436, 4227.30769224, 4206.28205122, 4128.07692280, 4137.30769210, 4115.38461511, 4133.84615357, 4187.56410243,8.57
4123.84615357, 4123.97435870, 4124.10256383, 4124.35897408, 4128.07692280, 4221.41025634, 4251.66666667, 4240.64102564, 4217.17948711, 4127.17948691, 4135.76923056, 4119.23076896, 4134.61538434, 4191.41025628,8.57
4134.87179460, 4132.82051255, 4132.94871767, 4133.33333306, 4127.05128178, 4209.87179481, 4243.71794872, 4235.38461539, 4206.02564096, 4126.15384588, 4134.61538434, 4131.41025614, 4136.92307672, 4193.07692294,8.57
4116.28205101, 4120.12820485, 4113.97435870, 4121.02564075, 4120.89743562, 4192.43589730, 4230.76923070, 4227.30769224, 4189.74358961, 4126.15384588, 4131.15384588, 4119.61538434, 4132.43589716, 4195.64102551,8.57
4133.33333306, 4130.89743562, 4130.51282024, 4130.64102537, 4128.07692280, 4204.74358968, 4243.46153847, 4236.41025641, 4198.07692294, 4129.61538434, 4138.46153826, 4136.15384595, 4141.15384595, 4203.07692301,8.57
4119.99999973, 4123.07692280, 4121.79487152, 4122.69230742, 4127.69230742, 4217.69230763, 4252.82051282, 4241.66666667, 4209.48717942, 4129.48717921, 4130.89743562, 4124.74358947, 4136.15384595, 4193.58974345,8.57
4122.43589716, 4120.76923050, 4122.17948691, 4121.02564075, 4120.64102537, 4211.66666660, 4250.51282052, 4237.94871795, 4210.38461532, 4127.56410229, 4126.79487152, 4125.76923050, 4134.74358947, 4200.64102551,8.57
4132.30769203, 4131.28205101, 4130.38461511, 4132.05128178, 4120.25640998, 4216.02564096, 4263.33333334, 4252.82051282, 4223.20512814, 4127.30769203, 4137.05128185, 4133.71794844, 4140.38461518, 4203.46153840,8.57
4111.79487152, 4119.48717921, 4113.20512793, 4118.07692280, 4121.66666639, 4230.64102558, 4279.10256418, 4270.89743597, 4232.94871788, 4126.41025614, 4135.38461518, 4111.15384588, 4132.30769203, 4195.25641012,8.57
4130.51282024, 4126.53846126, 4127.17948691, 4124.23076896, 4126.92307665, 4226.79487173, 4271.28205136, 4261.92307693, 4218.07692301, 4127.82051255, 4134.23076896, 4128.07692280, 4135.76923056, 4200.12820499,8.57
4121.02564075, 4122.17948691, 4116.15384588, 4122.69230742, 4123.58974332, 4216.92307686, 4260.51282052, 4253.20512821, 4209.35897429, 4128.46153819, 4131.92307665, 4123.07692280, 4133.33333306, 4194.23076910,8.57
4113.07692280, 4117.94871767, 4111.53846126, 4119.23076896, 4122.30769203, 4219.23076917, 4266.53846154, 4262.43589744, 4220.76923070, 4127.69230742, 4132.43589716, 4116.92307665, 4128.84615357, 4195.12820499,8.57
4126.66666639, 4128.46153819, 4127.69230742, 4129.10256383, 4128.33333306, 4222.94871788, 4271.41025648, 4267.69230777, 4225.25641019, 4128.20512793, 4133.33333306, 4128.58974332, 4134.87179460, 4194.74358961,8.57
4109.48717921, 4118.71794844, 4115.25640998, 4119.99999973, 4123.46153819, 4226.02564096, 4269.48717956, 4264.35897436, 4220.12820506, 4127.82051255, 4126.53846126, 4107.30769203, 4130.64102537, 4191.28205115,8.57
4127.30769203, 4127.69230742, 4129.23076896, 4128.97435870, 4123.20512793, 4230.38461532, 4268.33333341, 4256.92307693, 4215.38461532, 4127.05128178, 4134.48717921, 4121.41025614, 4133.46153819, 4200.89743576,8.57
4125.76923050, 4127.30769203, 4124.61538434, 4127.43589716, 4125.76923050, 4231.41025634, 4271.41025648, 4252.43589744, 4216.79487173, 4128.46153819, 4136.41025621, 4122.30769203, 4131.92307665, 4191.53846140,8.57
4116.53846126, 4120.38461511, 4118.97435870, 4118.33333306, 4123.20512793, 4227.56410250, 4267.56410264, 4256.28205129, 4219.35897429, 4127.82051255, 4131.41025614, 4113.33333306, 4130.51282024, 4190.89743576,8.57
4133.97435870, 4131.28205101, 4133.58974332, 4129.61538434, 4123.97435870, 4219.48717942, 4257.43589744, 4255.12820513, 4215.38461532, 4124.74358947, 4137.56410236, 4132.69230742, 4137.56410236, 4198.58974345,8.57
4117.05128178, 4122.17948691, 4115.38461511, 4121.66666639, 4123.71794844, 4218.97435891, 4261.92307693, 4252.82051282, 4216.66666660, 4124.74358947, 4135.38461518, 4120.64102537, 4132.17948691, 4192.69230756,8.57
4126.79487152, 4125.64102537, 4128.84615357, 4130.38461511, 4126.02564075, 4226.41025634, 4270.00000007, 4253.58974359, 4216.79487173, 4128.33333306, 4136.41025621, 4129.61538434, 4135.64102544, 4196.15384602,8.57
4126.53846126, 4126.66666639, 4130.25640998, 4132.56410229, 4123.71794844, 4227.94871788, 4268.07692315, 4251.28205129, 4208.71794865, 4127.43589716, 4135.51282031, 4129.61538434, 4135.89743569, 4193.97435884,8.57
4116.79487152, 4120.64102537, 4115.89743562, 4119.10256383, 4120.38461511, 4225.38461532, 4268.46153853, 4247.69230770, 4204.48717942, 4123.97435870, 4132.05128178, 4118.97435870, 4132.94871767, 4199.23076910,8.57
4134.61538434, 4130.25640998, 4130.89743562, 4128.97435870, 4124.87179460, 4230.12820506, 4274.74358982, 4245.64102564, 4201.53846147, 4127.43589716, 4137.05128185, 4133.46153819, 4139.48717928, 4204.10256404,8.57
4114.87179460, 4118.46153819, 4116.41025614, 4120.51282024, 4121.79487152, 4235.12820513, 4278.71794879, 4251.66666667, 4204.48717942, 4131.02564075, 4133.07692280, 4114.23076896, 4131.02564075, 4194.87179474,8.57
4120.89743562, 4123.33333306, 4120.25640998, 4120.76923050, 4122.43589716, 4226.41025634, 4273.58974366, 4253.97435898, 4208.97435891, 4128.20512793, 4133.58974332, 4123.33333306, 4133.71794844, 4201.79487173,8.57
4121.02564075, 4126.92307665, 4122.82051255, 4124.74358947, 4127.05128178, 4223.20512814, 4266.15384616, 4250.38461539, 4206.53846147, 4126.28205101, 4135.76923056, 4129.10256383, 4136.66666646, 4197.82051269,8.57
4104.48717921, 4115.76923050, 4114.74358947, 4119.23076896, 4124.87179460, 4235.76923077, 4269.87179495, 4253.84615385, 4208.97435891, 4126.79487152, 4133.33333306, 4108.20512793, 4128.33333306, 4193.84615371,8.57
4126.15384588, 4126.79487152, 4132.94871767, 4132.17948691, 4125.51282024, 4238.46153847, 4277.43589751, 4258.84615385, 4215.64102558, 4127.82051255, 4141.41025621, 4121.66666639, 4134.10256383, 4198.20512807,8.57
4113.71794844, 4120.76923050, 4116.66666639, 4122.30769203, 4123.07692280, 4232.56410250, 4278.33333341, 4259.87179488, 4212.43589737, 4127.17948691, 4137.17948697, 4112.05128178, 4129.99999973, 4186.53846140,8.57
4120.12820485, 4124.35897408, 4120.51282024, 4125.25640998, 4125.76923050, 4230.51282045, 4276.79487187, 4263.58974359, 4209.10256404, 4127.56410229, 4135.76923056, 4120.12820485, 4132.17948691, 4191.53846140,8.57
4131.15384588, 4133.33333306, 4129.48717921, 4132.69230742, 4127.43589716, 4231.92307686, 4276.15384623, 4266.15384616, 4215.51282045, 4128.46153819, 4142.30769210, 4128.71794844, 4140.51282031, 4192.30769217,8.57
4114.61538434, 4123.33333306, 4116.79487152, 4117.69230742, 4122.82051255, 4232.17948711, 4278.46153853, 4268.20512828, 4221.28205122, 4127.05128178, 4139.35897415, 4108.97435870, 4134.61538434, 4189.48717935,8.57
4131.02564075, 4134.61538434, 4137.30769210, 4131.53846126, 4127.94871767, 4225.25641019, 4281.15384623, 4277.17948725, 4227.30769224, 4126.02564075, 4146.92307672, 4126.79487152, 4138.07692287, 4198.07692294,8.57
4119.35897408, 4126.41025614, 4126.28205101, 4130.12820485, 4125.64102537, 4224.35897429, 4286.53846161, 4291.66666674, 4248.71794872, 4128.46153819, 4149.23076903, 4120.76923050, 4134.48717921, 4192.43589730,8.57
4120.89743562, 4121.92307665, 4124.61538434, 4123.20512793, 4123.58974332, 4235.25641026, 4295.51282059, 4300.64102578, 4266.41025641, 4131.92307665, 4149.35897415, 4122.30769203, 4132.43589716, 4198.58974345,8.57
4131.92307665, 4130.38461511, 4131.92307665, 4129.48717921, 4125.89743562, 4241.15384616, 4299.10256418, 4297.56410264, 4259.87179488, 4130.76923050, 4154.10256390, 4135.89743569, 4136.53846133, 4199.48717935,8.57
4111.79487152, 4118.46153819, 4110.51282024, 4120.64102537, 4122.17948691, 4236.92307693, 4297.56410264, 4299.48717963, 4256.66666667, 4128.07692280, 4151.28205108, 4114.35897408, 4132.82051255, 4191.41025628,8.57
4131.41025614, 4129.10256383, 4126.41025614, 4127.82051255, 4125.64102537, 4230.25641019, 4292.94871802, 4303.46153860, 4263.46153847, 4129.23076896, 4155.64102544, 4129.10256383, 4139.87179467, 4200.89743576,8.57
4123.20512793, 4127.30769203, 4120.25640998, 4123.20512793, 4124.87179460, 4227.05128199, 4289.87179495, 4296.53846161, 4257.05128206, 4128.46153819, 4151.28205108, 4125.51282024, 4138.07692287, 4196.66666653,8.57
4123.20512793, 4127.30769203, 4120.25640998, 4123.20512793, 4124.87179460, 4227.05128199, 4289.87179495, 4296.53846161, 4257.05128206, 4128.46153819, 4151.28205108, 4125.51282024, 4138.07692287, 4196.66666653,8.57
4113.84615357, 4118.46153819, 4112.30769203, 4118.33333306, 4122.43589716, 4225.25641019, 4290.38461546, 4292.17948725, 4248.97435898, 4126.53846126, 4148.46153826, 4116.92307665, 4134.87179460, 4197.43589730,8.57
4128.71794844, 4128.84615357, 4125.38461511, 4127.56410229, 4126.79487152, 4223.33333327, 4286.28205136, 4291.02564110, 4250.12820513, 4127.56410229, 4156.28205108, 4130.12820485, 4138.84615364, 4199.87179474,8.57
4111.28205101, 4120.64102537, 4111.66666639, 4118.07692280, 4123.71794844, 4222.56410250, 4278.07692315, 4286.53846161, 4251.92307693, 4129.61538434, 4149.99999980, 4109.74358947, 4131.41025614, 4191.79487166,8.57
4121.79487152, 4125.12820485, 4125.64102537, 4127.56410229, 4123.84615357, 4216.92307686, 4269.35897443, 4279.23076930, 4245.64102564, 4131.28205101, 4148.58974339, 4118.71794844, 4136.66666646, 4195.64102551,8.57
4119.10256383, 4124.35897408, 4124.74358947, 4128.84615357, 4126.28205101, 4211.66666660, 4264.23076923, 4276.92307700, 4236.92307693, 4129.99999973, 4149.61538441, 4119.99999973, 4134.74358947, 4189.74358961,8.57
4116.02564075, 4122.17948691, 4119.10256383, 4121.15384588, 4125.51282024, 4214.10256404, 4263.07692308, 4273.20512828, 4232.43589737, 4126.15384588, 4150.25641005, 4112.94871767, 4127.69230742, 4188.46153833,8.57
4118.97435870, 4121.53846126, 4117.30769203, 4119.74358947, 4125.76923050, 4202.82051275, 4263.58974359, 4284.23076930, 4242.56410257, 4126.66666639, 4153.97435877, 4119.61538434, 4136.02564082, 4194.99999986,8.57
4125.89743562, 4126.28205101, 4123.46153819, 4122.94871767, 4122.56410229, 4199.99999986, 4260.12820513, 4271.41025648, 4225.76923070, 4127.94871767, 4150.76923056, 4127.43589716, 4137.43589723, 4201.02564096,8.57
4133.46153819, 4135.38461518, 4132.94871767, 4130.89743562, 4124.35897408, 4204.10256404, 4264.87179488, 4276.66666674, 4234.23076923, 4127.82051255, 4155.64102544, 4137.30769210, 4140.12820492, 4198.33333320,8.57
4114.35897408, 4121.41025614, 4113.71794844, 4118.33333306, 4121.15384588, 4207.43589737, 4265.38461539, 4282.30769238, 4243.20512821, 4126.53846126, 4152.94871774, 4114.48717921, 4132.69230742, 4193.58974345,8.57
4132.56410229, 4128.07692280, 4125.64102537, 4126.41025614, 4122.82051255, 4206.15384609, 4257.82051282, 4263.07692308, 4215.64102558, 4128.33333306, 4150.38461518, 4130.51282024, 4137.43589723, 4199.87179474,8.57
4121.02564075, 4123.46153819, 4114.87179460, 4120.25640998, 4122.69230742, 4202.05128199, 4253.07692308, 4255.25641026, 4204.48717942, 4128.84615357, 4147.69230749, 4120.64102537, 4133.97435870, 4190.89743576,8.57
4119.99999973, 4121.28205101, 4118.33333306, 4119.74358947, 4124.35897408, 4196.02564089, 4251.15384616, 4268.33333341, 4221.92307686, 4127.56410229, 4150.89743569, 4115.76923050, 4132.94871767, 4193.71794858,8.57
4128.46153819, 4127.05128178, 4129.23076896, 4129.48717921, 4128.07692280, 4187.82051269, 4243.84615385, 4261.79487180, 4214.87179481, 4127.05128178, 4148.97435877, 4126.02564075, 4136.66666646, 4193.46153833,8.57
4111.02564075, 4118.20512793, 4113.58974332, 4119.99999973, 4124.61538434, 4183.97435884, 4241.28205129, 4247.43589744, 4200.25641012, 4125.38461511, 4143.84615364, 4107.56410229, 4128.97435870, 4187.94871781,8.57
4131.28205101, 4131.79487152, 4132.56410229, 4133.07692280, 4127.94871767, 4180.89743576, 4243.07692308, 4243.84615385, 4197.94871781, 4127.94871767, 4157.30769210, 4124.74358947, 4136.66666646, 4195.25641012,8.57
4123.20512793, 4128.07692280, 4124.99999973, 4129.10256383, 4125.51282024, 4177.05128192, 4241.92307693, 4246.02564103, 4197.30769217, 4131.66666639, 4155.12820492, 4122.30769203, 4136.92307672, 4188.71794858,8.57
4120.25640998, 4124.35897408, 4120.64102537, 4119.87179460, 4122.69230742, 4173.46153833, 4238.46153847, 4248.97435898, 4195.89743576, 4128.71794844, 4147.82051262, 4115.51282024, 4133.46153819, 4193.58974345,8.57
4135.64102544, 4135.76923056, 4133.71794844, 4128.07692280, 4128.07692280, 4162.30769210, 4231.79487173, 4240.76923077, 4191.92307679, 4126.15384588, 4154.48717928, 4129.99999973, 4140.51282031, 4195.76923063,8.57
4114.48717921, 4122.05128178, 4115.25640998, 4116.28205101, 4125.12820485, 4156.79487159, 4229.10256404, 4232.82051275, 4188.71794858, 4126.92307665, 4150.38461518, 4117.30769203, 4135.76923056, 4188.07692294,8.57
4132.43589716, 4129.23076896, 4132.17948691, 4124.74358947, 4124.87179460, 4160.25641005, 4232.94871788, 4244.74358975, 4193.71794858, 4128.07692280, 4151.66666646, 4133.84615357, 4138.71794851, 4199.48717935,8.57
4129.87179460, 4129.23076896, 4128.97435870, 4124.87179460, 4124.87179460, 4159.48717928, 4236.92307693, 4256.28205129, 4199.87179474, 4127.82051255, 4151.41025621, 4130.51282024, 4138.33333313, 4197.94871781,8.57
4116.66666639, 4121.15384588, 4113.71794844, 4115.64102537, 4124.23076896, 4152.69230749, 4229.87179481, 4244.74358975, 4193.84615371, 4129.74358947, 4146.92307672, 4119.74358947, 4136.15384595, 4197.30769217,8.57
4135.25640998, 4132.69230742, 4128.20512793, 4127.56410229, 4127.82051255, 4148.07692287, 4219.87179481, 4224.87179481, 4173.07692294, 4131.53846126, 4151.79487159, 4136.41025621, 4140.76923056, 4199.74358961,8.57
4116.41025614, 4119.35897408, 4112.94871767, 4119.74358947, 4123.20512793, 4149.61538441, 4225.25641019, 4219.87179481, 4159.48717928, 4129.61538434, 4150.64102544, 4116.79487152, 4130.25640998, 4194.35897422,8.57
4122.43589716, 4122.05128178, 4120.51282024, 4123.71794844, 4123.97435870, 4144.23076903, 4226.53846147, 4227.82051275, 4167.94871774, 4127.56410229, 4151.15384595, 4125.64102537, 4133.84615357, 4202.94871788,8.57
4123.20512793, 4127.05128178, 4121.92307665, 4127.05128178, 4126.28205101, 4132.43589716, 4209.10256404, 4223.20512814, 4169.74358961, 4127.05128178, 4146.92307672, 4128.07692280, 4137.17948697, 4196.02564089,8.57
4108.20512793, 4117.30769203, 4112.30769203, 4117.17948691, 4123.71794844, 4127.82051255, 4202.17948711, 4208.58974352, 4154.23076903, 4127.56410229, 4142.56410236, 4110.89743562, 4130.89743562, 4191.41025628,8.57
4122.82051255, 4127.30769203, 4128.33333306, 4127.30769203, 4125.76923050, 4129.99999973, 4210.76923070, 4201.92307686, 4139.61538441, 4128.33333306, 4148.33333313, 4124.61538434, 4136.02564082, 4196.15384602,8.57
4108.46153819, 4120.89743562, 4113.97435870, 4122.30769203, 4121.92307665, 4137.69230749, 4214.23076917, 4207.17948711, 4139.10256390, 4126.28205101, 4144.61538441, 4108.46153819, 4129.61538434, 4186.92307679,8.57
4120.89743562, 4124.61538434, 4124.87179460, 4128.46153819, 4122.17948691, 4145.51282031, 4216.02564096, 4216.28205122, 4149.99999980, 4125.12820485, 4148.07692287, 4115.89743562, 4129.87179460, 4191.79487166,8.57
4127.43589716, 4131.66666639, 4132.94871767, 4132.69230742, 4126.92307665, 4144.99999980, 4218.46153840, 4217.30769224, 4155.25641005, 4126.41025614, 4150.51282031, 4127.69230742, 4133.97435870, 4192.05128192,8.57
4111.92307665, 4123.84615357, 4116.28205101, 4117.82051255, 4126.15384588, 4138.46153826, 4213.46153840, 4211.41025634, 4150.76923056, 4126.79487152, 4143.46153826, 4114.87179460, 4130.51282024, 4188.46153833,8.57
4135.64102544, 4133.97435870, 4132.56410229, 4128.20512793, 4127.17948691, 4134.10256383, 4209.10256404, 4209.23076917, 4147.82051262, 4129.87179460, 4149.99999980, 4133.84615357, 4137.94871774, 4193.84615371,8.57
4123.07692280, 4124.61538434, 4121.15384588, 4123.71794844, 4123.20512793, 4134.99999973, 4209.74358968, 4214.61538455, 4150.12820492, 4131.28205101, 4149.10256390, 4122.82051255, 4134.87179460, 4188.58974345,8.57
4124.87179460, 4123.97435870, 4124.61538434, 4123.46153819, 4123.84615357, 4135.51282031, 4206.53846147, 4217.30769224, 4155.64102544, 4126.66666639, 4147.82051262, 4123.58974332, 4135.38461518, 4195.12820499,8.57
4135.38461518, 4131.53846126, 4133.71794844, 4128.97435870, 4126.02564075, 4128.46153819, 4199.10256397, 4213.07692301, 4162.94871774, 4124.99999973, 4152.69230749, 4136.02564082, 4138.84615364, 4197.05128192,8.57
4113.58974332, 4119.10256383, 4113.97435870, 4115.76923050, 4122.69230742, 4120.38461511, 4191.28205115, 4201.15384609, 4153.97435877, 4127.43589716, 4147.43589723, 4117.05128178, 4132.69230742, 4195.89743576,8.57
4130.51282024, 4129.23076896, 4127.05128178, 4127.82051255, 4125.12820485, 4123.97435870, 4188.97435884, 4193.07692294, 4131.66666639, 4128.58974332, 4150.38461518, 4132.56410229, 4140.25641005, 4204.99999993,8.57
4123.07692280, 4124.99999973, 4121.15384588, 4123.97435870, 4121.92307665, 4130.38461511, 4191.79487166, 4196.53846140, 4127.94871767, 4126.79487152, 4151.66666646, 4128.20512793, 4136.15384595, 4198.46153833,8.57
4116.53846126, 4120.38461511, 4118.97435870, 4115.89743562, 4121.15384588, 4123.07692280, 4190.12820499, 4190.64102551, 4130.76923050, 4127.05128178, 4150.64102544, 4122.30769203, 4130.76923050, 4200.89743576,8.57
4126.66666639, 4129.10256383, 4125.12820485, 4125.76923050, 4127.05128178, 4116.92307665, 4185.76923063, 4185.89743576, 4126.02564075, 4129.23076896, 4152.69230749, 4132.30769203, 4136.66666646, 4201.15384609,8.57
4114.48717921, 4116.66666639, 4110.38461511, 4120.12820485, 4121.53846126, 4120.89743562, 4189.10256397, 4196.66666653, 4133.58974332, 4128.71794844, 4146.28205108, 4112.17948691, 4132.82051255, 4192.69230756,8.57
4130.76923050, 4123.46153819, 4130.89743562, 4130.89743562, 4122.30769203, 4117.82051255, 4189.10256397, 4197.69230756, 4140.76923056, 4127.69230742, 4147.05128185, 4123.71794844, 4135.38461518, 4197.94871781,8.57
4118.07692280, 4124.35897408, 4123.33333306, 4127.05128178, 4126.28205101, 4115.25640998, 4182.69230756, 4186.02564089, 4127.17948691, 4128.46153819, 4144.61538441, 4118.58974332, 4132.17948691, 4191.53846140,8.57
4112.05128178, 4121.02564075, 4114.99999973, 4116.53846126, 4125.38461511, 4117.30769203, 4182.17948704, 4184.99999986, 4118.58974332, 4129.35897408, 4144.35897415, 4110.76923050, 4130.38461511, 4191.53846140,8.57
4132.05128178, 4128.46153819, 4135.38461518, 4128.58974332, 4126.41025614, 4111.02564075, 4180.76923063, 4189.23076910, 4128.33333306, 4129.48717921, 4151.28205108, 4128.71794844, 4137.17948697, 4193.71794858,8.57
4112.30769203, 4116.15384588, 4118.97435870, 4120.89743562, 4120.76923050, 4104.87179460, 4174.35897422, 4182.69230756, 4129.23076896, 4128.46153819, 4144.35897415, 4112.05128178, 4129.23076896, 4188.33333320,8.57
4127.56410229, 4127.17948691, 4126.53846126, 4124.61538434, 4120.12820485, 4105.38461511, 4170.89743576, 4171.53846140, 4113.20512793, 4128.97435870, 4148.20512800, 4124.10256383, 4132.69230742, 4198.33333320,8.57
4128.84615357, 4130.76923050, 4127.43589716, 4126.15384588, 4123.46153819, 4105.76923050, 4171.92307679, 4169.23076910, 4109.99999973, 4129.23076896, 4153.58974339, 4130.25640998, 4136.41025621, 4195.12820499,8.57
4114.99999973, 4119.61538434, 4117.82051255, 4119.61538434, 4122.05128178, 4105.12820485, 4172.94871781, 4173.84615371, 4115.89743562, 4126.66666639, 4149.35897415, 4123.84615357, 4133.46153819, 4197.69230756,8.57
4134.10256383, 4131.53846126, 4131.15384588, 4129.87179460, 4121.53846126, 4103.58974332, 4168.71794858, 4166.02564082, 4103.71794844, 4125.89743562, 4151.53846133, 4140.76923056, 4140.76923056, 4205.76923070,8.57
4117.17948691, 4121.79487152, 4113.33333306, 4117.69230742, 4119.87179460, 4105.12820485, 4164.10256390, 4154.99999980, 4090.51282017, 4127.43589716, 4146.79487159, 4118.97435870, 4134.48717921, 4195.89743576,8.57
4127.17948691, 4122.43589716, 4121.53846126, 4120.89743562, 4125.76923050, 4106.15384588, 4159.35897415, 4155.51282031, 4091.53846119, 4127.69230742, 4147.05128185, 4126.02564075, 4134.35897408, 4202.82051275,8.57
4132.43589716, 4129.87179460, 4126.79487152, 4129.74358947, 4126.41025614, 4103.97435870, 4155.12820492, 4159.61538441, 4099.23076889, 4127.05128178, 4149.23076903, 4135.25640998, 4137.43589723, 4203.07692301,8.57
4115.76923050, 4121.28205101, 4113.20512793, 4120.25640998, 4119.74358947, 4103.33333306, 4155.25641005, 4162.43589723, 4103.33333306, 4126.53846126, 4147.05128185, 4114.35897408, 4132.43589716, 4197.82051269,8.57
4133.84615357, 4128.07692280, 4128.97435870, 4127.30769203, 4123.20512793, 4093.07692273, 4146.53846133, 4154.61538441, 4093.33333299, 4127.17948691, 4152.05128185, 4129.48717921, 4137.94871774, 4199.35897422,8.57
4116.79487152, 4119.87179460, 4116.15384588, 4119.48717921, 4122.82051255, 4079.48717914, 4132.17948691, 4140.51282031, 4080.89743555, 4129.23076896, 4147.43589723, 4121.28205101, 4132.30769203, 4188.07692294,8.57
4116.79487152, 4122.69230742, 4122.30769203, 4122.17948691, 4124.10256383, 4085.76923043, 4136.41025621, 4145.38461518, 4086.92307658, 4129.35897408, 4146.53846133, 4119.23076896, 4133.46153819, 4194.23076910,8.57
4126.79487152, 4128.84615357, 4130.89743562, 4129.61538434, 4127.82051255, 4095.38461504, 4146.92307672, 4151.79487159, 4091.79487145, 4126.79487152, 4151.02564082, 4125.25640998, 4136.79487159, 4196.02564089,8.57
4111.53846126, 4116.41025614, 4114.23076896, 4117.69230742, 4123.58974332, 4091.92307658, 4142.69230749, 4135.25640998, 4074.35897402, 4127.05128178, 4148.33333313, 4109.87179460, 4126.92307665, 4187.69230756,8.57
4129.35897408, 4129.23076896, 4133.84615357, 4131.02564075, 4124.61538434, 4095.12820478, 4143.71794851, 4131.02564075, 4071.79487145, 4127.94871767, 4154.35897415, 4126.02564075, 4133.97435870, 4191.79487166,8.57
4119.99999973, 4126.53846126, 4123.97435870, 4126.15384588, 4124.10256383, 4104.48717921, 4156.28205108, 4153.46153826, 4098.71794837, 4125.64102537, 4152.43589723, 4118.84615357, 4135.76923056, 4188.07692294,8.57
4122.17948691, 4123.58974332, 4120.12820485, 4119.61538434, 4122.69230742, 4096.79487145, 4151.02564082, 4155.64102544, 4103.71794844, 4128.71794844, 4149.35897415, 4118.07692280, 4134.87179460, 4193.46153833,8.57
4134.74358947, 4132.43589716, 4130.89743562, 4128.97435870, 4123.46153819, 4084.48717914, 4136.02564082, 4138.58974339, 4079.87179453, 4132.17948691, 4154.23076903, 4130.51282024, 4138.33333313, 4194.23076910,8.57
4112.30769203, 4119.48717921, 4112.69230742, 4119.35897408, 4120.51282024, 4091.02564068, 4141.02564082, 4138.20512800, 4072.56410222, 4127.69230742, 4147.17948697, 4117.56410229, 4134.61538434, 4192.05128192,8.57
4131.92307665, 4127.82051255, 4130.25640998, 4129.23076896, 4126.41025614, 4097.56410222, 4145.89743569, 4146.28205108, 4081.92307658, 4126.02564075, 4151.02564082, 4138.20512800, 4141.15384595, 4201.92307686,8.57
4128.58974332, 4126.79487152, 4126.41025614, 4125.89743562, 4126.41025614, 4087.56410222, 4133.97435870, 4146.79487159, 4086.92307658, 4127.17948691, 4154.23076903, 4130.25640998, 4135.89743569, 4195.89743576,8.57
4121.41025614, 4119.23076896, 4116.66666639, 4117.05128178, 4122.82051255, 4076.02564068, 4125.12820485, 4136.92307672, 4080.12820478, 4126.79487152, 4148.46153826, 4120.12820485, 4133.46153819, 4199.35897422,8.57
4137.05128185, 4127.82051255, 4130.64102537, 4128.97435870, 4126.15384588, 4072.05128171, 4120.12820485, 4119.10256383, 4064.23076882, 4129.23076896, 4151.15384595, 4139.35897415, 4142.94871774, 4202.43589737,8.57
4115.12820485, 4118.07692280, 4115.64102537, 4118.97435870, 4123.20512793, 4072.30769196, 4115.38461511, 4112.94871767, 4061.66666625, 4127.94871767, 4150.76923056, 4118.33333306, 4135.38461518, 4194.10256397,8.57
4126.15384588, 4124.99999973, 4123.33333306, 4122.82051255, 4125.89743562, 4072.82051248, 4117.82051255, 4117.05128178, 4068.07692266, 4125.38461511, 4153.07692287, 4124.87179460, 4137.69230749, 4202.30769224,8.57
4123.46153819, 4125.25640998, 4117.43589716, 4124.87179460, 4126.92307665, 4077.30769196, 4123.97435870, 4119.74358947, 4065.64102523, 4127.05128178, 4148.46153826, 4123.46153819, 4137.94871774, 4196.53846140,8.57
4111.41025614, 4118.58974332, 4110.51282024, 4118.97435870, 4122.05128178, 4077.94871761, 4119.48717921, 4119.23076896, 4061.15384574, 4127.82051255, 4142.43589723, 4108.33333306, 4131.41025614, 4192.82051269,8.57
4126.41025614, 4130.25640998, 4129.87179460, 4130.25640998, 4124.99999973, 4068.97435856, 4106.02564075, 4107.17948691, 4052.05128164, 4129.61538434, 4144.99999980, 4124.87179460, 4137.69230749, 4196.79487166,8.57
4112.56410229, 4119.99999973, 4114.48717921, 4121.15384588, 4124.87179460, 4065.51282010, 4102.82051255, 4102.69230742, 4049.61538420, 4132.30769203, 4138.46153826, 4110.76923050, 4131.92307665, 4190.64102551,8.57
4127.69230742, 4123.97435870, 4123.97435870, 4126.15384588, 4125.38461511, 4065.51282010, 4105.76923050, 4114.99999973, 4062.82051241, 4130.25640998, 4143.07692287, 4117.05128178, 4129.61538434, 4198.07692294,8.57
4128.58974332, 4125.76923050, 4130.25640998, 4128.84615357, 4123.71794844, 4059.48717907, 4100.25640991, 4115.25640998, 4068.20512779, 4128.46153819, 4147.05128185, 4125.76923050, 4132.94871767, 4196.02564089,8.57
4116.02564075, 4116.41025614, 4120.64102537, 4117.43589716, 4121.28205101, 4053.46153805, 4091.02564068, 4101.66666632, 4053.20512779, 4129.48717921, 4143.84615364, 4115.64102537, 4132.69230742, 4192.82051269,8.57
4137.94871774, 4128.46153819, 4135.12820485, 4129.99999973, 4127.69230742, 4053.20512779, 4087.94871761, 4094.10256376, 4037.94871754, 4128.33333306, 4147.82051262, 4130.64102537, 4138.20512800, 4197.17948704,8.57
4119.74358947, 4116.79487152, 4116.28205101, 4122.56410229, 4126.53846126, 4061.53846113, 4095.64102530, 4098.33333299, 4039.87179446, 4125.38461511, 4141.15384595, 4118.46153819, 4133.33333306, 4193.20512807,8.57
4124.10256383, 4120.89743562, 4124.61538434, 4123.07692280, 4125.64102537, 4069.48717907, 4103.58974332, 4099.87179453, 4040.89743548, 4126.79487152, 4144.35897415, 4128.33333306, 4137.56410236, 4201.02564096,8.57
4134.23076896, 4132.82051255, 4137.05128185, 4128.33333306, 4126.28205101, 4061.66666625, 4102.94871767, 4102.43589709, 4043.20512779, 4127.69230742, 4151.79487159, 4137.94871774, 4140.25641005, 4196.79487166,8.57
4116.41025614, 4118.58974332, 4118.33333306, 4114.23076896, 4121.28205101, 4052.30769189, 4103.71794844, 4112.43589716, 4058.46153805, 4126.15384588, 4142.56410236, 4116.41025614, 4132.82051255, 4194.99999986,8.57
4135.38461518, 4126.53846126, 4128.84615357, 4124.99999973, 4124.61538434, 4057.69230728, 4104.99999973, 4111.02564075, 4055.76923036, 4129.10256383, 4143.84615364, 4133.07692280, 4140.64102544, 4207.17948711,8.57
4122.43589716, 4124.10256383, 4116.66666639, 4122.30769203, 4124.61538434, 4062.17948677, 4097.05128171, 4099.87179453, 4042.17948677, 4130.89743562, 4145.25641005, 4124.23076896, 4134.74358947, 4198.20512807,8.57
4118.71794844, 4119.61538434, 4116.66666639, 4117.05128178, 4122.05128178, 4054.74358933, 4086.53846119, 4092.69230735, 4041.79487138, 4127.94871767, 4143.07692287, 4120.64102537, 4130.12820485, 4197.69230756,8.57
4128.97435870, 4123.07692280, 4127.17948691, 4123.07692280, 4123.71794844, 4049.61538420, 4084.61538427, 4091.92307658, 4035.64102516, 4128.58974332, 4142.17948697, 4129.87179460, 4136.66666646, 4198.07692294,8.57
4109.87179460, 4112.69230742, 4112.82051255, 4116.41025614, 4120.64102537, 4052.94871754, 4088.58974325, 4098.58974325, 4032.30769183, 4129.35897408, 4136.41025621, 4108.97435870, 4130.38461511, 4192.43589730,8.57
4123.07692280, 4124.35897408, 4127.17948691, 4128.20512793, 4122.17948691, 4047.17948677, 4080.38461504, 4096.41025607, 4038.71794830, 4127.05128178, 4142.05128185, 4124.23076896, 4132.94871767, 4196.28205115,8.57
4118.84615357, 4123.58974332, 4119.48717921, 4123.07692280, 4123.33333306, 4039.35897395, 4066.41025600, 4078.46153812, 4025.12820465, 4127.30769203, 4141.41025621, 4119.87179460, 4131.28205101, 4187.30769217,8.57
4119.23076896, 4118.33333306, 4117.17948691, 4118.84615357, 4124.35897408, 4042.30769189, 4066.66666625, 4071.15384581, 4017.05128157, 4129.35897408, 4135.51282031, 4110.51282024, 4128.97435870, 4189.23076910,8.57
4130.38461511, 4126.53846126, 4131.41025614, 4131.02564075, 4124.48717921, 4046.92307651, 4073.71794837, 4081.41025607, 4041.28205087, 4127.43589716, 4141.02564082, 4123.71794844, 4132.17948691, 4194.61538448,8.57
4115.25640998, 4119.74358947, 4115.38461511, 4117.56410229, 4120.38461511, 4046.02564061, 4072.94871761, 4079.74358940, 4051.53846113, 4124.87179460, 4140.76923056, 4111.28205101, 4127.17948691, 4190.51282038,8.57
4136.66666646, 4130.38461511, 4129.48717921, 4122.82051255, 4126.66666639, 4033.97435849, 4059.48717907, 4064.10256369, 4030.25640977, 4127.94871767, 4142.05128185, 4126.92307665, 4136.28205108, 4197.56410243,8.57
4127.43589716, 4128.58974332, 4128.20512793, 4126.41025614, 4128.58974332, 4023.97435849, 4046.02564061, 4057.69230728, 4021.02564054, 4130.25640998, 4139.23076903, 4125.51282024, 4138.20512800, 4192.56410243,8.57
4114.23076896, 4119.23076896, 4121.66666639, 4120.25640998, 4124.61538434, 4019.74358926, 4037.94871754, 4053.33333292, 4018.71794824, 4128.84615357, 4136.79487159, 4117.82051255, 4133.58974332, 4195.12820499,8.57
4136.92307672, 4130.89743562, 4135.38461518, 4126.79487152, 4126.41025614, 4010.64102516, 4028.84615336, 4035.51282003, 3997.94871740, 4129.10256383, 4139.99999980, 4137.30769210, 4139.10256390, 4200.51282038,8.57
4118.20512793, 4120.64102537, 4112.94871767, 4115.25640998, 4122.56410229, 4006.41025593, 4025.51282003, 4026.92307644, 3981.92307637, 4127.43589716, 4129.23076896, 4118.58974332, 4132.05128178, 4192.69230756,8.57
4126.41025614, 4124.35897408, 4123.84615357, 4121.79487152, 4124.23076896, 4007.69230721, 4023.84615336, 4025.25640977, 3972.30769176, 4126.02564075, 4126.28205101, 4127.05128178, 4134.48717921, 4201.15384609,8.57
4128.84615357, 4128.33333306, 4131.15384588, 4125.89743562, 4127.17948691, 4009.48717900, 4020.89743541, 4013.20512772, 3960.51281989, 4127.43589716, 4128.58974332, 4131.79487152, 4135.51282031, 4197.43589730,8.57
4113.58974332, 4119.99999973, 4114.74358947, 4115.38461511, 4122.56410229, 4009.87179439, 4024.61538413, 4015.38461490, 3964.99999938, 4129.74358947, 4126.41025614, 4115.76923050, 4131.02564075, 4193.97435884,8.57
4130.64102537, 4128.33333306, 4125.89743562, 4124.61538434, 4123.97435870, 4003.07692252, 4026.28205080, 4024.87179439, 3972.82051227, 4131.53846126, 4130.38461511, 4131.66666639, 4138.46153826, 4199.61538448,8.57
4115.25640998, 4118.84615357, 4117.56410229, 4118.46153819, 4125.89743562, 3993.58974304, 4018.84615336, 4015.12820465, 3964.61538399, 4131.53846126, 4125.38461511, 4116.02564075, 4130.12820485, 4190.12820499,8.57
4119.61538434, 4122.05128178, 4125.76923050, 4125.12820485, 4128.71794844, 3993.84615329, 4015.76923029, 4006.92307644, 3959.23076861, 4130.38461511, 4125.64102537, 4116.15384588, 4128.07692280, 4194.35897422,8.57
4124.99999973, 4127.56410229, 4125.76923050, 4130.64102537, 4127.69230742, 4002.82051227, 4024.87179439, 4025.64102516, 3979.23076868, 4127.56410229, 4131.53846126, 4122.56410229, 4132.69230742, 4193.07692294,8.57
4112.43589716, 4118.97435870, 4113.20512793, 4116.15384588, 4122.05128178, 4007.43589695, 4029.61538413, 4040.76923036, 3993.71794817, 4127.43589716, 4131.02564075, 4107.82051255, 4127.43589716, 4189.61538448,8.57
4133.46153819, 4129.99999973, 4135.25640998, 4128.46153819, 4124.74358947, 4002.17948663, 4022.56410208, 4023.58974311, 3973.58974304, 4132.82051255, 4134.23076896, 4124.10256383, 4133.33333306, 4193.97435884,8.57
4117.17948691, 4121.53846126, 4120.25640998, 4124.87179460, 4122.30769203, 3997.30769176, 4024.48717900, 4015.51282003, 3961.92307630, 4132.43589716, 4126.92307665, 4114.48717921, 4129.35897408, 4185.51282038,8.57
4118.58974332, 4124.99999973, 4120.12820485, 4123.97435870, 4122.43589716, 4000.12820458, 4034.87179439, 4032.69230721, 3977.94871740, 4126.41025614, 4126.15384588, 4119.74358947, 4130.64102537, 4193.07692294,8.57
4133.33333306, 4136.41025621, 4131.66666639, 4132.43589716, 4126.28205101, 3999.87179432, 4033.84615336, 4037.56410215, 3981.02564047, 4127.30769203, 4131.92307665, 4134.35897408, 4139.23076903, 4196.79487166,8.57
4111.28205101, 4118.97435870, 4115.38461511, 4117.05128178, 4121.92307665, 3996.92307637, 4027.56410208, 4021.28205080, 3958.84615322, 4129.99999973, 4126.92307665, 4114.74358947, 4134.87179460, 4192.17948704,8.57
4126.41025614, 4126.28205101, 4133.46153819, 4124.99999973, 4125.64102537, 3999.10256355, 4025.76923029, 4012.30769183, 3949.23076861, 4126.79487152, 4131.66666639, 4131.02564075, 4137.17948697, 4199.74358961,8.57
4123.58974332, 4125.76923050, 4126.15384588, 4125.89743562, 4126.79487152, 4000.12820458, 4023.46153798, 4014.74358926, 3961.92307630, 4123.58974332, 4129.61538434, 4126.92307665, 4132.30769203, 4196.66666653,8.57
4123.07692280, 4122.56410229, 4120.25640998, 4121.28205101, 4124.61538434, 3994.10256355, 4017.30769183, 4005.51282003, 3961.66666605, 4126.41025614, 4125.25640998, 4120.64102537, 4131.92307665, 4201.41025634,8.57
4132.30769203, 4133.84615357, 4132.82051255, 4130.38461511, 4126.66666639, 3987.30769176, 4011.02564054, 3994.35897381, 3952.05128143, 4129.99999973, 4128.97435870, 4132.94871767, 4138.46153826, 4201.79487173,8.57
4110.76923050, 4120.89743562, 4112.05128178, 4121.28205101, 4123.07692280, 3990.64102509, 4012.05128157, 4002.17948663, 3964.99999938, 4128.07692280, 4126.41025614, 4113.84615357, 4129.48717921, 4194.74358961,8.57
4130.25640998, 4125.38461511, 4121.41025614, 4125.12820485, 4124.87179460, 3998.07692252, 4016.92307644, 4016.41025593, 3987.05128150, 4127.82051255, 4133.58974332, 4127.17948691, 4135.25640998, 4203.46153840,8.57
4124.61538434, 4125.89743562, 4120.89743562, 4122.30769203, 4123.97435870, 3999.99999945, 4015.64102516, 4009.99999952, 3979.10256355, 4130.25640998, 4130.64102537, 4123.20512793, 4137.56410236, 4195.89743576,8.57
4108.97435870, 4117.17948691, 4115.89743562, 4117.82051255, 4121.15384588, 3991.66666611, 4005.25640977, 3990.12820458, 3954.48717887, 4128.97435870, 4121.15384588, 4108.58974332, 4129.35897408, 4192.94871781,8.57
4125.12820485, 4124.48717921, 4130.25640998, 4129.74358947, 4126.41025614, 3981.92307637, 3995.51281996, 3985.89743535, 3954.48717887, 4125.76923050, 4125.51282024, 4121.28205101, 4132.17948691, 4195.51282038,8.57
4113.07692280, 4117.05128178, 4113.33333306, 4116.66666639, 4126.92307665, 3985.76923022, 3999.74358919, 3994.99999945, 3966.92307630, 4126.02564075, 4125.25640998, 4104.35897408, 4128.84615357, 4189.23076910,8.57
4125.76923050, 4124.74358947, 4123.71794844, 4121.02564075, 4128.33333306, 3988.07692252, 4007.43589695, 3993.33333278, 3961.15384553, 4129.61538434, 4131.53846126, 4117.94871767, 4131.41025614, 4197.82051269,8.57
4122.94871767, 4127.43589716, 4126.02564075, 4126.15384588, 4128.20512793, 3979.61538406, 4001.41025586, 3988.58974304, 3958.46153784, 4131.41025614, 4134.35897408, 4124.48717921, 4131.28205101, 4191.28205115,8.57
4115.51282024, 4120.89743562, 4117.82051255, 4117.30769203, 4127.43589716, 3976.79487124, 3988.84615329, 3991.79487124, 3967.43589681, 4129.35897408, 4130.12820485, 4112.43589716, 4128.20512793, 4187.56410243,8.57
4139.23076903, 4132.82051255, 4133.33333306, 4127.94871767, 4129.10256383, 3976.41025586, 3985.89743535, 3990.76923022, 3963.97435835, 4128.33333306, 4133.07692280, 4129.99999973, 4135.51282031, 4197.05128192,8.57
4116.92307665, 4122.17948691, 4115.89743562, 4118.71794844, 4121.79487152, 3975.51281996, 3988.46153791, 3987.17948663, 3957.17948656, 4129.48717921, 4125.76923050, 4118.46153819, 4130.12820485, 4194.74358961,8.57
4122.05128178, 4126.53846126, 4128.07692280, 4121.28205101, 4123.20512793, 3977.17948663, 3986.02564047, 3984.35897381, 3956.41025579, 4130.12820485, 4127.69230742, 4127.56410229, 4133.46153819, 4201.15384609,8.57
4132.56410229, 4132.56410229, 4133.71794844, 4126.15384588, 4127.69230742, 3978.58974304, 3983.71794817, 3988.46153791, 3962.94871733, 4127.05128178, 4135.64102544, 4134.74358947, 4137.05128185, 4199.23076910,8.57
4116.66666639, 4117.94871767, 4111.53846126, 4116.28205101, 4121.28205101, 3975.12820458, 3979.48717894, 3991.66666611, 3965.12820451, 4125.12820485, 4129.61538434, 4117.43589716, 4131.66666639, 4197.82051269,8.57
4133.58974332, 4128.84615357, 4127.94871767, 4129.74358947, 4121.92307665, 3969.74358912, 3964.48717887, 3979.10256355, 3944.61538399, 4128.71794844, 4126.41025614, 4131.66666639, 4138.58974339, 4203.33333327,8.57
4119.10256383, 4123.84615357, 4121.53846126, 4123.20512793, 4123.46153819, 3970.89743528, 3957.94871733, 3975.89743535, 3938.33333264, 4129.99999973, 4122.30769203, 4117.56410229, 4131.79487152, 4195.64102551,8.57
4119.99999973, 4122.05128178, 4123.07692280, 4121.02564075, 4123.58974332, 3974.23076868, 3966.79487117, 3987.30769176, 3959.23076861, 4129.74358947, 4120.64102537, 4119.10256383, 4131.66666639, 4200.38461525,8.57
4129.48717921, 4128.46153819, 4127.56410229, 4127.94871767, 4123.84615357, 3969.10256348, 3967.56410194, 3986.41025586, 3963.84615322, 4130.12820485, 4116.79487152, 4129.48717921, 4136.66666646, 4198.71794858,8.57
4112.56410229, 4116.92307665, 4111.53846126, 4116.79487152, 4122.56410229, 3965.76923015, 3963.71794810, 3986.28205073, 3963.46153784, 4127.56410229, 4109.99999973, 4109.48717921, 4127.94871767, 4193.20512807,8.57
4126.02564075, 4126.28205101, 4128.46153819, 4127.43589716, 4127.69230742, 3971.02564040, 3964.61538399, 3996.28205073, 3977.05128150, 4127.56410229, 4117.82051255, 4124.74358947, 4132.69230742, 4198.71794858,8.57
4115.89743562, 4123.46153819, 4121.28205101, 4124.61538434, 4126.92307665, 3969.61538399, 3960.89743528, 3988.20512765, 3974.35897381, 4128.84615357, 4116.41025614, 4119.35897408, 4130.76923050, 4190.38461525,8.57
4120.12820485, 4122.30769203, 4122.56410229, 4121.41025614, 4124.99999973, 3964.35897374, 3954.99999938, 3974.23076868, 3958.84615322, 4127.94871767, 4114.10256383, 4116.02564075, 4127.17948691, 4191.66666653,8.57
4131.79487152, 4129.87179460, 4132.82051255, 4131.92307665, 4127.43589716, 3969.99999938, 3956.41025579, 3974.74358919, 3954.35897374, 4128.71794844, 4120.89743562, 4126.66666639, 4133.07692280, 4192.69230756,8.57
4112.17948691, 4120.76923050, 4111.53846126, 4120.89743562, 4124.10256383, 3974.99999945, 3962.17948656, 3977.05128150, 3959.87179425, 4129.61538434, 4118.20512793, 4109.48717921, 4130.12820485, 4189.35897422,8.57
4134.48717921, 4132.30769203, 4127.94871767, 4128.20512793, 4126.92307665, 3970.89743528, 3968.33333271, 3982.30769176, 3971.92307637, 4127.17948691, 4121.41025614, 4126.28205101, 4133.20512793, 4196.92307679,8.57
4126.15384588, 4125.64102537, 4127.94871767, 4127.17948691, 4128.33333306, 3979.48717894, 3977.69230714, 3988.58974304, 3977.69230714, 4125.64102537, 4119.74358947, 4124.74358947, 4132.56410229, 4190.51282038,8.57
4113.20512793, 4115.89743562, 4120.12820485, 4120.64102537, 4126.66666639, 3986.66666611, 3975.51281996, 3974.61538406, 3963.20512758, 4128.46153819, 4116.66666639, 4118.97435870, 4133.33333306, 4195.51282038,8.57
4132.69230742, 4131.53846126, 4132.56410229, 4131.28205101, 4128.84615357, 3967.56410194, 3959.48717887, 3953.71794810, 3947.69230707, 4130.76923050, 4122.30769203, 4136.02564082, 4138.33333313, 4200.38461525,8.57
4114.10256383, 4122.56410229, 4117.17948691, 4120.76923050, 4125.25640998, 3958.97435835, 3952.56410194, 3956.15384553, 3948.84615322, 4128.71794844, 4114.87179460, 4116.02564075, 4131.02564075, 4192.30769217,8.57
4124.99999973, 4124.10256383, 4125.38461511, 4123.97435870, 4126.28205101, 3970.76923015, 3956.02564040, 3963.58974297, 3950.25640963, 4126.28205101, 4114.74358947, 4125.12820485, 4135.64102544, 4203.46153840,8.57
4127.82051255, 4126.53846126, 4121.66666639, 4125.25640998, 4124.74358947, 3969.87179425, 3953.84615322, 3961.53846092, 3951.92307630, 4126.92307665, 4120.76923050, 4128.20512793, 4136.02564082, 4201.53846147,8.57
4116.15384588, 4119.99999973, 4111.53846126, 4116.15384588, 4121.15384588, 3956.28205066, 3949.61538399, 3966.79487117, 3961.15384553, 4127.56410229, 4117.30769203, 4115.89743562, 4131.28205101, 4196.66666653,8.57
4131.53846126, 4128.33333306, 4126.41025614, 4125.64102537, 4127.69230742, 3952.05128143, 3949.48717887, 3965.38461476, 3958.46153784, 4127.17948691, 4113.97435870, 4130.89743562, 4137.30769210, 4200.76923063,8.57
4117.17948691, 4117.94871767, 4113.46153819, 4118.71794844, 4125.38461511, 3957.43589681, 3944.99999938, 3947.43589681, 3941.28205066, 4126.41025614, 4109.74358947, 4114.48717921, 4127.94871767, 4195.38461525,8.57
4122.56410229, 4119.99999973, 4122.05128178, 4122.94871767, 4122.94871767, 3956.79487117, 3942.94871733, 3943.33333271, 3936.41025572, 4127.43589716, 4116.41025614, 4118.20512793, 4128.71794844, 4197.94871781,8.57
4122.69230742, 4124.48717921, 4123.71794844, 4127.56410229, 4124.74358947, 3954.48717887, 3947.94871733, 3953.71794810, 3945.12820451, 4127.82051255, 4115.25640998, 4122.94871767, 4133.20512793, 4188.97435884,8.57
4113.07692280, 4117.69230742, 4113.20512793, 4117.82051255, 4122.82051255, 3958.07692246, 3946.15384553, 3951.15384553, 3945.12820451, 4127.05128178, 4106.66666639, 4109.74358947, 4128.07692280, 4184.74358961,8.57
4131.66666639, 4127.30769203, 4132.17948691, 4127.94871767, 4126.53846126, 3957.43589681, 3932.05128136, 3940.38461476, 3938.58974297, 4127.56410229, 4116.79487152, 4126.66666639, 4134.10256383, 4191.79487166,8.57
4113.71794844, 4117.56410229, 4116.41025614, 4119.61538434, 4126.02564075, 3948.84615322, 3923.20512751, 3939.10256348, 3938.20512751, 4127.94871767, 4118.20512793, 4113.58974332, 4129.23076896, 4184.74358961,8.57
4123.58974332, 4120.76923050, 4123.84615357, 4120.64102537, 4124.23076896, 3944.23076861, 3929.10256341, 3946.28205066, 3942.30769169, 4129.99999973, 4116.92307665, 4117.94871767, 4130.38461511, 4192.17948704,8.57
4136.15384595, 4128.20512793, 4137.17948697, 4130.25640998, 4125.51282024, 3951.66666605, 3940.76923015, 3955.12820451, 3949.10256348, 4132.05128178, 4120.25640998, 4131.92307665, 4136.53846133, 4195.38461525,8.57
4112.94871767, 4115.51282024, 4114.61538434, 4119.87179460, 4123.84615357, 3961.28205066, 3948.20512758, 3953.58974297, 3947.05128143, 4129.10256383, 4118.07692280, 4117.30769203, 4130.51282024, 4194.10256397,8.57
4130.51282024, 4128.58974332, 4128.07692280, 4128.46153819, 4124.99999973, 3962.05128143, 3947.17948656, 3947.82051220, 3942.43589681, 4127.56410229, 4128.58974332, 4133.33333306, 4134.48717921, 4202.05128199,8.57
4125.12820485, 4124.23076896, 4125.25640998, 4123.33333306, 4123.71794844, 3963.33333271, 3952.56410194, 3964.23076861, 3961.28205066, 4129.74358947, 4129.87179460, 4123.97435870, 4133.84615357, 4196.53846140,8.57
4124.35897408, 4121.53846126, 4124.99999973, 4122.30769203, 4126.02564075, 3967.05128143, 3960.12820451, 3977.43589688, 3976.41025586, 4129.74358947, 4124.48717921, 4120.76923050, 4134.10256383, 4200.38461525,8.57
4133.58974332, 4132.82051255, 4129.48717921, 4131.15384588, 4126.92307665, 3966.92307630, 3957.56410194, 3962.69230707, 3963.58974297, 4125.89743562, 4129.23076896, 4132.30769203, 4136.28205108, 4200.38461525,8.57
4113.07692280, 4119.35897408, 4110.51282024, 4117.56410229, 4121.28205101, 3969.87179425, 3957.82051220, 3953.71794810, 3956.15384553, 4125.12820485, 4128.71794844, 4113.71794844, 4130.51282024, 4195.89743576,8.57
4129.35897408, 4125.12820485, 4127.56410229, 4124.10256383, 4126.53846126, 3971.02564040, 3962.82051220, 3967.17948656, 3970.25640963, 4129.61538434, 4130.12820485, 4128.71794844, 4138.07692287, 4204.61538455,8.57
4123.84615357, 4124.99999973, 4122.43589716, 4123.71794844, 4126.28205101, 3971.53846099, 3967.69230707, 3987.82051227, 3997.05128150, 4130.38461511, 4128.33333306, 4123.84615357, 4133.84615357, 4193.97435884,8.57
4116.15384588, 4116.92307665, 4114.74358947, 4119.61538434, 4122.82051255, 3974.87179432, 3968.97435835, 3991.92307637, 4008.07692259, 4127.30769203, 4132.43589716, 4115.51282024, 4127.56410229, 4191.02564089,8.57
4128.07692280, 4122.17948691, 4126.28205101, 4129.35897408, 4125.89743562, 3972.43589688, 3967.17948656, 3983.07692252, 3999.23076868, 4129.48717921, 4138.71794851, 4130.38461511, 4135.76923056, 4197.82051269,8.57
4110.64102537, 4116.53846126, 4114.87179460, 4119.35897408, 4122.69230742, 3971.41025586, 3970.89743528, 3987.17948663, 4004.61538413, 4130.76923050, 4130.76923050, 4113.97435870, 4130.76923050, 4192.82051269,8.57
4127.17948691, 4127.94871767, 4132.56410229, 4127.94871767, 4124.74358947, 3976.41025586, 3972.43589688, 3991.53846099, 4008.07692259, 4127.17948691, 4134.87179460, 4123.07692280, 4132.56410229, 4195.12820499,8.57
4124.99999973, 4128.97435870, 4128.46153819, 4129.48717921, 4125.89743562, 3976.15384560, 3968.46153784, 3984.35897381, 3996.28205073, 4126.02564075, 4135.38461518, 4119.87179460, 4134.23076896, 4190.25641012,8.57
4115.25640998, 4122.69230742, 4119.87179460, 4121.41025614, 4124.61538434, 3968.84615322, 3966.92307630, 3981.41025586, 3997.05128150, 4129.61538434, 4130.51282024, 4113.84615357, 4132.82051255, 4193.33333320,8.57
4132.30769203, 4128.71794844, 4136.41025621, 4130.89743562, 4128.33333306, 3966.66666605, 3967.43589681, 3982.30769176, 4002.56410201, 4131.66666639, 4136.66666646, 4137.05128185, 4139.48717928, 4195.64102551,8.57
4112.05128178, 4113.84615357, 4116.53846126, 4120.25640998, 4124.99999973, 3970.64102502, 3968.46153784, 3980.89743535, 3997.05128150, 4127.43589716, 4132.43589716, 4120.51282024, 4133.33333306, 4187.43589730,8.57
4125.64102537, 4123.33333306, 4126.92307665, 4125.76923050, 4125.64102537, 3970.38461476, 3970.64102502, 3986.92307637, 4003.07692252, 4125.12820485, 4134.61538434, 4125.89743562, 4134.48717921, 4198.84615371,8.57
4132.05128178, 4129.87179460, 4130.89743562, 4126.02564075, 4126.15384588, 3967.69230707, 3971.28205073, 3994.87179432, 4019.48717900, 4128.20512793, 4140.89743569, 4130.38461511, 4134.48717921, 4198.33333320,8.57
4116.92307665, 4119.23076896, 4117.43589716, 4113.58974332, 4121.92307665, 3968.97435835, 3968.07692246, 3987.05128150, 4015.25640977, 4129.74358947, 4137.43589723, 4120.12820485, 4133.20512793, 4197.30769217,8.57
4133.33333306, 4133.46153819, 4133.84615357, 4131.02564075, 4126.28205101, 3968.97435835, 3961.79487117, 3971.79487124, 3995.64102509, 4128.71794844, 4138.07692287, 4139.35897415, 4141.41025621, 4203.20512814,8.57
4114.61538434, 4123.58974332, 4116.41025614, 4124.35897408, 4125.25640998, 3967.43589681, 3956.41025579, 3964.99999938, 3990.76923022, 4128.46153819, 4134.74358947, 4119.61538434, 4132.56410229, 4194.87179474,8.57
4122.56410229, 4120.76923050, 4118.46153819, 4121.28205101, 4123.71794844, 3967.05128143, 3953.97435835, 3959.10256348, 3994.74358919, 4128.84615357, 4137.94871774, 4120.25640998, 4133.97435870, 4201.66666660,8.57
4131.41025614, 4129.10256383, 4126.28205101, 4127.94871767, 4126.41025614, 3968.20512758, 3956.53846092, 3957.30769169, 3993.97435842, 4129.23076896, 4139.99999980, 4131.15384588, 4139.23076903, 4199.48717935,8.57
4111.79487152, 4116.92307665, 4112.30769203, 4117.17948691, 4124.35897408, 3971.41025586, 3966.02564040, 3972.69230714, 4002.05128150, 4128.46153819, 4133.58974332, 4114.35897408, 4132.17948691, 4191.15384602,8.57
4125.89743562, 4121.92307665, 4127.94871767, 4127.17948691, 4125.89743562, 3971.15384553, 3969.23076861, 3982.94871740, 4010.25640977, 4127.17948691, 4140.25641005, 4129.35897408, 4137.56410236, 4196.41025628,8.57
4113.97435870, 4118.84615357, 4116.79487152, 4125.25640998, 4124.23076896, 3965.38461476, 3959.99999938, 3975.25640970, 4002.94871740, 4126.92307665, 4138.46153826, 4117.43589716, 4131.02564075, 4191.41025628,8.57
4120.89743562, 4123.84615357, 4119.99999973, 4124.99999973, 4125.51282024, 3961.02564040, 3952.43589681, 3965.12820451, 3991.79487124, 4126.92307665, 4134.74358947, 4115.12820485, 4126.92307665, 4194.35897422,8.57
4133.07692280, 4132.30769203, 4132.30769203, 4131.53846126, 4128.84615357, 3959.35897374, 3948.84615322, 3956.53846092, 3985.38461483, 4125.76923050, 4137.43589723, 4129.87179460, 4134.35897408, 4192.56410243,8.57
4113.97435870, 4121.92307665, 4116.92307665, 4118.20512793, 4123.33333306, 3955.76923015, 3939.10256348, 3952.43589681, 3986.15384560, 4127.17948691, 4132.56410229, 4117.05128178, 4131.28205101, 4187.69230756,8.57
4132.43589716, 4131.79487152, 4133.71794844, 4126.41025614, 4124.99999973, 3957.17948656, 3936.66666598, 3951.53846092, 3989.87179432, 4131.92307665, 4134.99999973, 4131.53846126, 4134.74358947, 4198.97435884,8.57
4123.97435870, 4123.46153819, 4126.15384588, 4123.07692280, 4126.28205101, 3966.02564040, 3950.51281989, 3952.56410194, 3989.74358919, 4130.38461511, 4132.17948691, 4125.38461511, 4132.05128178, 4194.99999986,8.57
4119.61538434, 4118.07692280, 4120.38461511, 4120.64102537, 4124.87179460, 3964.23076861, 3938.71794810, 3955.64102502, 3989.74358919, 4126.79487152, 4129.74358947, 4125.51282024, 4131.15384588, 4194.99999986,8.57
4135.51282031, 4132.94871767, 4132.94871767, 4131.53846126, 4126.66666639, 3952.30769169, 3903.33333257, 3951.28205066, 3985.51281996, 4128.58974332, 4135.51282031, 4140.89743569, 4136.79487159, 4196.28205115,8.57
4116.15384588, 4121.15384588, 4115.12820485, 4114.48717921, 4124.23076896, 3954.35897374, 3908.71794803, 3954.61538399, 3990.76923022, 4127.43589716, 4131.41025614, 4119.23076896, 4130.38461511, 4192.56410243,8.57
4130.38461511, 4125.76923050, 4126.28205101, 4119.74358947, 4123.71794844, 3960.64102502, 3941.02564040, 3975.51281996, 4015.25640977, 4126.41025614, 4131.79487152, 4135.25640998, 4135.64102544, 4203.07692301,8.57
4126.28205101, 4125.51282024, 4120.89743562, 4124.35897408, 4121.15384588, 3963.58974297, 3946.15384553, 3982.05128150, 4022.82051234, 4128.33333306, 4131.53846126, 4134.23076896, 4136.53846133, 4198.84615371,8.57
4116.28205101, 4118.20512793, 4109.23076896, 4114.99999973, 4122.17948691, 3973.58974304, 3941.53846092, 3973.58974304, 4005.76923029, 4127.30769203, 4132.82051255, 4116.41025614, 4132.82051255, 4198.97435884,8.57
4135.76923056, 4129.87179460, 4122.56410229, 4123.33333306, 4127.30769203, 3977.43589688, 3945.25640963, 3975.89743535, 4005.51282003, 4128.46153819, 4135.76923056, 4131.41025614, 4138.84615364, 4201.02564096,8.57
4116.92307665, 4119.48717921, 4110.38461511, 4118.71794844, 4121.92307665, 3969.48717887, 3938.71794810, 3972.17948663, 4013.71794824, 4129.48717921, 4125.89743562, 4115.89743562, 4132.17948691, 4191.15384602,8.57
4119.61538434, 4119.10256383, 4121.53846126, 4124.48717921, 4124.48717921, 3959.87179425, 3923.20512751, 3950.12820451, 3994.23076868, 4127.94871767, 4127.05128178, 4118.97435870, 4133.20512793, 4198.20512807,8.57
4119.61538434, 4122.05128178, 4120.51282024, 4125.12820485, 4127.30769203, 3958.58974297, 3919.48717880, 3943.46153784, 3980.76923022, 4128.71794844, 4128.84615357, 4120.12820485, 4132.56410229, 4194.61538448,8.57
4113.20512793, 4117.82051255, 4111.66666639, 4119.23076896, 4121.53846126, 3963.71794810, 3931.66666598, 3956.15384553, 3997.82051227, 4131.02564075, 4124.48717921, 4110.51282024, 4127.43589716, 4189.87179474,8.57
4132.17948691, 4127.94871767, 4131.79487152, 4132.94871767, 4125.76923050, 3965.12820451, 3939.48717887, 3961.92307630, 4006.02564054, 4131.41025614, 4131.53846126, 4127.17948691, 4135.38461518, 4194.10256397,8.57
4112.82051255, 4119.87179460, 4117.30769203, 4119.87179460, 4128.46153819, 3969.35897374, 3942.69230707, 3965.64102502, 4002.94871740, 4129.87179460, 4128.33333306, 4113.71794844, 4129.87179460, 4188.58974345,8.57
4121.15384588, 4126.92307665, 4125.64102537, 4120.76923050, 4127.82051255, 3973.71794817, 3945.64102502, 3966.66666605, 4003.46153791, 4128.97435870, 4127.30769203, 4123.20512793, 4129.61538434, 4194.10256397,8.57
4127.94871767, 4130.89743562, 4134.23076896, 4129.99999973, 4126.53846126, 3968.46153784, 3940.51281989, 3958.33333271, 3998.46153791, 4127.82051255, 4132.69230742, 4133.71794844, 4133.97435870, 4192.69230756,8.57
4111.15384588, 4116.66666639, 4114.74358947, 4120.25640998, 4124.74358947, 3959.48717887, 3936.66666598, 3955.51281989, 3992.56410201, 4126.53846126, 4131.41025614, 4120.51282024, 4131.15384588, 4192.43589730,8.57
4132.82051255, 4128.71794844, 4128.97435870, 4130.25640998, 4127.69230742, 3960.51281989, 3940.76923015, 3959.61538399, 3996.15384560, 4126.41025614, 4135.51282031, 4138.07692287, 4138.07692287, 4198.71794858,8.57
4120.76923050, 4122.05128178, 4121.41025614, 4121.79487152, 4122.56410229, 3969.48717887, 3944.61538399, 3965.25640963, 4010.12820465, 4127.69230742, 4132.17948691, 4124.87179460, 4133.97435870, 4193.71794858,8.57
4120.76923050, 4119.35897408, 4121.02564075, 4120.25640998, 4122.43589716, 3970.51281989, 3943.20512758, 3964.10256348, 4006.41025593, 4128.33333306, 4130.12820485, 4126.53846126, 4134.35897408, 4201.79487173,8.57
4133.97435870, 4130.89743562, 4128.20512793, 4130.76923050, 4126.15384588, 3969.23076861, 3941.41025579, 3954.48717887, 3987.17948663, 4126.66666639, 4132.82051255, 4136.02564082, 4137.94871774, 4199.99999986,8.57
4118.20512793, 4121.15384588, 4114.23076896, 4118.71794844, 4121.53846126, 3976.28205073, 3942.30769169, 3954.61538399, 3994.61538406, 4126.15384588, 4127.94871767, 4113.33333306, 4129.61538434, 4192.56410243,8.57
4132.30769203, 4126.66666639, 4126.15384588, 4123.84615357, 4124.87179460, 3980.25640970, 3944.35897374, 3962.30769169, 4008.33333285, 4128.84615357, 4131.02564075, 4131.15384588, 4135.51282031, 4202.69230763,8.57
4122.94871767, 4122.94871767, 4115.12820485, 4124.35897408, 4125.38461511, 3979.87179432, 3945.12820451, 3957.69230707, 3995.89743535, 4129.35897408, 4129.10256383, 4128.71794844, 4134.87179460, 4194.87179474,8.57
4118.58974332, 4119.61538434, 4114.23076896, 4124.35897408, 4122.30769203, 3982.30769176, 3942.43589681, 3952.56410194, 3989.23076868, 4126.15384588, 4127.43589716, 4120.25640998, 4132.30769203, 4193.58974345,8.57
4125.76923050, 4124.35897408, 4124.35897408, 4128.20512793, 4124.23076896, 3978.46153791, 3942.43589681, 3959.10256348, 4002.94871740, 4125.38461511, 4130.12820485, 4130.25640998, 4134.23076896, 4197.05128192,8.57
4108.71794844, 4116.15384588, 4110.76923050, 4116.53846126, 4122.69230742, 3978.97435842, 3954.35897374, 3971.28205073, 4017.69230721, 4127.82051255, 4128.33333306, 4115.64102537, 4127.05128178, 4190.38461525,8.57
4127.05128178, 4128.84615357, 4130.25640998, 4128.84615357, 4125.76923050, 3993.71794817, 3967.94871733, 3977.82051227, 4025.25640977, 4128.71794844, 4134.74358947, 4125.89743562, 4132.43589716, 4193.97435884,8.57
4121.28205101, 4126.41025614, 4121.79487152, 4127.43589716, 4125.89743562, 3999.48717894, 3968.07692246, 3980.64102509, 4025.76923029, 4127.17948691, 4130.12820485, 4118.97435870, 4130.89743562, 4189.48717935,8.57
4116.53846126, 4119.23076896, 4115.51282024, 4117.05128178, 4124.35897408, 3987.82051227, 3957.56410194, 3973.33333278, 4013.58974311, 4129.74358947, 4126.15384588, 4116.66666639, 4127.17948691, 4190.64102551,8.57
4133.58974332, 4130.38461511, 4135.25640998, 4127.94871767, 4127.30769203, 3977.17948663, 3944.48717887, 3949.35897374, 3990.25640970, 4131.66666639, 4134.48717921, 4137.69230749, 4135.51282031, 4194.35897422,8.57
4112.82051255, 4118.33333306, 4115.25640998, 4120.25640998, 4123.46153819, 3984.10256355, 3942.17948656, 3934.99999931, 3974.74358919, 4127.05128178, 4126.79487152, 4120.51282024, 4132.30769203, 4192.69230756,8.57
4127.94871767, 4122.43589716, 4125.12820485, 4126.53846126, 4123.84615357, 3998.71794817, 3951.79487117, 3945.38461476, 3978.84615329, 4128.58974332, 4120.76923050, 4128.07692280, 4135.25640998, 4201.28205122,8.57
4129.99999973, 4124.35897408, 4130.51282024, 4128.84615357, 4125.64102537, 4001.79487124, 3960.12820451, 3954.74358912, 3989.87179432, 4132.17948691, 4118.97435870, 4129.99999973, 4135.12820485, 4194.23076910,8.57
4115.89743562, 4116.66666639, 4120.25640998, 4119.10256383, 4122.43589716, 3993.97435842, 3956.02564040, 3949.99999938, 3991.41025586, 4128.46153819, 4118.07692280, 4122.69230742, 4132.43589716, 4195.76923063,8.57
4132.94871767, 4128.71794844, 4131.41025614, 4126.79487152, 4123.84615357, 3989.48717894, 3946.79487117, 3944.48717887, 3988.84615329, 4126.66666639, 4125.12820485, 4141.28205108, 4139.61538441, 4202.17948711,8.57
4117.05128178, 4120.25640998, 4113.58974332, 4117.05128178, 4121.79487152, 3997.82051227, 3953.07692246, 3948.07692246, 3992.94871740, 4127.56410229, 4119.35897408, 4122.30769203, 4131.15384588, 4191.66666653,8.57
4125.64102537, 4124.48717921, 4121.15384588, 4123.07692280, 4123.84615357, 4001.28205073, 3959.10256348, 3946.92307630, 3987.94871740, 4127.05128178, 4116.53846126, 4125.76923050, 4131.53846126, 4199.87179474,8.57
4129.35897408, 4129.10256383, 4127.05128178, 4127.43589716, 4124.74358947, 3992.69230714, 3950.25640963, 3940.64102502, 3974.23076868, 4127.56410229, 4117.69230742, 4130.76923050, 4134.99999973, 4198.33333320,8.57
4112.56410229, 4115.51282024, 4114.61538434, 4114.35897408, 4121.15384588, 3990.51281996, 3946.15384553, 3937.82051213, 3966.79487117, 4128.07692280, 4112.56410229, 4113.46153819, 4129.23076896, 4189.99999986,8.57
4127.82051255, 4125.25640998, 4126.66666639, 4126.28205101, 4125.12820485, 3994.35897381, 3949.74358912, 3931.79487110, 3962.05128143, 4127.69230742, 4114.61538434, 4129.48717921, 4134.48717921, 4194.35897422,8.57
4112.43589716, 4121.02564075, 4110.89743562, 4121.41025614, 4123.58974332, 3996.02564047, 3947.05128143, 3924.74358905, 3959.99999938, 4127.82051255, 4108.71794844, 4115.38461511, 4128.84615357, 4188.71794858,8.57
4120.12820485, 4122.17948691, 4120.25640998, 4122.43589716, 4124.35897408, 3996.28205073, 3944.61538399, 3926.15384546, 3963.58974297, 4129.10256383, 4108.97435870, 4113.20512793, 4131.02564075, 4193.58974345,8.57
4131.02564075, 4126.66666639, 4133.07692280, 4130.12820485, 4127.94871767, 4000.12820458, 3952.69230707, 3933.84615316, 3970.12820451, 4129.87179460, 4115.89743562, 4123.58974332, 4136.02564082, 4194.48717935,8.57
4110.64102537, 4115.76923050, 4115.38461511, 4117.82051255, 4123.07692280, 4007.56410208, 3962.82051220, 3944.35897374, 3981.28205073, 4126.92307665, 4112.05128178, 4110.51282024, 4127.17948691, 4190.12820499,8.57
4128.58974332, 4128.58974332, 4130.76923050, 4129.23076896, 4124.74358947, 4011.79487131, 3969.35897374, 3950.76923015, 3990.38461483, 4125.76923050, 4114.48717921, 4131.41025614, 4132.82051255, 4194.87179474,8.57
4122.69230742, 4124.23076896, 4123.20512793, 4126.79487152, 4126.15384588, 4012.56410208, 3971.15384553, 3946.66666605, 3983.84615329, 4128.58974332, 4111.53846126, 4125.76923050, 4133.46153819, 4188.46153833,8.57
4125.38461511, 4122.69230742, 4126.92307665, 4124.74358947, 4125.76923050, 4013.33333285, 3971.66666611, 3945.64102502, 3974.48717894, 4128.58974332, 4111.28205101, 4123.33333306, 4134.61538434, 4193.46153833,8.57
4134.74358947, 4132.69230742, 4139.48717928, 4133.20512793, 4125.64102537, 4014.74358926, 3973.58974304, 3955.51281989, 3982.82051227, 4127.82051255, 4116.28205101, 4135.38461518, 4140.12820492, 4194.74358961,8.57
4110.64102537, 4118.84615357, 4114.61538434, 4118.97435870, 4120.89743562, 4013.33333285, 3975.25640970, 3963.07692246, 3995.38461483, 4128.20512793, 4110.38461511, 4117.56410229, 4132.94871767, 4189.74358961,8.57
4129.23076896, 4125.76923050, 4125.76923050, 4126.79487152, 4123.46153819, 4010.89743541, 3975.64102509, 3962.82051220, 3992.30769176, 4128.84615357, 4113.71794844, 4134.10256383, 4135.64102544, 4199.99999986,8.57
4124.87179460, 4125.89743562, 4122.94871767, 4124.99999973, 4121.79487152, 4015.89743541, 3977.17948663, 3962.82051220, 3990.12820458, 4127.56410229, 4112.69230742, 4127.69230742, 4134.61538434, 4196.79487166,8.57
4114.99999973, 4121.79487152, 4115.25640998, 4117.69230742, 4117.94871767, 4023.20512772, 3982.43589688, 3966.66666605, 3998.20512765, 4127.69230742, 4108.97435870, 4116.92307665, 4132.69230742, 4198.84615371,8.57
4131.79487152, 4130.12820485, 4125.51282024, 4129.61538434, 4123.71794844, 4028.33333285, 3987.56410201, 3963.97435835, 3993.58974304, 4129.87179460, 4111.28205101, 4134.35897408, 4137.43589723, 4200.38461525,8.57
4117.05128178, 4115.76923050, 4113.07692280, 4121.66666639, 4123.97435870, 4037.69230728, 3992.30769176, 3962.05128143, 3989.10256355, 4129.35897408, 4105.89743562, 4117.43589716, 4128.97435870, 4190.51282038,8.57
4125.64102537, 4121.66666639, 4127.56410229, 4126.79487152, 4123.97435870, 4040.51282010, 3990.89743535, 3967.69230707, 4001.79487124, 4128.20512793, 4110.51282024, 4125.38461511, 4131.02564075, 4197.43589730,8.57
4118.58974332, 4123.97435870, 4123.46153819, 4128.33333306, 4121.66666639, 4036.53846106, 3988.84615329, 3973.33333278, 4011.15384567, 4127.94871767, 4113.20512793, 4123.07692280, 4131.28205101, 4193.07692294,8.57
4110.89743562, 4114.87179460, 4113.46153819, 4120.76923050, 4121.53846126, 4043.97435856, 3996.02564047, 3977.43589688, 4012.05128157, 4128.20512793, 4110.38461511, 4108.46153819, 4127.05128178, 4191.79487166,8.57
4131.15384588, 4125.51282024, 4130.38461511, 4126.79487152, 4129.61538434, 4048.97435856, 4001.92307637, 3979.35897381, 4016.66666618, 4127.82051255, 4117.30769203, 4123.46153819, 4134.35897408, 4195.38461525,8.57
4112.17948691, 4119.23076896, 4116.15384588, 4115.38461511, 4123.71794844, 4044.10256369, 4002.82051227, 3982.05128150, 4023.20512772, 4125.89743562, 4115.64102537, 4112.56410229, 4130.38461511, 4186.79487166,8.57
4122.43589716, 4125.76923050, 4126.92307665, 4123.84615357, 4120.25640998, 4042.56410215, 4000.51281996, 3982.17948663, 4019.61538413, 4126.15384588, 4113.84615357, 4121.28205101, 4134.61538434, 4194.87179474,8.57
4130.76923050, 4127.82051255, 4130.76923050, 4132.43589716, 4125.89743562, 4048.46153805, 4002.17948663, 3984.48717894, 4019.35897388, 4127.17948691, 4113.33333306, 4124.99999973, 4136.79487159, 4194.10256397,8.57
4119.23076896, 4117.30769203, 4118.07692280, 4120.89743562, 4123.46153819, 4052.56410215, 4007.56410208, 3988.84615329, 4028.58974311, 4127.56410229, 4114.87179460, 4114.23076896, 4130.64102537, 4190.89743576,8.57
