AF3,F7,F3,FC5,T7,P7,O1,O2,P8,T8,FC6,F4,F8,AF4,Label
4122.69230742, 4118.58974332, 4120.38461511, 4112.56410229, 4125.12820485, 4121.02564075, 4198.97435884, 4182.05128192, 4171.66666653, 4128.58974332, 4141.41025621, 4130.89743562, 4136.53846133, 4188.33333320,8.57
4134.87179460, 4132.30769203, 4135.12820485, 4120.76923050, 4126.53846126, 4134.74358947, 4218.33333327, 4202.30769224, 4193.84615371, 4127.94871767, 4147.56410236, 4142.17948697, 4144.10256390, 4193.07692294,8.57
4124.48717921, 4123.97435870, 4124.87179460, 4120.89743562, 4126.02564075, 4165.25641005, 4256.15384616, 4243.58974359, 4233.71794865, 4126.66666639, 4156.41025621, 4139.74358954, 4142.17948697, 4191.53846140,8.57
4124.48717921, 4123.97435870, 4124.87179460, 4120.89743562, 4126.02564075, 4165.25641005, 4256.15384616, 4243.58974359, 4233.71794865, 4126.66666639, 4156.41025621, 4139.74358954, 4142.17948697, 4191.53846140,8.57
4121.28205101, 4119.87179460, 4120.64102537, 4123.84615357, 4126.02564075, 4164.99999980, 4253.84615385, 4241.28205129, 4231.79487173, 4128.07692280, 4161.53846133, 4140.12820492, 4139.10256390, 4191.92307679,8.57
4133.20512793, 4131.53846126, 4132.69230742, 4132.30769203, 4129.48717921, 4138.46153826, 4218.71794865, 4203.84615378, 4201.02564096, 4130.51282024, 4156.53846133, 4143.07692287, 4140.64102544, 4192.56410243,8.57
4112.69230742, 4120.38461511, 4116.41025614, 4120.89743562, 4119.48717921, 4128.84615357, 4205.25641019, 4187.69230756, 4184.61538448, 4128.84615357, 4144.48717928, 4126.66666639, 4134.74358947, 4189.61538448,8.57
4125.76923050, 4130.25640998, 4129.74358947, 4126.92307665, 4122.05128178, 4135.38461518, 4208.33333327, 4184.61538448, 4173.84615371, 4128.33333306, 4143.46153826, 4139.10256390, 4137.30769210, 4191.92307679,8.57
4125.51282024, 4129.48717921, 4127.43589716, 4124.35897408, 4126.66666639, 4129.35897408, 4202.30769224, 4180.89743576, 4172.94871781, 4127.56410229, 4145.38461518, 4139.23076903, 4138.71794851, 4192.94871781,8.57
4118.71794844, 4121.28205101, 4121.02564075, 4118.33333306, 4122.56410229, 4117.56410229, 4200.64102551, 4187.82051269, 4186.41025628, 4128.20512793, 4145.12820492, 4133.58974332, 4138.07692287, 4195.38461525,8.57
4133.46153819, 4129.23076896, 4134.74358947, 4127.17948691, 4125.38461511, 4120.76923050, 4206.15384609, 4187.43589730, 4180.38461525, 4132.17948691, 4144.74358954, 4143.46153826, 4140.12820492, 4193.84615371,8.57
4118.07692280, 4120.25640998, 4117.05128178, 4118.97435870, 4122.69230742, 4125.51282024, 4203.07692301, 4174.99999986, 4167.05128185, 4129.61538434, 4142.82051262, 4137.05128185, 4134.10256383, 4192.17948704,8.57
4123.20512793, 4128.84615357, 4122.94871767, 4121.41025614, 4123.33333306, 4122.94871767, 4196.79487166, 4171.92307679, 4172.43589730, 4125.38461511, 4144.74358954, 4144.74358954, 4135.64102544, 4198.97435884,8.57
4125.64102537, 4131.79487152, 4127.56410229, 4120.76923050, 4124.99999973, 4125.64102537, 4198.97435884, 4174.35897422, 4175.25641012, 4127.69230742, 4141.92307672, 4145.64102544, 4137.30769210, 4194.35897422,8.57
4112.69230742, 4118.07692280, 4116.28205101, 4110.64102537, 4121.41025614, 4132.17948691, 4196.28205115, 4167.17948697, 4164.74358954, 4128.97435870, 4139.35897415, 4140.89743569, 4135.12820485, 4191.15384602,8.57
4129.74358947, 4128.33333306, 4130.12820485, 4118.84615357, 4128.71794844, 4137.05128185, 4188.84615371, 4162.56410236, 4163.07692287, 4125.76923050, 4144.61538441, 4148.97435877, 4139.10256390, 4195.89743576,8.57
4119.87179460, 4122.69230742, 4118.58974332, 4117.69230742, 4126.41025614, 4158.33333313, 4210.12820506, 4186.92307679, 4188.33333320, 4126.15384588, 4145.12820492, 4137.69230749, 4136.53846133, 4191.92307679,8.57
4118.20512793, 4120.25640998, 4119.87179460, 4119.99999973, 4120.12820485, 4178.84615371, 4232.56410250, 4209.99999993, 4210.89743583, 4128.58974332, 4146.15384595, 4144.23076903, 4137.17948697, 4190.38461525,8.57
4128.58974332, 4127.82051255, 4130.51282024, 4123.71794844, 4125.64102537, 4169.61538448, 4215.25641019, 4188.97435884, 4197.94871781, 4127.56410229, 4147.56410236, 4149.61538441, 4138.71794851, 4191.66666653,8.57
4114.61538434, 4117.56410229, 4114.48717921, 4114.48717921, 4125.51282024, 4163.07692287, 4203.71794865, 4166.28205108, 4182.56410243, 4128.20512793, 4146.41025621, 4135.76923056, 4135.76923056, 4192.43589730,8.57
4127.17948691, 4124.99999973, 4124.23076896, 4121.15384588, 4125.38461511, 4173.71794858, 4214.61538455, 4168.20512807, 4182.05128192, 4131.02564075, 4147.94871774, 4142.82051262, 4137.94871774, 4192.17948704,8.57
4122.43589716, 4123.46153819, 4121.53846126, 4122.17948691, 4122.94871767, 4178.07692294, 4214.35897429, 4168.46153833, 4177.30769217, 4129.10256383, 4147.17948697, 4139.99999980, 4134.10256383, 4190.64102551,8.57
4114.74358947, 4119.87179460, 4120.25640998, 4121.66666639, 4122.56410229, 4178.20512807, 4206.66666660, 4166.28205108, 4174.61538448, 4127.56410229, 4147.56410236, 4139.61538441, 4136.15384595, 4196.28205115,8.57
4126.66666639, 4128.71794844, 4131.15384588, 4125.89743562, 4128.46153819, 4181.92307679, 4208.58974352, 4171.92307679, 4184.23076910, 4128.84615357, 4146.66666646, 4143.71794851, 4139.87179467, 4195.25641012,8.57
4115.76923050, 4120.64102537, 4116.41025614, 4119.10256383, 4121.41025614, 4185.76923063, 4214.87179481, 4177.69230756, 4196.28205115, 4127.56410229, 4146.15384595, 4135.76923056, 4134.74358947, 4192.43589730,8.57
4128.46153819, 4126.28205101, 4125.12820485, 4124.23076896, 4121.28205101, 4187.94871781, 4211.92307686, 4174.10256397, 4197.30769217, 4127.30769203, 4151.02564082, 4146.53846133, 4138.07692287, 4195.51282038,8.57
4129.87179460, 4125.76923050, 4127.17948691, 4121.53846126, 4127.43589716, 4192.30769217, 4208.97435891, 4174.87179474, 4198.58974345, 4128.46153819, 4151.02564082, 4144.23076903, 4137.30769210, 4193.33333320,8.57
4121.02564075, 4122.69230742, 4121.41025614, 4116.28205101, 4123.33333306, 4193.33333320, 4203.20512814, 4168.58974345, 4196.92307679, 4127.56410229, 4149.74358954, 4141.41025621, 4136.28205108, 4195.25641012,8.57
4130.51282024, 4130.38461511, 4128.58974332, 4121.41025614, 4124.61538434, 4192.17948704, 4189.74358961, 4147.82051262, 4185.64102551, 4127.30769203, 4149.23076903, 4148.46153826, 4140.38461518, 4197.17948704,8.57
4116.15384588, 4117.69230742, 4115.51282024, 4115.51282024, 4124.10256383, 4197.82051269, 4184.48717935, 4143.84615364, 4184.10256397, 4127.94871767, 4149.48717928, 4137.82051262, 4137.30769210, 4193.46153833,8.57
4122.30769203, 4121.53846126, 4125.38461511, 4120.64102537, 4124.35897408, 4201.02564096, 4181.79487166, 4147.82051262, 4186.66666653, 4127.56410229, 4153.84615364, 4142.56410236, 4138.20512800, 4196.15384602,8.57
4122.17948691, 4124.10256383, 4124.61538434, 4119.35897408, 4125.64102537, 4202.30769224, 4178.71794858, 4144.48717928, 4186.92307679, 4127.94871767, 4149.61538441, 4139.23076903, 4136.53846133, 4195.12820499,8.57
4114.10256383, 4117.17948691, 4113.58974332, 4115.51282024, 4123.07692280, 4207.94871788, 4180.76923063, 4144.74358954, 4190.38461525, 4129.87179460, 4149.35897415, 4133.84615357, 4135.76923056, 4193.71794858,8.57
4127.43589716, 4122.94871767, 4127.56410229, 4122.69230742, 4125.64102537, 4208.71794865, 4181.41025628, 4149.74358954, 4196.53846140, 4131.41025614, 4160.51282031, 4142.30769210, 4140.25641005, 4194.87179474,8.57
4114.74358947, 4117.69230742, 4120.51282024, 4116.53846126, 4122.17948691, 4210.25641019, 4187.69230756, 4160.64102544, 4208.20512814, 4128.71794844, 4163.71794851, 4134.87179460, 4135.76923056, 4193.07692294,8.57
4122.17948691, 4126.79487152, 4125.12820485, 4124.10256383, 4122.82051255, 4218.20512814, 4199.23076910, 4177.56410243, 4219.99999993, 4125.38461511, 4165.12820492, 4142.17948697, 4137.56410236, 4194.74358961,8.57
4127.43589716, 4129.48717921, 4124.61538434, 4124.10256383, 4127.05128178, 4217.82051275, 4200.51282038, 4182.82051269, 4224.23076917, 4125.89743562, 4165.64102544, 4142.69230749, 4139.35897415, 4193.07692294,8.57
4119.87179460, 4123.07692280, 4118.58974332, 4111.92307665, 4125.38461511, 4209.23076917, 4189.74358961, 4171.53846140, 4221.92307686, 4127.43589716, 4160.25641005, 4138.58974339, 4135.76923056, 4193.58974345,8.57
4134.10256383, 4130.25640998, 4132.56410229, 4119.10256383, 4128.97435870, 4204.48717942, 4177.94871781, 4161.79487159, 4217.30769224, 4126.79487152, 4158.46153826, 4148.71794851, 4138.58974339, 4194.23076910,8.57
4122.05128178, 4120.76923050, 4118.46153819, 4116.92307665, 4123.33333306, 4208.84615378, 4178.58974345, 4169.61538448, 4222.94871788, 4126.02564075, 4162.43589723, 4138.58974339, 4137.56410236, 4190.51282038,8.57
4128.46153819, 4125.38461511, 4124.61538434, 4119.10256383, 4121.66666639, 4212.56410250, 4182.69230756, 4177.30769217, 4234.10256411, 4128.97435870, 4169.10256397, 4143.33333313, 4139.48717928, 4193.71794858,8.57
4134.61538434, 4127.94871767, 4131.28205101, 4120.64102537, 4125.64102537, 4206.41025634, 4174.10256397, 4166.15384595, 4231.53846147, 4131.28205101, 4168.84615371, 4148.07692287, 4139.87179467, 4194.74358961,8.57
4119.74358947, 4118.33333306, 4118.58974332, 4114.99999973, 4121.53846126, 4200.12820499, 4166.41025621, 4152.69230749, 4218.97435891, 4129.10256383, 4166.15384595, 4141.41025621, 4137.69230749, 4196.41025628,8.57
4128.58974332, 4129.61538434, 4131.66666639, 4122.94871767, 4124.48717921, 4201.02564096, 4167.05128185, 4146.02564082, 4209.61538455, 4128.33333306, 4167.82051262, 4149.61538441, 4142.17948697, 4197.82051269,8.57
4121.79487152, 4122.56410229, 4123.84615357, 4119.74358947, 4126.79487152, 4202.82051275, 4166.15384595, 4147.56410236, 4215.89743583, 4129.35897408, 4168.33333320, 4143.46153826, 4138.84615364, 4195.25641012,8.57
4129.35897408, 4123.33333306, 4125.38461511, 4120.12820485, 4128.46153819, 4195.89743576, 4159.35897415, 4145.38461518, 4218.46153840, 4130.64102537, 4168.58974345, 4143.97435877, 4139.48717928, 4197.69230756,8.57
4134.35897408, 4133.58974332, 4130.25640998, 4122.17948691, 4130.12820485, 4187.82051269, 4153.58974339, 4126.79487152, 4195.89743576, 4129.74358947, 4164.99999980, 4140.64102544, 4141.02564082, 4194.48717935,8.57
4112.82051255, 4122.94871767, 4112.94871767, 4114.87179460, 4122.94871767, 4193.07692294, 4152.82051262, 4111.53846126, 4179.35897422, 4127.30769203, 4164.61538441, 4133.20512793, 4135.12820485, 4191.66666653,8.57
4127.05128178, 4127.30769203, 4130.38461511, 4123.20512793, 4126.53846126, 4200.51282038, 4153.07692287, 4110.12820485, 4182.05128192, 4128.97435870, 4172.69230756, 4148.33333313, 4137.82051262, 4194.23076910,8.57
4121.15384588, 4123.20512793, 4129.23076896, 4120.64102537, 4125.25640998, 4206.53846147, 4162.43589723, 4117.30769203, 4186.79487166, 4128.97435870, 4173.33333320, 4140.51282031, 4135.89743569, 4192.17948704,8.57
4112.43589716, 4120.51282024, 4119.23076896, 4118.71794844, 4119.35897408, 4211.92307686, 4171.66666653, 4126.41025614, 4192.94871781, 4125.89743562, 4169.61538448, 4139.35897415, 4135.89743569, 4194.35897422,8.57
4127.30769203, 4127.17948691, 4126.53846126, 4126.28205101, 4126.41025614, 4205.25641019, 4162.17948697, 4131.92307665, 4201.28205122, 4126.28205101, 4166.15384595, 4149.87179467, 4139.35897415, 4194.48717935,8.57
4114.23076896, 4114.23076896, 4114.35897408, 4116.28205101, 4124.23076896, 4197.30769217, 4150.38461518, 4134.61538434, 4208.71794865, 4126.66666639, 4167.30769210, 4142.05128185, 4135.64102544, 4192.56410243,8.57
4128.46153819, 4128.07692280, 4129.99999973, 4122.17948691, 4123.97435870, 4203.07692301, 4155.89743569, 4134.23076896, 4211.66666660, 4126.15384588, 4172.94871781, 4152.56410236, 4139.61538441, 4195.89743576,8.57
4126.53846126, 4129.99999973, 4127.30769203, 4123.58974332, 4123.58974332, 4212.69230763, 4167.05128185, 4134.35897408, 4211.79487173, 4126.79487152, 4167.69230749, 4150.25641005, 4138.84615364, 4192.94871781,8.57
4112.30769203, 4114.35897408, 4113.84615357, 4114.87179460, 4118.46153819, 4216.53846147, 4161.66666646, 4129.23076896, 4206.53846147, 4127.94871767, 4165.51282031, 4146.66666646, 4137.05128185, 4195.51282038,8.57
4138.71794851, 4131.41025614, 4138.07692287, 4125.64102537, 4127.69230742, 4212.94871788, 4141.15384595, 4110.76923050, 4194.61538448, 4128.46153819, 4171.28205115, 4155.89743569, 4139.61538441, 4197.82051269,8.57
4117.30769203, 4120.76923050, 4118.07692280, 4116.28205101, 4124.48717921, 4203.97435891, 4130.64102537, 4098.20512786, 4186.92307679, 4128.20512793, 4168.46153833, 4138.97435877, 4133.84615357, 4193.07692294,8.57
4128.07692280, 4124.74358947, 4126.28205101, 4121.02564075, 4125.64102537, 4195.89743576, 4123.97435870, 4094.23076889, 4182.17948704, 4129.61538434, 4165.51282031, 4146.79487159, 4137.30769210, 4194.74358961,8.57
4141.53846133, 4136.41025621, 4142.05128185, 4129.61538434, 4132.17948691, 4195.64102551, 4117.05128178, 4090.51282017, 4176.92307679, 4129.74358947, 4160.51282031, 4153.58974339, 4139.23076903, 4190.38461525,8.57
4105.76923050, 4115.51282024, 4111.92307665, 4111.41025614, 4121.41025614, 4201.92307686, 4122.30769203, 4087.82051248, 4177.30769217, 4129.61538434, 4157.69230749, 4141.53846133, 4135.89743569, 4190.89743576,8.57
4140.12820492, 4136.53846133, 4140.12820492, 4123.20512793, 4130.51282024, 4196.53846140, 4115.89743562, 4073.46153812, 4170.25641012, 4131.02564075, 4160.76923056, 4151.66666646, 4140.12820492, 4196.53846140,8.57
4126.92307665, 4128.97435870, 4130.89743562, 4118.58974332, 4129.35897408, 4187.17948704, 4107.69230742, 4070.12820478, 4164.74358954, 4128.33333306, 4157.69230749, 4142.69230749, 4134.35897408, 4190.76923063,8.57
4113.07692280, 4117.56410229, 4119.10256383, 4112.69230742, 4122.17948691, 4188.33333320, 4112.82051255, 4084.23076889, 4169.99999986, 4125.89743562, 4156.02564082, 4144.99999980, 4134.61538434, 4191.02564089,8.57
4139.35897415, 4135.64102544, 4138.84615364, 4126.66666639, 4130.76923050, 4188.46153833, 4107.43589716, 4084.61538427, 4168.07692287, 4127.94871767, 4156.02564082, 4150.89743569, 4139.23076903, 4192.30769217,8.57
4105.89743562, 4116.02564075, 4108.58974332, 4109.48717921, 4120.76923050, 4186.66666653, 4103.84615357, 4087.17948684, 4163.71794851, 4129.23076896, 4155.51282031, 4135.38461518, 4132.94871767, 4192.43589730,8.57
4133.07692280, 4131.53846126, 4135.64102544, 4117.94871767, 4126.28205101, 4178.71794858, 4101.28205094, 4086.66666632, 4153.71794851, 4128.71794844, 4157.30769210, 4149.35897415, 4136.28205108, 4195.12820499,8.57
4127.30769203, 4127.17948691, 4129.87179460, 4117.82051255, 4127.30769203, 4176.79487166, 4097.17948684, 4074.48717914, 4144.35897415, 4127.17948691, 4152.17948697, 4141.53846133, 4134.10256383, 4189.99999986,8.57
4106.02564075, 4111.41025614, 4106.41025614, 4105.12820485, 4116.92307665, 4187.69230756, 4100.64102530, 4075.51282017, 4148.58974339, 4127.82051255, 4151.15384595, 4136.02564082, 4133.58974332, 4195.38461525,8.57
4139.99999980, 4138.33333313, 4138.84615364, 4119.35897408, 4129.10256383, 4183.46153833, 4095.38461504, 4069.35897395, 4140.38461518, 4128.84615357, 4153.20512800, 4149.35897415, 4139.10256390, 4198.33333320,8.57
4105.38461511, 4119.23076896, 4111.28205101, 4105.12820485, 4124.23076896, 4179.61538448, 4090.64102530, 4056.66666625, 4134.74358947, 4127.56410229, 4152.43589723, 4134.23076896, 4133.58974332, 4192.56410243,8.57
4121.66666639, 4124.23076896, 4120.89743562, 4110.76923050, 4123.58974332, 4184.10256397, 4089.87179453, 4063.33333292, 4154.10256390, 4126.53846126, 4156.66666646, 4147.94871774, 4135.64102544, 4195.38461525,8.57
4131.15384588, 4128.84615357, 4127.05128178, 4116.53846126, 4124.23076896, 4173.33333320, 4082.94871761, 4075.12820478, 4169.99999986, 4127.69230742, 4157.05128185, 4146.41025621, 4133.33333306, 4191.79487166,8.57
4106.79487152, 4108.97435870, 4104.48717921, 4104.99999973, 4114.87179460, 4163.58974339, 4077.69230735, 4076.79487145, 4166.53846133, 4129.61538434, 4156.66666646, 4132.05128178, 4132.82051255, 4193.33333320,8.57
4136.15384595, 4129.23076896, 4129.10256383, 4119.99999973, 4125.51282024, 4167.05128185, 4078.71794837, 4077.82051248, 4161.15384595, 4128.84615357, 4156.28205108, 4145.64102544, 4138.97435877, 4196.53846140,8.57
4108.84615357, 4116.53846126, 4107.43589716, 4109.99999973, 4123.97435870, 4164.99999980, 4081.15384581, 4085.25640991, 4167.69230749, 4126.66666639, 4152.05128185, 4132.43589716, 4130.51282024, 4191.92307679,8.57
4119.99999973, 4120.76923050, 4119.61538434, 4114.48717921, 4124.87179460, 4157.82051262, 4075.76923043, 4084.35897402, 4168.46153833, 4128.20512793, 4152.43589723, 4138.58974339, 4132.94871767, 4193.20512807,8.57
4126.53846126, 4126.66666639, 4126.92307665, 4121.53846126, 4128.46153819, 4158.71794851, 4073.58974325, 4081.53846119, 4162.69230749, 4130.12820485, 4152.43589723, 4141.79487159, 4135.64102544, 4188.46153833,8.57
4093.20512786, 4104.48717921, 4096.66666632, 4107.56410229, 4117.94871767, 4157.94871774, 4067.30769189, 4065.51282010, 4149.74358954, 4128.46153819, 4152.56410236, 4128.07692280, 4129.61538434, 4190.38461525,8.57
4132.56410229, 4131.02564075, 4130.76923050, 4127.69230742, 4126.53846126, 4139.61538441, 4039.48717907, 4027.05128157, 4121.02564075, 4128.07692280, 4151.02564082, 4137.30769210, 4133.07692280, 4193.84615371,8.57
4113.07692280, 4122.05128178, 4111.53846126, 4121.53846126, 4123.33333306, 4132.43589716, 4032.17948670, 4024.87179439, 4123.07692280, 4127.17948691, 4148.07692287, 4127.56410229, 4128.71794844, 4186.02564089,8.57
4111.92307665, 4116.28205101, 4109.10256383, 4117.94871767, 4119.74358947, 4146.79487159, 4051.02564061, 4050.89743548, 4150.89743569, 4125.76923050, 4154.74358954, 4135.25640998, 4129.87179460, 4193.97435884,8.57
4135.89743569, 4130.89743562, 4131.66666639, 4129.74358947, 4126.15384588, 4149.48717928, 4053.58974318, 4052.69230728, 4161.53846133, 4127.94871767, 4154.35897415, 4140.12820492, 4133.71794844, 4197.43589730,8.57
4107.05128178, 4113.33333306, 4105.64102537, 4116.66666639, 4117.30769203, 4146.79487159, 4050.38461497, 4052.05128164, 4165.25641005, 4129.10256383, 4149.99999980, 4127.43589716, 4131.66666639, 4192.69230756,8.57
4132.56410229, 4129.74358947, 4130.89743562, 4130.76923050, 4123.46153819, 4145.51282031, 4048.07692266, 4046.41025600, 4154.48717928, 4128.33333306, 4156.28205108, 4142.56410236, 4136.53846133, 4195.64102551,8.57
4121.41025614, 4121.53846126, 4119.23076896, 4128.97435870, 4123.84615357, 4142.17948697, 4046.41025600, 4035.38461490, 4147.17948697, 4126.53846126, 4155.76923056, 4133.46153819, 4132.30769203, 4194.87179474,8.57
4117.82051255, 4116.02564075, 4110.38461511, 4125.25640998, 4119.10256383, 4146.66666646, 4054.99999959, 4046.79487138, 4167.17948697, 4127.82051255, 4154.35897415, 4132.43589716, 4132.17948691, 4196.92307679,8.57
4137.05128185, 4131.15384588, 4132.82051255, 4136.28205108, 4124.61538434, 4150.76923056, 4056.79487138, 4053.20512779, 4171.66666653, 4128.84615357, 4156.41025621, 4139.61538441, 4135.12820485, 4192.69230756,8.57
4108.58974332, 4107.82051255, 4107.30769203, 4119.74358947, 4119.23076896, 4142.30769210, 4046.53846113, 4037.94871754, 4157.82051262, 4127.94871767, 4154.48717928, 4124.23076896, 4129.35897408, 4189.99999986,8.57
4130.76923050, 4121.79487152, 4121.92307665, 4129.23076896, 4125.12820485, 4129.99999973, 4035.51282003, 4026.28205080, 4154.23076903, 4128.58974332, 4157.05128185, 4134.74358947, 4132.94871767, 4196.28205115,8.57
4123.46153819, 4124.35897408, 4116.15384588, 4130.89743562, 4126.15384588, 4134.10256383, 4043.71794830, 4039.48717907, 4161.79487159, 4128.71794844, 4158.84615364, 4130.25640998, 4132.56410229, 4194.10256397,8.57
4112.30769203, 4111.92307665, 4106.53846126, 4121.02564075, 4120.38461511, 4140.51282031, 4050.76923036, 4046.15384574, 4160.64102544, 4128.58974332, 4157.43589723, 4125.51282024, 4132.43589716, 4195.38461525,8.57
4131.79487152, 4127.56410229, 4126.79487152, 4131.02564075, 4125.51282024, 4122.69230742, 4024.74358926, 4010.76923029, 4136.41025621, 4128.46153819, 4153.58974339, 4131.53846126, 4131.41025614, 4195.38461525,8.57
4111.28205101, 4117.69230742, 4109.10256383, 4122.43589716, 4123.20512793, 4107.43589716, 4004.48717900, 3981.92307637, 4118.58974332, 4127.82051255, 4152.17948697, 4119.23076896, 4126.41025614, 4192.17948704,8.57
4129.61538434, 4126.02564075, 4124.61538434, 4131.15384588, 4126.92307665, 4110.76923050, 4007.69230721, 3991.41025586, 4126.66666639, 4128.20512793, 4154.23076903, 4127.82051255, 4132.56410229, 4192.82051269,8.57
4125.76923050, 4123.58974332, 4121.41025614, 4131.41025614, 4123.58974332, 4112.69230742, 4014.23076875, 4004.35897388, 4144.35897415, 4126.66666639, 4152.30769210, 4125.38461511, 4129.48717921, 4187.43589730,8.57
4118.71794844, 4115.51282024, 4114.99999973, 4123.46153819, 4119.61538434, 4110.25640998, 4015.89743541, 3997.94871740, 4148.58974339, 4124.48717921, 4154.74358954, 4125.89743562, 4128.58974332, 4188.84615371,8.57
4140.38461518, 4133.84615357, 4137.69230749, 4135.76923056, 4128.20512793, 4109.35897408, 4011.15384567, 3989.23076868, 4137.82051262, 4126.79487152, 4156.15384595, 4136.02564082, 4134.99999973, 4192.05128192,8.57
4112.05128178, 4117.05128178, 4111.66666639, 4125.64102537, 4121.79487152, 4117.82051255, 4021.15384567, 4001.53846099, 4141.02564082, 4128.71794844, 4152.82051262, 4121.79487152, 4128.97435870, 4193.07692294,8.57
4124.10256383, 4123.20512793, 4121.66666639, 4133.07692280, 4122.17948691, 4119.99999973, 4027.43589695, 4006.28205080, 4147.43589723, 4126.66666639, 4156.53846133, 4133.84615357, 4131.66666639, 4197.94871781,8.57
4128.46153819, 4129.35897408, 4125.76923050, 4136.02564082, 4125.25640998, 4101.28205094, 4011.41025593, 3992.05128150, 4142.82051262, 4127.82051255, 4155.64102544, 4133.71794844, 4133.07692280, 4194.61538448,8.57
4114.74358947, 4114.99999973, 4109.87179460, 4122.82051255, 4120.89743562, 4095.89743555, 4008.58974311, 3994.23076868, 4147.43589723, 4129.61538434, 4154.61538441, 4126.02564075, 4129.61538434, 4194.48717935,8.57
4135.25640998, 4130.12820485, 4127.69230742, 4137.17948697, 4127.56410229, 4113.46153819, 4027.82051234, 4009.74358926, 4157.30769210, 4127.56410229, 4158.58974339, 4139.23076903, 4135.25640998, 4194.74358961,8.57
4110.51282024, 4119.48717921, 4106.28205101, 4130.76923050, 4122.56410229, 4117.30769203, 4036.66666618, 4020.64102516, 4168.46153833, 4128.07692280, 4158.07692287, 4125.12820485, 4132.05128178, 4191.15384602,8.57
4118.33333306, 4122.05128178, 4117.17948691, 4131.02564075, 4122.43589716, 4106.15384588, 4030.76923029, 4024.35897388, 4177.94871781, 4129.48717921, 4160.76923056, 4129.87179460, 4131.66666639, 4194.74358961,8.57
4118.33333306, 4122.05128178, 4117.17948691, 4131.02564075, 4122.43589716, 4106.15384588, 4030.76923029, 4024.35897388, 4177.94871781, 4129.48717921, 4160.76923056, 4129.87179460, 4131.66666639, 4194.74358961,8.57
4127.30769203, 4124.48717921, 4126.79487152, 4136.02564082, 4129.74358947, 4111.41025614, 4034.48717900, 4025.38461490, 4177.56410243, 4126.02564075, 4160.64102544, 4131.28205101, 4131.41025614, 4190.76923063,8.57
4107.69230742, 4110.25640998, 4105.25640998, 4125.76923050, 4124.61538434, 4123.07692280, 4041.53846113, 4028.33333285, 4174.99999986, 4126.79487152, 4157.94871774, 4119.10256383, 4129.61538434, 4191.41025628,8.57
4132.30769203, 4131.41025614, 4131.02564075, 4137.30769210, 4126.15384588, 4115.76923050, 4033.07692259, 4019.23076875, 4166.28205108, 4130.38461511, 4159.23076903, 4131.41025614, 4135.38461518, 4195.76923063,8.57
4115.89743562, 4116.41025614, 4118.20512793, 4126.15384588, 4122.94871767, 4102.69230742, 4016.41025593, 4002.56410201, 4155.38461518, 4127.43589716, 4156.15384595, 4115.51282024, 4128.71794844, 4190.38461525,8.57
4122.17948691, 4114.48717921, 4120.12820485, 4126.02564075, 4123.71794844, 4093.46153812, 3998.71794817, 3984.61538406, 4143.33333313, 4128.58974332, 4158.33333313, 4119.74358947, 4131.53846126, 4194.23076910,8.57
4136.92307672, 4132.69230742, 4134.35897408, 4137.82051262, 4128.07692280, 4084.35897402, 3987.43589688, 3972.43589688, 4134.23076896, 4132.30769203, 4160.76923056, 4132.17948691, 4135.76923056, 4193.33333320,8.57
4112.17948691, 4114.74358947, 4109.87179460, 4122.56410229, 4119.87179460, 4080.51282017, 3992.43589688, 3974.99999945, 4141.79487159, 4129.87179460, 4158.07692287, 4116.66666639, 4126.79487152, 4192.17948704,8.57
4137.17948697, 4129.48717921, 4133.07692280, 4138.46153826, 4127.05128178, 4079.48717914, 3997.30769176, 3983.07692252, 4153.33333313, 4129.10256383, 4162.05128185, 4132.56410229, 4133.71794844, 4198.33333320,8.57
4118.07692280, 4122.82051255, 4119.87179460, 4136.66666646, 4127.82051255, 4079.10256376, 3999.23076868, 4001.41025586, 4161.92307672, 4127.69230742, 4162.43589723, 4126.66666639, 4132.17948691, 4193.20512807,8.57
4114.61538434, 4116.41025614, 4115.64102537, 4127.17948691, 4124.35897408, 4079.99999966, 4004.35897388, 4008.07692259, 4158.97435877, 4125.64102537, 4161.66666646, 4123.84615357, 4127.82051255, 4195.76923063,8.57
4142.30769210, 4135.89743569, 4140.12820492, 4138.46153826, 4130.89743562, 4073.97435863, 4007.82051234, 3993.84615329, 4149.74358954, 4127.17948691, 4162.17948697, 4137.05128185, 4133.97435870, 4197.94871781,8.57
4109.74358947, 4115.51282024, 4107.30769203, 4123.07692280, 4123.71794844, 4068.33333292, 4016.79487131, 4002.05128150, 4156.92307672, 4127.30769203, 4158.71794851, 4118.07692280, 4130.38461511, 4194.74358961,8.57
4130.25640998, 4125.25640998, 4122.56410229, 4130.64102537, 4128.20512793, 4065.64102523, 4016.28205080, 4010.38461490, 4157.69230749, 4127.56410229, 4163.33333313, 4130.76923050, 4131.79487152, 4197.05128192,8.57
4127.17948691, 4123.71794844, 4119.23076896, 4128.58974332, 4129.10256383, 4071.41025607, 4017.43589695, 4002.56410201, 4157.56410236, 4130.25640998, 4163.46153826, 4129.23076896, 4128.84615357, 4192.43589730,8.57
4112.05128178, 4113.20512793, 4108.71794844, 4120.64102537, 4123.33333306, 4086.02564068, 4034.87179439, 4020.64102516, 4179.74358961, 4129.87179460, 4163.97435877, 4121.02564075, 4128.07692280, 4195.38461525,8.57
4138.33333313, 4132.94871767, 4137.94871774, 4138.33333313, 4130.12820485, 4082.82051248, 4034.48717900, 4042.17948677, 4194.61538448, 4128.58974332, 4169.35897422, 4136.79487159, 4136.53846133, 4194.48717935,8.57
4109.48717921, 4110.89743562, 4108.46153819, 4122.17948691, 4121.28205101, 4067.05128164, 4015.64102516, 4026.66666618, 4184.35897422, 4127.82051255, 4165.89743569, 4116.79487152, 4127.82051255, 4185.76923063,8.57
4125.38461511, 4122.69230742, 4125.89743562, 4129.74358947, 4124.74358947, 4059.35897395, 4000.76923022, 3999.10256355, 4162.43589723, 4128.07692280, 4165.89743569, 4126.15384588, 4127.56410229, 4191.15384602,8.57
4127.56410229, 4130.64102537, 4134.23076896, 4133.07692280, 4127.69230742, 4058.84615343, 3999.99999945, 3993.84615329, 4154.35897415, 4127.43589716, 4161.28205108, 4129.74358947, 4129.10256383, 4189.99999986,8.57
4110.25640998, 4111.15384588, 4111.79487152, 4115.76923050, 4116.02564075, 4059.35897395, 3998.71794817, 3999.10256355, 4163.58974339, 4127.05128178, 4156.92307672, 4118.97435870, 4125.64102537, 4192.05128192,8.57
4144.23076903, 4135.38461518, 4141.41025621, 4131.92307665, 4125.64102537, 4058.33333292, 3993.97435842, 3991.28205073, 4158.33333313, 4128.71794844, 4161.92307672, 4139.87179467, 4132.43589716, 4197.56410243,8.57
4113.71794844, 4118.46153819, 4114.99999973, 4112.94871767, 4122.69230742, 4058.20512779, 3996.28205073, 3980.89743535, 4142.05128185, 4128.07692280, 4156.41025621, 4120.51282024, 4124.10256383, 4192.05128192,8.57
4124.61538434, 4120.64102537, 4123.07692280, 4110.25640998, 4122.82051255, 4044.10256369, 3979.74358919, 3959.48717887, 4130.25640998, 4127.05128178, 4154.10256390, 4126.53846126, 4126.92307665, 4195.25641012,8.57
4139.23076903, 4135.51282031, 4137.94871774, 4123.71794844, 4130.51282024, 4027.82051234, 3962.30769169, 3950.38461476, 4133.58974332, 4128.20512793, 4157.17948697, 4137.43589723, 4132.56410229, 4193.46153833,8.57
4107.05128178, 4113.97435870, 4107.82051255, 4106.02564075, 4117.82051255, 4041.92307651, 3982.69230714, 3992.17948663, 4157.17948697, 4129.23076896, 4155.38461518, 4115.38461511, 4123.33333306, 4192.69230756,8.57
4134.61538434, 4128.07692280, 4131.41025614, 4117.05128178, 4122.94871767, 4058.58974318, 3998.33333278, 4004.48717900, 4164.74358954, 4128.33333306, 4155.51282031, 4133.71794844, 4129.23076896, 4198.97435884,8.57
4118.33333306, 4118.33333306, 4116.28205101, 4112.17948691, 4124.99999973, 4054.10256369, 3991.53846099, 3981.41025586, 4151.66666646, 4125.38461511, 4150.25641005, 4128.46153819, 4126.41025614, 4193.71794858,8.57
4118.20512793, 4119.74358947, 4117.43589716, 4110.38461511, 4123.58974332, 4054.61538420, 3996.79487124, 4049.35897395, 4148.97435877, 4127.43589716, 4150.89743569, 4126.02564075, 4127.05128178, 4194.48717935,8.57
4128.84615357, 4129.61538434, 4128.71794844, 4118.71794844, 4128.97435870, 4068.97435856, 4013.71794824, 4175.76923063, 4164.48717928, 4130.51282024, 4154.87179467, 4132.05128178, 4130.12820485, 4194.74358961,8.57
4102.43589709, 4110.38461511, 4102.17948684, 4105.38461511, 4121.15384588, 4068.97435856, 4009.61538413, 4200.38461525, 4168.71794858, 4127.17948691, 4149.61538441, 4116.53846126, 4122.05128178, 4193.33333320,8.57
4129.10256383, 4128.84615357, 4131.92307665, 4116.28205101, 4126.28205101, 4050.12820472, 3986.28205073, 4154.99999980, 4151.53846133, 4127.30769203, 4148.97435877, 4133.84615357, 4130.38461511, 4195.38461525,8.57
4115.89743562, 4119.87179460, 4120.51282024, 4106.92307665, 4126.02564075, 4056.92307651, 3996.41025586, 4177.17948704, 4159.87179467, 4130.89743562, 4148.46153826, 4124.87179460, 4129.10256383, 4189.61538448,8.57
4116.92307665, 4118.46153819, 4115.25640998, 4105.51282024, 4124.10256383, 4080.76923043, 4024.99999952, 4212.82051275, 4184.23076910, 4130.64102537, 4149.48717928, 4125.25640998, 4126.15384588, 4192.30769217,8.57
4133.71794844, 4132.82051255, 4135.12820485, 4117.17948691, 4127.69230742, 4077.69230735, 4015.76923029, 4188.07692294, 4177.94871781, 4129.35897408, 4148.46153826, 4139.10256390, 4130.38461511, 4191.15384602,8.57
4111.41025614, 4115.51282024, 4115.12820485, 4101.41025607, 4120.25640998, 4068.46153805, 4001.41025586, 4175.38461525, 4172.17948704, 4127.43589716, 4146.92307672, 4120.64102537, 4124.48717921, 4188.20512807,8.57
4136.02564082, 4132.69230742, 4135.25640998, 4112.43589716, 4126.92307665, 4071.15384581, 3998.84615329, 4173.07692294, 4174.61538448, 4128.20512793, 4154.61538441, 4132.69230742, 4128.97435870, 4194.48717935,8.57
4121.53846126, 4124.35897408, 4120.25640998, 4106.92307665, 4125.89743562, 4068.97435856, 3990.12820458, 4142.30769210, 4158.46153826, 4129.23076896, 4149.10256390, 4128.58974332, 4126.92307665, 4190.64102551,8.57
4120.64102537, 4117.17948691, 4117.43589716, 4102.94871767, 4120.64102537, 4063.71794830, 3984.48717894, 4124.99999973, 4148.20512800, 4128.97435870, 4143.84615364, 4128.46153819, 4125.64102537, 4193.07692294,8.57
4141.28205108, 4133.71794844, 4138.97435877, 4113.71794844, 4125.51282024, 4060.76923036, 3985.64102509, 4135.12820485, 4155.25641005, 4131.02564075, 4150.38461518, 4139.61538441, 4132.30769203, 4196.28205115,8.57
4112.43589716, 4116.66666639, 4109.99999973, 4096.28205094, 4120.64102537, 4059.35897395, 3989.35897381, 4141.79487159, 4159.99999980, 4129.87179460, 4147.56410236, 4122.82051255, 4125.12820485, 4194.35897422,8.57
4131.66666639, 4129.35897408, 4126.15384588, 4106.02564075, 4124.48717921, 4053.20512779, 3983.20512765, 4129.10256383, 4149.10256390, 4128.58974332, 4144.23076903, 4140.12820492, 4126.79487152, 4198.84615371,8.57
4122.56410229, 4125.12820485, 4120.64102537, 4106.53846126, 4123.33333306, 4046.41025600, 3975.38461483, 4125.25640998, 4147.17948697, 4128.33333306, 4144.99999980, 4137.94871774, 4127.05128178, 4193.07692294,8.57
4113.71794844, 4116.53846126, 4113.71794844, 4101.92307658, 4121.15384588, 4055.38461497, 3987.30769176, 4145.38461518, 4169.74358961, 4127.69230742, 4149.10256390, 4131.53846126, 4128.46153819, 4193.20512807,8.57
4132.05128178, 4131.66666639, 4130.51282024, 4114.23076896, 4128.46153819, 4067.69230728, 4001.79487124, 4164.48717928, 4193.84615371, 4131.28205101, 4152.82051262, 4144.10256390, 4133.20512793, 4197.05128192,8.57
4106.28205101, 4115.12820485, 4106.79487152, 4102.56410229, 4121.92307665, 4065.76923036, 3998.97435842, 4166.53846133, 4204.48717942, 4132.56410229, 4149.35897415, 4128.97435870, 4124.35897408, 4192.94871781,8.57
4128.84615357, 4126.53846126, 4130.25640998, 4111.15384588, 4125.51282024, 4058.07692266, 3980.25640970, 4133.20512793, 4182.82051269, 4130.51282024, 4150.89743569, 4141.41025621, 4127.17948691, 4193.33333320,8.57
4124.61538434, 4124.61538434, 4124.99999973, 4106.41025614, 4125.76923050, 4062.56410215, 3979.74358919, 4109.35897408, 4164.99999980, 4129.74358947, 4151.02564082, 4137.94871774, 4126.02564075, 4190.89743576,8.57
4112.43589716, 4117.05128178, 4109.35897408, 4097.56410222, 4120.64102537, 4075.64102530, 4001.53846099, 4138.71794851, 4187.56410243, 4130.76923050, 4150.12820492, 4130.76923050, 4123.46153819, 4194.10256397,8.57
4140.38461518, 4140.76923056, 4138.97435877, 4114.23076896, 4128.97435870, 4073.84615350, 3998.46153791, 4148.33333313, 4189.23076910, 4131.92307665, 4150.51282031, 4147.94871774, 4130.12820485, 4195.51282038,8.57
4111.92307665, 4120.76923050, 4115.38461511, 4099.35897402, 4121.66666639, 4059.74358933, 3974.48717894, 4108.20512793, 4153.33333313, 4128.33333306, 4143.20512800, 4128.46153819, 4121.66666639, 4189.48717935,8.57
4126.41025614, 4128.58974332, 4128.07692280, 4105.12820485, 4121.41025614, 4049.61538420, 3962.30769169, 4086.02564068, 4139.48717928, 4128.46153819, 4144.35897415, 4139.48717928, 4124.87179460, 4193.84615371,8.57
4131.92307665, 4134.99999973, 4135.38461518, 4109.74358947, 4125.64102537, 4051.79487138, 3970.51281989, 4101.28205094, 4151.02564082, 4132.17948691, 4145.76923056, 4149.99999980, 4128.84615357, 4195.76923063,8.57
4109.48717921, 4116.28205101, 4113.71794844, 4094.48717914, 4119.87179460, 4054.35897395, 3972.30769176, 4092.43589709, 4137.94871774, 4130.12820485, 4140.12820492, 4136.53846133, 4124.23076896, 4199.35897422,8.57
4137.69230749, 4136.02564082, 4137.05128185, 4105.25640998, 4127.30769203, 4044.87179446, 3964.35897374, 4085.38461504, 4134.74358947, 4127.43589716, 4141.15384595, 4149.23076903, 4132.17948691, 4199.74358961,8.57
4112.43589716, 4123.33333306, 4115.64102537, 4094.10256376, 4122.56410229, 4056.28205087, 3991.79487124, 4140.38461518, 4187.69230756, 4127.17948691, 4145.38461518, 4138.71794851, 4129.87179460, 4192.05128192,8.57
4119.74358947, 4125.76923050, 4122.69230742, 4098.58974325, 4122.30769203, 4081.92307658, 4012.05128157, 4152.30769210, 4195.12820499, 4127.30769203, 4149.61538441, 4143.97435877, 4130.64102537, 4198.20512807,8.57
4134.10256383, 4134.99999973, 4132.17948691, 4103.20512793, 4128.58974332, 4071.66666632, 3979.87179432, 4084.10256376, 4130.12820485, 4125.51282024, 4143.58974339, 4146.92307672, 4130.38461511, 4197.05128192,8.57
4105.38461511, 4112.17948691, 4103.07692280, 4082.69230735, 4120.51282024, 4051.79487138, 3960.38461476, 4063.84615343, 4116.41025614, 4126.92307665, 4137.05128185, 4131.79487152, 4121.92307665, 4190.12820499,8.57
4130.12820485, 4128.20512793, 4129.74358947, 4100.64102530, 4126.15384588, 4062.82051241, 3982.05128150, 4101.92307658, 4158.58974339, 4130.51282024, 4146.15384595, 4150.38461518, 4131.53846126, 4192.17948704,8.57
4109.74358947, 4117.05128178, 4113.97435870, 4097.56410222, 4122.05128178, 4085.25640991, 4004.74358926, 4127.30769203, 4181.53846140, 4126.53846126, 4148.97435877, 4137.43589723, 4130.12820485, 4191.28205115,8.57
4111.41025614, 4117.43589716, 4116.02564075, 4095.38461504, 4118.20512793, 4084.35897402, 3998.84615329, 4122.43589716, 4170.38461525, 4123.84615357, 4146.15384595, 4136.53846133, 4126.66666639, 4195.64102551,8.57
4132.69230742, 4134.74358947, 4138.46153826, 4107.94871767, 4128.84615357, 4070.89743555, 3983.46153791, 4096.79487145, 4143.84615364, 4129.35897408, 4143.46153826, 4149.87179467, 4129.74358947, 4191.41025628,8.57
4100.51282017, 4110.89743562, 4108.84615357, 4092.56410222, 4123.58974332, 4076.28205094, 3986.53846099, 4088.33333299, 4138.58974339, 4131.66666639, 4142.69230749, 4134.48717921, 4124.10256383, 4187.82051269,8.57
4132.05128178, 4130.89743562, 4137.17948697, 4107.69230742, 4129.74358947, 4088.07692273, 3987.56410201, 4097.05128171, 4147.05128185, 4127.94871767, 4147.43589723, 4152.17948697, 4129.74358947, 4196.02564089,8.57
4123.58974332, 4127.30769203, 4125.12820485, 4099.99999966, 4128.46153819, 4095.89743555, 3985.12820458, 4093.71794837, 4143.97435877, 4125.38461511, 4141.41025621, 4146.79487159, 4126.02564075, 4191.53846140,8.57
4115.51282024, 4117.69230742, 4113.33333306, 4090.89743555, 4121.53846126, 4100.12820478, 3990.64102509, 4087.56410222, 4138.33333313, 4127.17948691, 4141.79487159, 4142.56410236, 4126.53846126, 4192.69230756,8.57
4146.53846133, 4140.64102544, 4145.64102544, 4112.43589716, 4128.84615357, 4097.56410222, 3993.58974304, 4093.71794837, 4142.05128185, 4128.84615357, 4151.15384595, 4157.05128185, 4138.07692287, 4195.76923063,8.57
4110.25640998, 4115.38461511, 4112.94871767, 4094.87179453, 4119.74358947, 4100.89743555, 4001.53846099, 4116.53846126, 4157.82051262, 4124.23076896, 4149.99999980, 4139.74358954, 4129.74358947, 4194.23076910,8.57
4128.46153819, 4126.28205101, 4125.64102537, 4101.02564068, 4122.82051255, 4100.89743555, 4000.51281996, 4124.23076896, 4160.12820492, 4123.58974332, 4150.51282031, 4156.28205108, 4130.25640998, 4198.46153833,8.57
4129.10256383, 4132.30769203, 4125.38461511, 4106.53846126, 4125.38461511, 4096.15384581, 3994.61538406, 4117.05128178, 4155.64102544, 4126.79487152, 4151.02564082, 4150.25641005, 4130.25640998, 4192.05128192,8.57
4109.23076896, 4117.17948691, 4108.20512793, 4097.56410222, 4118.33333306, 4103.07692280, 3997.17948663, 4118.33333306, 4160.12820492, 4126.15384588, 4150.76923056, 4137.05128185, 4127.82051255, 4193.46153833,8.57
4133.58974332, 4131.66666639, 4130.89743562, 4110.25640998, 4126.79487152, 4104.10256383, 3982.94871740, 4102.43589709, 4142.69230749, 4126.02564075, 4144.87179467, 4155.25641005, 4132.30769203, 4195.64102551,8.57
4104.99999973, 4112.17948691, 4104.74358947, 4096.15384581, 4121.15384588, 4099.48717914, 3968.20512758, 4078.46153812, 4118.46153819, 4124.87179460, 4135.38461518, 4135.76923056, 4123.33333306, 4190.25641012,8.57
4122.69230742, 4126.02564075, 4123.84615357, 4103.33333306, 4123.84615357, 4108.71794844, 3975.51281996, 4077.94871761, 4122.82051255, 4126.79487152, 4145.12820492, 4144.48717928, 4127.56410229, 4196.28205115,8.57
4125.51282024, 4132.82051255, 4129.61538434, 4106.92307665, 4128.84615357, 4119.87179460, 3987.94871740, 4091.02564068, 4142.17948697, 4131.53846126, 4150.12820492, 4147.69230749, 4132.05128178, 4191.15384602,8.57
4105.38461511, 4113.84615357, 4108.58974332, 4095.51282017, 4120.25640998, 4120.89743562, 3989.74358919, 4093.20512786, 4144.23076903, 4129.99999973, 4144.35897415, 4133.97435870, 4127.82051255, 4188.33333320,8.57
4137.82051262, 4133.46153819, 4137.05128185, 4110.64102537, 4126.41025614, 4115.38461511, 3983.07692252, 4083.97435863, 4131.79487152, 4127.56410229, 4149.74358954, 4151.66666646, 4132.43589716, 4195.76923063,8.57
4113.84615357, 4118.58974332, 4115.51282024, 4096.92307658, 4122.56410229, 4116.66666639, 3986.53846099, 4090.76923043, 4140.12820492, 4127.69230742, 4153.46153826, 4137.56410236, 4126.92307665, 4192.17948704,8.57
4124.74358947, 4124.87179460, 4125.25640998, 4100.51282017, 4123.46153819, 4125.76923050, 3996.53846099, 4102.30769196, 4152.30769210, 4128.46153819, 4154.35897415, 4144.23076903, 4133.97435870, 4193.20512807,8.57
4131.66666639, 4133.20512793, 4133.07692280, 4109.23076896, 4126.41025614, 4128.71794844, 4001.28205073, 4106.15384588, 4153.97435877, 4126.66666639, 4154.61538441, 4152.30769210, 4138.46153826, 4193.33333320,8.57
4107.56410229, 4116.02564075, 4111.66666639, 4099.10256376, 4118.58974332, 4129.10256383, 4000.12820458, 4108.46153819, 4162.17948697, 4123.97435870, 4155.12820492, 4143.46153826, 4130.51282024, 4196.15384602,8.57
4137.69230749, 4134.61538434, 4139.61538441, 4113.33333306, 4127.69230742, 4128.71794844, 3995.51281996, 4097.43589709, 4157.30769210, 4128.33333306, 4157.43589723, 4159.35897415, 4136.79487159, 4198.58974345,8.57
4114.48717921, 4122.05128178, 4116.79487152, 4101.02564068, 4124.10256383, 4129.99999973, 4003.33333278, 4088.97435863, 4144.99999980, 4130.89743562, 4154.23076903, 4140.25641005, 4129.99999973, 4191.92307679,8.57
4120.25640998, 4126.53846126, 4118.07692280, 4104.35897408, 4119.87179460, 4122.94871767, 4002.56410201, 4089.10256376, 4143.84615364, 4129.74358947, 4155.89743569, 4144.87179467, 4128.46153819, 4197.82051269,8.57
4136.53846133, 4133.71794844, 4129.48717921, 4118.97435870, 4124.87179460, 4107.69230742, 3987.30769176, 4084.23076889, 4145.38461518, 4129.99999973, 4155.64102544, 4156.92307672, 4134.99999973, 4196.66666653,8.57
4109.10256383, 4111.79487152, 4105.12820485, 4112.30769203, 4119.10256383, 4110.51282024, 3996.15384560, 4093.20512786, 4154.23076903, 4129.48717921, 4152.43589723, 4137.43589723, 4129.48717921, 4194.99999986,8.57
4130.51282024, 4127.69230742, 4130.51282024, 4127.56410229, 4123.58974332, 4112.82051255, 4002.30769176, 4103.33333306, 4161.41025621, 4130.76923050, 4156.15384595, 4150.12820492, 4132.69230742, 4199.48717935,8.57
4114.87179460, 4115.25640998, 4114.74358947, 4118.07692280, 4123.20512793, 4106.92307665, 3992.69230714, 4095.51282017, 4162.05128185, 4130.12820485, 4149.48717928, 4140.12820492, 4127.82051255, 4190.12820499,8.57
4116.41025614, 4116.79487152, 4116.02564075, 4119.35897408, 4123.58974332, 4112.94871767, 3993.58974304, 4079.23076889, 4154.48717928, 4128.20512793, 4145.25641005, 4138.33333313, 4129.74358947, 4191.02564089,8.57
4128.58974332, 4133.07692280, 4133.97435870, 4130.25640998, 4126.15384588, 4119.87179460, 4000.12820458, 4073.71794837, 4140.76923056, 4128.46153819, 4148.46153826, 4146.28205108, 4136.28205108, 4194.61538448,8.57
4103.20512793, 4113.20512793, 4108.07692280, 4113.46153819, 4117.56410229, 4122.56410229, 4004.87179439, 4082.43589709, 4140.25641005, 4127.56410229, 4145.12820492, 4129.35897408, 4126.53846126, 4192.30769217,8.57
4134.23076896, 4130.12820485, 4131.53846126, 4126.66666639, 4126.28205101, 4125.38461511, 4003.07692252, 4078.33333299, 4141.79487159, 4126.28205101, 4151.28205108, 4147.17948697, 4131.15384588, 4193.71794858,8.57
4121.79487152, 4124.99999973, 4120.25640998, 4121.53846126, 4125.25640998, 4126.15384588, 3999.10256355, 4073.07692273, 4137.56410236, 4127.69230742, 4152.56410236, 4142.94871774, 4133.46153819, 4190.89743576,8.57
4117.82051255, 4121.15384588, 4119.48717921, 4119.99999973, 4118.71794844, 4114.48717921, 3987.17948663, 4069.87179453, 4126.28205101, 4129.61538434, 4147.30769210, 4142.56410236, 4131.41025614, 4196.92307679,8.57
4141.28205108, 4136.66666646, 4142.94871774, 4133.20512793, 4126.92307665, 4109.35897408, 3986.53846099, 4067.43589702, 4121.28205101, 4127.69230742, 4146.02564082, 4157.43589723, 4135.38461518, 4197.69230756,8.57
4110.89743562, 4114.48717921, 4110.89743562, 4115.25640998, 4122.05128178, 4128.46153819, 4011.66666618, 4091.66666632, 4148.84615364, 4122.43589716, 4143.71794851, 4140.12820492, 4131.79487152, 4191.66666653,8.57
4134.48717921, 4127.94871767, 4128.07692280, 4125.76923050, 4125.38461511, 4120.89743562, 3998.33333278, 4084.35897402, 4148.33333313, 4124.74358947, 4146.28205108, 4153.71794851, 4136.41025621, 4197.43589730,8.57
4129.35897408, 4127.82051255, 4125.64102537, 4125.76923050, 4125.25640998, 4087.56410222, 3961.41025579, 4039.99999959, 4109.74358947, 4130.64102537, 4141.66666646, 4145.76923056, 4131.28205101, 4197.69230756,8.57
4115.38461511, 4119.23076896, 4116.53846126, 4120.51282024, 4118.20512793, 4096.92307658, 3979.35897381, 4050.64102523, 4120.12820485, 4129.61538434, 4143.46153826, 4136.92307672, 4130.25640998, 4198.20512807,8.57
4140.25641005, 4135.64102544, 4136.02564082, 4134.10256383, 4122.82051255, 4129.10256383, 4019.23076875, 4099.23076889, 4169.61538448, 4128.71794844, 4154.61538441, 4156.79487159, 4140.89743569, 4195.25641012,8.57
4109.87179460, 4113.33333306, 4103.58974332, 4119.87179460, 4117.94871767, 4125.38461511, 4015.12820465, 4095.64102530, 4172.30769217, 4129.48717921, 4150.51282031, 4137.43589723, 4131.53846126, 4190.64102551,8.57
4123.07692280, 4123.97435870, 4120.38461511, 4132.43589716, 4125.51282024, 4106.41025614, 3990.51281996, 4058.58974318, 4137.43589723, 4129.74358947, 4148.07692287, 4145.25641005, 4133.84615357, 4196.53846140,8.57
4120.64102537, 4126.02564075, 4121.28205101, 4137.17948697, 4126.79487152, 4114.35897408, 3993.20512765, 4066.15384574, 4136.53846133, 4128.71794844, 4146.15384595, 4145.38461518, 4136.79487159, 4190.76923063,8.57
4103.07692280, 4109.74358947, 4104.87179460, 4126.79487152, 4115.38461511, 4122.82051255, 3997.56410201, 4080.12820478, 4144.87179467, 4127.94871767, 4142.69230749, 4130.89743562, 4129.48717921, 4191.28205115,8.57
4131.02564075, 4130.76923050, 4137.82051262, 4142.43589723, 4124.35897408, 4105.89743562, 3977.17948663, 4051.79487138, 4122.43589716, 4130.25640998, 4145.25641005, 4144.35897415, 4133.58974332, 4195.89743576,8.57
4107.17948691, 4115.51282024, 4116.02564075, 4127.82051255, 4121.92307665, 4104.10256383, 3977.69230714, 4052.43589702, 4121.53846126, 4129.61538434, 4144.10256390, 4130.51282024, 4129.35897408, 4189.74358961,8.57
4127.17948691, 4123.58974332, 4127.69230742, 4131.53846126, 4121.28205101, 4120.12820485, 3994.87179432, 4080.76923043, 4137.94871774, 4127.69230742, 4145.64102544, 4141.66666646, 4132.56410229, 4193.07692294,8.57
4135.38461518, 4131.66666639, 4137.30769210, 4137.94871774, 4126.66666639, 4114.87179460, 3986.28205073, 4071.79487145, 4131.53846126, 4127.05128178, 4145.25641005, 4146.41025621, 4133.58974332, 4193.07692294,8.57
4107.43589716, 4112.69230742, 4111.92307665, 4122.56410229, 4121.02564075, 4106.79487152, 3973.97435842, 4058.33333292, 4132.69230742, 4128.46153819, 4143.71794851, 4133.07692280, 4128.58974332, 4194.35897422,8.57
4138.20512800, 4135.38461518, 4136.79487159, 4138.97435877, 4126.41025614, 4111.28205101, 3972.17948663, 4054.10256369, 4133.71794844, 4132.43589716, 4143.46153826, 4152.82051262, 4138.07692287, 4197.05128192,8.57
4115.89743562, 4121.28205101, 4113.33333306, 4127.30769203, 4123.46153819, 4110.51282024, 3968.46153784, 4036.66666618, 4112.30769203, 4131.66666639, 4135.38461518, 4136.28205108, 4134.23076896, 4191.41025628,8.57
4121.41025614, 4120.76923050, 4115.64102537, 4126.28205101, 4123.33333306, 4112.69230742, 3975.51281996, 4040.64102523, 4112.30769203, 4130.89743562, 4138.20512800, 4139.74358954, 4135.89743569, 4196.79487166,8.57
4140.25641005, 4138.20512800, 4134.99999973, 4141.28205108, 4126.92307665, 4122.43589716, 3998.46153791, 4072.69230735, 4142.43589723, 4132.17948691, 4143.84615364, 4150.64102544, 4138.84615364, 4196.02564089,8.57
4108.07692280, 4115.89743562, 4108.97435870, 4119.35897408, 4117.05128178, 4120.25640998, 4005.64102516, 4077.69230735, 4152.94871774, 4129.61538434, 4140.12820492, 4132.30769203, 4130.38461511, 4192.69230756,8.57
4108.07692280, 4115.89743562, 4108.97435870, 4119.35897408, 4117.05128178, 4120.25640998, 4005.64102516, 4077.69230735, 4152.94871774, 4129.61538434, 4140.12820492, 4132.30769203, 4130.38461511, 4192.69230756,8.57
4132.82051255, 4126.66666639, 4129.74358947, 4120.12820485, 4123.46153819, 4105.89743562, 3988.71794817, 4052.69230728, 4137.17948697, 4128.97435870, 4142.05128185, 4149.48717928, 4137.94871774, 4196.79487166,8.57
4118.07692280, 4117.94871767, 4112.69230742, 4113.97435870, 4121.41025614, 4108.46153819, 3992.56410201, 4059.74358933, 4145.51282031, 4130.38461511, 4141.02564082, 4136.66666646, 4132.94871767, 4192.17948704,8.57
4113.97435870, 4115.51282024, 4112.30769203, 4112.17948691, 4119.35897408, 4118.33333306, 4004.74358926, 4069.99999966, 4153.84615364, 4129.61538434, 4138.71794851, 4130.12820485, 4126.92307665, 4192.43589730,8.57
4135.76923056, 4132.30769203, 4135.89743569, 4123.07692280, 4128.71794844, 4103.33333306, 3987.82051227, 4040.76923036, 4132.82051255, 4128.20512793, 4135.64102544, 4142.69230749, 4130.38461511, 4187.94871781,8.57
4101.53846119, 4109.35897408, 4103.46153819, 4107.05128178, 4116.66666639, 4087.69230735, 3969.10256348, 4031.41025593, 4132.30769203, 4126.66666639, 4133.58974332, 4125.51282024, 4124.48717921, 4186.41025628,8.57
4127.17948691, 4126.28205101, 4130.89743562, 4121.28205101, 4121.41025614, 4091.66666632, 3968.97435835, 4048.33333292, 4141.79487159, 4128.46153819, 4141.41025621, 4141.79487159, 4130.76923050, 4196.15384602,8.57
4126.53846126, 4126.79487152, 4126.66666639, 4119.23076896, 4129.87179460, 4094.35897402, 3978.46153791, 4050.51282010, 4132.69230742, 4128.33333306, 4137.69230749, 4135.12820485, 4130.89743562, 4188.20512807,8.57
4116.02564075, 4115.25640998, 4110.76923050, 4112.05128178, 4121.15384588, 4081.28205094, 3983.84615329, 4044.74358933, 4127.05128178, 4128.46153819, 4134.61538434, 4130.89743562, 4130.12820485, 4190.25641012,8.57
4143.07692287, 4134.61538434, 4140.89743569, 4131.15384588, 4123.33333306, 4068.84615343, 3981.28205073, 4044.10256369, 4130.38461511, 4131.79487152, 4141.28205108, 4154.74358954, 4137.17948697, 4199.61538448,8.57
4112.30769203, 4113.97435870, 4112.30769203, 4112.30769203, 4119.35897408, 4073.97435863, 3990.38461483, 4061.41025600, 4143.84615364, 4129.48717921, 4139.35897415, 4136.28205108, 4128.07692280, 4192.94871781,8.57
4131.53846126, 4126.92307665, 4128.20512793, 4119.74358947, 4123.46153819, 4076.02564068, 3993.58974304, 4072.30769196, 4155.38461518, 4126.28205101, 4139.87179467, 4146.15384595, 4131.28205101, 4192.69230756,8.57
4130.25640998, 4133.71794844, 4133.33333306, 4126.92307665, 4124.35897408, 4064.48717907, 3976.41025586, 4051.41025600, 4141.92307672, 4127.94871767, 4139.23076903, 4151.28205108, 4132.43589716, 4194.48717935,8.57
4107.69230742, 4116.41025614, 4110.12820485, 4109.48717921, 4116.02564075, 4062.69230728, 3966.53846092, 4031.53846106, 4124.61538434, 4129.74358947, 4140.25641005, 4141.53846133, 4128.58974332, 4199.23076910,8.57
4107.69230742, 4116.41025614, 4110.12820485, 4109.48717921, 4116.02564075, 4062.69230728, 3966.53846092, 4031.53846106, 4124.61538434, 4129.74358947, 4140.25641005, 4141.53846133, 4128.58974332, 4199.23076910,8.57
4141.53846133, 4133.84615357, 4133.20512793, 4117.82051255, 4125.25640998, 4062.82051241, 3963.84615322, 4027.82051234, 4120.89743562, 4129.23076896, 4140.12820492, 4153.58974339, 4135.76923056, 4198.20512807,8.57
4114.61538434, 4115.38461511, 4110.38461511, 4105.38461511, 4121.66666639, 4058.58974318, 3968.71794810, 4034.99999952, 4129.23076896, 4126.79487152, 4129.99999973, 4135.25640998, 4129.74358947, 4191.15384602,8.57
4121.41025614, 4120.89743562, 4119.87179460, 4108.33333306, 4122.17948691, 4069.61538420, 3987.69230714, 4050.89743548, 4141.28205108, 4128.97435870, 4132.43589716, 4144.35897415, 4134.74358947, 4196.92307679,8.57
4126.66666639, 4128.46153819, 4125.25640998, 4111.53846126, 4126.92307665, 4084.23076889, 4001.02564047, 4060.51282010, 4148.58974339, 4130.51282024, 4136.92307672, 4145.89743569, 4136.66666646, 4191.53846140,8.57
4101.79487145, 4109.61538434, 4104.35897408, 4101.02564068, 4120.12820485, 4077.05128171, 3991.15384560, 4047.82051241, 4141.66666646, 4127.05128178, 4134.23076896, 4128.07692280, 4127.05128178, 4189.74358961,8.57
4133.71794844, 4131.28205101, 4137.05128185, 4120.38461511, 4128.58974332, 4061.53846113, 3975.89743535, 4028.20512772, 4124.48717921, 4126.41025614, 4133.97435870, 4144.23076903, 4133.84615357, 4196.79487166,8.57
4110.64102537, 4116.92307665, 4116.15384588, 4111.53846126, 4124.23076896, 4061.15384574, 3979.87179432, 4033.58974311, 4126.66666639, 4128.58974332, 4130.64102537, 4129.35897408, 4129.74358947, 4192.69230756,8.57
4116.92307665, 4119.35897408, 4119.61538434, 4118.84615357, 4121.15384588, 4062.94871754, 3978.71794817, 4041.66666625, 4134.87179460, 4130.64102537, 4134.61538434, 4135.25640998, 4128.58974332, 4195.51282038,8.57
4134.74358947, 4134.23076896, 4135.64102544, 4134.74358947, 4128.97435870, 4063.97435856, 3977.17948663, 4037.56410215, 4131.41025614, 4129.23076896, 4137.69230749, 4143.07692287, 4130.51282024, 4193.84615371,8.57
4108.84615357, 4112.43589716, 4110.51282024, 4118.46153819, 4122.56410229, 4076.53846119, 3993.84615329, 4046.15384574, 4138.97435877, 4126.66666639, 4133.71794844, 4129.35897408, 4125.64102537, 4191.02564089,8.57
4137.82051262, 4130.51282024, 4137.94871774, 4130.12820485, 4127.17948691, 4069.99999966, 3986.53846099, 4044.87179446, 4141.15384595, 4127.69230742, 4134.23076896, 4152.05128185, 4133.07692280, 4194.99999986,8.57
4119.87179460, 4122.05128178, 4118.84615357, 4117.82051255, 4125.76923050, 4052.56410215, 3962.94871733, 4023.46153798, 4128.58974332, 4125.76923050, 4128.71794844, 4136.79487159, 4127.82051255, 4192.56410243,8.57
4121.53846126, 4121.79487152, 4117.56410229, 4113.58974332, 4123.33333306, 4067.05128164, 3971.53846099, 4025.76923029, 4132.43589716, 4124.74358947, 4130.25640998, 4136.02564082, 4129.35897408, 4198.07692294,8.57
4141.79487159, 4138.58974339, 4138.71794851, 4128.97435870, 4127.43589716, 4089.48717914, 3987.82051227, 4043.33333292, 4143.33333313, 4128.84615357, 4134.74358947, 4155.25641005, 4137.94871774, 4195.76923063,8.57
4107.94871767, 4113.46153819, 4106.41025614, 4111.92307665, 4120.51282024, 4082.82051248, 3972.56410201, 4030.25640977, 4127.69230742, 4126.66666639, 4129.10256383, 4133.71794844, 4128.46153819, 4194.61538448,8.57
4132.30769203, 4127.17948691, 4128.71794844, 4119.87179460, 4127.69230742, 4068.07692266, 3946.92307630, 4003.58974304, 4105.89743562, 4123.97435870, 4130.25640998, 4142.17948697, 4132.69230742, 4202.56410250,8.57
4120.89743562, 4121.41025614, 4118.07692280, 4112.94871767, 4122.17948691, 4077.82051248, 3956.28205066, 4014.10256362, 4116.66666639, 4126.41025614, 4128.58974332, 4133.33333306, 4130.64102537, 4193.58974345,8.57
4111.28205101, 4114.61538434, 4111.02564075, 4109.23076896, 4117.94871767, 4089.61538427, 3969.35897374, 4025.51282003, 4124.87179460, 4131.15384588, 4127.17948691, 4131.41025614, 4125.76923050, 4193.97435884,8.57
4133.33333306, 4131.79487152, 4136.02564082, 4125.38461511, 4131.79487152, 4080.12820478, 3955.12820451, 4001.02564047, 4104.48717921, 4133.20512793, 4129.99999973, 4145.89743569, 4131.66666639, 4197.43589730,8.57
4101.92307658, 4108.84615357, 4106.02564075, 4110.38461511, 4120.64102537, 4088.20512786, 3967.69230707, 4013.58974311, 4118.33333306, 4129.61538434, 4127.82051255, 4125.25640998, 4127.30769203, 4193.97435884,8.57
4125.76923050, 4126.28205101, 4128.71794844, 4122.17948691, 4120.64102537, 4097.30769196, 3977.69230714, 4039.48717907, 4137.43589723, 4128.33333306, 4128.71794844, 4138.84615364, 4131.53846126, 4197.69230756,8.57
4122.05128178, 4127.94871767, 4126.41025614, 4119.99999973, 4126.66666639, 4088.84615350, 3959.99999938, 4023.46153798, 4118.58974332, 4129.23076896, 4126.92307665, 4135.89743569, 4129.35897408, 4190.89743576,8.57
4107.94871767, 4112.56410229, 4111.41025614, 4108.84615357, 4120.89743562, 4094.23076889, 3966.53846092, 4015.64102516, 4109.10256383, 4126.66666639, 4129.87179460, 4128.07692280, 4127.82051255, 4190.89743576,8.57
4137.69230749, 4134.61538434, 4140.38461518, 4124.35897408, 4126.28205101, 4094.48717914, 3965.76923015, 4018.58974311, 4111.53846126, 4125.12820485, 4130.25640998, 4147.56410236, 4136.15384595, 4194.35897422,8.57
4104.61538434, 4117.43589716, 4111.92307665, 4106.53846126, 4120.76923050, 4084.10256376, 3942.94871733, 4009.10256362, 4108.07692280, 4128.20512793, 4119.48717921, 4128.20512793, 4128.33333306, 4190.25641012,8.57
4123.58974332, 4126.41025614, 4127.05128178, 4112.69230742, 4122.94871767, 4094.48717914, 3946.15384553, 4002.05128150, 4105.12820485, 4130.89743562, 4123.07692280, 4139.48717928, 4133.20512793, 4194.48717935,8.57
4133.84615357, 4130.89743562, 4134.74358947, 4122.43589716, 4124.87179460, 4116.28205101, 3973.58974304, 4025.12820465, 4123.07692280, 4128.97435870, 4128.84615357, 4145.64102544, 4133.46153819, 4192.17948704,8.57
4112.17948691, 4112.82051255, 4111.66666639, 4109.74358947, 4115.76923050, 4121.66666639, 3980.76923022, 4051.02564061, 4145.64102544, 4128.33333306, 4128.46153819, 4132.69230742, 4125.89743562, 4193.07692294,8.57
4141.66666646, 4134.35897408, 4136.28205108, 4118.07692280, 4122.69230742, 4116.53846126, 3967.56410194, 4037.43589702, 4136.53846133, 4129.35897408, 4129.74358947, 4147.94871774, 4134.87179460, 4198.20512807,8.57
4116.28205101, 4119.23076896, 4113.46153819, 4105.38461511, 4120.51282024, 4121.92307665, 3972.05128150, 4030.25640977, 4132.30769203, 4129.87179460, 4128.46153819, 4132.82051255, 4131.28205101, 4194.35897422,8.57
4126.79487152, 4122.05128178, 4120.51282024, 4112.05128178, 4123.20512793, 4125.51282024, 3978.71794817, 4039.87179446, 4136.53846133, 4131.92307665, 4131.92307665, 4139.23076903, 4132.05128178, 4198.07692294,8.57
4136.79487159, 4131.66666639, 4128.84615357, 4118.84615357, 4127.94871767, 4119.10256383, 3972.69230714, 4038.07692266, 4126.02564075, 4131.15384588, 4126.79487152, 4141.15384595, 4133.20512793, 4194.99999986,8.57
4104.87179460, 4111.41025614, 4103.84615357, 4100.76923043, 4117.17948691, 4112.56410229, 3963.07692246, 4019.61538413, 4110.64102537, 4127.43589716, 4118.33333306, 4121.53846126, 4127.30769203, 4194.10256397,8.57
4128.46153819, 4129.87179460, 4129.61538434, 4117.17948691, 4124.23076896, 4112.94871767, 3959.74358912, 3999.10256355, 4096.53846119, 4129.74358947, 4123.58974332, 4139.23076903, 4134.10256383, 4197.82051269,8.57
4108.71794844, 4116.41025614, 4108.97435870, 4110.64102537, 4123.33333306, 4124.23076896, 3982.94871740, 4015.12820465, 4106.92307665, 4130.51282024, 4123.46153819, 4127.82051255, 4127.82051255, 4192.30769217,8.57
4114.61538434, 4117.30769203, 4116.79487152, 4113.07692280, 4120.76923050, 4126.53846126, 3998.07692252, 4037.94871754, 4121.53846126, 4128.20512793, 4123.58974332, 4131.66666639, 4127.30769203, 4194.87179474,8.57
4132.43589716, 4135.25640998, 4137.69230749, 4128.07692280, 4126.41025614, 4119.87179460, 3986.15384560, 4032.82051234, 4111.92307665, 4127.82051255, 4125.12820485, 4140.38461518, 4130.64102537, 4190.25641012,8.57
4105.76923050, 4112.82051255, 4104.10256383, 4106.53846126, 4119.87179460, 4131.92307665, 3991.53846099, 4033.58974311, 4110.12820485, 4127.43589716, 4122.17948691, 4122.30769203, 4123.97435870, 4188.97435884,8.57
4137.43589723, 4130.89743562, 4133.71794844, 4115.64102537, 4126.28205101, 4140.25641005, 3999.74358919, 4039.87179446, 4112.82051255, 4129.23076896, 4125.89743562, 4141.66666646, 4134.61538434, 4196.15384602,8.57
4119.10256383, 4122.94871767, 4124.99999973, 4111.53846126, 4125.51282024, 4132.82051255, 3988.46153791, 4029.10256362, 4092.05128171, 4128.46153819, 4121.79487152, 4133.33333306, 4131.92307665, 4188.58974345,8.57
4114.61538434, 4114.61538434, 4117.17948691, 4107.94871767, 4119.99999973, 4134.61538434, 3984.48717894, 4021.15384567, 4075.64102530, 4126.15384588, 4121.28205101, 4133.58974332, 4126.15384588, 4191.79487166,8.57
4143.58974339, 4135.64102544, 4141.41025621, 4122.56410229, 4124.35897408, 4135.76923056, 3991.92307637, 4036.79487131, 4091.79487145, 4127.30769203, 4124.99999973, 4148.33333313, 4133.58974332, 4193.97435884,8.57
4106.53846126, 4113.84615357, 4108.71794844, 4101.66666632, 4116.28205101, 4125.12820485, 3988.84615329, 4045.76923036, 4100.51282017, 4128.07692280, 4119.35897408, 4126.66666639, 4130.25640998, 4191.28205115,8.57
4130.12820485, 4129.23076896, 4127.94871767, 4110.25640998, 4122.94871767, 4112.82051255, 3969.61538399, 4018.46153798, 4071.53846119, 4128.46153819, 4122.05128178, 4145.51282031, 4134.61538434, 4200.89743576,8.57
4127.56410229, 4128.71794844, 4126.92307665, 4110.64102537, 4124.23076896, 4106.53846126, 3961.15384553, 4000.89743535, 4059.35897395, 4128.20512793, 4123.46153819, 4140.12820492, 4131.15384588, 4196.02564089,8.57
4110.51282024, 4113.58974332, 4112.05128178, 4099.61538427, 4115.25640998, 4112.17948691, 3974.87179432, 4028.84615336, 4089.61538427, 4128.71794844, 4124.61538434, 4124.99999973, 4127.17948691, 4192.43589730,8.57
4137.82051262, 4132.17948691, 4130.89743562, 4115.76923050, 4124.61538434, 4122.17948691, 3986.66666611, 4046.66666625, 4103.07692280, 4129.87179460, 4127.30769203, 4142.56410236, 4133.46153819, 4195.76923063,8.57
4105.89743562, 4111.02564075, 4099.99999966, 4104.74358947, 4122.30769203, 4128.07692280, 3993.33333278, 4038.97435856, 4096.66666632, 4127.05128178, 4122.56410229, 4127.82051255, 4127.17948691, 4193.46153833,8.57
4119.35897408, 4121.15384588, 4122.30769203, 4114.48717921, 4122.82051255, 4123.71794844, 3987.43589688, 4033.07692259, 4096.79487145, 4126.66666639, 4125.12820485, 4133.46153819, 4132.56410229, 4195.12820499,8.57
4122.56410229, 4126.79487152, 4127.69230742, 4117.69230742, 4123.33333306, 4119.35897408, 3976.92307637, 4025.89743541, 4091.66666632, 4129.23076896, 4125.89743562, 4130.38461511, 4130.25640998, 4191.79487166,8.57
4105.38461511, 4112.43589716, 4105.51282024, 4108.07692280, 4117.56410229, 4128.84615357, 3983.97435842, 4026.28205080, 4088.46153812, 4129.10256383, 4122.56410229, 4126.02564075, 4122.43589716, 4193.20512807,8.57
4132.56410229, 4134.99999973, 4134.74358947, 4125.76923050, 4126.92307665, 4129.74358947, 3983.20512765, 4028.20512772, 4090.38461504, 4130.25640998, 4122.05128178, 4142.94871774, 4130.89743562, 4192.82051269,8.57
4109.10256383, 4118.07692280, 4114.35897408, 4110.25640998, 4120.51282024, 4122.17948691, 3974.35897381, 4022.94871747, 4093.97435863, 4129.61538434, 4120.38461511, 4119.87179460, 4126.02564075, 4189.74358961,8.57
4132.17948691, 4126.28205101, 4129.23076896, 4113.97435870, 4122.17948691, 4126.92307665, 3976.28205073, 4014.23076875, 4088.84615350, 4129.35897408, 4125.64102537, 4132.43589716, 4128.58974332, 4198.46153833,8.57
4140.12820492, 4134.23076896, 4137.05128185, 4121.66666639, 4130.25640998, 4131.15384588, 3976.41025586, 4008.58974311, 4079.87179453, 4129.61538434, 4124.10256383, 4140.89743569, 4132.17948691, 4194.10256397,8.57
4110.25640998, 4111.41025614, 4109.74358947, 4108.84615357, 4118.07692280, 4123.46153819, 3969.61538399, 4008.20512772, 4081.66666632, 4127.94871767, 4119.99999973, 4125.25640998, 4129.23076896, 4191.02564089,8.57
4140.64102544, 4132.43589716, 4139.35897415, 4122.69230742, 4121.79487152, 4115.51282024, 3963.84615322, 4002.30769176, 4076.92307658, 4128.71794844, 4121.15384588, 4142.17948697, 4135.25640998, 4196.28205115,8.57
4115.64102537, 4119.87179460, 4118.84615357, 4108.58974332, 4121.53846126, 4114.74358947, 3967.69230707, 4005.25640977, 4072.43589709, 4128.71794844, 4115.12820485, 4126.28205101, 4126.66666639, 4193.33333320,8.57
4120.76923050, 4118.97435870, 4121.15384588, 4111.28205101, 4119.23076896, 4109.35897408, 3965.64102502, 4007.30769183, 4070.38461504, 4128.20512793, 4116.92307665, 4132.82051255, 4130.12820485, 4197.56410243,8.57
4136.02564082, 4131.92307665, 4133.33333306, 4122.69230742, 4123.97435870, 4103.97435870, 3960.12820451, 3997.30769176, 4065.64102523, 4127.30769203, 4118.58974332, 4139.61538441, 4136.79487159, 4195.25641012,8.57
4105.76923050, 4110.89743562, 4102.94871767, 4101.15384581, 4119.48717921, 4108.58974332, 3960.76923015, 3998.58974304, 4069.99999966, 4126.02564075, 4113.58974332, 4114.61538434, 4128.33333306, 4192.30769217,8.57
4133.07692280, 4125.12820485, 4128.07692280, 4110.38461511, 4124.99999973, 4114.35897408, 3960.51281989, 4004.99999952, 4074.61538427, 4128.20512793, 4119.10256383, 4133.46153819, 4134.48717921, 4196.15384602,8.57
4113.97435870, 4115.51282024, 4113.58974332, 4103.33333306, 4122.05128178, 4115.76923050, 3964.61538399, 4006.92307644, 4076.53846119, 4130.38461511, 4119.61538434, 4128.07692280, 4129.87179460, 4190.12820499,8.57
4111.92307665, 4118.71794844, 4111.53846126, 4101.53846119, 4121.15384588, 4109.74358947, 3964.61538399, 4004.48717900, 4079.61538427, 4130.12820485, 4117.17948691, 4128.07692280, 4127.94871767, 4192.17948704,8.57
4131.92307665, 4132.17948691, 4131.28205101, 4111.66666639, 4125.64102537, 4103.97435870, 3962.94871733, 4006.79487131, 4082.82051248, 4129.35897408, 4116.02564075, 4136.28205108, 4134.48717921, 4189.74358961,8.57
4103.33333306, 4107.17948691, 4106.53846126, 4093.97435863, 4115.76923050, 4111.41025614, 3973.84615329, 4011.02564054, 4081.79487145, 4128.20512793, 4113.46153819, 4116.53846126, 4127.17948691, 4187.05128192,8.57
4132.82051255, 4130.89743562, 4133.33333306, 4108.20512793, 4125.12820485, 4109.35897408, 3970.64102502, 3998.71794817, 4071.92307658, 4128.58974332, 4118.58974332, 4136.15384595, 4132.30769203, 4195.89743576,8.57
4121.41025614, 4125.76923050, 4121.41025614, 4099.23076889, 4126.02564075, 4102.17948684, 3967.17948656, 3996.28205073, 4073.71794837, 4128.46153819, 4117.43589716, 4129.61538434, 4129.99999973, 4191.79487166,8.57
4114.99999973, 4117.43589716, 4116.92307665, 4086.15384581, 4117.30769203, 4110.51282024, 3978.07692252, 4002.05128150, 4074.74358940, 4128.58974332, 4117.43589716, 4124.48717921, 4126.15384588, 4194.87179474,8.57
4143.33333313, 4140.89743569, 4144.48717928, 4099.61538427, 4125.25640998, 4108.20512793, 3971.28205073, 3994.48717894, 4064.87179446, 4128.33333306, 4120.89743562, 4143.84615364, 4133.84615357, 4199.74358961,8.57
4108.84615357, 4113.07692280, 4106.41025614, 4077.94871761, 4117.94871767, 4106.53846126, 3970.76923015, 4011.15384567, 4085.51282017, 4125.38461511, 4117.05128178, 4125.25640998, 4128.33333306, 4196.53846140,8.57
4131.66666639, 4123.33333306, 4126.02564075, 4084.99999966, 4120.38461511, 4118.07692280, 3983.84615329, 4031.92307644, 4104.99999973, 4127.17948691, 4118.71794844, 4138.58974339, 4132.30769203, 4199.48717935,8.57
4131.15384588, 4130.25640998, 4128.84615357, 4088.46153812, 4124.61538434, 4112.56410229, 3978.58974304, 4025.12820465, 4092.56410222, 4131.41025614, 4116.66666639, 4136.15384595, 4132.56410229, 4195.12820499,8.57
4112.05128178, 4116.79487152, 4107.43589716, 4076.15384581, 4118.84615357, 4094.23076889, 3962.69230707, 4013.20512772, 4082.94871761, 4131.02564075, 4114.10256383, 4124.99999973, 4130.64102537, 4199.35897422,8.57
4137.82051262, 4129.61538434, 4128.46153819, 4087.94871761, 4124.99999973, 4087.69230735, 3956.41025579, 4001.15384560, 4074.61538427, 4130.51282024, 4113.84615357, 4141.41025621, 4137.30769210, 4200.51282038,8.57
4108.07692280, 4109.74358947, 4102.69230742, 4080.25640991, 4119.10256383, 4105.64102537, 3974.87179432, 4007.30769183, 4075.76923043, 4129.74358947, 4108.71794844, 4121.41025614, 4127.30769203, 4191.15384602,8.57
4123.58974332, 4122.69230742, 4120.51282024, 4096.79487145, 4123.84615357, 4120.89743562, 3986.66666611, 4013.33333285, 4080.51282017, 4130.64102537, 4114.61538434, 4131.79487152, 4131.28205101, 4196.28205115,8.57
4125.76923050, 4127.94871767, 4125.76923050, 4103.33333306, 4127.94871767, 4114.23076896, 3976.41025586, 3992.43589688, 4068.33333292, 4130.25640998, 4116.53846126, 4135.51282031, 4133.07692280, 4195.12820499,8.57
4103.71794844, 4109.35897408, 4106.28205101, 4088.33333299, 4118.07692280, 4106.66666639, 3975.25640970, 3984.87179432, 4064.87179446, 4125.76923050, 4112.43589716, 4120.38461511, 4124.10256383, 4193.33333320,8.57
4135.38461518, 4129.23076896, 4136.79487159, 4098.20512786, 4127.43589716, 4105.76923050, 3976.02564047, 3996.41025586, 4074.87179453, 4126.28205101, 4113.58974332, 4138.46153826, 4130.64102537, 4194.48717935,8.57
4108.97435870, 4114.48717921, 4109.99999973, 4074.35897402, 4124.35897408, 4107.94871767, 3973.07692252, 4004.35897388, 4088.97435863, 4127.82051255, 4111.41025614, 4121.92307665, 4125.64102537, 4189.23076910,8.57
4119.99999973, 4124.23076896, 4121.15384588, 4076.92307658, 4120.12820485, 4110.89743562, 3977.43589688, 4011.28205080, 4100.51282017, 4127.82051255, 4117.30769203, 4127.94871767, 4128.58974332, 4191.79487166,8.57
4131.28205101, 4132.43589716, 4136.53846133, 4089.61538427, 4124.99999973, 4111.66666639, 3981.92307637, 4018.07692259, 4100.38461504, 4128.33333306, 4120.12820485, 4135.64102544, 4132.30769203, 4189.87179474,8.57
4101.66666632, 4106.15384588, 4105.51282024, 4067.05128164, 4118.71794844, 4107.56410229, 3979.35897381, 4017.43589695, 4094.87179453, 4126.53846126, 4115.76923050, 4122.43589716, 4125.64102537, 4192.82051269,8.57
4138.33333313, 4132.82051255, 4135.25640998, 4081.28205094, 4123.71794844, 4097.56410222, 3969.10256348, 4006.79487131, 4089.23076889, 4126.79487152, 4119.23076896, 4144.87179467, 4133.46153819, 4199.10256397,8.57
4119.87179460, 4123.07692280, 4118.20512793, 4078.46153812, 4119.23076896, 4097.30769196, 3970.12820451, 4002.56410201, 4088.20512786, 4126.79487152, 4118.97435870, 4128.97435870, 4128.58974332, 4193.71794858,8.57
4116.66666639, 4116.02564075, 4114.10256383, 4073.84615350, 4117.94871767, 4109.23076896, 3980.38461483, 4002.05128150, 4085.76923043, 4126.02564075, 4117.94871767, 4128.97435870, 4129.87179460, 4199.48717935,8.57
4138.71794851, 4132.43589716, 4135.64102544, 4082.56410222, 4126.28205101, 4107.94871767, 3978.20512765, 3994.74358919, 4079.48717914, 4125.76923050, 4114.23076896, 4140.51282031, 4135.38461518, 4197.43589730,8.57
4109.23076896, 4111.53846126, 4107.43589716, 4068.71794830, 4118.97435870, 4095.38461504, 3971.41025586, 3994.23076868, 4081.41025607, 4127.17948691, 4110.89743562, 4118.58974332, 4128.20512793, 4191.41025628,8.57
4133.07692280, 4128.20512793, 4125.38461511, 4079.61538427, 4124.23076896, 4090.76923043, 3968.71794810, 4001.15384560, 4083.97435863, 4129.74358947, 4115.64102537, 4133.07692280, 4134.23076896, 4200.12820499,8.57
4119.48717921, 4121.66666639, 4113.58974332, 4070.64102530, 4124.61538434, 4096.92307658, 3974.61538406, 4009.23076875, 4090.51282017, 4127.94871767, 4111.41025614, 4123.20512793, 4128.58974332, 4194.61538448,8.57
4111.66666639, 4114.74358947, 4109.99999973, 4068.58974318, 4120.25640998, 4101.15384581, 3981.15384560, 4007.82051234, 4095.64102530, 4127.30769203, 4111.79487152, 4119.10256383, 4125.12820485, 4190.64102551,8.57
4130.25640998, 4132.94871767, 4132.82051255, 4087.56410222, 4126.02564075, 4097.56410222, 3977.82051227, 3994.48717894, 4087.30769196, 4128.84615357, 4116.15384588, 4130.76923050, 4130.38461511, 4190.89743576,8.57
4097.43589709, 4110.64102537, 4104.35897408, 4071.66666632, 4117.56410229, 4102.43589709, 3983.20512765, 4004.87179439, 4095.12820478, 4126.92307665, 4112.17948691, 4112.30769203, 4123.46153819, 4190.89743576,8.57
4124.35897408, 4126.53846126, 4126.66666639, 4083.84615350, 4125.25640998, 4111.02564075, 3989.23076868, 4020.12820465, 4108.33333306, 4127.30769203, 4117.05128178, 4128.58974332, 4130.51282024, 4195.89743576,8.57
4120.51282024, 4126.92307665, 4123.07692280, 4082.82051248, 4130.12820485, 4103.84615357, 3981.79487124, 4008.46153798, 4099.10256376, 4128.58974332, 4116.28205101, 4123.33333306, 4129.87179460, 4188.84615371,8.57
4110.25640998, 4116.15384588, 4114.35897408, 4071.41025607, 4119.48717921, 4091.41025607, 3969.74358912, 3991.79487124, 4083.84615350, 4128.46153819, 4112.43589716, 4115.64102537, 4125.12820485, 4192.82051269,8.57
4141.02564082, 4135.51282031, 4143.20512800, 4086.79487145, 4123.46153819, 4096.92307658, 3975.38461483, 3998.71794817, 4089.99999966, 4127.69230742, 4114.99999973, 4132.17948691, 4131.02564075, 4197.82051269,8.57
4108.58974332, 4111.41025614, 4107.94871767, 4068.46153805, 4120.89743562, 4114.35897408, 3997.56410201, 4021.15384567, 4111.79487152, 4124.99999973, 4113.46153819, 4115.76923050, 4127.05128178, 4191.15384602,8.57
4131.53846126, 4125.89743562, 4126.53846126, 4074.87179453, 4126.92307665, 4106.41025614, 3990.25640970, 4007.56410208, 4102.56410229, 4127.56410229, 4118.58974332, 4132.69230742, 4132.30769203, 4195.38461525,8.57
4135.51282031, 4133.84615357, 4134.48717921, 4079.48717914, 4125.25640998, 4090.64102530, 3977.56410201, 3984.10256355, 4079.99999966, 4129.48717921, 4119.48717921, 4131.02564075, 4131.28205101, 4196.79487166,8.57
4107.69230742, 4112.05128178, 4107.30769203, 4070.51282017, 4114.23076896, 4099.23076889, 3990.25640970, 3995.25640970, 4083.33333299, 4124.48717921, 4117.05128178, 4117.30769203, 4129.23076896, 4199.87179474,8.57
4136.53846133, 4131.66666639, 4131.15384588, 4094.35897402, 4128.46153819, 4103.07692280, 3988.07692252, 4004.74358926, 4091.66666632, 4124.61538434, 4117.56410229, 4139.74358954, 4135.89743569, 4199.23076910,8.57
4112.30769203, 4117.30769203, 4110.25640998, 4088.33333299, 4124.48717921, 4094.23076889, 3974.74358919, 4001.15384560, 4095.89743555, 4126.66666639, 4111.15384588, 4120.89743562, 4123.46153819, 4193.07692294,8.57
4120.25640998, 4121.28205101, 4118.84615357, 4094.74358940, 4118.71794844, 4089.87179453, 3967.82051220, 3989.87179432, 4091.41025607, 4125.64102537, 4111.66666639, 4123.07692280, 4125.89743562, 4199.10256397,8.57
4126.02564075, 4126.53846126, 4121.92307665, 4099.74358940, 4125.25640998, 4088.84615350, 3962.56410194, 3977.43589688, 4083.07692273, 4125.51282024, 4110.38461511, 4126.79487152, 4132.30769203, 4194.74358961,8.57
4104.99999973, 4108.20512793, 4101.53846119, 4083.84615350, 4121.28205101, 4091.02564068, 3965.64102502, 3983.46153791, 4088.84615350, 4126.41025614, 4109.10256383, 4115.25640998, 4127.43589716, 4192.17948704,8.57
4133.84615357, 4129.35897408, 4131.92307665, 4099.35897402, 4124.48717921, 4094.87179453, 3975.89743535, 3993.58974304, 4097.30769196, 4126.92307665, 4113.97435870, 4131.79487152, 4133.58974332, 4194.87179474,8.57
4101.92307658, 4113.97435870, 4105.76923050, 4089.99999966, 4117.17948691, 4099.99999966, 3988.33333278, 3996.28205073, 4101.15384581, 4127.69230742, 4109.10256383, 4112.30769203, 4127.69230742, 4189.23076910,8.57
4111.92307665, 4118.84615357, 4117.69230742, 4096.53846119, 4118.84615357, 4094.48717914, 3980.51281996, 3987.17948663, 4095.89743555, 4130.25640998, 4110.38461511, 4121.02564075, 4129.35897408, 4195.12820499,8.57
4137.69230749, 4133.84615357, 4140.38461518, 4108.07692280, 4129.23076896, 4078.33333299, 3960.76923015, 3968.71794810, 4081.28205094, 4127.82051255, 4113.20512793, 4129.87179460, 4134.35897408, 4192.56410243,8.57
4105.38461511, 4108.84615357, 4106.28205101, 4088.07692273, 4119.48717921, 4082.69230735, 3970.76923015, 3976.92307637, 4089.35897402, 4123.84615357, 4109.35897408, 4108.46153819, 4127.05128178, 4189.61538448,8.57
4133.71794844, 4131.02564075, 4136.15384595, 4107.05128178, 4122.82051255, 4093.33333299, 3979.87179432, 3989.48717894, 4098.07692273, 4127.56410229, 4110.51282024, 4132.05128178, 4133.07692280, 4198.58974345,8.57
4119.87179460, 4124.87179460, 4123.46153819, 4104.74358947, 4121.92307665, 4090.76923043, 3973.71794817, 3986.79487124, 4094.35897402, 4128.07692280, 4108.07692280, 4125.38461511, 4128.58974332, 4194.10256397,8.57
4118.20512793, 4119.87179460, 4116.28205101, 4099.48717914, 4121.53846126, 4089.99999966, 3974.35897381, 3990.12820458, 4097.94871761, 4126.02564075, 4108.97435870, 4123.58974332, 4131.15384588, 4195.64102551,8.57
4140.64102544, 4135.38461518, 4139.61538441, 4113.20512793, 4130.89743562, 4090.89743555, 3975.64102509, 3991.28205073, 4095.12820478, 4128.58974332, 4111.79487152, 4134.61538434, 4137.30769210, 4196.28205115,8.57
4107.43589716, 4110.89743562, 4110.25640998, 4094.99999966, 4118.46153819, 4093.33333299, 3978.97435842, 3991.53846099, 4095.25640991, 4128.58974332, 4111.53846126, 4113.20512793, 4125.51282024, 4195.25641012,8.57
4134.23076896, 4129.99999973, 4131.02564075, 4102.30769196, 4119.48717921, 4093.84615350, 3978.71794817, 3988.46153791, 4097.94871761, 4127.17948691, 4116.41025614, 4130.51282024, 4131.53846126, 4200.51282038,8.57
4126.66666639, 4126.92307665, 4119.74358947, 4097.17948684, 4123.46153819, 4092.82051248, 3980.51281996, 3990.25640970, 4099.35897402, 4126.41025614, 4112.30769203, 4122.94871767, 4132.56410229, 4194.23076910,8.57
4116.02564075, 4112.17948691, 4106.53846126, 4091.41025607, 4119.10256383, 4095.12820478, 3986.02564047, 3998.58974304, 4102.17948684, 4125.64102537, 4109.23076896, 4114.35897408, 4130.12820485, 4197.82051269,8.57
4136.66666646, 4129.87179460, 4131.02564075, 4106.66666639, 4123.33333306, 4095.25640991, 3983.84615329, 3999.87179432, 4101.92307658, 4128.58974332, 4111.41025614, 4130.38461511, 4136.15384595, 4197.82051269,8.57
4098.97435863, 4112.82051255, 4102.82051255, 4089.48717914, 4116.92307665, 4098.07692273, 3986.53846099, 3998.71794817, 4099.74358940, 4129.23076896, 4106.15384588, 4107.56410229, 4125.76923050, 4189.87179474,8.57
4121.28205101, 4128.20512793, 4126.53846126, 4101.41025607, 4124.74358947, 4095.64102530, 3985.89743535, 3988.33333278, 4089.61538427, 4125.89743562, 4108.20512793, 4117.82051255, 4127.05128178, 4193.84615371,8.57
4122.56410229, 4127.43589716, 4126.92307665, 4103.33333306, 4125.76923050, 4087.05128171, 3978.20512765, 3982.05128150, 4089.74358940, 4125.25640998, 4108.46153819, 4117.43589716, 4128.58974332, 4190.89743576,8.57
4105.12820485, 4111.79487152, 4107.43589716, 4091.92307658, 4115.51282024, 4086.66666632, 3977.56410201, 3983.07692252, 4095.25640991, 4129.61538434, 4107.17948691, 4108.33333306, 4124.74358947, 4192.56410243,8.57
4137.94871774, 4135.12820485, 4136.79487159, 4112.05128178, 4126.15384588, 4086.15384581, 3977.05128150, 3976.79487124, 4087.69230735, 4132.30769203, 4111.28205101, 4126.41025614, 4129.61538434, 4192.17948704,8.57
4111.92307665, 4117.30769203, 4110.89743562, 4098.58974325, 4122.43589716, 4089.10256376, 3981.53846099, 3987.94871740, 4096.15384581, 4127.43589716, 4107.69230742, 4111.53846126, 4123.58974332, 4184.99999986,8.57
4126.79487152, 4125.64102537, 4124.61538434, 4104.35897408, 4122.05128178, 4094.99999966, 3983.46153791, 3997.43589688, 4101.92307658, 4124.48717921, 4108.07692280, 4123.46153819, 4130.12820485, 4194.87179474,8.57
4132.30769203, 4132.56410229, 4132.69230742, 4109.10256383, 4124.87179460, 4091.28205094, 3980.64102509, 3990.38461483, 4094.99999966, 4125.76923050, 4107.30769203, 4125.51282024, 4132.05128178, 4197.30769217,8.57
4108.20512793, 4114.10256383, 4104.87179460, 4091.79487145, 4114.74358947, 4090.12820478, 3986.66666611, 3997.94871740, 4105.38461511, 4127.05128178, 4103.97435870, 4114.61538434, 4124.74358947, 4195.12820499,8.57
4139.35897415, 4135.51282031, 4131.53846126, 4108.71794844, 4122.69230742, 4096.28205094, 3994.35897381, 4008.07692259, 4112.43589716, 4130.64102537, 4106.02564075, 4136.02564082, 4132.94871767, 4196.79487166,8.57
4112.94871767, 4113.33333306, 4110.89743562, 4096.15384581, 4123.33333306, 4091.41025607, 4000.89743535, 4008.84615336, 4104.61538434, 4127.17948691, 4104.99999973, 4111.66666639, 4123.20512793, 4192.82051269,8.57
4133.20512793, 4131.66666639, 4137.69230749, 4107.30769203, 4130.64102537, 4091.79487145, 4003.33333278, 4011.66666618, 4108.97435870, 4130.38461511, 4104.23076896, 4122.82051255, 4129.48717921, 4192.94871781,8.57
4101.66666632, 4106.28205101, 4109.10256383, 4087.69230735, 4121.66666639, 4097.17948684, 4009.99999952, 4012.05128157, 4105.38461511, 4131.66666639, 4096.92307658, 4100.89743555, 4124.99999973, 4190.38461525,8.57
4130.76923050, 4127.17948691, 4133.46153819, 4106.79487152, 4122.30769203, 4090.25640991, 3998.58974304, 3999.74358919, 4096.79487145, 4127.69230742, 4102.56410229, 4121.66666639, 4132.43589716, 4196.28205115,8.57
4121.15384588, 4125.76923050, 4121.53846126, 4112.82051255, 4121.28205101, 4080.12820478, 3987.82051227, 3987.30769176, 4089.87179453, 4124.23076896, 4104.61538434, 4120.51282024, 4129.74358947, 4193.71794858,8.57
4115.64102537, 4118.33333306, 4116.41025614, 4113.07692280, 4121.02564075, 4086.53846119, 3996.15384560, 3987.69230714, 4087.30769196, 4127.43589716, 4103.58974332, 4118.20512793, 4125.76923050, 4197.94871781,8.57
4140.51282031, 4138.07692287, 4144.99999980, 4129.23076896, 4127.43589716, 4091.28205094, 4001.92307637, 3992.56410201, 4091.66666632, 4130.12820485, 4106.28205101, 4130.89743562, 4129.48717921, 4196.92307679,8.57
4106.79487152, 4112.82051255, 4106.53846126, 4112.17948691, 4116.79487152, 4094.48717914, 4006.28205080, 4000.89743535, 4107.17948691, 4127.30769203, 4103.33333306, 4109.61538434, 4123.20512793, 4192.43589730,8.57
4132.17948691, 4128.46153819, 4124.10256383, 4122.94871767, 4122.69230742, 4095.38461504, 4004.10256362, 3998.07692252, 4106.79487152, 4128.71794844, 4106.02564075, 4127.94871767, 4133.07692280, 4201.92307686,8.57
4126.79487152, 4133.46153819, 4127.05128178, 4121.02564075, 4126.15384588, 4092.43589709, 3999.35897381, 3997.82051227, 4102.05128171, 4130.38461511, 4104.35897408, 4128.46153819, 4133.58974332, 4196.92307679,8.57
4107.05128178, 4114.35897408, 4104.61538434, 4107.30769203, 4116.79487152, 4097.30769196, 4008.97435849, 4015.51282003, 4118.33333306, 4126.53846126, 4102.69230742, 4117.05128178, 4128.97435870, 4195.12820499,8.57
4138.71794851, 4129.61538434, 4126.15384588, 4118.84615357, 4125.25640998, 4100.12820478, 4013.58974311, 4015.76923029, 4116.41025614, 4125.89743562, 4104.99999973, 4128.71794844, 4134.35897408, 4198.20512807,8.57
4107.69230742, 4112.94871767, 4104.48717921, 4102.43589709, 4121.15384588, 4097.30769196, 4008.71794824, 4003.84615329, 4101.66666632, 4128.46153819, 4100.76923043, 4107.82051255, 4124.10256383, 4190.25641012,8.57
4119.48717921, 4124.61538434, 4122.43589716, 4113.46153819, 4123.71794844, 4096.02564068, 4006.02564054, 4001.28205073, 4103.58974332, 4131.28205101, 4103.07692280, 4118.46153819, 4128.20512793, 4191.15384602,8.57
4122.43589716, 4128.07692280, 4123.97435870, 4119.87179460, 4128.71794844, 4097.82051248, 4011.53846106, 4002.05128150, 4107.17948691, 4130.25640998, 4100.12820478, 4116.53846126, 4131.41025614, 4192.05128192,8.57
4097.94871761, 4108.71794844, 4102.05128171, 4105.51282024, 4118.20512793, 4099.74358940, 4017.82051234, 4005.12820465, 4105.38461511, 4128.33333306, 4098.07692273, 4101.41025607, 4124.61538434, 4195.12820499,8.57
4127.30769203, 4131.66666639, 4134.74358947, 4121.53846126, 4125.25640998, 4089.61538427, 4005.38461490, 3999.35897381, 4099.99999966, 4130.76923050, 4102.43589709, 4120.38461511, 4130.51282024, 4194.35897422,8.57
4104.74358947, 4117.05128178, 4111.79487152, 4107.69230742, 4122.82051255, 4082.56410222, 4001.66666611, 4002.17948663, 4107.17948691, 4128.71794844, 4096.66666632, 4104.99999973, 4123.97435870, 4189.35897422,8.57
4120.76923050, 4123.07692280, 4121.92307665, 4112.17948691, 4120.76923050, 4087.69230735, 4013.46153798, 4019.23076875, 4118.58974332, 4127.94871767, 4101.53846119, 4116.53846126, 4126.79487152, 4194.74358961,8.57
4131.41025614, 4133.33333306, 4134.35897408, 4122.17948691, 4126.41025614, 4089.61538427, 4017.30769183, 4028.71794824, 4122.43589716, 4130.12820485, 4107.05128178, 4124.35897408, 4131.41025614, 4187.30769217,8.57
4104.99999973, 4111.15384588, 4106.02564075, 4101.02564068, 4120.51282024, 4090.12820478, 4016.79487131, 4022.30769183, 4121.02564075, 4126.53846126, 4103.33333306, 4107.82051255, 4126.41025614, 4189.10256397,8.57
4143.20512800, 4135.89743569, 4137.05128185, 4114.48717921, 4126.02564075, 4094.74358940, 4015.89743541, 4008.58974311, 4114.99999973, 4125.38461511, 4106.53846126, 4130.64102537, 4134.10256383, 4200.76923063,8.57
4118.33333306, 4121.53846126, 4117.17948691, 4108.58974332, 4121.28205101, 4096.53846119, 4019.74358926, 4010.51282003, 4117.94871767, 4127.82051255, 4105.12820485, 4116.15384588, 4128.46153819, 4194.74358961,8.57
4115.64102537, 4114.48717921, 4116.41025614, 4106.28205101, 4120.76923050, 4091.28205094, 4017.05128157, 4007.17948670, 4108.97435870, 4128.07692280, 4103.84615357, 4117.05128178, 4129.74358947, 4196.41025628,8.57
4138.71794851, 4132.56410229, 4134.61538434, 4116.28205101, 4128.71794844, 4083.84615350, 4006.79487131, 3991.79487124, 4090.64102530, 4125.38461511, 4103.84615357, 4131.02564075, 4133.33333306, 4195.12820499,8.57
4106.92307665, 4115.51282024, 4100.51282017, 4101.66666632, 4120.51282024, 4087.43589709, 4013.46153798, 4005.76923029, 4104.74358947, 4125.76923050, 4102.56410229, 4111.41025614, 4122.69230742, 4193.71794858,8.57
4129.35897408, 4131.28205101, 4122.17948691, 4114.74358947, 4125.25640998, 4093.07692273, 4021.15384567, 4020.64102516, 4116.41025614, 4129.61538434, 4105.25640998, 4124.23076896, 4130.12820485, 4199.87179474,8.57
4115.76923050, 4117.56410229, 4113.58974332, 4105.89743562, 4121.53846126, 4093.46153812, 4020.64102516, 4012.30769183, 4107.56410229, 4128.58974332, 4102.17948684, 4112.56410229, 4128.46153819, 4192.56410243,8.57
4114.48717921, 4111.92307665, 4112.69230742, 4102.17948684, 4119.74358947, 4089.74358940, 4021.02564054, 4012.82051234, 4110.76923050, 4126.53846126, 4102.43589709, 4109.23076896, 4126.41025614, 4193.71794858,8.57
4135.38461518, 4133.20512793, 4134.74358947, 4120.89743562, 4129.48717921, 4087.17948684, 4020.51282003, 4022.17948670, 4117.05128178, 4127.05128178, 4104.10256383, 4123.46153819, 4132.17948691, 4196.28205115,8.57
4101.41025607, 4111.28205101, 4105.25640998, 4104.10256383, 4116.02564075, 4096.79487145, 4030.76923029, 4031.41025593, 4121.28205101, 4126.66666639, 4103.20512793, 4104.74358947, 4124.48717921, 4190.64102551,8.57
4128.84615357, 4127.82051255, 4129.99999973, 4112.82051255, 4119.10256383, 4101.66666632, 4039.10256369, 4036.53846106, 4126.92307665, 4127.56410229, 4108.33333306, 4118.97435870, 4130.64102537, 4191.79487166,8.57
4123.07692280, 4126.53846126, 4122.30769203, 4108.58974332, 4125.64102537, 4091.79487145, 4032.69230721, 4035.12820465, 4124.10256383, 4128.46153819, 4102.82051255, 4113.33333306, 4129.74358947, 4188.33333320,8.57
4110.51282024, 4115.76923050, 4112.56410229, 4101.92307658, 4119.23076896, 4085.12820478, 4020.64102516, 4024.99999952, 4113.58974332, 4127.94871767, 4100.51282017, 4109.23076896, 4123.71794844, 4192.30769217,8.57
4137.69230749, 4132.17948691, 4142.43589723, 4121.53846126, 4123.71794844, 4087.05128171, 4016.41025593, 4009.87179439, 4105.64102537, 4127.94871767, 4107.56410229, 4130.64102537, 4129.48717921, 4193.71794858,8.57
4106.28205101, 4108.46153819, 4108.97435870, 4104.74358947, 4117.82051255, 4098.33333299, 4032.56410208, 4017.30769183, 4113.33333306, 4127.05128178, 4106.41025614, 4113.46153819, 4126.15384588, 4189.87179474,8.57
4130.76923050, 4126.92307665, 4129.87179460, 4112.69230742, 4123.58974332, 4101.02564068, 4035.25640977, 4022.17948670, 4108.58974332, 4127.69230742, 4106.53846126, 4128.46153819, 4132.17948691, 4199.74358961,8.57
4130.89743562, 4133.46153819, 4133.71794844, 4113.58974332, 4126.92307665, 4092.05128171, 4021.92307644, 4010.89743541, 4095.12820478, 4127.94871767, 4102.30769196, 4125.64102537, 4132.05128178, 4200.51282038,8.57
4105.64102537, 4110.76923050, 4105.25640998, 4100.64102530, 4116.41025614, 4091.41025607, 4025.51282003, 4014.48717900, 4106.92307665, 4125.76923050, 4103.07692280, 4109.99999973, 4128.07692280, 4199.99999986,8.57
4136.53846133, 4130.89743562, 4132.30769203, 4117.56410229, 4121.66666639, 4086.66666632, 4021.92307644, 4011.92307644, 4108.97435870, 4126.15384588, 4109.35897408, 4131.28205101, 4134.74358947, 4196.92307679,8.57
4112.30769203, 4117.69230742, 4111.02564075, 4103.58974332, 4119.99999973, 4077.43589709, 4008.20512772, 4002.30769176, 4097.82051248, 4128.46153819, 4105.25640998, 4112.43589716, 4127.05128178, 4188.58974345,8.57
4122.43589716, 4124.48717921, 4121.15384588, 4110.12820485, 4124.10256383, 4081.92307658, 4010.64102516, 4009.61538413, 4106.66666639, 4131.15384588, 4106.28205101, 4118.07692280, 4130.12820485, 4197.43589730,8.57
4123.46153819, 4128.71794844, 4124.10256383, 4115.89743562, 4124.23076896, 4087.69230735, 4024.48717900, 4023.84615336, 4123.84615357, 4130.76923050, 4106.79487152, 4121.41025614, 4132.30769203, 4195.89743576,8.57
4100.38461504, 4108.20512793, 4099.23076889, 4102.56410229, 4112.30769203, 4089.35897402, 4035.51282003, 4032.82051234, 4129.10256383, 4126.41025614, 4106.02564075, 4106.66666639, 4124.61538434, 4189.10256397,8.57
4135.38461518, 4129.35897408, 4129.48717921, 4122.56410229, 4121.66666639, 4091.02564068, 4042.30769189, 4035.12820465, 4124.61538434, 4127.17948691, 4111.92307665, 4126.02564075, 4130.25640998, 4190.89743576,8.57
4108.46153819, 4115.38461511, 4109.35897408, 4110.89743562, 4119.99999973, 4092.82051248, 4051.66666625, 4034.99999952, 4122.82051255, 4127.05128178, 4107.30769203, 4108.71794844, 4124.61538434, 4190.25641012,8.57
4116.28205101, 4121.15384588, 4120.12820485, 4113.07692280, 4119.23076896, 4097.56410222, 4058.97435856, 4032.30769183, 4119.35897408, 4126.28205101, 4107.05128178, 4113.97435870, 4127.56410229, 4194.99999986,8.57
4137.56410236, 4135.51282031, 4137.94871774, 4125.51282024, 4126.53846126, 4102.56410229, 4062.43589702, 4040.51282010, 4126.28205101, 4127.30769203, 4109.48717921, 4127.56410229, 4132.56410229, 4190.25641012,8.57
4104.87179460, 4110.76923050, 4106.41025614, 4106.66666639, 4117.82051255, 4101.41025607, 4062.05128164, 4047.30769189, 4136.15384595, 4128.07692280, 4106.02564075, 4111.92307665, 4125.12820485, 4191.79487166,8.57
4130.12820485, 4129.74358947, 4136.79487159, 4120.38461511, 4124.23076896, 4095.64102530, 4052.69230728, 4030.89743541, 4124.74358947, 4129.61538434, 4109.35897408, 4128.71794844, 4132.05128178, 4199.23076910,8.57
4115.64102537, 4119.74358947, 4123.46153819, 4113.58974332, 4122.69230742, 4095.64102530, 4044.10256369, 4024.23076875, 4119.10256383, 4125.64102537, 4104.74358947, 4118.07692280, 4127.94871767, 4188.71794858,8.57
4121.15384588, 4119.99999973, 4118.20512793, 4105.89743562, 4116.79487152, 4089.87179453, 4032.56410208, 4023.58974311, 4117.05128178, 4123.71794844, 4101.53846119, 4119.10256383, 4128.20512793, 4193.20512807,8.57
4142.17948697, 4140.89743569, 4138.33333313, 4116.28205101, 4123.97435870, 4081.41025607, 4027.56410208, 4013.71794824, 4104.48717921, 4127.17948691, 4103.84615357, 4130.64102537, 4133.71794844, 4200.38461525,8.57
4102.69230742, 4111.79487152, 4106.53846126, 4102.56410229, 4117.69230742, 4091.41025607, 4042.69230728, 4022.56410208, 4110.76923050, 4126.28205101, 4101.02564068, 4107.69230742, 4124.99999973, 4197.30769217,8.57
4130.51282024, 4123.58974332, 4129.35897408, 4114.74358947, 4123.20512793, 4093.97435863, 4038.20512779, 4024.10256362, 4114.23076896, 4126.41025614, 4104.74358947, 4125.76923050, 4132.05128178, 4198.58974345,8.57
4124.87179460, 4123.71794844, 4119.10256383, 4108.84615357, 4125.25640998, 4083.84615350, 4026.02564054, 4006.53846106, 4100.64102530, 4129.10256383, 4106.92307665, 4121.66666639, 4129.74358947, 4193.84615371,8.57
4109.48717921, 4114.61538434, 4104.48717921, 4103.84615357, 4119.61538434, 4092.69230735, 4038.71794830, 4011.15384567, 4103.20512793, 4130.12820485, 4108.58974332, 4111.79487152, 4126.15384588, 4196.15384602,8.57
4130.25640998, 4129.23076896, 4129.48717921, 4121.53846126, 4124.48717921, 4101.92307658, 4044.99999959, 4023.97435849, 4111.79487152, 4130.89743562, 4108.20512793, 4124.10256383, 4134.23076896, 4194.48717935,8.57
4101.41025607, 4108.97435870, 4102.82051255, 4104.10256383, 4116.92307665, 4100.89743555, 4047.82051241, 4030.38461490, 4117.82051255, 4129.87179460, 4104.23076896, 4105.12820485, 4125.25640998, 4188.84615371,8.57
4126.02564075, 4124.87179460, 4126.53846126, 4116.15384588, 4123.46153819, 4100.38461504, 4050.76923036, 4032.17948670, 4121.92307665, 4129.48717921, 4107.05128178, 4118.46153819, 4128.07692280, 4194.74358961,8.57
4121.15384588, 4124.23076896, 4127.17948691, 4119.87179460, 4127.17948691, 4101.92307658, 4051.28205087, 4031.92307644, 4121.02564075, 4127.94871767, 4103.84615357, 4114.87179460, 4129.87179460, 4190.38461525,8.57
4103.58974332, 4110.89743562, 4108.33333306, 4103.97435870, 4117.82051255, 4105.12820485, 4060.12820472, 4040.12820472, 4124.61538434, 4124.87179460, 4105.38461511, 4106.66666639, 4125.64102537, 4189.23076910,8.57
4135.89743569, 4135.12820485, 4139.74358954, 4114.99999973, 4125.12820485, 4100.25640991, 4061.02564061, 4044.23076882, 4125.89743562, 4127.43589716, 4114.35897408, 4126.41025614, 4129.23076896, 4191.15384602,8.57
4108.84615357, 4115.25640998, 4115.12820485, 4097.94871761, 4121.28205101, 4097.94871761, 4061.92307651, 4053.97435856, 4136.41025621, 4130.51282024, 4110.51282024, 4108.20512793, 4122.82051255, 4189.99999986,8.57
4129.74358947, 4126.92307665, 4128.33333306, 4105.64102537, 4122.82051255, 4097.94871761, 4059.87179446, 4054.99999959, 4138.97435877, 4129.23076896, 4108.97435870, 4124.87179460, 4130.76923050, 4198.71794858,8.57
4136.41025621, 4135.25640998, 4132.82051255, 4113.84615357, 4124.74358947, 4089.74358940, 4045.64102523, 4032.17948670, 4119.99999973, 4126.66666639, 4108.46153819, 4129.23076896, 4133.97435870, 4194.10256397,8.57
4108.97435870, 4110.12820485, 4105.51282024, 4097.05128171, 4116.79487152, 4089.99999966, 4044.35897395, 4027.05128157, 4118.58974332, 4127.94871767, 4107.17948691, 4108.33333306, 4126.92307665, 4192.30769217,8.57
4140.64102544, 4132.56410229, 4134.99999973, 4113.07692280, 4126.02564075, 4098.33333299, 4053.97435856, 4038.20512779, 4133.97435870, 4130.89743562, 4112.43589716, 4127.82051255, 4134.10256383, 4196.66666653,8.57
4111.92307665, 4120.12820485, 4112.56410229, 4102.43589709, 4120.76923050, 4103.33333306, 4059.23076882, 4041.02564061, 4140.64102544, 4129.23076896, 4107.82051255, 4112.43589716, 4127.69230742, 4190.38461525,8.57
4115.89743562, 4119.10256383, 4117.05128178, 4099.87179453, 4118.58974332, 4093.46153812, 4048.58974318, 4031.41025593, 4129.10256383, 4129.61538434, 4104.99999973, 4112.94871767, 4128.84615357, 4196.41025628,8.57
4133.84615357, 4129.87179460, 4130.12820485, 4106.02564075, 4126.15384588, 4081.53846119, 4036.92307651, 4024.48717900, 4117.94871767, 4129.61538434, 4104.23076896, 4120.76923050, 4130.38461511, 4196.53846140,8.57
4105.25640998, 4110.38461511, 4101.66666632, 4092.30769196, 4119.10256383, 4091.66666632, 4046.28205087, 4038.20512779, 4133.20512793, 4125.64102537, 4102.69230742, 4104.35897408, 4121.28205101, 4193.20512807,8.57
4127.30769203, 4128.97435870, 4127.17948691, 4107.94871767, 4124.99999973, 4102.43589709, 4054.99999959, 4046.15384574, 4143.07692287, 4127.82051255, 4108.20512793, 4120.51282024, 4129.48717921, 4195.51282038,8.57
4107.17948691, 4115.38461511, 4111.53846126, 4098.58974325, 4121.02564075, 4094.10256376, 4051.15384574, 4038.97435856, 4137.43589723, 4130.64102537, 4106.02564075, 4107.69230742, 4125.25640998, 4190.64102551,8.57
4114.87179460, 4114.61538434, 4116.92307665, 4102.17948684, 4116.28205101, 4084.35897402, 4038.07692266, 4025.64102516, 4133.58974332, 4126.92307665, 4106.66666639, 4111.02564075, 4123.84615357, 4194.74358961,8.57
4132.56410229, 4132.17948691, 4136.79487159, 4116.28205101, 4123.84615357, 4087.30769196, 4033.33333285, 4022.82051234, 4135.64102544, 4125.38461511, 4108.46153819, 4123.97435870, 4131.79487152, 4192.05128192,8.57
4096.15384581, 4110.12820485, 4106.02564075, 4093.33333299, 4118.20512793, 4095.38461504, 4044.74358933, 4035.89743541, 4144.99999980, 4128.84615357, 4107.94871767, 4102.69230742, 4125.76923050, 4188.33333320,8.57
4132.17948691, 4131.79487152, 4137.69230749, 4108.84615357, 4124.10256383, 4090.25640991, 4041.02564061, 4033.58974311, 4143.46153826, 4131.28205101, 4113.33333306, 4121.66666639, 4130.89743562, 4193.20512807,8.57
4124.23076896, 4125.38461511, 4127.56410229, 4109.10256383, 4122.43589716, 4091.79487145, 4043.07692266, 4034.61538413, 4143.20512800, 4128.71794844, 4106.41025614, 4116.79487152, 4129.48717921, 4186.53846140,8.57
4114.61538434, 4115.12820485, 4116.02564075, 4101.53846119, 4119.48717921, 4108.07692280, 4060.25640984, 4045.25640984, 4148.71794851, 4128.07692280, 4103.97435870, 4114.23076896, 4128.46153819, 4192.05128192,8.57
4142.43589723, 4138.07692287, 4141.92307672, 4114.10256383, 4130.89743562, 4103.33333306, 4050.64102523, 4032.43589695, 4136.15384595, 4129.99999973, 4108.33333306, 4127.94871767, 4130.76923050, 4197.82051269,8.57
4109.23076896, 4117.05128178, 4109.74358947, 4098.46153812, 4120.89743562, 4093.20512786, 4038.58974318, 4022.94871747, 4125.51282024, 4128.20512793, 4101.66666632, 4106.41025614, 4122.56410229, 4195.25641012,8.57
4129.61538434, 4126.66666639, 4127.43589716, 4109.10256383, 4121.02564075, 4102.30769196, 4049.87179446, 4035.38461490, 4131.28205101, 4129.10256383, 4102.17948684, 4124.87179460, 4131.53846126, 4200.12820499,8.57
4127.82051255, 4125.89743562, 4125.64102537, 4106.41025614, 4125.25640998, 4105.25640998, 4052.82051241, 4040.25640984, 4136.66666646, 4130.25640998, 4104.48717921, 4120.38461511, 4130.64102537, 4194.10256397,8.57
4112.30769203, 4116.92307665, 4109.35897408, 4094.48717914, 4120.12820485, 4094.87179453, 4041.15384574, 4031.79487131, 4132.82051255, 4129.10256383, 4102.94871767, 4106.15384588, 4126.41025614, 4194.35897422,8.57
4135.25640998, 4136.28205108, 4132.69230742, 4111.02564075, 4126.79487152, 4091.02564068, 4036.92307651, 4029.10256362, 4130.51282024, 4129.74358947, 4101.66666632, 4123.97435870, 4132.69230742, 4197.17948704,8.57
4106.66666639, 4112.30769203, 4106.15384588, 4096.92307658, 4121.15384588, 4096.02564068, 4041.53846113, 4032.94871747, 4134.99999973, 4129.48717921, 4100.38461504, 4106.28205101, 4123.58974332, 4191.79487166,8.57
4124.48717921, 4122.43589716, 4122.05128178, 4102.94871767, 4123.97435870, 4094.74358940, 4036.41025593, 4028.71794824, 4129.61538434, 4130.25640998, 4106.41025614, 4114.87179460, 4128.20512793, 4194.87179474,8.57
4119.87179460, 4125.76923050, 4123.71794844, 4106.28205101, 4127.56410229, 4094.74358940, 4037.05128164, 4031.66666618, 4128.46153819, 4130.51282024, 4104.74358947, 4113.71794844, 4130.76923050, 4191.28205115,8.57
4099.10256376, 4109.10256383, 4106.53846126, 4100.64102530, 4117.94871767, 4101.02564068, 4048.97435856, 4036.66666618, 4133.33333306, 4128.07692280, 4099.87179453, 4101.02564068, 4124.61538434, 4190.76923063,8.57
4133.20512793, 4134.35897408, 4138.33333313, 4118.20512793, 4126.15384588, 4100.38461504, 4049.10256369, 4021.92307644, 4118.33333306, 4128.07692280, 4101.15384581, 4118.58974332, 4129.74358947, 4189.61538448,8.57
4133.20512793, 4134.35897408, 4138.33333313, 4118.20512793, 4126.15384588, 4100.38461504, 4049.10256369, 4021.92307644, 4118.33333306, 4128.07692280, 4101.15384581, 4118.58974332, 4129.74358947, 4189.61538448,8.57
4104.61538434, 4117.30769203, 4109.23076896, 4096.41025607, 4123.20512793, 4101.41025607, 4054.10256369, 4026.15384567, 4116.66666639, 4128.20512793, 4099.48717914, 4104.23076896, 4122.69230742, 4183.71794858,8.57
4119.23076896, 4123.46153819, 4119.87179460, 4102.56410229, 4119.99999973, 4105.12820485, 4058.07692266, 4038.71794830, 4129.87179460, 4128.46153819, 4107.56410229, 4116.79487152, 4125.64102537, 4192.82051269,8.57
4133.58974332, 4136.53846133, 4134.61538434, 4119.35897408, 4126.28205101, 4102.56410229, 4049.74358933, 4026.66666618, 4124.61538434, 4128.58974332, 4107.69230742, 4125.25640998, 4128.71794844, 4193.71794858,8.57
4106.53846126, 4113.33333306, 4105.38461511, 4101.02564068, 4122.69230742, 4103.58974332, 4052.17948677, 4033.46153798, 4126.02564075, 4126.66666639, 4101.92307658, 4111.92307665, 4124.35897408, 4193.71794858,8.57
4140.25641005, 4130.76923050, 4135.64102544, 4112.82051255, 4128.33333306, 4098.46153812, 4052.94871754, 4049.87179446, 4138.97435877, 4127.43589716, 4108.20512793, 4131.41025614, 4134.99999973, 4199.48717935,8.57
4114.48717921, 4117.82051255, 4117.17948691, 4105.12820485, 4121.53846126, 4085.64102530, 4049.48717907, 4049.35897395, 4144.99999980, 4129.48717921, 4105.89743562, 4113.97435870, 4128.97435870, 4193.20512807,8.57
4114.87179460, 4118.84615357, 4116.02564075, 4104.74358947, 4118.97435870, 4083.71794837, 4050.51282010, 4045.38461497, 4140.89743569, 4129.61538434, 4104.87179460, 4118.84615357, 4129.35897408, 4197.17948704,8.57
4139.74358954, 4135.89743569, 4135.38461518, 4114.61538434, 4125.76923050, 4084.35897402, 4045.12820472, 4038.84615343, 4133.58974332, 4128.97435870, 4108.46153819, 4130.89743562, 4134.99999973, 4197.69230756,8.57
4105.38461511, 4114.23076896, 4107.69230742, 4097.56410222, 4117.56410229, 4080.89743555, 4041.53846113, 4034.48717900, 4135.76923056, 4128.46153819, 4106.53846126, 4104.99999973, 4123.46153819, 4192.05128192,8.57
4123.71794844, 4131.02564075, 4128.33333306, 4110.38461511, 4123.33333306, 4075.76923043, 4039.35897395, 4028.33333285, 4130.12820485, 4129.48717921, 4107.43589716, 4121.02564075, 4128.20512793, 4194.48717935,8.57
4113.84615357, 4121.41025614, 4112.94871767, 4105.76923050, 4121.66666639, 4075.51282017, 4040.25640984, 4030.64102516, 4125.51282024, 4129.48717921, 4105.51282024, 4115.89743562, 4126.92307665, 4190.12820499,8.57
4114.48717921, 4114.99999973, 4113.07692280, 4105.51282024, 4121.28205101, 4086.66666632, 4050.76923036, 4045.12820472, 4138.97435877, 4130.51282024, 4108.07692280, 4113.71794844, 4124.87179460, 4191.92307679,8.57
4129.35897408, 4130.76923050, 4136.28205108, 4119.99999973, 4132.43589716, 4099.10256376, 4062.56410215, 4052.69230728, 4149.10256390, 4130.51282024, 4110.89743562, 4123.97435870, 4129.35897408, 4192.56410243,8.57
4094.99999966, 4106.79487152, 4104.48717921, 4100.89743555, 4120.25640998, 4103.97435870, 4069.87179453, 4054.99999959, 4149.48717928, 4127.43589716, 4105.12820485, 4101.28205094, 4123.07692280, 4192.30769217,8.57
4127.43589716, 4126.02564075, 4133.20512793, 4114.48717921, 4120.25640998, 4095.64102530, 4066.66666625, 4060.25640984, 4152.82051262, 4129.48717921, 4105.76923050, 4118.84615357, 4129.23076896, 4195.76923063,8.57
4123.07692280, 4126.79487152, 4128.97435870, 4114.23076896, 4123.97435870, 4096.66666632, 4070.89743555, 4075.12820478, 4166.79487159, 4130.12820485, 4109.10256383, 4119.48717921, 4126.15384588, 4188.58974345,8.57
4111.28205101, 4116.66666639, 4111.66666639, 4106.15384588, 4120.51282024, 4109.23076896, 4080.38461504, 4077.30769196, 4167.43589723, 4127.94871767, 4114.23076896, 4113.07692280, 4123.33333306, 4194.74358961,8.57
4137.05128185, 4135.64102544, 4137.69230749, 4121.92307665, 4125.89743562, 4103.71794844, 4075.64102530, 4067.82051241, 4157.17948697, 4130.25640998, 4114.61538434, 4127.43589716, 4133.20512793, 4198.46153833,8.57
4103.58974332, 4112.17948691, 4109.23076896, 4104.61538434, 4115.38461511, 4094.48717914, 4068.71794830, 4070.51282017, 4159.35897415, 4129.99999973, 4107.30769203, 4113.33333306, 4127.69230742, 4190.64102551,8.57
4127.94871767, 4126.79487152, 4127.69230742, 4113.58974332, 4119.74358947, 4095.64102530, 4057.30769189, 4053.71794830, 4139.87179467, 4128.20512793, 4109.99999973, 4129.74358947, 4130.38461511, 4196.92307679,8.57
4127.94871767, 4130.12820485, 4128.84615357, 4115.12820485, 4126.15384588, 4100.25640991, 4057.69230728, 4038.20512779, 4122.94871767, 4126.66666639, 4108.58974332, 4120.76923050, 4128.84615357, 4195.38461525,8.57
4105.38461511, 4108.84615357, 4103.97435870, 4101.53846119, 4118.20512793, 4101.53846119, 4070.76923043, 4059.23076882, 4147.56410236, 4126.53846126, 4108.20512793, 4106.79487152, 4126.41025614, 4195.76923063,8.57
4139.35897415, 4131.79487152, 4132.05128178, 4120.38461511, 4126.53846126, 4094.74358940, 4061.92307651, 4066.02564061, 4157.94871774, 4128.71794844, 4114.23076896, 4131.41025614, 4135.38461518, 4198.46153833,8.57
4109.10256383, 4116.53846126, 4109.35897408, 4106.41025614, 4122.17948691, 4095.25640991, 4057.17948677, 4055.38461497, 4144.10256390, 4128.97435870, 4108.97435870, 4109.35897408, 4125.12820485, 4189.87179474,8.57
4117.30769203, 4120.38461511, 4118.20512793, 4105.51282024, 4121.53846126, 4099.61538427, 4068.58974318, 4063.20512779, 4148.20512800, 4129.74358947, 4107.69230742, 4111.92307665, 4126.41025614, 4192.43589730,8.57
4124.74358947, 4127.43589716, 4121.66666639, 4109.74358947, 4126.66666639, 4096.02564068, 4074.35897402, 4074.87179453, 4157.30769210, 4128.97435870, 4108.58974332, 4117.05128178, 4130.25640998, 4191.41025628,8.57
4099.23076889, 4110.76923050, 4098.71794837, 4098.84615350, 4119.48717921, 4102.94871767, 4084.10256376, 4074.99999966, 4153.20512800, 4126.28205101, 4108.71794844, 4104.87179460, 4124.99999973, 4189.87179474,8.57
4128.46153819, 4131.02564075, 4131.66666639, 4117.56410229, 4127.69230742, 4109.35897408, 4084.35897402, 4067.43589702, 4144.23076903, 4128.71794844, 4109.48717921, 4124.74358947, 4132.05128178, 4191.79487166,8.57
4102.82051255, 4114.35897408, 4109.74358947, 4105.64102537, 4124.35897408, 4100.38461504, 4075.25640991, 4065.38461497, 4146.02564082, 4129.74358947, 4105.51282024, 4104.87179460, 4124.35897408, 4188.20512807,8.57
4109.99999973, 4120.12820485, 4118.71794844, 4108.33333306, 4121.66666639, 4093.84615350, 4068.97435856, 4061.92307651, 4144.35897415, 4128.84615357, 4114.48717921, 4109.99999973, 4124.48717921, 4192.30769217,8.57
4132.05128178, 4134.74358947, 4137.17948697, 4120.12820485, 4128.97435870, 4090.64102530, 4061.02564061, 4051.66666625, 4134.10256383, 4128.71794844, 4115.12820485, 4126.28205101, 4130.25640998, 4185.76923063,8.57
4108.46153819, 4109.23076896, 4105.89743562, 4101.28205094, 4123.07692280, 4086.92307658, 4056.15384574, 4051.15384574, 4136.41025621, 4128.20512793, 4107.82051255, 4110.12820485, 4127.17948691, 4185.89743576,8.57
4134.23076896, 4129.87179460, 4134.35897408, 4116.15384588, 4126.41025614, 4084.61538427, 4054.48717907, 4049.23076882, 4136.66666646, 4130.12820485, 4115.51282024, 4129.10256383, 4134.61538434, 4198.71794858,8.57
4112.69230742, 4121.79487152, 4119.10256383, 4107.56410229, 4119.61538434, 4087.82051248, 4059.87179446, 4050.12820472, 4135.89743569, 4129.48717921, 4114.23076896, 4119.10256383, 4128.97435870, 4194.74358961,8.57
4118.46153819, 4118.07692280, 4115.51282024, 4102.56410229, 4117.05128178, 4089.48717914, 4064.10256369, 4062.17948677, 4146.28205108, 4128.84615357, 4112.17948691, 4116.53846126, 4130.51282024, 4197.43589730,8.57
4143.07692287, 4138.33333313, 4135.64102544, 4118.07692280, 4128.71794844, 4083.33333299, 4058.84615343, 4067.82051241, 4150.76923056, 4132.30769203, 4115.25640998, 4128.07692280, 4137.05128185, 4200.64102551,8.57
4102.05128171, 4113.71794844, 4101.66666632, 4101.41025607, 4121.79487152, 4083.58974325, 4057.17948677, 4061.41025600, 4142.43589723, 4130.12820485, 4109.23076896, 4108.97435870, 4124.35897408, 4196.92307679,8.57
4128.71794844, 4126.41025614, 4124.74358947, 4110.51282024, 4124.35897408, 4082.43589709, 4055.12820472, 4044.10256369, 4126.28205101, 4125.89743562, 4108.58974332, 4126.79487152, 4127.94871767, 4200.89743576,8.57
4125.38461511, 4125.89743562, 4120.25640998, 4106.79487152, 4124.10256383, 4079.10256376, 4055.25640984, 4038.58974318, 4122.69230742, 4127.05128178, 4109.61538434, 4121.28205101, 4128.20512793, 4197.30769217,8.57
4108.97435870, 4117.30769203, 4110.25640998, 4099.61538427, 4119.61538434, 4078.07692273, 4056.41025600, 4046.02564061, 4127.82051255, 4131.02564075, 4108.97435870, 4112.17948691, 4124.61538434, 4196.15384602,8.57
4128.20512793, 4129.48717921, 4132.05128178, 4113.58974332, 4127.94871767, 4074.74358940, 4054.35897395, 4041.79487138, 4119.23076896, 4131.79487152, 4108.71794844, 4123.20512793, 4128.07692280, 4193.07692294,8.57
4099.74358940, 4106.41025614, 4101.02564068, 4098.46153812, 4121.28205101, 4081.41025607, 4063.84615343, 4046.41025600, 4119.61538434, 4128.46153819, 4109.74358947, 4105.64102537, 4122.17948691, 4189.48717935,8.57
4121.92307665, 4124.87179460, 4123.84615357, 4114.10256383, 4125.76923050, 4090.12820478, 4070.64102530, 4060.25640984, 4132.17948691, 4128.97435870, 4118.58974332, 4120.51282024, 4130.12820485, 4195.38461525,8.57
4120.25640998, 4126.92307665, 4126.15384588, 4117.94871767, 4128.33333306, 4088.33333299, 4070.64102530, 4062.94871754, 4136.53846133, 4129.23076896, 4116.66666639, 4113.33333306, 4128.46153819, 4188.84615371,8.57
4104.74358947, 4112.05128178, 4107.69230742, 4100.38461504, 4118.71794844, 4081.28205094, 4067.82051241, 4057.17948677, 4135.89743569, 4126.79487152, 4111.41025614, 4103.71794844, 4121.41025614, 4191.66666653,8.57
4134.23076896, 4133.07692280, 4136.53846133, 4112.56410229, 4125.89743562, 4074.48717914, 4054.99999959, 4053.58974318, 4135.38461518, 4128.58974332, 4115.64102537, 4126.92307665, 4129.99999973, 4196.41025628,8.57
4110.25640998, 4112.94871767, 4111.66666639, 4103.71794844, 4121.92307665, 4076.53846119, 4055.51282010, 4062.56410215, 4145.51282031, 4127.69230742, 4116.79487152, 4113.20512793, 4125.64102537, 4189.23076910,8.57
4133.58974332, 4127.05128178, 4128.71794844, 4113.07692280, 4124.23076896, 4080.12820478, 4062.05128164, 4056.79487138, 4141.66666646, 4125.51282024, 4122.56410229, 4126.79487152, 4130.64102537, 4194.87179474,8.57
4135.38461518, 4134.23076896, 4134.87179460, 4113.46153819, 4127.05128178, 4078.20512786, 4058.46153805, 4041.66666625, 4123.07692280, 4126.66666639, 4121.79487152, 4127.05128178, 4132.94871767, 4196.41025628,8.57
4107.05128178, 4109.48717921, 4104.48717921, 4098.71794837, 4116.41025614, 4081.79487145, 4059.74358933, 4056.15384574, 4127.82051255, 4127.43589716, 4117.43589716, 4112.17948691, 4127.69230742, 4197.05128192,8.57
4140.38461518, 4132.69230742, 4131.15384588, 4116.92307665, 4124.48717921, 4085.89743555, 4066.92307651, 4072.43589709, 4136.28205108, 4128.71794844, 4119.10256383, 4134.23076896, 4134.10256383, 4199.10256397,8.57
4111.15384588, 4118.84615357, 4108.84615357, 4103.58974332, 4123.46153819, 4084.35897402, 4073.84615350, 4067.56410215, 4137.30769210, 4128.33333306, 4115.12820485, 4113.84615357, 4124.48717921, 4193.71794858,8.57
4116.66666639, 4118.84615357, 4113.58974332, 4109.10256383, 4122.05128178, 4079.23076889, 4065.25640984, 4052.30769189, 4132.82051255, 4128.46153819, 4115.76923050, 4115.51282024, 4124.10256383, 4197.94871781,8.57
4131.02564075, 4129.23076896, 4124.35897408, 4118.33333306, 4125.64102537, 4074.87179453, 4051.66666625, 4044.35897395, 4123.07692280, 4128.71794844, 4113.07692280, 4122.82051255, 4128.58974332, 4194.87179474,8.57
4101.15384581, 4106.92307665, 4098.07692273, 4097.56410222, 4118.71794844, 4079.10256376, 4065.51282010, 4059.48717907, 4129.10256383, 4127.69230742, 4108.84615357, 4105.12820485, 4121.53846126, 4192.82051269,8.57
4129.23076896, 4127.56410229, 4128.58974332, 4116.41025614, 4127.94871767, 4082.43589709, 4081.53846119, 4073.71794837, 4142.05128185, 4127.94871767, 4116.79487152, 4121.66666639, 4127.69230742, 4196.53846140,8.57
4105.64102537, 4118.33333306, 4111.79487152, 4113.46153819, 4123.97435870, 4082.56410222, 4080.64102530, 4080.38461504, 4148.58974339, 4128.33333306, 4116.28205101, 4105.38461511, 4123.97435870, 4189.61538448,8.57
4108.07692280, 4115.51282024, 4114.61538434, 4109.87179460, 4118.84615357, 4084.48717914, 4078.97435863, 4083.97435863, 4146.66666646, 4130.89743562, 4115.76923050, 4106.66666639, 4125.38461511, 4193.07692294,8.57
4135.64102544, 4131.15384588, 4138.20512800, 4122.69230742, 4127.05128178, 4081.66666632, 4077.82051248, 4081.15384581, 4142.43589723, 4130.64102537, 4119.87179460, 4120.89743562, 4131.53846126, 4191.92307679,8.57
4103.84615357, 4111.53846126, 4108.97435870, 4108.71794844, 4118.71794844, 4079.10256376, 4077.17948684, 4081.41025607, 4144.10256390, 4127.05128178, 4118.07692280, 4103.46153819, 4122.43589716, 4187.94871781,8.57
4129.99999973, 4132.17948691, 4132.94871767, 4120.38461511, 4121.79487152, 4077.43589709, 4073.84615350, 4074.99999966, 4135.25640998, 4128.71794844, 4118.97435870, 4124.10256383, 4128.97435870, 4197.05128192,8.57
4121.92307665, 4125.64102537, 4120.38461511, 4113.71794844, 4123.07692280, 4078.97435863, 4073.71794837, 4063.20512779, 4127.05128178, 4130.38461511, 4116.66666639, 4118.33333306, 4128.58974332, 4195.76923063,8.57
4116.28205101, 4118.58974332, 4115.25640998, 4110.51282024, 4121.15384588, 4082.56410222, 4075.76923043, 4061.66666625, 4132.05128178, 4128.33333306, 4118.84615357, 4115.12820485, 4125.51282024, 4197.05128192,8.57
4140.12820492, 4138.97435877, 4143.84615364, 4126.92307665, 4130.64102537, 4080.89743555, 4074.23076889, 4063.33333292, 4131.66666639, 4128.71794844, 4118.33333306, 4128.46153819, 4131.28205101, 4197.43589730,8.57
4104.74358947, 4110.51282024, 4106.53846126, 4106.53846126, 4119.48717921, 4086.15384581, 4083.46153812, 4071.79487145, 4136.02564082, 4129.35897408, 4112.05128178, 4105.76923050, 4127.05128178, 4197.43589730,8.57
4128.20512793, 4124.61538434, 4123.71794844, 4114.61538434, 4118.71794844, 4087.56410222, 4080.64102530, 4072.94871761, 4137.30769210, 4129.23076896, 4118.07692280, 4121.28205101, 4131.79487152, 4200.76923063,8.57
4125.64102537, 4129.99999973, 4124.61538434, 4114.48717921, 4122.43589716, 4079.61538427, 4067.05128164, 4059.10256369, 4126.41025614, 4128.46153819, 4113.97435870, 4118.58974332, 4127.94871767, 4189.61538448,8.57
4107.30769203, 4112.05128178, 4105.64102537, 4104.23076896, 4117.30769203, 4083.97435863, 4073.07692273, 4051.41025600, 4120.25640998, 4127.30769203, 4109.87179460, 4105.89743562, 4126.53846126, 4194.48717935,8.57
4133.58974332, 4129.48717921, 4128.46153819, 4120.76923050, 4124.87179460, 4082.30769196, 4069.99999966, 4044.10256369, 4110.76923050, 4127.82051255, 4114.74358947, 4120.64102537, 4134.23076896, 4200.38461525,8.57
4102.56410229, 4112.17948691, 4099.23076889, 4105.51282024, 4119.10256383, 4068.07692266, 4054.48717907, 4042.43589702, 4107.56410229, 4127.30769203, 4109.35897408, 4101.66666632, 4122.17948691, 4190.89743576,8.57
4118.97435870, 4123.33333306, 4120.25640998, 4115.25640998, 4121.79487152, 4068.33333292, 4058.20512779, 4053.33333292, 4119.87179460, 4128.84615357, 4112.69230742, 4112.43589716, 4125.25640998, 4193.84615371,8.57
4120.89743562, 4128.07692280, 4129.99999973, 4119.48717921, 4127.30769203, 4080.76923043, 4077.94871761, 4070.89743555, 4137.56410236, 4129.87179460, 4119.23076896, 4110.89743562, 4129.10256383, 4192.43589730,8.57
4099.35897402, 4109.61538434, 4103.97435870, 4102.17948684, 4119.74358947, 4086.53846119, 4089.23076889, 4087.56410222, 4147.82051262, 4127.43589716, 4115.64102537, 4097.43589709, 4123.07692280, 4192.30769217,8.57
4133.97435870, 4133.20512793, 4134.23076896, 4121.79487152, 4125.51282024, 4083.07692273, 4086.02564068, 4088.20512786, 4142.82051262, 4129.61538434, 4113.07692280, 4121.28205101, 4127.82051255, 4191.28205115,8.57
4106.53846126, 4117.56410229, 4113.84615357, 4112.43589716, 4120.64102537, 4085.12820478, 4090.12820478, 4086.41025607, 4143.33333313, 4130.89743562, 4112.82051255, 4108.33333306, 4122.30769203, 4186.15384602,8.57
4117.94871767, 4121.66666639, 4121.02564075, 4113.97435870, 4123.20512793, 4085.64102530, 4085.64102530, 4075.38461504, 4138.71794851, 4129.10256383, 4119.48717921, 4115.25640998, 4128.20512793, 4195.64102551,8.57
4134.99999973, 4131.92307665, 4130.76923050, 4122.69230742, 4125.51282024, 4082.82051248, 4079.61538427, 4065.89743548, 4130.12820485, 4127.82051255, 4119.23076896, 4118.58974332, 4132.30769203, 4194.10256397,8.57
4106.92307665, 4111.28205101, 4104.74358947, 4108.58974332, 4111.53846126, 4089.23076889, 4090.12820478, 4077.94871761, 4136.28205108, 4127.43589716, 4114.87179460, 4103.20512793, 4125.89743562, 4190.51282038,8.57
4136.53846133, 4134.35897408, 4136.92307672, 4126.15384588, 4122.17948691, 4085.51282017, 4081.28205094, 4072.69230735, 4129.48717921, 4129.35897408, 4119.23076896, 4126.41025614, 4133.46153819, 4197.94871781,8.57
4116.41025614, 4122.56410229, 4118.20512793, 4116.79487152, 4123.71794844, 4073.46153812, 4064.23076882, 4061.66666625, 4120.25640998, 4128.58974332, 4114.87179460, 4108.58974332, 4126.53846126, 4196.02564089,8.57
4117.43589716, 4120.76923050, 4117.56410229, 4112.05128178, 4119.48717921, 4067.56410215, 4060.12820472, 4064.10256369, 4120.64102537, 4128.46153819, 4111.02564075, 4105.76923050, 4128.58974332, 4197.05128192,8.57
4134.61538434, 4134.23076896, 4133.07692280, 4119.48717921, 4124.35897408, 4063.07692266, 4053.71794830, 4050.38461497, 4104.74358947, 4129.35897408, 4110.25640998, 4118.71794844, 4136.41025621, 4195.38461525,8.57
4104.10256383, 4108.20512793, 4099.10256376, 4101.41025607, 4117.17948691, 4068.84615343, 4057.43589702, 4043.33333292, 4098.46153812, 4128.46153819, 4106.28205101, 4099.35897402, 4125.76923050, 4195.12820499,8.57
4130.64102537, 4125.51282024, 4123.20512793, 4116.79487152, 4124.35897408, 4075.76923043, 4062.82051241, 4051.02564061, 4109.35897408, 4129.87179460, 4107.56410229, 4113.20512793, 4130.12820485, 4199.23076910,8.57
4114.48717921, 4117.17948691, 4114.48717921, 4113.46153819, 4122.30769203, 4070.64102530, 4057.30769189, 4047.43589702, 4108.33333306, 4129.48717921, 4104.61538434, 4104.35897408, 4130.38461511, 4190.64102551,8.57
4113.97435870, 4109.99999973, 4113.07692280, 4111.53846126, 4118.33333306, 4065.76923036, 4054.10256369, 4039.10256369, 4098.20512786, 4128.33333306, 4107.05128178, 4102.17948684, 4127.30769203, 4190.76923063,8.57
4140.12820492, 4132.56410229, 4135.25640998, 4126.15384588, 4129.10256383, 4068.97435856, 4060.89743548, 4045.25640984, 4098.97435863, 4129.87179460, 4109.35897408, 4110.64102537, 4128.97435870, 4191.66666653,8.57
4100.25640991, 4113.97435870, 4102.82051255, 4107.05128178, 4119.99999973, 4072.69230735, 4068.07692266, 4063.84615343, 4115.12820485, 4130.38461511, 4104.48717921, 4089.48717914, 4122.94871767, 4188.46153833,8.57
4123.71794844, 4129.87179460, 4131.79487152, 4117.82051255, 4121.79487152, 4068.33333292, 4064.87179446, 4069.99999966, 4120.12820485, 4130.51282024, 4108.58974332, 4110.25640998, 4130.76923050, 4191.79487166,8.57
4123.46153819, 4124.61538434, 4129.23076896, 4116.79487152, 4125.38461511, 4066.15384574, 4067.94871754, 4068.20512779, 4115.64102537, 4129.10256383, 4107.56410229, 4107.17948691, 4127.94871767, 4188.97435884,8.57
4111.79487152, 4111.28205101, 4111.79487152, 4109.74358947, 4119.61538434, 4073.58974325, 4078.33333299, 4072.17948684, 4120.25640998, 4127.69230742, 4106.41025614, 4101.41025607, 4123.97435870, 4197.05128192,8.57
4137.82051262, 4135.64102544, 4138.07692287, 4126.79487152, 4124.61538434, 4077.69230735, 4079.87179453, 4075.12820478, 4125.64102537, 4130.12820485, 4110.38461511, 4119.99999973, 4132.30769203, 4199.35897422,8.57
4105.25640998, 4116.66666639, 4109.23076896, 4110.25640998, 4117.30769203, 4079.35897402, 4079.87179453, 4069.10256369, 4120.12820485, 4129.10256383, 4109.35897408, 4101.02564068, 4125.51282024, 4192.94871781,8.57
4127.94871767, 4126.28205101, 4127.69230742, 4118.07692280, 4121.66666639, 4074.74358940, 4070.64102530, 4049.99999959, 4103.46153819, 4128.20512793, 4113.46153819, 4117.05128178, 4131.66666639, 4201.79487173,8.57
4132.17948691, 4128.20512793, 4128.97435870, 4120.76923050, 4126.79487152, 4073.33333299, 4066.79487138, 4051.53846113, 4107.30769203, 4130.51282024, 4112.43589716, 4118.20512793, 4132.82051255, 4198.71794858,8.57
4110.38461511, 4112.56410229, 4101.15384581, 4107.56410229, 4119.48717921, 4081.92307658, 4079.23076889, 4065.89743548, 4118.07692280, 4129.74358947, 4111.66666639, 4103.58974332, 4127.30769203, 4196.28205115,8.57
4136.02564082, 4132.69230742, 4125.76923050, 4112.82051255, 4124.61538434, 4076.02564068, 4074.61538427, 4054.35897395, 4102.17948684, 4127.69230742, 4114.74358947, 4121.15384588, 4134.74358947, 4197.43589730,8.57
4106.15384588, 4112.56410229, 4108.20512793, 4091.41025607, 4117.82051255, 4068.33333292, 4067.69230728, 4056.15384574, 4105.25640998, 4127.94871767, 4109.99999973, 4101.79487145, 4126.02564075, 4191.53846140,8.57
4119.99999973, 4120.12820485, 4122.94871767, 4102.17948684, 4120.64102537, 4067.43589702, 4067.82051241, 4064.61538420, 4117.56410229, 4130.38461511, 4110.51282024, 4106.66666639, 4126.41025614, 4197.17948704,8.57
4126.53846126, 4128.46153819, 4121.79487152, 4108.84615357, 4127.17948691, 4057.17948677, 4057.82051241, 4046.28205087, 4097.82051248, 4129.74358947, 4109.10256383, 4112.56410229, 4127.94871767, 4193.97435884,8.57
4099.48717914, 4108.84615357, 4095.76923043, 4089.61538427, 4118.71794844, 4056.53846113, 4059.99999959, 4048.07692266, 4092.30769196, 4127.94871767, 4106.15384588, 4099.23076889, 4123.07692280, 4191.66666653,8.57
4131.41025614, 4130.76923050, 4133.71794844, 4110.25640998, 4126.92307665, 4068.20512779, 4071.79487145, 4063.33333292, 4104.87179460, 4129.74358947, 4111.66666639, 4111.28205101, 4130.64102537, 4193.20512807,8.57
