AF3,F7,F3,FC5,T7,P7,O1,O2,P8,T8,FC6,F4,F8,AF4,Label
4114.87179460, 4120.51282024, 4119.99999973, 4120.76923050, 4122.17948691, 4096.41025607, 4117.05128178, 4108.46153819, 4093.84615350, 4125.25640998, 4105.12820485, 4135.64102544, 4130.12820485, 4192.43589730,8.57
4124.87179460, 4119.87179460, 4126.28205101, 4118.58974332, 4123.58974332, 4091.66666632, 4114.99999973, 4106.53846126, 4090.38461504, 4127.43589716, 4102.43589709, 4138.58974339, 4132.17948691, 4196.02564089,8.57
4123.97435870, 4123.20512793, 4122.94871767, 4117.56410229, 4124.87179460, 4093.71794837, 4111.53846126, 4098.97435863, 4091.28205094, 4131.66666639, 4102.56410229, 4143.97435877, 4132.56410229, 4195.64102551,8.57
4113.33333306, 4121.15384588, 4114.23076896, 4117.56410229, 4121.66666639, 4092.94871761, 4113.97435870, 4105.38461511, 4098.07692273, 4129.48717921, 4106.15384588, 4141.66666646, 4129.61538434, 4196.02564089,8.57
4127.69230742, 4128.58974332, 4127.69230742, 4126.02564075, 4127.05128178, 4090.25640991, 4116.41025614, 4114.23076896, 4101.53846119, 4124.74358947, 4107.30769203, 4143.84615364, 4133.07692280, 4196.15384602,8.57
4115.51282024, 4121.53846126, 4121.15384588, 4117.69230742, 4125.51282024, 4093.46153812, 4116.92307665, 4117.17948691, 4105.76923050, 4125.89743562, 4104.74358947, 4139.74358954, 4129.99999973, 4194.10256397,8.57
4117.82051255, 4123.58974332, 4123.46153819, 4116.41025614, 4122.69230742, 4096.53846119, 4114.99999973, 4119.99999973, 4108.84615357, 4129.48717921, 4105.38461511, 4141.28205108, 4126.53846126, 4197.56410243,8.57
4123.97435870, 4126.53846126, 4125.64102537, 4119.99999973, 4125.25640998, 4091.79487145, 4109.10256383, 4117.17948691, 4104.10256383, 4129.35897408, 4104.87179460, 4138.71794851, 4129.23076896, 4192.30769217,8.57
4113.71794844, 4118.33333306, 4118.84615357, 4114.48717921, 4123.46153819, 4087.69230735, 4110.12820485, 4114.74358947, 4101.41025607, 4127.56410229, 4104.87179460, 4136.66666646, 4130.51282024, 4190.25641012,8.57
4123.46153819, 4127.43589716, 4131.15384588, 4120.12820485, 4126.02564075, 4090.51282017, 4114.99999973, 4117.05128178, 4102.94871767, 4128.20512793, 4108.84615357, 4147.30769210, 4130.51282024, 4195.76923063,8.57
4117.43589716, 4126.02564075, 4124.35897408, 4120.38461511, 4126.79487152, 4092.43589709, 4112.05128178, 4116.41025614, 4102.17948684, 4127.94871767, 4108.20512793, 4142.43589723, 4127.43589716, 4192.69230756,8.57
4123.33333306, 4124.23076896, 4125.38461511, 4121.41025614, 4126.92307665, 4092.17948684, 4106.53846126, 4113.33333306, 4100.38461504, 4128.46153819, 4105.12820485, 4139.35897415, 4128.84615357, 4191.02564089,8.57
4128.07692280, 4126.41025614, 4128.33333306, 4124.23076896, 4126.02564075, 4092.05128171, 4108.20512793, 4109.87179460, 4097.05128171, 4129.74358947, 4103.33333306, 4143.71794851, 4128.46153819, 4192.30769217,8.57
4114.61538434, 4120.51282024, 4112.94871767, 4117.30769203, 4122.56410229, 4092.17948684, 4109.35897408, 4103.71794844, 4093.46153812, 4127.56410229, 4103.07692280, 4144.74358954, 4126.41025614, 4195.51282038,8.57
4128.58974332, 4128.33333306, 4126.28205101, 4118.84615357, 4126.15384588, 4094.23076889, 4109.23076896, 4102.56410229, 4094.61538427, 4128.07692280, 4106.41025614, 4147.94871774, 4129.61538434, 4196.41025628,8.57
4121.02564075, 4125.12820485, 4124.10256383, 4115.76923050, 4122.94871767, 4101.53846119, 4119.87179460, 4110.64102537, 4097.69230735, 4129.61538434, 4106.28205101, 4139.48717928, 4128.33333306, 4193.58974345,8.57
4116.28205101, 4122.05128178, 4118.33333306, 4116.15384588, 4123.58974332, 4108.46153819, 4128.58974332, 4118.46153819, 4101.79487145, 4127.30769203, 4104.99999973, 4143.84615364, 4130.25640998, 4198.58974345,8.57
4128.97435870, 4126.28205101, 4127.82051255, 4122.56410229, 4130.38461511, 4106.66666639, 4126.02564075, 4119.99999973, 4105.89743562, 4126.92307665, 4103.84615357, 4149.35897415, 4132.05128178, 4196.02564089,8.57
4116.79487152, 4117.30769203, 4118.07692280, 4115.76923050, 4121.92307665, 4102.94871767, 4125.38461511, 4118.33333306, 4105.89743562, 4129.23076896, 4102.69230742, 4137.82051262, 4130.25640998, 4193.33333320,8.57
4122.94871767, 4123.07692280, 4124.35897408, 4120.25640998, 4120.25640998, 4100.25640991, 4125.38461511, 4115.76923050, 4105.25640998, 4128.46153819, 4107.69230742, 4142.43589723, 4134.23076896, 4200.51282038,8.57
4119.48717921, 4123.33333306, 4122.56410229, 4121.79487152, 4125.64102537, 4099.87179453, 4123.97435870, 4121.41025614, 4111.79487152, 4128.33333306, 4107.94871767, 4142.56410236, 4132.30769203, 4197.30769217,8.57
4114.48717921, 4119.35897408, 4119.35897408, 4118.84615357, 4125.64102537, 4102.05128171, 4126.28205101, 4126.66666639, 4115.89743562, 4132.43589716, 4104.61538434, 4139.35897415, 4127.69230742, 4195.89743576,8.57
4123.97435870, 4126.66666639, 4130.89743562, 4122.69230742, 4125.89743562, 4098.71794837, 4122.05128178, 4113.07692280, 4106.53846126, 4133.07692280, 4107.82051255, 4142.30769210, 4130.64102537, 4197.30769217,8.57
4112.82051255, 4120.64102537, 4120.89743562, 4116.79487152, 4121.66666639, 4099.87179453, 4120.64102537, 4109.48717921, 4100.38461504, 4128.58974332, 4108.71794844, 4138.33333313, 4129.87179460, 4193.58974345,8.57
4123.07692280, 4124.74358947, 4124.87179460, 4118.58974332, 4124.10256383, 4111.41025614, 4129.74358947, 4129.48717921, 4110.51282024, 4128.33333306, 4104.99999973, 4142.56410236, 4129.99999973, 4193.97435884,8.57
4123.07692280, 4126.66666639, 4125.76923050, 4119.74358947, 4126.02564075, 4114.61538434, 4136.28205108, 4141.53846133, 4121.79487152, 4130.64102537, 4103.58974332, 4139.61538441, 4128.84615357, 4192.30769217,8.57
4113.58974332, 4121.79487152, 4121.53846126, 4119.87179460, 4123.84615357, 4106.02564075, 4131.41025614, 4131.53846126, 4120.38461511, 4128.33333306, 4107.43589716, 4138.20512800, 4126.79487152, 4194.99999986,8.57
4125.89743562, 4129.48717921, 4132.43589716, 4128.07692280, 4127.43589716, 4099.35897402, 4121.28205101, 4120.25640998, 4112.82051255, 4124.87179460, 4108.46153819, 4146.15384595, 4130.12820485, 4196.92307679,8.57
4116.15384588, 4122.43589716, 4119.48717921, 4121.66666639, 4125.25640998, 4101.92307658, 4124.87179460, 4128.46153819, 4115.25640998, 4126.02564075, 4104.35897408, 4137.82051262, 4127.56410229, 4193.33333320,8.57
4123.97435870, 4122.56410229, 4123.97435870, 4121.41025614, 4126.41025614, 4107.43589716, 4134.35897408, 4133.20512793, 4118.58974332, 4129.23076896, 4107.94871767, 4139.35897415, 4129.23076896, 4195.38461525,8.57
4126.66666639, 4126.15384588, 4130.12820485, 4124.87179460, 4127.05128178, 4107.56410229, 4132.05128178, 4126.41025614, 4115.51282024, 4127.05128178, 4110.51282024, 4144.10256390, 4132.30769203, 4193.33333320,8.57
4113.58974332, 4121.41025614, 4116.92307665, 4121.79487152, 4121.92307665, 4105.76923050, 4129.35897408, 4131.41025614, 4118.97435870, 4124.99999973, 4107.69230742, 4141.66666646, 4127.69230742, 4193.71794858,8.57
4128.33333306, 4127.69230742, 4125.38461511, 4127.30769203, 4125.51282024, 4107.69230742, 4133.97435870, 4137.43589723, 4123.46153819, 4128.46153819, 4108.58974332, 4145.64102544, 4128.46153819, 4197.17948704,8.57
4119.48717921, 4122.17948691, 4119.61538434, 4121.79487152, 4124.10256383, 4108.97435870, 4134.74358947, 4133.33333306, 4119.74358947, 4128.97435870, 4108.97435870, 4138.97435877, 4130.12820485, 4195.64102551,8.57
4119.35897408, 4121.53846126, 4121.02564075, 4119.61538434, 4123.46153819, 4105.51282024, 4130.64102537, 4133.46153819, 4116.15384588, 4128.33333306, 4108.20512793, 4142.43589723, 4132.56410229, 4195.25641012,8.57
4126.66666639, 4126.28205101, 4127.56410229, 4123.97435870, 4125.89743562, 4108.71794844, 4137.82051262, 4146.53846133, 4122.17948691, 4129.99999973, 4106.66666639, 4147.05128185, 4132.69230742, 4192.05128192,8.57
4111.41025614, 4117.94871767, 4116.66666639, 4118.46153819, 4118.20512793, 4119.23076896, 4148.46153826, 4154.10256390, 4131.41025614, 4129.87179460, 4106.66666639, 4139.10256390, 4129.74358947, 4194.35897422,8.57
4121.79487152, 4124.10256383, 4126.41025614, 4122.69230742, 4120.12820485, 4119.99999973, 4140.76923056, 4143.97435877, 4126.53846126, 4128.07692280, 4109.35897408, 4141.41025621, 4132.82051255, 4198.58974345,8.57
4119.23076896, 4122.94871767, 4121.28205101, 4119.23076896, 4125.51282024, 4113.33333306, 4132.82051255, 4140.76923056, 4118.20512793, 4128.58974332, 4106.92307665, 4139.48717928, 4133.20512793, 4192.43589730,8.57
4116.79487152, 4120.64102537, 4118.33333306, 4116.02564075, 4123.71794844, 4110.76923050, 4136.28205108, 4146.53846133, 4120.76923050, 4130.64102537, 4105.76923050, 4140.76923056, 4131.92307665, 4193.84615371,8.57
4124.87179460, 4125.12820485, 4129.23076896, 4124.61538434, 4126.02564075, 4111.66666639, 4135.12820485, 4139.10256390, 4119.74358947, 4128.46153819, 4106.15384588, 4141.15384595, 4131.41025614, 4196.41025628,8.57
4111.02564075, 4117.05128178, 4121.53846126, 4121.92307665, 4125.89743562, 4111.92307665, 4134.23076896, 4132.94871767, 4116.15384588, 4125.76923050, 4106.15384588, 4135.25640998, 4132.05128178, 4193.07692294,8.57
4119.74358947, 4123.58974332, 4127.56410229, 4121.66666639, 4124.35897408, 4109.48717921, 4132.82051255, 4136.28205108, 4116.53846126, 4127.17948691, 4107.94871767, 4141.28205108, 4136.41025621, 4194.61538448,8.57
4119.87179460, 4125.51282024, 4123.97435870, 4118.46153819, 4121.79487152, 4109.99999973, 4130.51282024, 4139.74358954, 4118.07692280, 4128.07692280, 4106.66666639, 4138.20512800, 4131.41025614, 4194.35897422,8.57
4116.92307665, 4120.51282024, 4121.79487152, 4120.25640998, 4123.33333306, 4114.74358947, 4134.74358947, 4143.71794851, 4123.33333306, 4127.94871767, 4104.61538434, 4137.94871774, 4129.48717921, 4195.38461525,8.57
4127.94871767, 4125.64102537, 4130.64102537, 4127.56410229, 4127.82051255, 4114.74358947, 4134.74358947, 4138.20512800, 4122.69230742, 4129.74358947, 4103.84615357, 4143.58974339, 4134.74358947, 4193.20512807,8.57
4117.17948691, 4120.25640998, 4117.94871767, 4120.12820485, 4121.53846126, 4108.97435870, 4128.07692280, 4126.28205101, 4114.61538434, 4130.64102537, 4105.25640998, 4139.23076903, 4130.51282024, 4191.41025628,8.57
4124.10256383, 4127.82051255, 4126.66666639, 4122.82051255, 4122.17948691, 4105.38461511, 4119.48717921, 4116.41025614, 4107.05128178, 4129.10256383, 4107.17948691, 4145.76923056, 4128.71794844, 4199.10256397,8.57
4122.17948691, 4129.99999973, 4129.74358947, 4124.10256383, 4125.64102537, 4104.61538434, 4118.46153819, 4108.97435870, 4105.38461511, 4130.12820485, 4104.35897408, 4144.61538441, 4130.38461511, 4197.82051269,8.57
4117.17948691, 4122.56410229, 4119.87179460, 4120.25640998, 4123.33333306, 4108.20512793, 4126.53846126, 4114.87179460, 4111.66666639, 4130.76923050, 4104.61538434, 4139.48717928, 4131.41025614, 4194.87179474,8.57
4131.41025614, 4128.71794844, 4127.43589716, 4125.64102537, 4124.61538434, 4112.05128178, 4131.15384588, 4126.79487152, 4116.92307665, 4128.07692280, 4108.46153819, 4144.87179467, 4132.56410229, 4193.46153833,8.57
4115.38461511, 4120.89743562, 4116.41025614, 4118.84615357, 4120.64102537, 4112.56410229, 4136.66666646, 4138.71794851, 4121.79487152, 4126.15384588, 4106.15384588, 4139.99999980, 4129.74358947, 4192.30769217,8.57
4118.20512793, 4123.20512793, 4120.12820485, 4119.23076896, 4122.94871767, 4114.23076896, 4147.05128185, 4148.46153826, 4131.02564075, 4127.82051255, 4105.51282024, 4142.43589723, 4129.48717921, 4199.10256397,8.57
4124.99999973, 4128.33333306, 4125.51282024, 4124.48717921, 4126.15384588, 4118.97435870, 4154.99999980, 4158.46153826, 4139.61538441, 4128.97435870, 4108.97435870, 4142.82051262, 4127.94871767, 4197.17948704,8.57
4114.23076896, 4117.56410229, 4114.61538434, 4117.56410229, 4121.15384588, 4123.97435870, 4158.33333313, 4171.28205115, 4144.23076903, 4127.43589716, 4110.25640998, 4138.33333313, 4128.46153819, 4193.84615371,8.57
4124.23076896, 4122.69230742, 4122.82051255, 4120.25640998, 4125.38461511, 4119.23076896, 4155.51282031, 4172.05128192, 4145.51282031, 4127.43589716, 4109.35897408, 4141.66666646, 4132.17948691, 4195.12820499,8.57
4113.58974332, 4123.33333306, 4116.79487152, 4119.61538434, 4123.58974332, 4112.43589716, 4149.61538441, 4161.28205108, 4142.94871774, 4128.84615357, 4106.92307665, 4136.79487159, 4128.58974332, 4192.30769217,8.57
4114.23076896, 4124.35897408, 4120.12820485, 4120.12820485, 4119.23076896, 4119.10256383, 4152.17948697, 4165.76923056, 4145.25641005, 4129.87179460, 4108.07692280, 4139.61538441, 4129.74358947, 4193.71794858,8.57
4121.92307665, 4126.28205101, 4126.79487152, 4121.79487152, 4124.61538434, 4122.56410229, 4156.79487159, 4177.05128192, 4149.48717928, 4129.23076896, 4110.51282024, 4141.41025621, 4129.99999973, 4193.33333320,8.57
4109.48717921, 4120.64102537, 4114.99999973, 4117.69230742, 4124.99999973, 4116.28205101, 4150.12820492, 4164.87179467, 4147.17948697, 4128.97435870, 4111.66666639, 4137.82051262, 4126.28205101, 4190.51282038,8.57
4121.92307665, 4129.23076896, 4125.64102537, 4125.38461511, 4123.33333306, 4116.53846126, 4145.25641005, 4153.07692287, 4147.43589723, 4129.74358947, 4111.02564075, 4144.23076903, 4130.76923050, 4188.97435884,8.57
4116.79487152, 4124.61538434, 4119.35897408, 4121.53846126, 4121.41025614, 4125.76923050, 4158.84615364, 4168.58974345, 4148.46153826, 4128.84615357, 4106.41025614, 4138.33333313, 4130.25640998, 4188.07692294,8.57
4115.89743562, 4120.64102537, 4117.17948691, 4118.84615357, 4123.20512793, 4129.10256383, 4174.48717935, 4183.07692294, 4142.82051262, 4129.35897408, 4108.20512793, 4137.30769210, 4128.07692280, 4194.61538448,8.57
4129.99999973, 4127.69230742, 4131.28205101, 4125.89743562, 4126.28205101, 4126.53846126, 4175.12820499, 4181.15384602, 4142.94871774, 4130.12820485, 4110.38461511, 4140.25641005, 4129.99999973, 4194.35897422,8.57
4117.94871767, 4120.25640998, 4120.51282024, 4117.82051255, 4122.69230742, 4131.28205101, 4177.56410243, 4182.56410243, 4149.74358954, 4127.94871767, 4106.92307665, 4136.92307672, 4129.99999973, 4191.02564089,8.57
4123.71794844, 4124.74358947, 4123.58974332, 4123.20512793, 4124.99999973, 4137.82051262, 4187.30769217, 4189.61538448, 4150.76923056, 4128.20512793, 4109.48717921, 4146.41025621, 4131.53846126, 4193.84615371,8.57
4119.48717921, 4123.84615357, 4121.41025614, 4126.15384588, 4124.99999973, 4142.43589723, 4197.56410243, 4201.66666660, 4158.46153826, 4129.35897408, 4112.94871767, 4144.99999980, 4129.99999973, 4193.97435884,8.57
4119.48717921, 4118.84615357, 4120.51282024, 4120.12820485, 4124.23076896, 4147.17948697, 4204.74358968, 4213.97435891, 4171.15384602, 4129.10256383, 4112.94871767, 4141.15384595, 4132.30769203, 4196.79487166,8.57
4131.92307665, 4126.79487152, 4133.46153819, 4125.89743562, 4130.38461511, 4148.71794851, 4203.33333327, 4208.20512814, 4169.99999986, 4128.58974332, 4109.99999973, 4143.46153826, 4134.35897408, 4194.10256397,8.57
4112.30769203, 4118.84615357, 4119.48717921, 4120.76923050, 4124.87179460, 4153.97435877, 4210.64102558, 4210.89743583, 4171.79487166, 4127.94871767, 4107.17948691, 4138.07692287, 4128.84615357, 4192.30769217,8.57
4122.69230742, 4124.23076896, 4125.12820485, 4121.02564075, 4122.17948691, 4159.10256390, 4214.48717942, 4217.69230763, 4177.17948704, 4127.56410229, 4110.38461511, 4144.99999980, 4130.12820485, 4198.20512807,8.57
4124.74358947, 4129.87179460, 4127.94871767, 4122.82051255, 4123.71794844, 4151.02564082, 4194.10256397, 4199.48717935, 4168.20512807, 4128.20512793, 4112.30769203, 4142.17948697, 4132.43589716, 4195.25641012,8.57
4112.05128178, 4121.15384588, 4116.02564075, 4118.07692280, 4121.79487152, 4146.92307672, 4187.17948704, 4190.38461525, 4164.87179467, 4129.10256383, 4111.79487152, 4136.53846133, 4130.12820485, 4195.38461525,8.57
4129.61538434, 4126.28205101, 4125.64102537, 4124.10256383, 4124.61538434, 4158.71794851, 4205.51282045, 4208.58974352, 4174.99999986, 4129.48717921, 4110.76923050, 4143.84615364, 4129.61538434, 4196.28205115,8.57
4114.74358947, 4118.07692280, 4117.94871767, 4118.07692280, 4120.25640998, 4160.38461518, 4206.41025634, 4209.35897429, 4173.84615371, 4130.38461511, 4109.48717921, 4139.48717928, 4129.35897408, 4194.35897422,8.57
4118.07692280, 4122.69230742, 4125.12820485, 4122.43589716, 4121.92307665, 4145.38461518, 4179.74358961, 4183.46153833, 4162.30769210, 4131.66666639, 4108.97435870, 4139.23076903, 4132.30769203, 4196.41025628,8.57
4127.43589716, 4132.30769203, 4129.74358947, 4128.58974332, 4126.79487152, 4138.84615364, 4172.69230756, 4187.82051269, 4164.74358954, 4131.66666639, 4105.89743562, 4138.58974339, 4130.12820485, 4190.89743576,8.57
4109.23076896, 4117.43589716, 4112.56410229, 4116.66666639, 4121.41025614, 4146.15384595, 4194.99999986, 4217.30769224, 4179.74358961, 4129.35897408, 4107.17948691, 4139.10256390, 4127.82051255, 4188.58974345,8.57
4123.58974332, 4124.35897408, 4126.02564075, 4123.58974332, 4124.87179460, 4147.69230749, 4200.89743576, 4213.84615378, 4179.99999986, 4128.07692280, 4110.51282024, 4144.74358954, 4130.89743562, 4190.38461525,8.57
4119.35897408, 4125.25640998, 4122.17948691, 4124.23076896, 4125.25640998, 4146.53846133, 4196.28205115, 4200.25641012, 4174.87179474, 4130.38461511, 4110.38461511, 4135.51282031, 4127.43589716, 4188.58974345,8.57
4119.23076896, 4123.33333306, 4121.92307665, 4120.89743562, 4122.56410229, 4152.82051262, 4204.35897429, 4205.76923070, 4176.66666653, 4130.64102537, 4111.66666639, 4139.99999980, 4127.17948691, 4195.25641012,8.57
4127.69230742, 4130.38461511, 4129.35897408, 4128.20512793, 4123.84615357, 4155.51282031, 4206.53846147, 4204.74358968, 4172.17948704, 4127.56410229, 4110.51282024, 4143.33333313, 4129.23076896, 4195.38461525,8.57
4111.92307665, 4116.15384588, 4111.15384588, 4121.15384588, 4119.99999973, 4156.79487159, 4201.15384609, 4194.23076910, 4162.82051262, 4126.92307665, 4109.99999973, 4132.69230742, 4128.07692280, 4191.79487166,8.57
4128.71794844, 4123.97435870, 4126.66666639, 4123.33333306, 4126.41025614, 4163.20512800, 4202.69230763, 4187.17948704, 4153.97435877, 4130.38461511, 4112.82051255, 4138.97435877, 4131.15384588, 4195.38461525,8.57
4122.43589716, 4127.94871767, 4123.84615357, 4121.92307665, 4125.89743562, 4154.87179467, 4194.74358961, 4181.92307679, 4148.20512800, 4128.84615357, 4111.02564075, 4138.97435877, 4129.35897408, 4193.71794858,8.57
4115.12820485, 4118.71794844, 4113.71794844, 4119.35897408, 4117.94871767, 4135.38461518, 4171.15384602, 4176.02564089, 4148.33333313, 4127.05128178, 4110.38461511, 4136.28205108, 4127.94871767, 4193.46153833,8.57
4133.20512793, 4126.66666639, 4131.15384588, 4126.92307665, 4124.48717921, 4133.58974332, 4162.56410236, 4170.38461525, 4150.12820492, 4131.02564075, 4113.07692280, 4136.79487159, 4130.38461511, 4193.58974345,8.57
4112.30769203, 4119.35897408, 4115.38461511, 4117.30769203, 4123.07692280, 4145.25641005, 4178.33333320, 4178.84615371, 4156.79487159, 4131.02564075, 4113.07692280, 4132.05128178, 4129.48717921, 4195.89743576,8.57
4119.35897408, 4121.15384588, 4118.07692280, 4121.79487152, 4121.41025614, 4147.82051262, 4186.02564089, 4191.53846140, 4161.79487159, 4127.30769203, 4110.89743562, 4138.84615364, 4130.51282024, 4199.35897422,8.57
4123.97435870, 4123.84615357, 4122.82051255, 4128.46153819, 4123.58974332, 4146.53846133, 4183.58974345, 4191.92307679, 4159.74358954, 4126.79487152, 4110.12820485, 4135.76923056, 4129.48717921, 4193.07692294,8.57
4113.20512793, 4122.05128178, 4116.15384588, 4123.97435870, 4122.43589716, 4149.23076903, 4188.07692294, 4193.07692294, 4159.10256390, 4129.99999973, 4111.28205101, 4133.58974332, 4129.48717921, 4196.92307679,8.57
4127.43589716, 4129.61538434, 4127.94871767, 4129.61538434, 4124.48717921, 4149.87179467, 4194.99999986, 4198.20512807, 4159.99999980, 4129.48717921, 4108.84615357, 4137.43589723, 4131.92307665, 4200.38461525,8.57
4112.43589716, 4115.25640998, 4113.58974332, 4122.17948691, 4119.74358947, 4148.46153826, 4201.15384609, 4202.69230763, 4163.58974339, 4126.28205101, 4106.02564075, 4130.12820485, 4129.61538434, 4193.84615371,8.57
4118.07692280, 4118.84615357, 4118.84615357, 4124.61538434, 4121.53846126, 4143.46153826, 4199.35897422, 4201.79487173, 4165.89743569, 4127.94871767, 4111.41025614, 4136.28205108, 4132.82051255, 4197.05128192,8.57
4122.43589716, 4128.33333306, 4124.99999973, 4130.89743562, 4124.61538434, 4141.92307672, 4198.20512807, 4202.05128199, 4162.56410236, 4130.76923050, 4111.66666639, 4137.30769210, 4134.87179460, 4196.02564089,8.57
4109.61538434, 4119.87179460, 4113.84615357, 4126.66666639, 4121.66666639, 4151.53846133, 4208.71794865, 4213.20512814, 4164.74358954, 4129.74358947, 4107.56410229, 4130.38461511, 4132.17948691, 4192.94871781,8.57
4125.51282024, 4124.74358947, 4125.64102537, 4132.30769203, 4125.51282024, 4155.64102544, 4212.43589737, 4219.10256404, 4166.66666646, 4127.43589716, 4109.99999973, 4131.15384588, 4134.35897408, 4193.84615371,8.57
4115.38461511, 4120.38461511, 4119.74358947, 4127.94871767, 4123.58974332, 4152.05128185, 4212.82051275, 4220.76923070, 4162.05128185, 4128.20512793, 4109.87179460, 4125.25640998, 4134.74358947, 4191.79487166,8.57
4119.61538434, 4124.87179460, 4126.02564075, 4130.38461511, 4125.38461511, 4152.82051262, 4216.41025634, 4223.07692301, 4159.99999980, 4130.38461511, 4108.07692280, 4131.92307665, 4135.51282031, 4192.17948704,8.57
4127.94871767, 4128.07692280, 4130.76923050, 4132.17948691, 4127.56410229, 4152.69230749, 4217.94871788, 4221.92307686, 4161.79487159, 4131.53846126, 4108.71794844, 4136.15384595, 4132.05128178, 4191.41025628,8.57
4118.07692280, 4116.28205101, 4118.20512793, 4125.89743562, 4119.99999973, 4151.53846133, 4223.84615378, 4224.48717942, 4163.71794851, 4131.02564075, 4109.99999973, 4131.28205101, 4128.84615357, 4196.92307679,8.57
4130.51282024, 4126.79487152, 4131.28205101, 4135.51282031, 4124.74358947, 4150.64102544, 4228.46153840, 4229.48717942, 4166.15384595, 4129.48717921, 4111.41025614, 4134.10256383, 4136.02564082, 4199.61538448,8.57
4117.56410229, 4124.61538434, 4120.64102537, 4128.33333306, 4125.64102537, 4152.94871774, 4233.07692301, 4238.07692308, 4170.64102551, 4129.35897408, 4110.25640998, 4129.87179460, 4136.66666646, 4192.30769217,8.57
4121.66666639, 4121.41025614, 4118.33333306, 4123.97435870, 4121.79487152, 4161.15384595, 4240.76923077, 4248.07692308, 4170.89743576, 4129.99999973, 4110.64102537, 4133.46153819, 4137.05128185, 4193.71794858,8.57
4133.33333306, 4125.51282024, 4127.56410229, 4130.64102537, 4123.71794844, 4165.76923056, 4244.48717949, 4253.71794872, 4169.48717935, 4128.58974332, 4109.61538434, 4134.35897408, 4137.94871774, 4194.99999986,8.57
4113.58974332, 4116.02564075, 4112.82051255, 4122.69230742, 4121.79487152, 4164.99999980, 4245.89743590, 4257.05128206, 4170.25641012, 4126.41025614, 4107.69230742, 4127.94871767, 4133.46153819, 4196.28205115,8.57
4124.99999973, 4126.02564075, 4124.35897408, 4128.46153819, 4126.66666639, 4167.17948697, 4249.48717949, 4262.56410257, 4172.94871781, 4128.33333306, 4107.94871767, 4135.89743569, 4135.51282031, 4199.48717935,8.57
4119.35897408, 4123.07692280, 4124.23076896, 4130.25640998, 4124.48717921, 4173.71794858, 4259.87179488, 4276.92307700, 4182.82051269, 4130.25640998, 4107.30769203, 4131.79487152, 4135.76923056, 4194.99999986,8.57
4117.30769203, 4116.92307665, 4121.28205101, 4127.94871767, 4119.87179460, 4180.51282038, 4265.38461539, 4285.00000007, 4191.28205115, 4128.58974332, 4107.30769203, 4127.56410229, 4135.12820485, 4196.79487166,8.57
4131.02564075, 4126.66666639, 4129.23076896, 4132.82051255, 4125.89743562, 4182.05128192, 4257.43589744, 4273.33333341, 4187.56410243, 4127.43589716, 4106.41025614, 4129.23076896, 4135.64102544, 4196.79487166,8.57
4109.23076896, 4117.56410229, 4111.66666639, 4121.15384588, 4122.56410229, 4182.30769217, 4255.38461539, 4266.79487187, 4183.84615371, 4127.82051255, 4106.92307665, 4124.99999973, 4132.56410229, 4193.71794858,8.57
4119.23076896, 4122.43589716, 4122.05128178, 4128.07692280, 4124.61538434, 4184.61538448, 4260.89743590, 4272.05128212, 4183.46153833, 4128.84615357, 4112.94871767, 4134.23076896, 4132.56410229, 4197.82051269,8.57
4121.79487152, 4122.82051255, 4120.12820485, 4135.89743569, 4126.53846126, 4186.66666653, 4262.56410257, 4271.79487187, 4180.76923063, 4129.10256383, 4111.79487152, 4131.53846126, 4132.05128178, 4196.28205115,8.57
4115.64102537, 4116.41025614, 4110.25640998, 4128.97435870, 4121.53846126, 4190.64102551, 4266.79487187, 4271.79487187, 4180.76923063, 4128.07692280, 4107.30769203, 4125.64102537, 4132.56410229, 4195.89743576,8.57
4133.58974332, 4130.64102537, 4132.69230742, 4136.02564082, 4124.61538434, 4194.87179474, 4277.94871802, 4286.66666674, 4185.25641012, 4126.66666639, 4109.10256383, 4133.20512793, 4133.20512793, 4195.12820499,8.57
4113.84615357, 4121.66666639, 4119.99999973, 4131.66666639, 4122.82051255, 4196.66666653, 4286.79487187, 4298.07692315, 4188.33333320, 4127.82051255, 4110.12820485, 4129.61538434, 4128.20512793, 4193.33333320,8.57
4124.87179460, 4124.87179460, 4124.99999973, 4135.51282031, 4126.02564075, 4199.74358961, 4292.17948725, 4293.33333341, 4186.41025628, 4130.12820485, 4109.48717921, 4133.84615357, 4130.76923050, 4196.92307679,8.57
4129.87179460, 4130.89743562, 4130.51282024, 4135.64102544, 4126.02564075, 4203.97435891, 4303.07692322, 4303.33333348, 4188.71794858, 4130.38461511, 4108.07692280, 4134.61538434, 4133.33333306, 4192.17948704,8.57
4111.02564075, 4118.07692280, 4116.15384588, 4123.71794844, 4118.20512793, 4204.87179481, 4306.15384630, 4313.46153860, 4192.30769217, 4129.23076896, 4110.12820485, 4130.38461511, 4131.92307665, 4194.61538448,8.57
4138.58974339, 4132.30769203, 4138.07692287, 4138.58974339, 4128.20512793, 4196.28205115, 4283.46153853, 4283.07692315, 4174.74358961, 4128.20512793, 4112.94871767, 4135.64102544, 4137.30769210, 4199.10256397,8.57
4121.15384588, 4123.33333306, 4117.56410229, 4135.51282031, 4125.51282024, 4191.15384602, 4272.30769238, 4271.66666674, 4167.43589723, 4127.43589716, 4111.92307665, 4126.79487152, 4135.51282031, 4191.92307679,8.57
4118.71794844, 4118.71794844, 4113.33333306, 4133.33333306, 4119.10256383, 4198.97435884, 4289.48717956, 4300.89743604, 4187.43589730, 4128.46153819, 4112.94871767, 4130.38461511, 4134.48717921, 4195.76923063,8.57
4132.17948691, 4130.25640998, 4133.84615357, 4143.07692287, 4126.15384588, 4206.15384609, 4301.41025655, 4302.82051296, 4185.89743576, 4127.30769203, 4110.38461511, 4133.20512793, 4135.12820485, 4197.43589730,8.57
4101.53846119, 4114.99999973, 4108.58974332, 4130.38461511, 4120.89743562, 4205.76923070, 4303.33333348, 4295.89743597, 4175.38461525, 4125.64102537, 4107.69230742, 4122.94871767, 4130.76923050, 4196.28205115,8.57
4123.33333306, 4128.33333306, 4122.30769203, 4137.94871774, 4122.43589716, 4199.10256397, 4297.69230777, 4308.71794886, 4184.61538448, 4128.07692280, 4111.66666639, 4132.56410229, 4132.30769203, 4200.76923063,8.57
4112.69230742, 4123.58974332, 4118.33333306, 4135.76923056, 4123.07692280, 4197.05128192, 4299.35897443, 4314.48717963, 4189.61538448, 4128.46153819, 4109.74358947, 4127.69230742, 4131.92307665, 4193.58974345,8.57
4106.02564075, 4113.71794844, 4110.89743562, 4128.84615357, 4122.17948691, 4208.33333327, 4314.10256425, 4309.10256425, 4178.58974345, 4128.20512793, 4109.10256383, 4123.71794844, 4134.61538434, 4194.74358961,8.57
4132.30769203, 4131.15384588, 4129.23076896, 4137.69230749, 4127.43589716, 4204.10256404, 4303.58974373, 4291.66666674, 4165.12820492, 4129.87179460, 4112.56410229, 4129.74358947, 4136.02564082, 4197.69230756,8.57
4104.87179460, 4116.15384588, 4104.87179460, 4126.28205101, 4119.48717921, 4190.89743576, 4286.53846161, 4288.33333341, 4170.76923063, 4129.23076896, 4112.05128178, 4121.66666639, 4128.58974332, 4194.10256397,8.57
4125.12820485, 4122.05128178, 4122.43589716, 4139.87179467, 4125.89743562, 4194.87179474, 4291.79487187, 4300.25641040, 4181.79487166, 4128.84615357, 4111.92307665, 4126.53846126, 4131.02564075, 4197.69230756,8.57
4122.30769203, 4123.71794844, 4123.84615357, 4140.25641005, 4127.69230742, 4199.99999986, 4298.07692315, 4300.76923091, 4179.74358961, 4129.99999973, 4109.74358947, 4119.87179460, 4134.35897408, 4194.23076910,8.57
4104.35897408, 4115.89743562, 4108.07692280, 4126.15384588, 4118.58974332, 4193.46153833, 4296.66666674, 4299.23076930, 4176.02564089, 4129.48717921, 4108.97435870, 4117.56410229, 4133.07692280, 4195.38461525,8.57
4132.69230742, 4135.12820485, 4135.38461518, 4144.48717928, 4124.61538434, 4182.69230756, 4295.76923084, 4303.20512835, 4177.82051269, 4127.69230742, 4110.89743562, 4129.10256383, 4131.53846126, 4195.89743576,8.57
4108.20512793, 4119.74358947, 4116.66666639, 4134.35897408, 4121.53846126, 4171.28205115, 4294.74358982, 4303.33333348, 4180.51282038, 4127.05128178, 4108.20512793, 4118.46153819, 4128.71794844, 4191.53846140,8.57
4120.89743562, 4123.84615357, 4122.94871767, 4132.82051255, 4123.33333306, 4168.71794858, 4291.41025648, 4294.74358982, 4174.61538448, 4128.07692280, 4107.82051255, 4122.82051255, 4133.84615357, 4197.17948704,8.57
4131.15384588, 4130.76923050, 4129.74358947, 4139.87179467, 4127.56410229, 4174.99999986, 4294.10256418, 4292.43589751, 4168.20512807, 4129.23076896, 4107.43589716, 4125.25640998, 4134.87179460, 4192.94871781,8.57
4113.20512793, 4114.48717921, 4112.56410229, 4128.33333306, 4122.56410229, 4168.58974345, 4286.53846161, 4286.92307700, 4166.02564082, 4129.61538434, 4107.82051255, 4120.38461511, 4132.69230742, 4192.30769217,8.57
4138.33333313, 4128.33333306, 4134.10256383, 4137.05128185, 4124.74358947, 4153.58974339, 4265.00000000, 4266.66666674, 4159.48717928, 4129.61538434, 4110.38461511, 4130.76923050, 4137.69230749, 4193.84615371,8.57
4122.05128178, 4122.30769203, 4118.71794844, 4130.89743562, 4122.17948691, 4157.69230749, 4270.00000007, 4266.53846154, 4159.10256390, 4128.97435870, 4109.23076896, 4125.12820485, 4135.51282031, 4190.51282038,8.57
4123.58974332, 4122.43589716, 4118.71794844, 4131.79487152, 4123.84615357, 4168.07692287, 4289.23076930, 4291.79487187, 4172.56410243, 4128.20512793, 4110.76923050, 4128.58974332, 4133.84615357, 4198.20512807,8.57
4129.10256383, 4128.58974332, 4128.84615357, 4141.41025621, 4125.12820485, 4163.07692287, 4292.43589751, 4307.05128219, 4182.56410243, 4124.87179460, 4113.33333306, 4128.97435870, 4135.38461518, 4196.28205115,8.57
4111.79487152, 4117.30769203, 4114.74358947, 4134.10256383, 4121.53846126, 4160.89743569, 4299.74358989, 4305.25641040, 4177.43589730, 4124.99999973, 4111.15384588, 4120.64102537, 4134.61538434, 4194.99999986,8.57
4129.23076896, 4128.97435870, 4126.79487152, 4141.66666646, 4128.97435870, 4168.97435884, 4315.76923091, 4311.41025655, 4175.25641012, 4129.61538434, 4109.10256383, 4130.25640998, 4134.99999973, 4199.23076910,8.57
4113.71794844, 4123.07692280, 4113.33333306, 4135.76923056, 4125.64102537, 4170.64102551, 4321.15384630, 4326.66666681, 4183.58974345, 4128.58974332, 4109.61538434, 4123.71794844, 4131.92307665, 4195.12820499,8.57
4115.51282024, 4121.41025614, 4115.51282024, 4134.87179460, 4122.05128178, 4164.48717928, 4312.82051296, 4328.71794886, 4186.53846140, 4127.17948691, 4113.33333306, 4126.15384588, 4134.48717921, 4198.71794858,8.57
4125.12820485, 4126.53846126, 4124.48717921, 4138.97435877, 4128.07692280, 4158.84615364, 4306.66666681, 4318.46153860, 4182.56410243, 4130.76923050, 4111.66666639, 4131.02564075, 4136.66666646, 4197.05128192,8.57
4109.61538434, 4115.25640998, 4109.23076896, 4128.07692280, 4123.33333306, 4164.99999980, 4317.82051296, 4318.84615399, 4186.15384602, 4129.74358947, 4109.10256383, 4119.74358947, 4134.61538434, 4193.33333320,8.57
4123.97435870, 4126.79487152, 4124.99999973, 4135.64102544, 4122.69230742, 4169.23076910, 4323.84615399, 4318.97435912, 4184.48717935, 4125.12820485, 4111.79487152, 4125.64102537, 4137.56410236, 4197.69230756,8.57
4111.79487152, 4122.17948691, 4116.02564075, 4132.69230742, 4121.53846126, 4167.69230749, 4320.12820527, 4315.12820527, 4176.15384602, 4127.17948691, 4108.07692280, 4122.30769203, 4130.51282024, 4195.76923063,8.57
4116.41025614, 4119.61538434, 4117.05128178, 4135.25640998, 4123.20512793, 4167.17948697, 4318.84615399, 4315.25641040, 4175.12820499, 4129.74358947, 4105.12820485, 4120.25640998, 4129.48717921, 4196.15384602,8.57
4129.48717921, 4129.87179460, 4131.28205101, 4142.94871774, 4128.07692280, 4158.07692287, 4311.92307707, 4307.69230784, 4168.33333320, 4126.53846126, 4108.20512793, 4124.35897408, 4136.66666646, 4192.82051269,8.57
4109.99999973, 4119.74358947, 4114.61538434, 4128.71794844, 4120.38461511, 4150.51282031, 4306.41025655, 4303.46153860, 4160.38461518, 4126.02564075, 4108.33333306, 4118.46153819, 4132.05128178, 4191.02564089,8.57
4127.30769203, 4127.43589716, 4129.99999973, 4136.79487159, 4122.94871767, 4153.97435877, 4310.38461553, 4308.71794886, 4164.48717928, 4129.61538434, 4107.43589716, 4126.53846126, 4133.84615357, 4195.12820499,8.57
4119.99999973, 4123.58974332, 4123.58974332, 4137.69230749, 4125.25640998, 4154.48717928, 4315.12820527, 4312.17948732, 4169.35897422, 4129.48717921, 4106.79487152, 4122.30769203, 4136.02564082, 4190.25641012,8.57
4118.84615357, 4122.69230742, 4118.58974332, 4133.71794844, 4122.43589716, 4156.92307672, 4322.82051296, 4318.07692322, 4168.84615371, 4127.56410229, 4109.99999973, 4120.89743562, 4135.89743569, 4193.33333320,8.57
4133.71794844, 4133.84615357, 4133.20512793, 4139.35897415, 4124.35897408, 4167.30769210, 4340.64102585, 4332.56410278, 4173.07692294, 4129.10256383, 4111.02564075, 4130.25640998, 4138.07692287, 4196.41025628,8.57
4110.51282024, 4119.10256383, 4113.07692280, 4128.58974332, 4118.46153819, 4165.51282031, 4345.51282073, 4338.07692329, 4175.38461525, 4131.02564075, 4105.64102537, 4122.05128178, 4133.33333306, 4193.84615371,8.57
4127.69230742, 4128.20512793, 4126.53846126, 4135.76923056, 4124.10256383, 4150.76923056, 4322.43589758, 4311.53846168, 4158.20512800, 4129.61538434, 4106.41025614, 4129.23076896, 4135.89743569, 4197.43589730,8.57
4124.23076896, 4128.84615357, 4125.51282024, 4133.20512793, 4125.64102537, 4140.12820492, 4306.15384630, 4295.51282059, 4148.71794851, 4128.46153819, 4107.17948691, 4126.15384588, 4137.30769210, 4195.76923063,8.57
4115.25640998, 4119.48717921, 4114.35897408, 4124.61538434, 4119.23076896, 4137.56410236, 4314.61538476, 4316.15384630, 4159.87179467, 4128.97435870, 4106.02564075, 4119.99999973, 4134.23076896, 4198.33333320,8.57
4134.23076896, 4129.48717921, 4129.74358947, 4135.38461518, 4123.97435870, 4145.12820492, 4326.66666681, 4333.33333355, 4168.97435884, 4128.97435870, 4106.66666639, 4129.48717921, 4136.53846133, 4197.17948704,8.57
4108.58974332, 4116.92307665, 4111.92307665, 4127.43589716, 4121.41025614, 4154.74358954, 4332.30769252, 4332.17948732, 4169.99999986, 4129.99999973, 4103.97435870, 4118.97435870, 4134.74358947, 4193.46153833,8.57
4118.97435870, 4123.71794844, 4122.82051255, 4129.35897408, 4122.05128178, 4148.58974339, 4325.64102578, 4319.23076937, 4162.94871774, 4129.74358947, 4106.41025614, 4123.46153819, 4136.92307672, 4202.05128199,8.57
4122.82051255, 4129.61538434, 4127.05128178, 4131.66666639, 4121.66666639, 4147.17948697, 4328.58974373, 4320.64102578, 4161.41025621, 4127.82051255, 4106.53846126, 4125.38461511, 4136.66666646, 4196.15384602,8.57
4109.35897408, 4120.76923050, 4113.58974332, 4125.25640998, 4121.28205101, 4163.20512800, 4348.07692329, 4340.25641047, 4173.46153833, 4128.84615357, 4100.64102530, 4119.23076896, 4132.56410229, 4191.92307679,8.57
4129.48717921, 4128.58974332, 4130.89743562, 4133.33333306, 4130.38461511, 4160.89743569, 4344.35897457, 4333.71794893, 4171.41025628, 4128.84615357, 4101.15384581, 4127.94871767, 4136.02564082, 4196.41025628,8.57
4110.38461511, 4115.64102537, 4115.76923050, 4126.15384588, 4123.71794844, 4154.74358954, 4342.94871816, 4331.92307707, 4170.64102551, 4126.02564075, 4102.94871767, 4119.74358947, 4133.20512793, 4191.02564089,8.57
4119.35897408, 4123.71794844, 4122.69230742, 4129.74358947, 4123.33333306, 4162.43589723, 4354.74358996, 4349.48717970, 4184.87179474, 4128.46153819, 4104.35897408, 4124.10256383, 4132.94871767, 4192.69230756,8.57
4127.30769203, 4131.15384588, 4131.66666639, 4133.46153819, 4129.48717921, 4155.76923056, 4346.28205149, 4334.48717970, 4177.69230756, 4131.02564075, 4105.25640998, 4128.84615357, 4134.10256383, 4193.58974345,8.57
4108.84615357, 4117.43589716, 4115.25640998, 4122.43589716, 4122.82051255, 4143.97435877, 4336.15384637, 4316.28205142, 4165.25641005, 4128.46153819, 4106.41025614, 4122.69230742, 4131.15384588, 4192.17948704,8.57
4132.82051255, 4131.92307665, 4132.82051255, 4131.92307665, 4124.48717921, 4147.94871774, 4342.56410278, 4335.25641047, 4177.05128192, 4128.71794844, 4109.35897408, 4133.46153819, 4136.02564082, 4193.46153833,8.57
4120.38461511, 4125.12820485, 4119.61538434, 4124.99999973, 4121.92307665, 4157.43589723, 4356.28205149, 4355.12820534, 4186.92307679, 4129.74358947, 4105.12820485, 4128.71794844, 4134.99999973, 4192.43589730,8.57
4122.17948691, 4122.05128178, 4121.66666639, 4122.69230742, 4120.25640998, 4158.46153826, 4357.43589765, 4355.25641047, 4184.74358961, 4128.71794844, 4103.20512793, 4127.43589716, 4133.71794844, 4197.17948704,8.57
4133.71794844, 4129.99999973, 4133.58974332, 4130.89743562, 4123.97435870, 4155.12820492, 4350.76923098, 4356.41025662, 4186.79487166, 4128.71794844, 4105.89743562, 4130.76923050, 4135.76923056, 4194.48717935,8.57
4111.66666639, 4117.82051255, 4110.76923050, 4120.89743562, 4119.87179460, 4167.82051262, 4362.56410278, 4357.56410278, 4184.87179474, 4128.20512793, 4103.20512793, 4124.61538434, 4133.07692280, 4194.99999986,8.57
4132.05128178, 4127.56410229, 4127.82051255, 4126.79487152, 4126.79487152, 4177.56410243, 4365.89743618, 4347.30769252, 4175.64102551, 4129.35897408, 4101.02564068, 4133.84615357, 4136.41025621, 4201.02564096,8.57
4132.05128178, 4127.56410229, 4127.82051255, 4126.79487152, 4126.79487152, 4177.56410243, 4365.89743618, 4347.30769252, 4175.64102551, 4129.35897408, 4101.02564068, 4133.84615357, 4136.41025621, 4201.02564096,8.57
4118.71794844, 4120.76923050, 4118.71794844, 4120.38461511, 4124.35897408, 4164.87179467, 4348.20512842, 4344.74358996, 4178.46153833, 4130.12820485, 4099.99999966, 4129.10256383, 4134.87179460, 4194.87179474,8.57
4111.79487152, 4117.17948691, 4109.61538434, 4117.17948691, 4118.33333306, 4158.46153826, 4344.35897457, 4348.97435919, 4185.38461525, 4130.12820485, 4102.94871767, 4128.33333306, 4131.92307665, 4196.53846140,8.57
4133.71794844, 4131.66666639, 4129.99999973, 4126.15384588, 4125.76923050, 4172.43589730, 4357.56410278, 4345.89743611, 4179.23076910, 4131.15384588, 4104.74358947, 4134.87179460, 4136.15384595, 4197.56410243,8.57
4113.07692280, 4120.25640998, 4112.94871767, 4115.51282024, 4122.69230742, 4183.07692294, 4366.66666695, 4348.46153867, 4175.12820499, 4131.28205101, 4100.25640991, 4124.99999973, 4136.02564082, 4193.20512807,8.57
4127.43589716, 4126.66666639, 4121.53846126, 4123.20512793, 4125.12820485, 4180.38461525, 4366.79487208, 4357.43589765, 4181.66666653, 4129.99999973, 4101.92307658, 4131.41025614, 4134.99999973, 4196.28205115,8.57
4121.66666639, 4123.84615357, 4119.10256383, 4121.66666639, 4125.51282024, 4180.38461525, 4373.20512849, 4364.48717970, 4185.64102551, 4126.53846126, 4104.23076896, 4129.74358947, 4131.02564075, 4193.33333320,8.57
4109.35897408, 4116.79487152, 4115.51282024, 4118.97435870, 4120.25640998, 4185.25641012, 4380.38461567, 4363.46153867, 4180.76923063, 4124.35897408, 4101.28205094, 4127.30769203, 4133.20512793, 4192.56410243,8.57
4129.61538434, 4131.53846126, 4135.25640998, 4132.30769203, 4126.02564075, 4177.30769217, 4369.48717977, 4348.97435919, 4169.48717935, 4126.92307665, 4098.33333299, 4132.30769203, 4136.02564082, 4192.82051269,8.57
4107.43589716, 4118.07692280, 4113.46153819, 4118.20512793, 4122.82051255, 4173.84615371, 4370.76923105, 4349.10256431, 4172.17948704, 4128.84615357, 4099.99999966, 4121.66666639, 4130.89743562, 4192.69230756,8.57
4122.43589716, 4124.99999973, 4126.53846126, 4122.56410229, 4126.28205101, 4199.23076910, 4405.64102599, 4380.25641054, 4192.69230756, 4129.61538434, 4106.66666639, 4133.20512793, 4135.25640998, 4196.41025628,8.57
4126.92307665, 4132.43589716, 4132.05128178, 4128.07692280, 4127.30769203, 4210.76923070, 4418.46153881, 4398.33333368, 4200.51282038, 4130.25640998, 4105.12820485, 4136.41025621, 4134.99999973, 4191.53846140,8.57
4111.66666639, 4121.66666639, 4116.41025614, 4117.17948691, 4119.61538434, 4182.17948704, 4381.53846182, 4366.15384644, 4180.38461525, 4129.23076896, 4101.53846119, 4129.23076896, 4130.12820485, 4195.76923063,8.57
4136.92307672, 4134.61538434, 4138.33333313, 4125.64102537, 4127.94871767, 4165.64102544, 4359.23076944, 4335.64102585, 4159.99999980, 4129.10256383, 4104.74358947, 4136.92307672, 4134.61538434, 4199.48717935,8.57
4115.76923050, 4121.79487152, 4119.48717921, 4116.53846126, 4125.38461511, 4179.87179474, 4382.05128233, 4360.12820534, 4172.05128192, 4131.15384588, 4105.64102537, 4129.61538434, 4135.38461518, 4191.53846140,8.57
4123.33333306, 4124.61538434, 4124.10256383, 4120.89743562, 4124.48717921, 4180.38461525, 4384.35897464, 4371.66666695, 4182.82051269, 4130.25640998, 4104.74358947, 4132.56410229, 4137.17948697, 4193.84615371,8.57
4131.66666639, 4132.43589716, 4133.84615357, 4128.20512793, 4127.56410229, 4163.58974339, 4361.28205149, 4346.53846175, 4170.64102551, 4125.76923050, 4101.92307658, 4134.74358947, 4136.79487159, 4193.07692294,8.57
4107.17948691, 4115.89743562, 4111.41025614, 4112.69230742, 4119.35897408, 4170.76923063, 4370.51282079, 4354.61538483, 4170.64102551, 4126.02564075, 4102.30769196, 4130.89743562, 4132.82051255, 4195.64102551,8.57
4134.99999973, 4128.97435870, 4129.10256383, 4121.28205101, 4125.51282024, 4184.23076910, 4383.58974387, 4367.94871823, 4174.35897422, 4130.12820485, 4106.53846126, 4138.71794851, 4135.25640998, 4199.74358961,8.57
4116.53846126, 4119.10256383, 4114.87179460, 4117.56410229, 4121.66666639, 4190.25641012, 4386.66666695, 4366.15384644, 4174.35897422, 4129.35897408, 4103.97435870, 4128.84615357, 4132.82051255, 4193.20512807,8.57
4112.56410229, 4118.71794844, 4114.23076896, 4116.92307665, 4118.33333306, 4202.43589737, 4402.56410292, 4385.25641054, 4187.94871781, 4127.82051255, 4105.51282024, 4134.35897408, 4133.71794844, 4201.28205122,8.57
4130.38461511, 4133.46153819, 4130.12820485, 4122.56410229, 4128.07692280, 4196.41025628, 4397.05128233, 4383.58974387, 4186.66666653, 4130.38461511, 4107.30769203, 4138.20512800, 4136.41025621, 4199.61538448,8.57
4105.12820485, 4114.99999973, 4106.66666639, 4107.17948691, 4120.64102537, 4177.30769217, 4369.23076951, 4351.15384637, 4164.87179467, 4131.41025614, 4103.58974332, 4124.10256383, 4132.17948691, 4190.38461525,8.57
4127.05128178, 4123.97435870, 4123.33333306, 4117.94871767, 4120.64102537, 4174.23076910, 4355.12820534, 4335.25641047, 4154.99999980, 4129.23076896, 4103.97435870, 4135.25640998, 4136.66666646, 4196.66666653,8.57
4111.02564075, 4120.89743562, 4113.71794844, 4117.43589716, 4121.66666639, 4180.38461525, 4361.79487201, 4342.82051303, 4160.89743569, 4127.30769203, 4102.30769196, 4130.76923050, 4134.99999973, 4192.05128192,8.57
4101.53846119, 4118.20512793, 4109.61538434, 4115.64102537, 4122.05128178, 4176.41025628, 4361.53846175, 4344.23076944, 4159.74358954, 4128.46153819, 4102.82051255, 4124.87179460, 4133.07692280, 4191.66666653,8.57
4129.10256383, 4130.38461511, 4133.07692280, 4128.84615357, 4127.30769203, 4168.71794858, 4350.51282073, 4333.33333355, 4148.97435877, 4129.99999973, 4106.41025614, 4131.92307665, 4137.82051262, 4194.35897422,8.57
4105.64102537, 4112.43589716, 4111.28205101, 4115.12820485, 4120.12820485, 4172.82051269, 4353.58974380, 4331.92307707, 4148.20512800, 4128.71794844, 4107.69230742, 4124.10256383, 4132.56410229, 4192.94871781,8.57
4125.76923050, 4125.64102537, 4130.38461511, 4121.41025614, 4123.97435870, 4173.84615371, 4351.92307714, 4328.46153860, 4146.53846133, 4128.20512793, 4108.97435870, 4132.69230742, 4133.97435870, 4193.84615371,8.57
4122.69230742, 4127.30769203, 4128.71794844, 4124.10256383, 4122.43589716, 4173.46153833, 4347.05128226, 4327.56410271, 4140.76923056, 4130.12820485, 4104.35897408, 4130.25640998, 4136.15384595, 4187.05128192,8.57
4111.79487152, 4117.82051255, 4111.92307665, 4118.84615357, 4118.20512793, 4176.66666653, 4346.41025662, 4326.79487194, 4138.07692287, 4129.35897408, 4105.38461511, 4127.30769203, 4134.10256383, 4193.58974345,8.57
4138.58974339, 4134.74358947, 4135.12820485, 4128.58974332, 4129.99999973, 4171.28205115, 4337.94871816, 4314.87179501, 4132.43589716, 4127.56410229, 4109.35897408, 4137.69230749, 4138.07692287, 4197.69230756,8.57
4111.92307665, 4120.38461511, 4114.99999973, 4112.56410229, 4122.69230742, 4166.66666646, 4338.84615406, 4319.61538476, 4136.79487159, 4129.10256383, 4103.33333306, 4126.66666639, 4135.89743569, 4191.02564089,8.57
4127.82051255, 4128.58974332, 4126.15384588, 4117.94871767, 4121.41025614, 4173.20512807, 4345.38461560, 4324.87179501, 4141.66666646, 4130.64102537, 4102.69230742, 4134.10256383, 4136.28205108, 4199.48717935,8.57
4130.89743562, 4131.79487152, 4127.69230742, 4123.07692280, 4125.89743562, 4185.51282038, 4352.56410278, 4324.23076937, 4138.33333313, 4129.10256383, 4105.51282024, 4134.74358947, 4137.30769210, 4198.84615371,8.57
4109.99999973, 4114.87179460, 4109.23076896, 4111.92307665, 4120.12820485, 4180.25641012, 4351.02564124, 4328.33333348, 4138.46153826, 4127.69230742, 4104.48717921, 4125.89743562, 4137.69230749, 4196.66666653,8.57
4134.61538434, 4129.48717921, 4132.82051255, 4125.51282024, 4124.99999973, 4162.82051262, 4332.82051303, 4323.84615399, 4140.25641005, 4128.71794844, 4106.02564075, 4137.30769210, 4139.35897415, 4197.69230756,8.57
4107.82051255, 4117.94871767, 4112.30769203, 4118.07692280, 4123.33333306, 4167.82051262, 4331.28205142, 4324.48717963, 4142.56410236, 4128.71794844, 4108.71794844, 4129.10256383, 4133.84615357, 4194.99999986,8.57
4114.87179460, 4119.61538434, 4115.51282024, 4117.43589716, 4124.48717921, 4176.66666653, 4337.82051303, 4325.00000014, 4141.02564082, 4129.61538434, 4109.48717921, 4132.56410229, 4139.23076903, 4202.17948711,8.57
4126.53846126, 4127.69230742, 4124.61538434, 4119.87179460, 4123.97435870, 4170.64102551, 4333.07692329, 4315.12820527, 4134.23076896, 4130.12820485, 4105.38461511, 4134.35897408, 4142.30769210, 4198.20512807,8.57
4105.12820485, 4114.61538434, 4107.82051255, 4108.58974332, 4117.30769203, 4167.82051262, 4330.00000014, 4307.30769245, 4127.56410229, 4127.17948691, 4103.33333306, 4124.10256383, 4134.74358947, 4194.87179474,8.57
4128.33333306, 4127.05128178, 4126.66666639, 4120.64102537, 4125.38461511, 4162.94871774, 4322.82051296, 4300.00000014, 4124.23076896, 4126.41025614, 4104.87179460, 4132.82051255, 4138.07692287, 4197.69230756,8.57
4112.05128178, 4118.71794844, 4107.94871767, 4114.74358947, 4121.66666639, 4160.76923056, 4325.89743604, 4310.64102578, 4133.46153819, 4127.94871767, 4101.41025607, 4122.30769203, 4135.38461518, 4189.10256397,8.57
4116.79487152, 4121.79487152, 4114.87179460, 4116.28205101, 4120.76923050, 4168.33333320, 4339.61538483, 4329.10256425, 4143.46153826, 4129.48717921, 4103.46153819, 4122.82051255, 4134.10256383, 4190.76923063,8.57
4125.89743562, 4131.28205101, 4131.15384588, 4119.87179460, 4127.30769203, 4161.28205108, 4332.30769252, 4315.51282066, 4134.74358947, 4129.10256383, 4107.43589716, 4129.74358947, 4136.41025621, 4193.33333320,8.57
4104.35897408, 4115.12820485, 4109.23076896, 4104.61538434, 4121.02564075, 4148.33333313, 4318.20512835, 4296.02564110, 4125.25640998, 4126.66666639, 4106.02564075, 4120.51282024, 4132.69230742, 4194.61538448,8.57
4127.05128178, 4127.05128178, 4128.97435870, 4116.92307665, 4125.38461511, 4157.05128185, 4326.15384630, 4304.23076937, 4129.87179460, 4126.41025614, 4108.33333306, 4127.17948691, 4136.15384595, 4195.51282038,8.57
4111.92307665, 4123.84615357, 4119.23076896, 4112.17948691, 4124.10256383, 4172.82051269, 4340.89743611, 4312.17948732, 4133.46153819, 4128.20512793, 4108.20512793, 4123.97435870, 4135.12820485, 4188.84615371,8.57
4117.56410229, 4123.97435870, 4117.69230742, 4111.66666639, 4120.76923050, 4174.35897422, 4339.35897457, 4302.56410271, 4129.10256383, 4130.76923050, 4106.92307665, 4126.79487152, 4133.97435870, 4192.43589730,8.57
4134.61538434, 4131.92307665, 4131.66666639, 4123.71794844, 4126.02564075, 4168.71794858, 4331.66666681, 4299.87179501, 4128.84615357, 4129.35897408, 4106.53846126, 4131.28205101, 4134.35897408, 4191.79487166,8.57
4113.58974332, 4118.20512793, 4114.48717921, 4108.33333306, 4121.53846126, 4166.79487159, 4328.97435912, 4306.02564117, 4134.74358947, 4125.89743562, 4105.38461511, 4124.74358947, 4131.15384588, 4193.33333320,8.57
4136.79487159, 4133.33333306, 4136.02564082, 4116.41025614, 4124.48717921, 4169.87179474, 4320.00000014, 4291.28205136, 4128.46153819, 4126.41025614, 4107.82051255, 4134.87179460, 4135.89743569, 4201.02564096,8.57
4121.28205101, 4125.38461511, 4125.12820485, 4117.94871767, 4122.05128178, 4172.43589730, 4312.94871809, 4278.58974366, 4119.99999973, 4126.41025614, 4107.30769203, 4128.07692280, 4133.84615357, 4194.35897422,8.57
4116.66666639, 4117.05128178, 4114.99999973, 4111.92307665, 4119.74358947, 4174.35897422, 4316.28205142, 4287.17948725, 4125.51282024, 4126.15384588, 4107.43589716, 4131.53846126, 4133.33333306, 4197.94871781,8.57
4135.76923056, 4132.05128178, 4131.02564075, 4118.46153819, 4125.38461511, 4176.02564089, 4318.07692322, 4288.84615392, 4128.46153819, 4129.74358947, 4107.69230742, 4138.84615364, 4136.79487159, 4202.17948711,8.57
4107.17948691, 4118.07692280, 4112.05128178, 4107.30769203, 4119.61538434, 4177.94871781, 4317.94871809, 4281.53846161, 4121.15384588, 4131.15384588, 4104.61538434, 4120.51282024, 4132.94871767, 4199.23076910,8.57
4122.94871767, 4124.10256383, 4127.82051255, 4116.66666639, 4123.20512793, 4183.71794858, 4319.10256425, 4280.12820520, 4117.05128178, 4129.35897408, 4108.07692280, 4128.33333306, 4136.41025621, 4198.33333320,8.57
4121.02564075, 4122.69230742, 4122.69230742, 4117.69230742, 4122.56410229, 4183.07692294, 4315.76923091, 4285.89743597, 4125.12820485, 4127.94871767, 4107.94871767, 4128.58974332, 4135.76923056, 4190.64102551,8.57
4112.56410229, 4117.30769203, 4111.66666639, 4111.15384588, 4119.48717921, 4177.56410243, 4306.53846168, 4282.43589751, 4127.43589716, 4127.56410229, 4105.38461511, 4122.94871767, 4131.53846126, 4194.74358961,8.57
4129.10256383, 4131.02564075, 4130.12820485, 4120.25640998, 4128.07692280, 4179.10256397, 4300.64102578, 4265.38461539, 4112.43589716, 4128.58974332, 4107.30769203, 4130.89743562, 4135.25640998, 4198.07692294,8.57
4109.23076896, 4115.89743562, 4109.35897408, 4109.61538434, 4121.79487152, 4183.46153833, 4302.94871809, 4270.25641033, 4113.58974332, 4130.25640998, 4107.82051255, 4120.89743562, 4132.30769203, 4193.71794858,8.57
4125.25640998, 4122.94871767, 4118.07692280, 4118.07692280, 4121.15384588, 4184.10256397, 4304.23076937, 4293.07692315, 4133.84615357, 4130.64102537, 4109.10256383, 4126.28205101, 4131.02564075, 4197.30769217,8.57
4118.07692280, 4127.94871767, 4120.38461511, 4119.61538434, 4126.28205101, 4187.05128192, 4308.20512835, 4291.53846161, 4135.76923056, 4127.82051255, 4107.69230742, 4127.56410229, 4131.28205101, 4192.17948704,8.57
4103.07692280, 4117.05128178, 4109.99999973, 4108.07692280, 4123.46153819, 4182.94871781, 4302.82051296, 4266.41025641, 4120.89743562, 4127.30769203, 4106.41025614, 4122.43589716, 4133.07692280, 4189.61538448,8.57
4126.79487152, 4128.33333306, 4128.58974332, 4123.46153819, 4124.87179460, 4161.02564082, 4273.07692315, 4242.82051282, 4111.41025614, 4129.48717921, 4108.58974332, 4130.51282024, 4138.20512800, 4189.99999986,8.57
4105.76923050, 4118.58974332, 4112.69230742, 4119.48717921, 4121.02564075, 4152.56410236, 4259.61538462, 4235.12820513, 4106.66666639, 4129.87179460, 4106.53846126, 4123.46153819, 4132.82051255, 4187.05128192,8.57
4120.12820485, 4124.99999973, 4125.12820485, 4119.87179460, 4126.02564075, 4157.69230749, 4266.66666674, 4232.30769224, 4098.33333299, 4130.76923050, 4106.15384588, 4128.97435870, 4131.79487152, 4194.10256397,8.57
4128.84615357, 4131.15384588, 4131.15384588, 4119.99999973, 4127.17948691, 4153.33333313, 4266.41025641, 4235.64102564, 4099.74358940, 4131.66666639, 4106.79487152, 4129.99999973, 4133.33333306, 4192.94871781,8.57
4114.99999973, 4120.38461511, 4118.46153819, 4112.56410229, 4119.61538434, 4156.66666646, 4269.35897443, 4251.15384616, 4115.64102537, 4128.71794844, 4108.46153819, 4123.84615357, 4131.92307665, 4193.46153833,8.57
4139.74358954, 4134.61538434, 4140.89743569, 4124.87179460, 4125.89743562, 4164.61538441, 4271.66666674, 4252.94871795, 4118.97435870, 4126.53846126, 4110.12820485, 4133.97435870, 4137.94871774, 4197.56410243,8.57
4117.30769203, 4121.79487152, 4115.25640998, 4111.79487152, 4121.92307665, 4162.05128185, 4268.84615392, 4243.97435898, 4110.12820485, 4128.46153819, 4108.20512793, 4126.66666639, 4134.87179460, 4196.53846140,8.57
4124.74358947, 4122.94871767, 4114.87179460, 4109.48717921, 4122.17948691, 4156.41025621, 4263.20512821, 4242.43589744, 4111.53846126, 4130.51282024, 4111.79487152, 4130.38461511, 4136.28205108, 4202.82051275,8.57
4134.87179460, 4131.02564075, 4128.20512793, 4118.97435870, 4125.64102537, 4163.97435877, 4269.61538469, 4249.35897436, 4118.84615357, 4129.87179460, 4113.58974332, 4134.10256383, 4139.74358954, 4198.58974345,8.57
4104.35897408, 4113.58974332, 4104.87179460, 4109.61538434, 4115.76923050, 4176.79487166, 4289.48717956, 4258.20512821, 4120.38461511, 4127.30769203, 4109.74358947, 4126.66666639, 4132.30769203, 4197.30769217,8.57
4124.99999973, 4127.69230742, 4124.99999973, 4121.79487152, 4120.12820485, 4167.56410236, 4282.94871802, 4253.71794872, 4118.33333306, 4127.17948691, 4110.38461511, 4137.43589723, 4135.25640998, 4203.33333327,8.57
4113.71794844, 4122.69230742, 4120.51282024, 4116.15384588, 4119.48717921, 4147.94871774, 4258.46153847, 4243.71794872, 4118.58974332, 4128.58974332, 4110.12820485, 4126.02564075, 4137.17948697, 4194.35897422,8.57
4115.12820485, 4119.99999973, 4121.66666639, 4111.02564075, 4121.41025614, 4148.20512800, 4251.02564103, 4234.87179488, 4114.48717921, 4127.30769203, 4109.74358947, 4121.15384588, 4133.84615357, 4196.02564089,8.57
4130.25640998, 4132.17948691, 4133.07692280, 4120.12820485, 4129.10256383, 4159.99999980, 4256.15384616, 4225.38461532, 4106.15384588, 4126.92307665, 4110.12820485, 4131.28205101, 4133.46153819, 4198.71794858,8.57
4102.94871767, 4113.58974332, 4104.35897408, 4103.84615357, 4119.35897408, 4164.35897415, 4259.74358975, 4227.69230763, 4109.61538434, 4129.61538434, 4111.66666639, 4124.74358947, 4132.30769203, 4193.46153833,8.57
4123.71794844, 4122.05128178, 4122.17948691, 4110.76923050, 4123.20512793, 4164.48717928, 4254.87179488, 4232.69230763, 4114.35897408, 4134.10256383, 4114.99999973, 4129.10256383, 4137.43589723, 4194.35897422,8.57
4113.71794844, 4123.46153819, 4122.05128178, 4118.46153819, 4127.05128178, 4166.28205108, 4246.28205129, 4227.56410250, 4110.38461511, 4133.07692280, 4108.58974332, 4123.58974332, 4136.53846133, 4189.87179474,8.57
4105.76923050, 4120.51282024, 4116.41025614, 4117.17948691, 4121.79487152, 4165.89743569, 4239.87179488, 4226.15384609, 4114.23076896, 4129.10256383, 4108.58974332, 4124.48717921, 4134.23076896, 4191.41025628,8.57
4130.51282024, 4134.99999973, 4135.25640998, 4122.43589716, 4125.38461511, 4161.15384595, 4234.74358975, 4224.23076917, 4115.25640998, 4128.33333306, 4116.92307665, 4131.92307665, 4135.38461518, 4192.17948704,8.57
4105.38461511, 4117.05128178, 4109.99999973, 4104.74358947, 4120.76923050, 4158.71794851, 4230.51282045, 4209.61538455, 4098.07692273, 4129.99999973, 4111.79487152, 4118.97435870, 4132.30769203, 4191.41025628,8.57
4129.35897408, 4126.66666639, 4129.99999973, 4116.28205101, 4125.89743562, 4155.76923056, 4221.15384609, 4198.07692294, 4087.56410222, 4131.79487152, 4108.46153819, 4129.99999973, 4136.02564082, 4196.79487166,8.57
4131.28205101, 4131.02564075, 4135.12820485, 4122.05128178, 4127.94871767, 4152.69230749, 4218.58974352, 4209.74358968, 4103.58974332, 4128.97435870, 4112.43589716, 4131.41025614, 4135.12820485, 4191.02564089,8.57
4110.51282024, 4116.79487152, 4112.56410229, 4107.30769203, 4121.15384588, 4162.17948697, 4232.17948711, 4219.74358968, 4114.61538434, 4125.25640998, 4114.10256383, 4126.53846126, 4134.48717921, 4194.23076910,8.57
4138.58974339, 4133.07692280, 4134.87179460, 4118.20512793, 4127.69230742, 4164.48717928, 4231.79487173, 4208.46153840, 4106.15384588, 4126.79487152, 4116.02564075, 4139.10256390, 4138.46153826, 4197.69230756,8.57
4115.12820485, 4119.48717921, 4116.15384588, 4111.28205101, 4122.17948691, 4155.12820492, 4223.33333327, 4211.53846147, 4113.33333306, 4130.64102537, 4114.48717921, 4129.10256383, 4131.28205101, 4193.71794858,8.57
4121.53846126, 4123.07692280, 4120.89743562, 4119.23076896, 4120.76923050, 4163.71794851, 4234.10256411, 4229.35897429, 4126.79487152, 4131.15384588, 4113.07692280, 4133.20512793, 4134.74358947, 4200.51282038,8.57
4128.58974332, 4132.43589716, 4127.82051255, 4125.51282024, 4125.64102537, 4182.05128192, 4252.43589744, 4238.58974359, 4127.30769203, 4129.61538434, 4114.74358947, 4133.84615357, 4137.56410236, 4196.79487166,8.57
4108.07692280, 4115.89743562, 4106.02564075, 4109.48717921, 4121.15384588, 4183.71794858, 4253.33333334, 4241.41025641, 4127.94871767, 4131.15384588, 4116.79487152, 4125.76923050, 4132.56410229, 4196.53846140,8.57
4130.12820485, 4127.30769203, 4124.74358947, 4118.58974332, 4124.35897408, 4177.17948704, 4243.58974359, 4233.33333327, 4122.69230742, 4132.05128178, 4113.46153819, 4134.61538434, 4136.41025621, 4200.51282038,8.57
4112.43589716, 4121.92307665, 4113.97435870, 4112.56410229, 4119.48717921, 4175.51282038, 4240.89743590, 4225.51282045, 4117.30769203, 4129.99999973, 4108.71794844, 4125.38461511, 4136.02564082, 4194.10256397,8.57
4117.43589716, 4122.17948691, 4118.33333306, 4112.30769203, 4120.51282024, 4170.12820499, 4229.10256404, 4216.66666660, 4118.07692280, 4129.87179460, 4112.69230742, 4126.15384588, 4135.64102544, 4198.71794858,8.57
4122.82051255, 4123.07692280, 4124.48717921, 4117.30769203, 4125.12820485, 4172.30769217, 4227.94871788, 4214.10256404, 4118.97435870, 4132.17948691, 4113.33333306, 4127.43589716, 4136.66666646, 4198.07692294,8.57
4103.71794844, 4113.07692280, 4107.43589716, 4106.02564075, 4121.41025614, 4186.79487166, 4251.41025641, 4243.07692308, 4129.10256383, 4130.38461511, 4109.74358947, 4122.82051255, 4136.02564082, 4194.48717935,8.57
4125.38461511, 4130.25640998, 4126.92307665, 4117.05128178, 4126.02564075, 4180.25641012, 4245.89743590, 4252.69230770, 4133.46153819, 4126.92307665, 4111.53846126, 4132.05128178, 4137.94871774, 4194.48717935,8.57
4108.58974332, 4120.64102537, 4115.12820485, 4112.94871767, 4122.43589716, 4171.53846140, 4231.15384609, 4233.07692301, 4128.33333306, 4127.94871767, 4113.46153819, 4122.69230742, 4134.61538434, 4190.38461525,8.57
4118.33333306, 4120.89743562, 4124.23076896, 4114.48717921, 4122.30769203, 4180.38461525, 4239.35897436, 4225.12820506, 4123.33333306, 4131.02564075, 4116.15384588, 4125.89743562, 4134.48717921, 4191.66666653,8.57
4128.84615357, 4131.92307665, 4137.43589723, 4122.69230742, 4126.79487152, 4177.17948704, 4234.87179488, 4212.05128199, 4112.69230742, 4131.15384588, 4113.97435870, 4130.12820485, 4133.71794844, 4188.20512807,8.57
4106.02564075, 4118.71794844, 4116.15384588, 4112.30769203, 4122.94871767, 4171.28205115, 4219.74358968, 4196.28205115, 4103.97435870, 4130.51282024, 4111.41025614, 4119.99999973, 4128.33333306, 4191.92307679,8.57
4127.69230742, 4131.92307665, 4134.99999973, 4123.33333306, 4129.35897408, 4179.35897422, 4223.33333327, 4200.25641012, 4108.46153819, 4131.02564075, 4114.99999973, 4130.51282024, 4132.17948691, 4196.92307679,8.57
4113.07692280, 4126.02564075, 4122.94871767, 4118.84615357, 4126.02564075, 4183.33333320, 4234.87179488, 4217.82051275, 4121.15384588, 4129.99999973, 4114.10256383, 4127.69230742, 4130.12820485, 4187.94871781,8.57
4120.38461511, 4123.46153819, 4123.58974332, 4116.28205101, 4121.66666639, 4183.71794858, 4236.66666667, 4223.84615378, 4125.64102537, 4130.51282024, 4114.10256383, 4129.99999973, 4130.25640998, 4192.82051269,8.57
4138.33333313, 4134.48717921, 4139.74358954, 4126.28205101, 4124.48717921, 4188.71794858, 4236.15384616, 4219.87179481, 4119.87179460, 4132.17948691, 4115.12820485, 4137.69230749, 4135.38461518, 4196.15384602,8.57
4107.43589716, 4117.56410229, 4112.05128178, 4110.12820485, 4117.56410229, 4182.56410243, 4231.02564096, 4220.89743583, 4119.35897408, 4130.38461511, 4110.89743562, 4125.38461511, 4130.38461511, 4195.38461525,8.57
4133.07692280, 4128.58974332, 4129.35897408, 4115.12820485, 4122.69230742, 4175.89743576, 4215.12820506, 4211.28205122, 4121.02564075, 4129.99999973, 4115.89743562, 4135.64102544, 4136.92307672, 4203.07692301,8.57
4130.38461511, 4126.79487152, 4128.46153819, 4116.41025614, 4124.48717921, 4191.02564089, 4215.89743583, 4206.92307686, 4119.48717921, 4131.41025614, 4118.33333306, 4133.46153819, 4141.41025621, 4197.69230756,8.57
4113.71794844, 4116.15384588, 4114.87179460, 4111.79487152, 4118.33333306, 4195.51282038, 4220.89743583, 4204.99999993, 4112.69230742, 4131.02564075, 4113.84615357, 4126.66666639, 4135.76923056, 4197.94871781,8.57
4132.82051255, 4129.74358947, 4128.46153819, 4120.89743562, 4123.97435870, 4175.89743576, 4198.20512807, 4184.74358961, 4099.48717914, 4131.28205101, 4114.74358947, 4136.15384595, 4135.76923056, 4200.38461525,8.57
4111.79487152, 4117.43589716, 4107.56410229, 4108.07692280, 4120.51282024, 4173.97435884, 4188.46153833, 4174.35897422, 4093.07692273, 4130.38461511, 4113.97435870, 4121.28205101, 4133.33333306, 4193.07692294,8.57
4122.17948691, 4124.23076896, 4120.51282024, 4115.76923050, 4123.58974332, 4183.33333320, 4198.58974345, 4177.94871781, 4095.76923043, 4129.10256383, 4114.35897408, 4123.46153819, 4137.30769210, 4196.79487166,8.57
4122.17948691, 4126.53846126, 4122.43589716, 4121.15384588, 4125.64102537, 4173.33333320, 4191.53846140, 4173.58974345, 4096.41025607, 4128.97435870, 4113.33333306, 4128.97435870, 4137.43589723, 4194.74358961,8.57
4104.99999973, 4113.58974332, 4103.97435870, 4108.84615357, 4117.82051255, 4167.69230749, 4183.07692294, 4170.89743576, 4096.66666632, 4128.33333306, 4111.53846126, 4121.02564075, 4130.38461511, 4194.23076910,8.57
4125.64102537, 4129.23076896, 4127.56410229, 4119.61538434, 4123.84615357, 4174.23076910, 4185.12820499, 4174.61538448, 4097.69230735, 4127.82051255, 4115.38461511, 4127.05128178, 4134.87179460, 4198.07692294,8.57
4106.02564075, 4120.38461511, 4114.23076896, 4114.35897408, 4123.58974332, 4175.12820499, 4190.64102551, 4178.07692294, 4099.23076889, 4128.84615357, 4111.02564075, 4121.41025614, 4136.02564082, 4194.35897422,8.57
4141.15384595, 4137.82051262, 4138.71794851, 4126.41025614, 4130.76923050, 4163.97435877, 4183.46153833, 4172.17948704, 4111.66666639, 4131.53846126, 4114.74358947, 4136.41025621, 4133.97435870, 4197.17948704,8.57
4113.07692280, 4120.89743562, 4111.79487152, 4108.20512793, 4123.58974332, 4152.43589723, 4163.58974339, 4141.53846133, 4083.33333299, 4129.48717921, 4111.66666639, 4126.15384588, 4132.94871767, 4193.20512807,8.57
4131.41025614, 4131.66666639, 4132.05128178, 4116.79487152, 4122.43589716, 4154.87179467, 4170.89743576, 4150.38461518, 4082.43589709, 4126.66666639, 4114.23076896, 4138.07692287, 4137.17948697, 4198.20512807,8.57
4122.17948691, 4130.25640998, 4127.56410229, 4120.76923050, 4125.12820485, 4161.02564082, 4187.94871781, 4180.64102551, 4111.15384588, 4127.05128178, 4114.87179460, 4133.97435870, 4134.99999973, 4195.25641012,8.57
4113.07692280, 4117.82051255, 4113.33333306, 4110.51282024, 4122.94871767, 4161.66666646, 4186.28205115, 4176.92307679, 4115.12820485, 4128.84615357, 4115.12820485, 4130.64102537, 4132.82051255, 4199.61538448,8.57
4140.38461518, 4133.07692280, 4136.28205108, 4121.28205101, 4126.41025614, 4152.82051262, 4169.74358961, 4151.79487159, 4092.82051248, 4127.94871767, 4115.64102537, 4138.07692287, 4136.28205108, 4202.30769224,8.57
4106.41025614, 4116.53846126, 4111.02564075, 4111.28205101, 4116.28205101, 4149.61538441, 4170.38461525, 4155.89743569, 4092.56410222, 4127.05128178, 4110.51282024, 4123.33333306, 4132.82051255, 4197.05128192,8.57
4119.48717921, 4123.97435870, 4119.10256383, 4117.30769203, 4121.41025614, 4155.89743569, 4181.28205115, 4167.56410236, 4103.71794844, 4130.38461511, 4110.76923050, 4133.97435870, 4137.82051262, 4201.79487173,8.57
4121.66666639, 4126.02564075, 4121.28205101, 4118.33333306, 4126.66666639, 4153.20512800, 4178.20512807, 4159.99999980, 4097.43589709, 4132.30769203, 4110.89743562, 4134.61538434, 4135.89743569, 4195.38461525,8.57
4103.84615357, 4112.82051255, 4109.35897408, 4109.74358947, 4117.94871767, 4147.94871774, 4166.66666646, 4150.89743569, 4094.48717914, 4131.28205101, 4110.76923050, 4123.58974332, 4129.35897408, 4193.71794858,8.57
4130.51282024, 4130.38461511, 4132.56410229, 4124.74358947, 4125.89743562, 4143.33333313, 4155.38461518, 4144.61538441, 4099.99999966, 4131.79487152, 4112.17948691, 4132.17948691, 4134.48717921, 4196.53846140,8.57
4104.10256383, 4116.15384588, 4107.43589716, 4111.41025614, 4123.46153819, 4144.87179467, 4156.15384595, 4149.35897415, 4104.23076896, 4131.28205101, 4109.61538434, 4120.64102537, 4132.05128178, 4189.87179474,8.57
4116.41025614, 4121.41025614, 4120.25640998, 4117.30769203, 4124.23076896, 4139.48717928, 4144.74358954, 4138.20512800, 4093.58974325, 4131.02564075, 4114.23076896, 4125.64102537, 4133.20512793, 4193.07692294,8.57
4127.56410229, 4131.66666639, 4133.97435870, 4126.41025614, 4128.84615357, 4119.48717921, 4125.76923050, 4106.79487152, 4073.46153812, 4130.51282024, 4114.87179460, 4131.15384588, 4135.64102544, 4188.97435884,8.57
4104.61538434, 4115.76923050, 4110.89743562, 4110.89743562, 4122.05128178, 4112.82051255, 4135.64102544, 4115.25640998, 4079.10256376, 4128.58974332, 4107.82051255, 4123.46153819, 4132.82051255, 4188.20512807,8.57
4132.56410229, 4129.99999973, 4135.76923056, 4123.07692280, 4127.94871767, 4109.99999973, 4133.46153819, 4131.92307665, 4092.56410222, 4129.23076896, 4109.87179460, 4135.38461518, 4137.43589723, 4195.38461525,8.57
4113.71794844, 4119.99999973, 4120.51282024, 4112.94871767, 4123.33333306, 4096.92307658, 4106.92307665, 4110.12820485, 4080.38461504, 4128.07692280, 4113.33333306, 4123.71794844, 4132.94871767, 4193.20512807,8.57
4121.79487152, 4122.43589716, 4123.84615357, 4112.82051255, 4121.79487152, 4091.79487145, 4097.56410222, 4094.10256376, 4068.84615343, 4126.28205101, 4114.10256383, 4124.48717921, 4132.05128178, 4200.25641012,8.57
4135.89743569, 4132.56410229, 4134.99999973, 4124.48717921, 4127.56410229, 4099.61538427, 4106.66666639, 4103.84615357, 4081.02564068, 4128.20512793, 4114.48717921, 4136.15384595, 4134.10256383, 4196.92307679,8.57
4106.92307665, 4113.84615357, 4106.02564075, 4109.23076896, 4119.48717921, 4101.28205094, 4102.94871767, 4102.17948684, 4085.51282017, 4127.17948691, 4114.35897408, 4128.33333306, 4129.61538434, 4192.43589730,8.57
4133.58974332, 4130.89743562, 4131.41025614, 4120.12820485, 4126.28205101, 4096.02564068, 4090.64102530, 4089.10256376, 4070.25640991, 4125.51282024, 4116.02564075, 4135.12820485, 4137.43589723, 4200.64102551,8.57
4114.87179460, 4123.71794844, 4119.99999973, 4117.69230742, 4124.35897408, 4098.46153812, 4093.46153812, 4092.30769196, 4069.48717907, 4127.82051255, 4111.79487152, 4124.87179460, 4133.71794844, 4196.02564089,8.57
4110.89743562, 4117.30769203, 4112.17948691, 4115.25640998, 4117.05128178, 4103.33333306, 4096.53846119, 4087.56410222, 4072.30769196, 4129.10256383, 4108.33333306, 4129.23076896, 4128.20512793, 4196.92307679,8.57
4135.64102544, 4132.43589716, 4131.41025614, 4123.71794844, 4123.97435870, 4100.51282017, 4087.30769196, 4069.74358940, 4057.43589702, 4129.48717921, 4109.23076896, 4139.23076903, 4136.53846133, 4194.99999986,8.57
4107.82051255, 4116.79487152, 4107.82051255, 4109.48717921, 4122.43589716, 4092.30769196, 4080.25640991, 4068.46153805, 4049.61538420, 4130.89743562, 4110.38461511, 4120.76923050, 4132.94871767, 4193.84615371,8.57
4125.38461511, 4125.38461511, 4122.43589716, 4118.97435870, 4122.94871767, 4096.02564068, 4083.46153812, 4079.99999966, 4061.02564061, 4130.76923050, 4114.99999973, 4129.48717921, 4130.38461511, 4202.30769224,8.57
4118.71794844, 4119.23076896, 4116.66666639, 4116.53846126, 4118.71794844, 4116.92307665, 4106.53846126, 4106.28205101, 4082.94871761, 4129.10256383, 4112.05128178, 4128.20512793, 4130.76923050, 4193.58974345,8.57
4113.84615357, 4113.33333306, 4112.94871767, 4113.07692280, 4121.02564075, 4121.66666639, 4111.02564075, 4111.02564075, 4085.12820478, 4129.35897408, 4110.64102537, 4122.43589716, 4131.53846126, 4192.30769217,8.57
4128.71794844, 4128.97435870, 4131.15384588, 4125.25640998, 4130.51282024, 4104.87179460, 4080.12820478, 4074.23076889, 4058.97435856, 4128.58974332, 4115.38461511, 4129.23076896, 4134.23076896, 4195.25641012,8.57
4100.12820478, 4116.79487152, 4107.69230742, 4113.58974332, 4120.89743562, 4105.76923050, 4079.10256376, 4066.15384574, 4055.51282010, 4126.53846126, 4113.33333306, 4120.76923050, 4128.97435870, 4191.28205115,8.57
4123.58974332, 4127.69230742, 4126.79487152, 4120.25640998, 4124.35897408, 4115.51282024, 4096.02564068, 4090.25640991, 4076.02564068, 4128.71794844, 4113.46153819, 4131.02564075, 4132.30769203, 4193.46153833,8.57
4120.76923050, 4122.82051255, 4125.89743562, 4117.05128178, 4126.02564075, 4121.02564075, 4088.71794837, 4094.74358940, 4076.66666632, 4128.71794844, 4113.97435870, 4127.56410229, 4132.30769203, 4190.38461525,8.57
4111.66666639, 4115.38461511, 4117.43589716, 4113.84615357, 4120.64102537, 4137.43589723, 4080.51282017, 4083.20512786, 4062.05128164, 4127.56410229, 4112.43589716, 4123.46153819, 4130.51282024, 4194.99999986,8.57
4136.41025621, 4135.12820485, 4138.58974339, 4126.92307665, 4128.07692280, 4145.64102544, 4079.61538427, 4074.99999966, 4059.87179446, 4130.64102537, 4110.89743562, 4134.87179460, 4135.64102544, 4194.99999986,8.57
4112.17948691, 4119.48717921, 4112.43589716, 4110.38461511, 4123.46153819, 4134.10256383, 4074.10256376, 4072.05128171, 4064.87179446, 4129.61538434, 4107.30769203, 4125.64102537, 4128.07692280, 4190.89743576,8.57
4132.30769203, 4128.20512793, 4128.71794844, 4118.33333306, 4124.99999973, 4130.51282024, 4068.84615343, 4064.10256369, 4056.66666625, 4127.82051255, 4109.87179460, 4133.84615357, 4126.41025614, 4197.30769217,8.57
4129.99999973, 4130.89743562, 4133.20512793, 4123.97435870, 4126.28205101, 4143.20512800, 4079.99999966, 4068.46153805, 4057.17948677, 4128.84615357, 4113.07692280, 4134.10256383, 4129.87179460, 4190.76923063,8.57
4110.12820485, 4116.79487152, 4113.33333306, 4112.30769203, 4119.61538434, 4153.46153826, 4094.61538427, 4088.33333299, 4080.12820478, 4127.05128178, 4114.87179460, 4129.35897408, 4131.79487152, 4191.02564089,8.57
4136.92307672, 4132.17948691, 4134.35897408, 4121.92307665, 4126.53846126, 4152.43589723, 4096.79487145, 4094.10256376, 4088.20512786, 4125.38461511, 4115.51282024, 4140.64102544, 4133.71794844, 4196.66666653,8.57
4115.25640998, 4119.61538434, 4114.87179460, 4112.17948691, 4124.35897408, 4147.69230749, 4095.76923043, 4087.82051248, 4073.97435863, 4128.46153819, 4110.38461511, 4129.74358947, 4127.94871767, 4196.79487166,8.57
4125.76923050, 4123.71794844, 4120.38461511, 4119.35897408, 4124.87179460, 4145.25641005, 4090.51282017, 4081.41025607, 4062.94871754, 4129.99999973, 4110.38461511, 4137.30769210, 4133.71794844, 4202.94871788,8.57
4127.82051255, 4129.10256383, 4125.25640998, 4124.35897408, 4124.99999973, 4143.84615364, 4086.41025607, 4079.61538427, 4062.30769189, 4127.17948691, 4111.66666639, 4136.53846133, 4135.76923056, 4196.92307679,8.57
4101.15384581, 4113.20512793, 4104.61538434, 4108.71794844, 4118.46153819, 4142.69230749, 4093.46153812, 4090.51282017, 4070.51282017, 4128.58974332, 4110.89743562, 4119.74358947, 4128.97435870, 4197.05128192,8.57
4122.82051255, 4123.33333306, 4122.56410229, 4119.10256383, 4124.23076896, 4136.53846133, 4092.17948684, 4088.46153812, 4071.66666632, 4131.92307665, 4111.02564075, 4129.48717921, 4133.58974332, 4201.15384609,8.57
4110.64102537, 4115.51282024, 4112.82051255, 4115.76923050, 4119.87179460, 4128.84615357, 4083.58974325, 4077.17948684, 4064.74358933, 4130.76923050, 4108.58974332, 4125.89743562, 4132.69230742, 4190.51282038,8.57
4117.05128178, 4120.76923050, 4121.41025614, 4116.28205101, 4122.05128178, 4131.92307665, 4088.07692273, 4086.66666632, 4069.74358940, 4130.51282024, 4110.12820485, 4128.46153819, 4132.82051255, 4192.43589730,8.57
4119.61538434, 4127.56410229, 4126.02564075, 4119.87179460, 4129.87179460, 4138.33333313, 4090.76923043, 4089.74358940, 4076.02564068, 4130.25640998, 4111.79487152, 4130.89743562, 4134.87179460, 4193.58974345,8.57
4101.92307658, 4115.12820485, 4106.02564075, 4112.43589716, 4120.12820485, 4131.28205101, 4075.51282017, 4071.41025607, 4068.46153805, 4129.10256383, 4110.51282024, 4123.97435870, 4131.66666639, 4190.51282038,8.57
4130.51282024, 4129.87179460, 4129.87179460, 4128.33333306, 4123.20512793, 4121.53846126, 4059.23076882, 4059.99999959, 4061.53846113, 4130.25640998, 4110.51282024, 4133.71794844, 4134.87179460, 4191.79487166,8.57
4109.23076896, 4119.87179460, 4116.15384588, 4117.30769203, 4125.64102537, 4131.53846126, 4070.25640991, 4069.35897395, 4070.89743555, 4130.38461511, 4107.69230742, 4124.74358947, 4131.79487152, 4188.58974345,8.57
4110.76923050, 4120.51282024, 4119.48717921, 4111.79487152, 4126.02564075, 4140.12820492, 4083.84615350, 4074.10256376, 4077.30769196, 4129.23076896, 4111.66666639, 4127.30769203, 4130.12820485, 4193.33333320,8.57
4136.15384595, 4135.51282031, 4139.61538441, 4127.05128178, 4129.61538434, 4129.35897408, 4074.48717914, 4070.51282017, 4072.30769196, 4129.23076896, 4114.10256383, 4136.53846133, 4131.79487152, 4191.41025628,8.57
4111.02564075, 4117.56410229, 4116.02564075, 4116.41025614, 4121.02564075, 4132.30769203, 4079.23076889, 4083.33333299, 4080.12820478, 4128.46153819, 4107.69230742, 4127.30769203, 4127.69230742, 4190.25641012,8.57
4129.23076896, 4131.02564075, 4137.69230749, 4123.46153819, 4125.64102537, 4145.12820492, 4091.15384581, 4091.92307658, 4090.25640991, 4128.97435870, 4109.87179460, 4138.33333313, 4131.02564075, 4196.41025628,8.57
4120.38461511, 4127.43589716, 4128.33333306, 4120.51282024, 4123.71794844, 4142.17948697, 4088.97435863, 4085.76923043, 4085.38461504, 4129.10256383, 4111.15384588, 4131.15384588, 4129.35897408, 4189.87179474,8.57
4115.38461511, 4115.38461511, 4113.97435870, 4116.41025614, 4117.56410229, 4138.33333313, 4084.87179453, 4079.35897402, 4079.23076889, 4126.28205101, 4110.64102537, 4127.56410229, 4129.23076896, 4194.23076910,8.57
4138.71794851, 4129.48717921, 4134.48717921, 4128.46153819, 4126.28205101, 4134.48717921, 4073.20512786, 4070.51282017, 4078.84615350, 4126.28205101, 4113.07692280, 4140.38461518, 4134.99999973, 4197.43589730,8.57
4107.69230742, 4113.33333306, 4111.02564075, 4112.56410229, 4120.89743562, 4127.82051255, 4060.25640984, 4064.10256369, 4078.71794837, 4128.97435870, 4110.64102537, 4128.84615357, 4130.25640998, 4191.66666653,8.57
4127.05128178, 4122.17948691, 4125.12820485, 4119.35897408, 4121.66666639, 4129.74358947, 4057.56410215, 4057.56410215, 4073.71794837, 4129.48717921, 4112.30769203, 4136.15384595, 4130.51282024, 4198.33333320,8.57
4128.84615357, 4126.53846126, 4125.51282024, 4122.43589716, 4126.41025614, 4133.07692280, 4060.25640984, 4053.33333292, 4069.61538420, 4127.94871767, 4112.43589716, 4132.94871767, 4130.25640998, 4197.56410243,8.57
4109.61538434, 4116.79487152, 4110.25640998, 4112.94871767, 4123.71794844, 4132.05128178, 4058.97435856, 4058.71794830, 4074.48717914, 4127.05128178, 4110.89743562, 4125.89743562, 4130.38461511, 4199.23076910,8.57
4131.28205101, 4131.66666639, 4131.79487152, 4125.25640998, 4128.07692280, 4135.64102544, 4061.28205087, 4068.46153805, 4083.58974325, 4128.46153819, 4113.07692280, 4137.69230749, 4135.76923056, 4199.10256397,8.57
4104.74358947, 4114.23076896, 4108.46153819, 4114.23076896, 4121.53846126, 4143.84615364, 4076.53846119, 4084.61538427, 4101.15384581, 4130.25640998, 4111.79487152, 4125.12820485, 4128.58974332, 4190.12820499,8.57
4117.94871767, 4120.38461511, 4117.69230742, 4119.87179460, 4123.97435870, 4144.35897415, 4075.51282017, 4084.35897402, 4107.43589716, 4130.51282024, 4113.84615357, 4130.51282024, 4129.35897408, 4198.20512807,8.57
4123.07692280, 4126.15384588, 4124.23076896, 4123.58974332, 4127.05128178, 4137.05128185, 4060.25640984, 4064.23076882, 4089.10256376, 4126.92307665, 4112.43589716, 4133.20512793, 4133.46153819, 4197.56410243,8.57
4099.48717914, 4110.51282024, 4104.74358947, 4110.25640998, 4118.33333306, 4135.51282031, 4059.99999959, 4057.43589702, 4075.12820478, 4126.02564075, 4107.82051255, 4123.33333306, 4129.48717921, 4190.89743576,8.57
4126.28205101, 4129.23076896, 4132.30769203, 4125.25640998, 4126.15384588, 4136.02564082, 4060.51282010, 4057.43589702, 4075.76923043, 4129.23076896, 4110.38461511, 4133.71794844, 4131.53846126, 4192.56410243,8.57
4105.64102537, 4120.51282024, 4116.02564075, 4116.66666639, 4126.28205101, 4140.25641005, 4060.51282010, 4062.17948677, 4081.41025607, 4128.84615357, 4110.12820485, 4123.97435870, 4127.43589716, 4190.51282038,8.57
4115.76923050, 4122.56410229, 4121.41025614, 4118.84615357, 4126.28205101, 4149.87179467, 4067.05128164, 4070.64102530, 4085.38461504, 4127.94871767, 4111.15384588, 4127.82051255, 4127.94871767, 4193.20512807,8.57
4130.76923050, 4131.92307665, 4136.28205108, 4129.23076896, 4128.71794844, 4143.07692287, 4060.25640984, 4065.76923036, 4084.35897402, 4129.87179460, 4112.69230742, 4136.28205108, 4131.66666639, 4190.25641012,8.57
4103.71794844, 4114.99999973, 4112.30769203, 4113.84615357, 4119.74358947, 4132.56410229, 4057.17948677, 4061.79487138, 4084.99999966, 4129.61538434, 4110.89743562, 4125.51282024, 4128.20512793, 4193.97435884,8.57
4129.23076896, 4129.23076896, 4133.07692280, 4121.92307665, 4128.20512793, 4139.35897415, 4069.74358940, 4072.30769196, 4092.43589709, 4128.20512793, 4115.12820485, 4134.61538434, 4132.82051255, 4199.99999986,8.57
4117.43589716, 4120.89743562, 4117.69230742, 4116.02564075, 4127.69230742, 4139.61538441, 4068.84615343, 4076.41025607, 4097.82051248, 4128.46153819, 4116.02564075, 4129.74358947, 4131.66666639, 4188.58974345,8.57
4123.84615357, 4119.48717921, 4118.46153819, 4117.17948691, 4122.43589716, 4131.92307665, 4051.66666625, 4058.33333292, 4090.38461504, 4128.20512793, 4113.33333306, 4130.12820485, 4129.87179460, 4192.17948704,8.57
4138.07692287, 4133.20512793, 4138.71794851, 4129.61538434, 4125.38461511, 4132.05128178, 4047.05128164, 4044.23076882, 4083.20512786, 4128.07692280, 4111.66666639, 4136.53846133, 4132.56410229, 4196.79487166,8.57
4102.17948684, 4115.89743562, 4109.61538434, 4112.82051255, 4119.35897408, 4129.23076896, 4049.35897395, 4046.41025600, 4084.23076889, 4128.07692280, 4111.79487152, 4128.71794844, 4130.64102537, 4195.64102551,8.57
4128.46153819, 4128.58974332, 4126.53846126, 4117.82051255, 4127.56410229, 4116.53846126, 4036.79487131, 4038.07692266, 4079.10256376, 4128.97435870, 4113.07692280, 4140.51282031, 4134.23076896, 4197.82051269,8.57
4124.23076896, 4125.12820485, 4124.87179460, 4116.53846126, 4127.05128178, 4117.56410229, 4040.89743548, 4037.82051241, 4077.94871761, 4129.74358947, 4110.64102537, 4133.58974332, 4131.02564075, 4193.07692294,8.57
4112.30769203, 4115.64102537, 4115.76923050, 4114.99999973, 4117.94871767, 4127.17948691, 4058.84615343, 4054.35897395, 4088.46153812, 4128.58974332, 4110.89743562, 4129.74358947, 4131.53846126, 4200.76923063,8.57
4129.35897408, 4130.51282024, 4128.58974332, 4123.71794844, 4124.35897408, 4126.02564075, 4055.64102523, 4055.89743548, 4091.66666632, 4128.46153819, 4111.02564075, 4137.56410236, 4136.28205108, 4199.99999986,8.57
4108.84615357, 4118.71794844, 4108.84615357, 4107.43589716, 4122.56410229, 4124.35897408, 4050.89743548, 4056.92307651, 4094.35897402, 4128.97435870, 4110.25640998, 4123.07692280, 4128.33333306, 4191.66666653,8.57
4125.25640998, 4122.94871767, 4123.84615357, 4116.66666639, 4125.12820485, 4116.53846126, 4042.17948677, 4051.79487138, 4093.84615350, 4129.35897408, 4113.20512793, 4130.51282024, 4129.87179460, 4196.41025628,8.57
4114.61538434, 4119.99999973, 4117.94871767, 4119.87179460, 4125.64102537, 4113.58974332, 4042.94871754, 4044.74358933, 4089.87179453, 4126.66666639, 4111.02564075, 4129.99999973, 4131.41025614, 4193.20512807,8.57
4106.66666639, 4117.05128178, 4112.17948691, 4113.46153819, 4122.94871767, 4130.51282024, 4064.99999959, 4063.46153805, 4101.53846119, 4126.02564075, 4111.92307665, 4126.79487152, 4129.87179460, 4193.84615371,8.57
4127.94871767, 4131.53846126, 4130.12820485, 4124.48717921, 4129.23076896, 4127.82051255, 4061.66666625, 4069.10256369, 4104.87179460, 4129.87179460, 4115.12820485, 4130.76923050, 4132.69230742, 4194.35897422,8.57
4103.84615357, 4113.20512793, 4104.99999973, 4113.97435870, 4124.61538434, 4110.51282024, 4044.35897395, 4059.87179446, 4098.71794837, 4130.12820485, 4111.15384588, 4121.15384588, 4128.84615357, 4194.23076910,8.57
4127.69230742, 4123.33333306, 4123.58974332, 4122.82051255, 4126.15384588, 4111.66666639, 4048.07692266, 4064.35897395, 4103.20512793, 4128.84615357, 4112.17948691, 4136.53846133, 4131.66666639, 4198.20512807,8.57
4128.20512793, 4129.61538434, 4128.71794844, 4123.84615357, 4125.51282024, 4121.02564075, 4059.61538420, 4069.35897395, 4106.15384588, 4128.58974332, 4114.10256383, 4134.10256383, 4131.66666639, 4189.87179474,8.57
4109.48717921, 4117.30769203, 4115.25640998, 4113.33333306, 4121.92307665, 4125.51282024, 4060.38461497, 4059.10256369, 4101.41025607, 4129.10256383, 4115.51282024, 4126.41025614, 4128.58974332, 4192.05128192,8.57
4133.84615357, 4129.48717921, 4137.82051262, 4127.43589716, 4129.99999973, 4125.51282024, 4055.51282010, 4047.69230728, 4096.66666632, 4129.10256383, 4117.82051255, 4138.58974339, 4133.71794844, 4196.53846140,8.57
4112.43589716, 4118.84615357, 4114.74358947, 4114.74358947, 4121.15384588, 4122.69230742, 4055.12820472, 4054.35897395, 4098.58974325, 4127.69230742, 4113.46153819, 4128.97435870, 4130.38461511, 4190.76923063,8.57
4124.61538434, 4128.07692280, 4122.94871767, 4117.05128178, 4121.53846126, 4117.56410229, 4048.97435856, 4057.82051241, 4101.66666632, 4126.79487152, 4114.74358947, 4136.28205108, 4129.61538434, 4196.02564089,8.57
4128.84615357, 4131.41025614, 4131.02564075, 4123.58974332, 4128.20512793, 4113.07692280, 4041.79487138, 4051.41025600, 4099.87179453, 4126.79487152, 4117.05128178, 4138.58974339, 4130.76923050, 4195.12820499,8.57
4109.48717921, 4114.99999973, 4112.05128178, 4114.10256383, 4121.15384588, 4115.38461511, 4044.74358933, 4056.92307651, 4101.66666632, 4127.94871767, 4114.74358947, 4132.56410229, 4131.15384588, 4196.53846140,8.57
4135.64102544, 4130.51282024, 4133.33333306, 4127.05128178, 4126.28205101, 4121.79487152, 4049.74358933, 4062.82051241, 4106.53846126, 4129.87179460, 4113.46153819, 4143.97435877, 4133.84615357, 4199.74358961,8.57
4110.38461511, 4116.53846126, 4114.61538434, 4118.07692280, 4124.99999973, 4120.51282024, 4046.41025600, 4054.87179446, 4106.66666639, 4129.23076896, 4110.25640998, 4131.41025614, 4128.20512793, 4196.02564089,8.57
4114.87179460, 4118.07692280, 4117.43589716, 4118.58974332, 4124.10256383, 4112.94871767, 4033.20512772, 4044.87179446, 4101.92307658, 4127.69230742, 4112.43589716, 4134.10256383, 4132.82051255, 4203.33333327,8.57
4130.38461511, 4132.43589716, 4129.48717921, 4124.74358947, 4126.79487152, 4109.10256383, 4024.10256362, 4045.64102523, 4100.76923043, 4126.79487152, 4113.33333306, 4139.35897415, 4133.71794844, 4198.20512807,8.57
4102.56410229, 4115.38461511, 4105.25640998, 4109.99999973, 4121.15384588, 4112.56410229, 4029.61538413, 4050.64102523, 4103.97435870, 4126.92307665, 4111.02564075, 4128.97435870, 4123.07692280, 4192.17948704,8.57
4123.20512793, 4126.28205101, 4124.99999973, 4121.79487152, 4129.35897408, 4123.97435870, 4040.25640984, 4052.43589702, 4103.46153819, 4129.99999973, 4116.28205101, 4138.58974339, 4129.61538434, 4197.30769217,8.57
4111.28205101, 4119.74358947, 4113.58974332, 4118.84615357, 4127.30769203, 4136.15384595, 4054.99999959, 4070.25640991, 4113.33333306, 4130.25640998, 4115.89743562, 4129.35897408, 4131.28205101, 4189.87179474,8.57
4113.84615357, 4116.92307665, 4113.20512793, 4118.46153819, 4124.10256383, 4138.71794851, 4059.61538420, 4084.61538427, 4126.02564075, 4128.84615357, 4112.94871767, 4131.28205101, 4129.61538434, 4193.46153833,8.57
4131.15384588, 4132.43589716, 4132.56410229, 4126.41025614, 4129.87179460, 4130.25640998, 4047.56410215, 4069.61538420, 4120.64102537, 4129.99999973, 4113.07692280, 4139.61538441, 4134.10256383, 4197.69230756,8.57
4099.23076889, 4116.15384588, 4107.43589716, 4109.48717921, 4122.17948691, 4130.51282024, 4048.97435856, 4059.35897395, 4114.35897408, 4128.97435870, 4112.69230742, 4122.94871767, 4129.48717921, 4192.56410243,8.57
4121.66666639, 4125.76923050, 4128.33333306, 4124.10256383, 4127.05128178, 4132.56410229, 4045.64102523, 4051.15384574, 4107.17948691, 4128.33333306, 4117.56410229, 4131.53846126, 4131.92307665, 4192.43589730,8.57
4117.30769203, 4125.38461511, 4125.25640998, 4127.17948691, 4127.82051255, 4125.64102537, 4033.20512772, 4041.92307651, 4103.07692280, 4129.23076896, 4117.56410229, 4132.82051255, 4130.76923050, 4188.58974345,8.57
4107.82051255, 4119.74358947, 4116.02564075, 4116.41025614, 4118.84615357, 4132.43589716, 4041.53846113, 4054.23076882, 4112.56410229, 4128.33333306, 4116.28205101, 4130.51282024, 4128.46153819, 4193.71794858,8.57
4132.43589716, 4132.69230742, 4137.56410236, 4126.53846126, 4124.99999973, 4136.02564082, 4044.74358933, 4060.38461497, 4112.94871767, 4128.20512793, 4118.07692280, 4138.58974339, 4133.97435870, 4196.28205115,8.57
4107.82051255, 4115.25640998, 4110.76923050, 4114.35897408, 4122.05128178, 4120.64102537, 4033.20512772, 4051.02564061, 4108.46153819, 4129.61538434, 4114.10256383, 4129.23076896, 4129.23076896, 4193.71794858,8.57
4129.48717921, 4127.82051255, 4125.64102537, 4122.30769203, 4124.48717921, 4112.17948691, 4026.92307644, 4048.46153805, 4113.58974332, 4129.61538434, 4115.64102537, 4138.71794851, 4129.35897408, 4199.48717935,8.57
4130.89743562, 4130.64102537, 4131.28205101, 4123.84615357, 4124.61538434, 4123.84615357, 4035.64102516, 4056.15384574, 4115.89743562, 4128.84615357, 4117.30769203, 4137.30769210, 4131.41025614, 4193.46153833,8.57
4109.35897408, 4113.33333306, 4113.33333306, 4110.12820485, 4116.53846126, 4130.38461511, 4045.76923036, 4053.58974318, 4107.30769203, 4129.35897408, 4115.25640998, 4131.53846126, 4129.61538434, 4194.87179474,8.57
4132.05128178, 4131.28205101, 4132.82051255, 4124.61538434, 4127.69230742, 4123.33333306, 4039.48717907, 4038.84615343, 4100.64102530, 4128.07692280, 4116.02564075, 4143.46153826, 4132.82051255, 4198.20512807,8.57
4107.56410229, 4119.87179460, 4111.79487152, 4117.30769203, 4128.07692280, 4126.66666639, 4036.28205080, 4040.76923036, 4105.64102537, 4125.12820485, 4115.12820485, 4130.38461511, 4131.79487152, 4192.56410243,8.57
4120.25640998, 4122.82051255, 4118.20512793, 4117.94871767, 4125.25640998, 4127.30769203, 4036.53846106, 4045.76923036, 4110.38461511, 4127.17948691, 4115.76923050, 4135.64102544, 4135.51282031, 4200.76923063,8.57
4127.69230742, 4130.76923050, 4124.87179460, 4119.99999973, 4125.89743562, 4122.56410229, 4036.92307651, 4047.69230728, 4115.76923050, 4129.99999973, 4114.74358947, 4139.48717928, 4130.76923050, 4198.84615371,8.57
4104.48717921, 4115.64102537, 4107.82051255, 4110.38461511, 4121.79487152, 4135.25640998, 4046.92307651, 4064.74358933, 4126.15384588, 4128.46153819, 4115.89743562, 4126.15384588, 4123.46153819, 4193.07692294,8.57
4130.51282024, 4127.43589716, 4128.33333306, 4123.71794844, 4127.69230742, 4145.64102544, 4052.17948677, 4070.25640991, 4129.87179460, 4126.79487152, 4119.99999973, 4135.38461518, 4133.84615357, 4194.35897422,8.57
4111.92307665, 4115.38461511, 4107.82051255, 4114.10256383, 4121.41025614, 4138.84615364, 4049.10256369, 4061.92307651, 4127.05128178, 4128.71794844, 4114.87179460, 4132.82051255, 4133.58974332, 4190.89743576,8.57
4112.56410229, 4117.94871767, 4113.58974332, 4114.74358947, 4122.69230742, 4133.33333306, 4044.48717907, 4057.94871754, 4120.64102537, 4130.25640998, 4112.43589716, 4135.12820485, 4130.12820485, 4196.15384602,8.57
4122.56410229, 4129.35897408, 4128.84615357, 4123.46153819, 4129.99999973, 4136.41025621, 4046.28205087, 4059.23076882, 4116.15384588, 4128.58974332, 4115.38461511, 4131.92307665, 4131.41025614, 4191.53846140,8.57
4102.30769196, 4112.69230742, 4105.25640998, 4111.53846126, 4122.05128178, 4141.02564082, 4054.99999959, 4064.99999959, 4123.97435870, 4127.82051255, 4116.28205101, 4123.71794844, 4128.97435870, 4188.33333320,8.57
4128.07692280, 4124.35897408, 4126.28205101, 4125.76923050, 4126.92307665, 4143.46153826, 4055.76923036, 4068.20512779, 4131.28205101, 4129.99999973, 4116.53846126, 4138.84615364, 4133.20512793, 4193.33333320,8.57
4111.79487152, 4118.46153819, 4118.58974332, 4119.48717921, 4126.15384588, 4141.41025621, 4052.56410215, 4074.87179453, 4133.33333306, 4130.76923050, 4113.20512793, 4130.64102537, 4128.33333306, 4188.71794858,8.57
4116.41025614, 4122.94871767, 4122.94871767, 4115.76923050, 4123.71794844, 4138.58974339, 4048.33333292, 4077.43589709, 4135.64102544, 4129.23076896, 4116.15384588, 4132.30769203, 4127.17948691, 4195.64102551,8.57
4139.23076903, 4135.64102544, 4137.94871774, 4128.46153819, 4127.69230742, 4136.79487159, 4040.38461497, 4061.79487138, 4127.43589716, 4128.71794844, 4121.15384588, 4142.05128185, 4134.10256383, 4195.76923063,8.57
4111.92307665, 4112.05128178, 4108.46153819, 4116.02564075, 4119.23076896, 4135.51282031, 4039.74358933, 4050.12820472, 4121.02564075, 4128.46153819, 4119.10256383, 4132.82051255, 4130.76923050, 4189.74358961,8.57
4136.41025621, 4127.43589716, 4130.89743562, 4124.87179460, 4125.25640998, 4131.79487152, 4037.17948677, 4049.61538420, 4124.48717921, 4128.33333306, 4119.61538434, 4143.07692287, 4131.02564075, 4195.76923063,8.57
4127.82051255, 4129.99999973, 4126.66666639, 4121.28205101, 4126.28205101, 4131.53846126, 4034.74358926, 4051.28205087, 4123.71794844, 4128.07692280, 4118.46153819, 4137.30769210, 4132.30769203, 4195.25641012,8.57
4114.35897408, 4118.97435870, 4112.43589716, 4116.53846126, 4120.12820485, 4140.51282031, 4045.12820472, 4056.15384574, 4121.02564075, 4129.10256383, 4118.84615357, 4137.05128185, 4134.99999973, 4198.97435884,8.57
4134.61538434, 4130.64102537, 4131.02564075, 4128.71794844, 4128.97435870, 4144.61538441, 4051.41025600, 4064.10256369, 4123.97435870, 4130.76923050, 4120.64102537, 4147.94871774, 4135.76923056, 4198.71794858,8.57
4109.10256383, 4115.64102537, 4110.51282024, 4113.97435870, 4122.94871767, 4142.05128185, 4049.48717907, 4069.87179453, 4127.56410229, 4127.82051255, 4116.53846126, 4132.30769203, 4130.25640998, 4195.51282038,8.57
4126.15384588, 4123.84615357, 4123.07692280, 4120.51282024, 4121.28205101, 4144.99999980, 4048.58974318, 4062.56410215, 4123.97435870, 4126.66666639, 4117.30769203, 4138.71794851, 4136.15384595, 4202.05128199,8.57
4122.56410229, 4127.43589716, 4119.48717921, 4122.05128178, 4126.79487152, 4152.05128185, 4053.07692266, 4053.46153805, 4122.56410229, 4129.61538434, 4116.92307665, 4140.76923056, 4134.61538434, 4198.46153833,8.57
4104.99999973, 4118.46153819, 4103.84615357, 4112.82051255, 4124.87179460, 4150.76923056, 4052.69230728, 4053.07692266, 4129.87179460, 4129.61538434, 4116.28205101, 4133.84615357, 4129.48717921, 4198.71794858,8.57
4127.43589716, 4128.07692280, 4127.05128178, 4124.35897408, 4125.12820485, 4141.02564082, 4042.43589702, 4056.53846113, 4137.30769210, 4128.07692280, 4118.71794844, 4138.46153826, 4134.99999973, 4199.23076910,8.57
4105.38461511, 4111.53846126, 4110.76923050, 4115.25640998, 4117.05128178, 4145.12820492, 4047.82051241, 4067.82051241, 4141.28205108, 4127.94871767, 4115.38461511, 4127.05128178, 4130.51282024, 4191.92307679,8.57
4118.71794844, 4121.79487152, 4119.61538434, 4121.41025614, 4123.46153819, 4154.23076903, 4058.46153805, 4068.58974318, 4132.56410229, 4128.71794844, 4115.38461511, 4134.48717921, 4131.79487152, 4195.64102551,8.57
4121.79487152, 4129.48717921, 4121.92307665, 4124.87179460, 4128.97435870, 4146.53846133, 4049.23076882, 4054.61538420, 4121.15384588, 4128.97435870, 4115.51282024, 4134.99999973, 4135.38461518, 4193.71794858,8.57
4101.53846119, 4113.84615357, 4106.66666639, 4113.71794844, 4122.43589716, 4142.05128185, 4042.05128164, 4053.07692266, 4123.07692280, 4129.23076896, 4113.97435870, 4128.20512793, 4128.97435870, 4194.74358961,8.57
4128.97435870, 4128.20512793, 4132.17948691, 4127.43589716, 4130.51282024, 4149.35897415, 4046.28205087, 4051.66666625, 4120.64102537, 4129.48717921, 4117.94871767, 4140.76923056, 4129.23076896, 4195.38461525,8.57
4109.23076896, 4117.17948691, 4112.94871767, 4116.28205101, 4127.17948691, 4148.58974339, 4047.43589702, 4052.69230728, 4117.30769203, 4127.43589716, 4118.71794844, 4128.84615357, 4129.23076896, 4188.46153833,8.57
4115.76923050, 4122.05128178, 4119.10256383, 4118.33333306, 4124.87179460, 4148.20512800, 4047.56410215, 4058.07692266, 4124.61538434, 4127.17948691, 4116.79487152, 4133.46153819, 4131.79487152, 4194.74358961,8.57
4129.99999973, 4134.99999973, 4133.84615357, 4129.74358947, 4129.99999973, 4155.12820492, 4048.84615343, 4049.99999959, 4120.89743562, 4128.46153819, 4115.25640998, 4143.71794851, 4132.05128178, 4191.66666653,8.57
4107.69230742, 4115.12820485, 4109.23076896, 4113.97435870, 4122.82051255, 4147.82051262, 4037.05128164, 4039.61538420, 4110.38461511, 4127.82051255, 4116.66666639, 4131.79487152, 4127.69230742, 4188.07692294,8.57
4133.20512793, 4127.56410229, 4132.43589716, 4126.15384588, 4127.30769203, 4141.28205108, 4032.56410208, 4050.38461497, 4118.33333306, 4128.20512793, 4117.30769203, 4139.74358954, 4131.92307665, 4194.99999986,8.57
4118.33333306, 4124.61538434, 4121.92307665, 4123.20512793, 4127.30769203, 4159.87179467, 4064.48717907, 4081.53846119, 4141.15384595, 4130.38461511, 4111.79487152, 4137.05128185, 4129.87179460, 4191.66666653,8.57
4120.64102537, 4120.89743562, 4118.07692280, 4118.33333306, 4125.12820485, 4169.74358961, 4079.61538427, 4094.61538427, 4149.23076903, 4131.02564075, 4115.12820485, 4140.89743569, 4130.51282024, 4195.38461525,8.57
4138.84615364, 4131.79487152, 4135.25640998, 4129.99999973, 4130.25640998, 4153.71794851, 4055.89743548, 4078.07692273, 4137.82051262, 4128.07692280, 4120.38461511, 4146.15384595, 4133.71794844, 4196.79487166,8.57
4104.74358947, 4113.71794844, 4106.15384588, 4116.66666639, 4121.92307665, 4152.43589723, 4054.23076882, 4067.30769189, 4130.38461511, 4126.28205101, 4116.79487152, 4132.05128178, 4130.89743562, 4198.71794858,8.57
4128.97435870, 4124.48717921, 4123.07692280, 4122.94871767, 4125.76923050, 4159.61538441, 4060.64102523, 4064.23076882, 4128.58974332, 4129.87179460, 4118.33333306, 4143.07692287, 4136.15384595, 4204.74358968,8.57
4124.10256383, 4124.48717921, 4124.48717921, 4122.69230742, 4129.23076896, 4153.84615364, 4051.53846113, 4059.10256369, 4128.07692280, 4128.71794844, 4118.71794844, 4140.25641005, 4132.94871767, 4195.64102551,8.57
4109.74358947, 4117.94871767, 4113.33333306, 4115.64102537, 4124.23076896, 4154.48717928, 4052.69230728, 4057.43589702, 4129.99999973, 4124.74358947, 4117.30769203, 4135.25640998, 4130.12820485, 4197.30769217,8.57
4131.15384588, 4130.76923050, 4125.89743562, 4124.35897408, 4125.38461511, 4157.69230749, 4053.97435856, 4056.15384574, 4123.84615357, 4128.20512793, 4118.20512793, 4141.41025621, 4133.33333306, 4198.97435884,8.57
4105.38461511, 4114.74358947, 4103.84615357, 4113.84615357, 4119.35897408, 4155.51282031, 4052.69230728, 4061.53846113, 4123.58974332, 4130.89743562, 4116.41025614, 4131.53846126, 4126.79487152, 4192.82051269,8.57
4119.87179460, 4124.87179460, 4121.41025614, 4123.20512793, 4127.69230742, 4153.84615364, 4052.82051241, 4066.28205087, 4132.05128178, 4128.20512793, 4118.58974332, 4140.64102544, 4131.28205101, 4198.84615371,8.57
4118.46153819, 4127.94871767, 4122.56410229, 4125.89743562, 4129.10256383, 4148.97435877, 4047.69230728, 4060.38461497, 4131.53846126, 4127.94871767, 4118.46153819, 4135.12820485, 4133.07692280, 4194.23076910,8.57
4102.94871767, 4114.61538434, 4108.33333306, 4117.82051255, 4120.76923050, 4146.41025621, 4049.61538420, 4061.66666625, 4125.64102537, 4129.10256383, 4117.05128178, 4127.17948691, 4126.66666639, 4190.76923063,8.57
4127.17948691, 4129.35897408, 4132.94871767, 4130.12820485, 4129.23076896, 4142.56410236, 4049.35897395, 4065.25640984, 4125.51282024, 4127.82051255, 4118.84615357, 4138.71794851, 4129.87179460, 4192.43589730,8.57
4104.48717921, 4115.25640998, 4113.84615357, 4116.41025614, 4124.61538434, 4133.97435870, 4041.79487138, 4062.94871754, 4128.07692280, 4126.41025614, 4115.64102537, 4128.07692280, 4128.58974332, 4191.28205115,8.57
4117.94871767, 4121.15384588, 4124.35897408, 4119.87179460, 4122.05128178, 4132.82051255, 4042.17948677, 4059.74358933, 4127.05128178, 4127.05128178, 4114.23076896, 4132.56410229, 4129.48717921, 4196.28205115,8.57
4126.15384588, 4129.35897408, 4130.76923050, 4127.30769203, 4123.71794844, 4141.92307672, 4057.43589702, 4068.71794830, 4129.99999973, 4128.84615357, 4113.20512793, 4137.43589723, 4131.53846126, 4188.07692294,8.57
4110.12820485, 4114.61538434, 4113.20512793, 4115.76923050, 4120.89743562, 4145.89743569, 4065.64102523, 4079.48717914, 4136.28205108, 4129.23076896, 4114.23076896, 4131.92307665, 4129.48717921, 4186.79487166,8.57
4138.33333313, 4130.38461511, 4140.38461518, 4127.94871767, 4129.35897408, 4139.87179467, 4053.71794830, 4068.46153805, 4133.33333306, 4126.92307665, 4116.53846126, 4140.38461518, 4133.33333306, 4194.61538448,8.57
4113.33333306, 4121.41025614, 4117.69230742, 4117.56410229, 4121.53846126, 4139.10256390, 4057.05128164, 4069.87179453, 4136.66666646, 4127.05128178, 4115.64102537, 4130.89743562, 4131.02564075, 4191.92307679,8.57
4120.76923050, 4123.46153819, 4116.53846126, 4117.17948691, 4118.46153819, 4143.20512800, 4069.99999966, 4093.97435863, 4149.74358954, 4129.48717921, 4119.23076896, 4137.69230749, 4131.66666639, 4198.46153833,8.57
4136.92307672, 4133.33333306, 4131.92307665, 4127.82051255, 4128.20512793, 4143.71794851, 4068.84615343, 4102.43589709, 4152.30769210, 4128.97435870, 4117.69230742, 4142.43589723, 4131.53846126, 4197.05128192,8.57
4105.64102537, 4114.99999973, 4107.56410229, 4115.12820485, 4120.51282024, 4147.17948697, 4070.51282017, 4092.94871761, 4145.51282031, 4127.82051255, 4113.58974332, 4132.05128178, 4129.35897408, 4195.64102551,8.57
4129.48717921, 4129.35897408, 4128.84615357, 4123.20512793, 4121.28205101, 4142.43589723, 4063.84615343, 4072.94871761, 4134.48717921, 4128.33333306, 4117.43589716, 4144.87179467, 4137.05128185, 4202.17948711,8.57
4117.30769203, 4122.69230742, 4119.87179460, 4115.76923050, 4124.10256383, 4130.51282024, 4046.02564061, 4061.53846113, 4130.25640998, 4129.61538434, 4115.76923050, 4136.02564082, 4134.10256383, 4197.30769217,8.57
4115.12820485, 4116.28205101, 4115.76923050, 4114.99999973, 4125.89743562, 4127.43589716, 4037.17948677, 4064.48717907, 4135.51282031, 4131.15384588, 4115.25640998, 4133.33333306, 4132.69230742, 4200.89743576,8.57
4131.02564075, 4128.71794844, 4129.10256383, 4126.92307665, 4127.43589716, 4135.89743569, 4048.58974318, 4067.17948677, 4137.05128185, 4129.35897408, 4117.43589716, 4139.87179467, 4134.61538434, 4198.97435884,8.57
4101.15384581, 4113.58974332, 4105.38461511, 4109.35897408, 4115.51282024, 4145.89743569, 4064.10256369, 4072.05128171, 4136.28205108, 4125.76923050, 4114.87179460, 4129.10256383, 4128.07692280, 4192.82051269,8.57
4121.53846126, 4122.69230742, 4123.20512793, 4118.07692280, 4122.30769203, 4137.94871774, 4052.69230728, 4064.61538420, 4127.43589716, 4127.82051255, 4114.48717921, 4136.53846133, 4133.07692280, 4196.28205115,8.57
4112.69230742, 4119.10256383, 4115.12820485, 4121.15384588, 4124.99999973, 4128.58974332, 4043.33333292, 4059.48717907, 4123.58974332, 4128.20512793, 4115.12820485, 4132.05128178, 4133.33333306, 4192.30769217,8.57
4108.33333306, 4114.87179460, 4109.35897408, 4117.30769203, 4119.48717921, 4132.94871767, 4050.25640984, 4068.33333292, 4132.17948691, 4127.82051255, 4117.30769203, 4132.94871767, 4129.48717921, 4195.25641012,8.57
4133.97435870, 4129.87179460, 4133.84615357, 4126.02564075, 4126.66666639, 4126.92307665, 4040.89743548, 4060.51282010, 4126.15384588, 4131.15384588, 4115.51282024, 4138.71794851, 4132.94871767, 4195.76923063,8.57
4105.89743562, 4112.05128178, 4111.92307665, 4113.07692280, 4122.17948691, 4123.07692280, 4039.99999959, 4060.64102523, 4121.41025614, 4130.38461511, 4111.53846126, 4125.64102537, 4129.10256383, 4190.64102551,8.57
4123.07692280, 4123.58974332, 4126.79487152, 4124.61538434, 4126.15384588, 4138.20512800, 4058.58974318, 4080.89743555, 4136.02564082, 4127.30769203, 4119.10256383, 4138.58974339, 4129.87179460, 4193.97435884,8.57
4125.25640998, 4129.23076896, 4127.82051255, 4125.89743562, 4128.33333306, 4146.41025621, 4062.30769189, 4085.51282017, 4143.46153826, 4128.20512793, 4121.53846126, 4138.84615364, 4130.89743562, 4190.76923063,8.57
4110.51282024, 4117.30769203, 4117.43589716, 4115.76923050, 4121.92307665, 4140.89743569, 4053.46153805, 4077.30769196, 4136.28205108, 4130.38461511, 4114.74358947, 4131.92307665, 4130.25640998, 4194.61538448,8.57
4132.30769203, 4132.43589716, 4137.56410236, 4129.48717921, 4127.30769203, 4134.87179460, 4048.07692266, 4077.17948684, 4132.05128178, 4128.07692280, 4116.02564075, 4142.69230749, 4132.05128178, 4196.53846140,8.57
4115.51282024, 4119.74358947, 4112.56410229, 4117.82051255, 4124.87179460, 4130.12820485, 4045.38461497, 4079.74358940, 4135.12820485, 4126.53846126, 4120.38461511, 4132.30769203, 4127.30769203, 4189.99999986,8.57
4132.82051255, 4126.92307665, 4126.41025614, 4121.53846126, 4126.28205101, 4133.58974332, 4042.69230728, 4071.41025607, 4132.30769203, 4128.84615357, 4118.84615357, 4136.79487159, 4131.53846126, 4195.64102551,8.57
4126.53846126, 4131.02564075, 4132.82051255, 4125.25640998, 4124.74358947, 4144.35897415, 4048.97435856, 4072.69230735, 4126.92307665, 4128.20512793, 4111.92307665, 4140.38461518, 4132.94871767, 4193.71794858,8.57
4103.58974332, 4113.46153819, 4109.35897408, 4113.33333306, 4119.23076896, 4146.92307672, 4055.76923036, 4085.76923043, 4131.53846126, 4126.28205101, 4113.46153819, 4137.69230749, 4129.35897408, 4192.82051269,8.57
4137.43589723, 4128.71794844, 4131.79487152, 4126.28205101, 4128.58974332, 4139.10256390, 4040.76923036, 4074.23076889, 4131.66666639, 4127.17948691, 4120.89743562, 4146.28205108, 4133.58974332, 4198.46153833,8.57
4112.17948691, 4117.94871767, 4113.84615357, 4118.84615357, 4125.38461511, 4131.92307665, 4024.74358926, 4055.64102523, 4123.97435870, 4125.38461511, 4115.76923050, 4129.35897408, 4129.99999973, 4195.38461525,8.57
4112.56410229, 4118.46153819, 4113.33333306, 4119.74358947, 4124.87179460, 4130.12820485, 4024.61538413, 4061.02564061, 4125.76923050, 4125.89743562, 4115.12820485, 4132.82051255, 4130.64102537, 4198.07692294,8.57
4130.12820485, 4126.15384588, 4125.64102537, 4126.41025614, 4129.48717921, 4130.25640998, 4026.79487131, 4069.10256369, 4133.20512793, 4129.99999973, 4119.35897408, 4140.25641005, 4131.28205101, 4193.71794858,8.57
4106.79487152, 4109.74358947, 4107.17948691, 4113.20512793, 4119.23076896, 4133.20512793, 4027.43589695, 4063.33333292, 4130.25640998, 4129.61538434, 4117.17948691, 4129.87179460, 4127.17948691, 4194.10256397,8.57
4121.53846126, 4123.33333306, 4124.35897408, 4122.05128178, 4122.69230742, 4132.05128178, 4023.46153798, 4053.71794830, 4123.20512793, 4127.82051255, 4116.92307665, 4137.43589723, 4133.84615357, 4199.48717935,8.57
4104.87179460, 4116.41025614, 4109.87179460, 4113.07692280, 4123.46153819, 4125.89743562, 4023.46153798, 4055.12820472, 4125.64102537, 4127.94871767, 4115.25640998, 4129.35897408, 4131.15384588, 4189.74358961,8.57
4114.61538434, 4117.05128178, 4114.10256383, 4113.71794844, 4122.17948691, 4129.87179460, 4031.15384567, 4058.97435856, 4126.79487152, 4128.46153819, 4116.66666639, 4128.46153819, 4128.97435870, 4191.92307679,8.57
4133.71794844, 4130.64102537, 4132.30769203, 4130.51282024, 4127.56410229, 4140.76923056, 4038.33333292, 4059.99999959, 4124.87179460, 4127.69230742, 4117.30769203, 4131.92307665, 4133.84615357, 4194.10256397,8.57
4101.02564068, 4113.97435870, 4106.66666639, 4118.07692280, 4123.71794844, 4143.46153826, 4044.35897395, 4073.84615350, 4137.43589723, 4126.92307665, 4114.23076896, 4123.33333306, 4129.87179460, 4191.15384602,8.57
4121.92307665, 4126.02564075, 4127.43589716, 4124.99999973, 4129.61538434, 4137.43589723, 4041.53846113, 4084.23076889, 4145.38461518, 4129.99999973, 4118.46153819, 4136.41025621, 4130.64102537, 4192.56410243,8.57
4121.15384588, 4123.46153819, 4121.15384588, 4121.53846126, 4127.69230742, 4140.25641005, 4047.56410215, 4082.94871761, 4139.10256390, 4131.02564075, 4119.99999973, 4131.28205101, 4127.94871767, 4186.92307679,8.57
4121.15384588, 4118.71794844, 4116.92307665, 4118.33333306, 4123.46153819, 4146.15384595, 4055.25640984, 4083.71794837, 4142.69230749, 4128.46153819, 4119.87179460, 4132.30769203, 4127.05128178, 4193.46153833,8.57
4136.28205108, 4134.10256383, 4138.58974339, 4130.51282024, 4130.64102537, 4138.58974339, 4044.48717907, 4085.38461504, 4148.46153826, 4128.33333306, 4121.15384588, 4145.76923056, 4131.53846126, 4196.53846140,8.57
4106.92307665, 4118.33333306, 4110.76923050, 4116.15384588, 4122.30769203, 4138.20512800, 4044.87179446, 4090.89743555, 4145.89743569, 4128.71794844, 4118.58974332, 4134.99999973, 4126.92307665, 4192.30769217,8.57
4130.64102537, 4129.35897408, 4127.94871767, 4125.25640998, 4126.41025614, 4143.58974339, 4050.64102523, 4085.76923043, 4144.10256390, 4127.56410229, 4119.61538434, 4143.20512800, 4129.74358947, 4196.79487166,8.57
4125.12820485, 4127.94871767, 4131.02564075, 4124.48717921, 4128.07692280, 4136.28205108, 4041.15384574, 4072.82051248, 4146.02564082, 4126.79487152, 4121.15384588, 4140.38461518, 4132.05128178, 4193.97435884,8.57
4110.89743562, 4114.48717921, 4116.92307665, 4114.99999973, 4118.33333306, 4130.64102537, 4035.51282003, 4076.15384581, 4144.99999980, 4128.07692280, 4120.64102537, 4133.58974332, 4130.64102537, 4198.20512807,8.57
4138.20512800, 4130.25640998, 4134.48717921, 4127.94871767, 4126.41025614, 4135.64102544, 4041.66666625, 4082.82051248, 4141.53846133, 4129.48717921, 4121.02564075, 4141.92307672, 4132.94871767, 4199.35897422,8.57
4109.74358947, 4114.35897408, 4109.35897408, 4114.74358947, 4124.35897408, 4146.66666646, 4052.69230728, 4087.05128171, 4147.94871774, 4126.92307665, 4118.71794844, 4129.61538434, 4127.43589716, 4194.87179474,8.57
4123.33333306, 4120.76923050, 4121.28205101, 4119.99999973, 4122.30769203, 4146.28205108, 4052.56410215, 4085.89743555, 4148.71794851, 4125.38461511, 4120.38461511, 4137.56410236, 4131.15384588, 4204.99999993,8.57
4125.64102537, 4125.64102537, 4125.89743562, 4124.10256383, 4124.99999973, 4133.46153819, 4044.74358933, 4074.35897402, 4135.12820485, 4127.94871767, 4119.74358947, 4138.33333313, 4132.30769203, 4199.10256397,8.57
4101.79487145, 4110.76923050, 4103.33333306, 4109.74358947, 4121.41025614, 4129.23076896, 4037.94871754, 4067.43589702, 4130.76923050, 4130.12820485, 4116.79487152, 4127.30769203, 4126.28205101, 4192.82051269,8.57
4131.53846126, 4124.48717921, 4123.97435870, 4122.17948691, 4127.17948691, 4128.20512793, 4024.61538413, 4062.30769189, 4132.69230742, 4128.46153819, 4118.46153819, 4135.38461518, 4131.15384588, 4197.56410243,8.57
4109.74358947, 4112.17948691, 4109.48717921, 4116.28205101, 4123.71794844, 4128.07692280, 4023.84615336, 4062.17948677, 4132.56410229, 4127.56410229, 4116.41025614, 4125.76923050, 4128.33333306, 4194.48717935,8.57
4111.02564075, 4117.82051255, 4114.99999973, 4117.05128178, 4125.25640998, 4134.61538434, 4034.10256362, 4066.92307651, 4131.02564075, 4129.74358947, 4119.23076896, 4130.12820485, 4125.64102537, 4196.41025628,8.57
4121.92307665, 4129.23076896, 4123.97435870, 4122.43589716, 4127.69230742, 4130.76923050, 4028.07692259, 4066.15384574, 4129.48717921, 4128.58974332, 4119.48717921, 4132.56410229, 4127.30769203, 4190.76923063,8.57
4100.76923043, 4113.58974332, 4107.30769203, 4113.33333306, 4119.87179460, 4126.41025614, 4025.25640977, 4064.87179446, 4131.53846126, 4125.64102537, 4114.35897408, 4121.53846126, 4126.53846126, 4190.64102551,8.57
4124.87179460, 4126.02564075, 4131.41025614, 4125.64102537, 4127.94871767, 4134.61538434, 4036.53846106, 4067.56410215, 4130.38461511, 4127.05128178, 4117.56410229, 4133.46153819, 4131.28205101, 4194.23076910,8.57
4109.99999973, 4118.58974332, 4115.64102537, 4118.20512793, 4126.79487152, 4136.66666646, 4043.07692266, 4076.41025607, 4132.69230742, 4128.07692280, 4119.10256383, 4129.61538434, 4127.94871767, 4187.94871781,8.57
4113.84615357, 4120.12820485, 4119.23076896, 4120.89743562, 4121.15384588, 4132.82051255, 4040.51282010, 4074.10256376, 4139.48717928, 4127.30769203, 4119.10256383, 4132.17948691, 4129.87179460, 4194.99999986,8.57
4132.17948691, 4133.97435870, 4139.87179467, 4130.38461511, 4124.23076896, 4133.20512793, 4037.43589702, 4063.97435856, 4140.38461518, 4128.58974332, 4120.25640998, 4135.64102544, 4134.48717921, 4193.33333320,8.57
4109.23076896, 4117.82051255, 4113.71794844, 4111.66666639, 4120.89743562, 4131.92307665, 4040.89743548, 4074.23076889, 4142.17948697, 4129.35897408, 4118.07692280, 4125.76923050, 4127.69230742, 4188.58974345,8.57
4132.82051255, 4131.92307665, 4131.92307665, 4126.02564075, 4128.20512793, 4129.35897408, 4043.97435856, 4079.99999966, 4140.89743569, 4128.20512793, 4117.43589716, 4137.82051262, 4129.61538434, 4195.76923063,8.57
4121.53846126, 4125.76923050, 4124.35897408, 4125.51282024, 4125.25640998, 4131.79487152, 4045.12820472, 4070.12820478, 4134.10256383, 4127.17948691, 4117.43589716, 4133.20512793, 4131.41025614, 4192.05128192,8.57
4117.94871767, 4116.53846126, 4113.84615357, 4113.33333306, 4119.74358947, 4128.20512793, 4038.33333292, 4064.87179446, 4131.15384588, 4127.69230742, 4119.99999973, 4133.20512793, 4132.69230742, 4195.38461525,8.57
4140.51282031, 4134.35897408, 4133.33333306, 4124.10256383, 4129.61538434, 4118.58974332, 4025.76923029, 4058.58974318, 4126.53846126, 4127.94871767, 4117.30769203, 4138.97435877, 4133.20512793, 4200.89743576,8.57
4109.48717921, 4116.02564075, 4109.74358947, 4113.97435870, 4123.46153819, 4123.71794844, 4028.46153798, 4053.58974318, 4122.30769203, 4126.02564075, 4111.79487152, 4124.99999973, 4127.17948691, 4198.84615371,8.57
4127.17948691, 4121.28205101, 4122.43589716, 4120.12820485, 4122.05128178, 4126.53846126, 4023.71794824, 4045.89743548, 4119.61538434, 4127.56410229, 4116.28205101, 4137.17948697, 4132.30769203, 4200.64102551,8.57
4124.74358947, 4121.53846126, 4119.87179460, 4118.97435870, 4123.84615357, 4117.17948691, 4011.66666618, 4039.10256369, 4115.25640998, 4129.74358947, 4117.69230742, 4134.48717921, 4131.79487152, 4196.28205115,8.57
4106.28205101, 4110.64102537, 4105.12820485, 4108.46153819, 4120.64102537, 4119.61538434, 4020.38461490, 4053.46153805, 4121.79487152, 4127.69230742, 4115.76923050, 4121.53846126, 4128.46153819, 4198.84615371,8.57
4128.07692280, 4128.20512793, 4126.02564075, 4119.10256383, 4126.66666639, 4122.69230742, 4026.28205080, 4061.15384574, 4127.69230742, 4125.51282024, 4115.25640998, 4131.02564075, 4132.17948691, 4197.30769217,8.57
4106.66666639, 4114.99999973, 4105.25640998, 4109.35897408, 4120.76923050, 4115.76923050, 4019.87179439, 4050.51282010, 4121.79487152, 4126.53846126, 4112.05128178, 4127.17948691, 4126.15384588, 4188.84615371,8.57
4119.61538434, 4121.02564075, 4117.82051255, 4117.17948691, 4122.94871767, 4115.64102537, 4017.94871747, 4044.35897395, 4118.20512793, 4128.97435870, 4115.12820485, 4132.82051255, 4127.56410229, 4195.25641012,8.57
4118.46153819, 4127.05128178, 4123.97435870, 4120.76923050, 4126.66666639, 4124.87179460, 4028.07692259, 4054.87179446, 4124.74358947, 4130.12820485, 4115.12820485, 4131.92307665, 4130.12820485, 4192.43589730,8.57
4098.46153812, 4114.10256383, 4105.76923050, 4110.89743562, 4121.92307665, 4129.10256383, 4037.05128164, 4067.82051241, 4134.35897408, 4128.20512793, 4113.07692280, 4123.71794844, 4126.53846126, 4190.64102551,8.57
4126.92307665, 4128.71794844, 4130.76923050, 4126.41025614, 4128.33333306, 4125.25640998, 4035.25640977, 4069.35897395, 4136.79487159, 4125.89743562, 4116.41025614, 4131.53846126, 4130.25640998, 4193.84615371,8.57
4105.12820485, 4118.20512793, 4115.12820485, 4114.48717921, 4123.58974332, 4117.30769203, 4033.07692259, 4071.28205094, 4139.23076903, 4126.79487152, 4114.61538434, 4123.20512793, 4128.07692280, 4189.61538448,8.57
4115.51282024, 4122.30769203, 4121.28205101, 4113.46153819, 4123.46153819, 4116.92307665, 4035.25640977, 4071.15384581, 4138.20512800, 4129.61538434, 4112.94871767, 4128.58974332, 4128.71794844, 4193.20512807,8.57
4130.12820485, 4130.64102537, 4131.28205101, 4124.48717921, 4126.02564075, 4127.94871767, 4046.15384574, 4074.74358940, 4138.33333313, 4128.71794844, 4114.48717921, 4131.41025614, 4129.23076896, 4191.28205115,8.57
4107.56410229, 4117.05128178, 4110.51282024, 4113.71794844, 4117.30769203, 4127.69230742, 4049.99999959, 4078.71794837, 4140.76923056, 4126.15384588, 4114.35897408, 4124.35897408, 4125.25640998, 4193.84615371,8.57
4135.89743569, 4134.23076896, 4136.15384595, 4122.43589716, 4126.41025614, 4112.56410229, 4033.07692259, 4060.76923036, 4133.58974332, 4125.38461511, 4118.07692280, 4139.61538441, 4130.12820485, 4198.71794858,8.57
4117.69230742, 4122.69230742, 4119.74358947, 4115.25640998, 4124.99999973, 4110.89743562, 4027.30769183, 4047.94871754, 4129.48717921, 4124.61538434, 4118.07692280, 4131.41025614, 4129.23076896, 4190.25641012,8.57
4117.82051255, 4119.48717921, 4118.20512793, 4114.61538434, 4121.15384588, 4118.71794844, 4033.97435849, 4050.38461497, 4128.33333306, 4126.02564075, 4115.64102537, 4129.87179460, 4128.46153819, 4197.17948704,8.57
4137.82051262, 4134.48717921, 4135.38461518, 4122.05128178, 4127.56410229, 4109.35897408, 4023.46153798, 4046.02564061, 4121.92307665, 4126.92307665, 4113.33333306, 4136.41025621, 4130.12820485, 4201.15384609,8.57
4107.43589716, 4114.99999973, 4105.89743562, 4107.69230742, 4119.10256383, 4101.66666632, 4020.12820465, 4047.69230728, 4124.61538434, 4124.35897408, 4111.41025614, 4125.51282024, 4128.20512793, 4197.05128192,8.57
4127.43589716, 4124.87179460, 4126.41025614, 4120.89743562, 4123.20512793, 4108.58974332, 4032.82051234, 4059.99999959, 4135.25640998, 4126.02564075, 4114.74358947, 4137.17948697, 4133.20512793, 4199.87179474,8.57
4118.71794844, 4123.20512793, 4123.58974332, 4119.48717921, 4124.48717921, 4107.82051255, 4033.58974311, 4065.12820472, 4135.89743569, 4129.74358947, 4111.92307665, 4131.41025614, 4128.71794844, 4194.23076910,8.57
4110.89743562, 4116.41025614, 4111.15384588, 4112.82051255, 4118.97435870, 4104.61538434, 4030.25640977, 4058.97435856, 4129.87179460, 4128.20512793, 4112.30769203, 4125.64102537, 4128.97435870, 4197.56410243,8.57
4132.43589716, 4129.35897408, 4128.71794844, 4121.41025614, 4125.25640998, 4107.94871767, 4037.69230728, 4060.38461497, 4135.38461518, 4125.89743562, 4116.02564075, 4134.74358947, 4135.38461518, 4197.43589730,8.57
4107.56410229, 4114.61538434, 4113.33333306, 4106.92307665, 4121.66666639, 4109.35897408, 4044.87179446, 4076.02564068, 4147.82051262, 4127.17948691, 4111.66666639, 4124.23076896, 4127.69230742, 4191.28205115,8.57
4122.56410229, 4124.35897408, 4127.30769203, 4116.28205101, 4124.99999973, 4097.17948684, 4028.07692259, 4063.58974318, 4140.12820492, 4128.97435870, 4114.35897408, 4128.46153819, 4129.10256383, 4197.56410243,8.57
4116.92307665, 4123.07692280, 4120.51282024, 4117.17948691, 4125.89743562, 4092.30769196, 4021.28205080, 4044.10256369, 4128.07692280, 4127.43589716, 4115.25640998, 4123.84615357, 4130.89743562, 4195.25641012,8.57
4105.89743562, 4112.05128178, 4110.51282024, 4109.23076896, 4124.35897408, 4106.66666639, 4040.25640984, 4062.05128164, 4137.69230749, 4127.43589716, 4111.15384588, 4121.66666639, 4127.82051255, 4195.76923063,8.57
4127.56410229, 4127.43589716, 4131.79487152, 4120.89743562, 4130.76923050, 4102.94871767, 4037.69230728, 4069.99999966, 4138.33333313, 4131.02564075, 4112.94871767, 4131.53846126, 4131.66666639, 4194.61538448,8.57
4100.25640991, 4115.51282024, 4109.23076896, 4108.71794844, 4120.64102537, 4094.10256376, 4031.15384567, 4058.58974318, 4131.92307665, 4129.74358947, 4113.46153819, 4119.87179460, 4129.10256383, 4188.33333320,8.57
4121.66666639, 4125.89743562, 4126.28205101, 4118.84615357, 4124.10256383, 4104.99999973, 4042.05128164, 4061.92307651, 4137.05128185, 4126.41025614, 4112.43589716, 4126.53846126, 4129.74358947, 4192.69230756,8.57
4125.38461511, 4128.58974332, 4130.51282024, 4121.53846126, 4128.58974332, 4100.51282017, 4038.97435856, 4062.43589702, 4136.79487159, 4126.41025614, 4109.99999973, 4127.69230742, 4129.35897408, 4190.64102551,8.57
4104.48717921, 4115.64102537, 4110.51282024, 4106.92307665, 4118.33333306, 4084.23076889, 4023.46153798, 4050.51282010, 4132.05128178, 4124.61538434, 4110.76923050, 4124.74358947, 4126.92307665, 4195.64102551,8.57
4137.82051262, 4135.25640998, 4136.53846133, 4123.97435870, 4125.38461511, 4088.97435863, 4021.41025593, 4046.66666625, 4129.74358947, 4124.87179460, 4113.46153819, 4139.23076903, 4132.94871767, 4198.33333320,8.57
4116.66666639, 4119.35897408, 4114.10256383, 4113.33333306, 4125.51282024, 4094.87179453, 4028.20512772, 4047.69230728, 4122.69230742, 4128.58974332, 4110.51282024, 4124.87179460, 4131.02564075, 4190.38461525,8.57
4126.41025614, 4121.79487152, 4122.30769203, 4113.71794844, 4124.23076896, 4082.56410222, 4019.61538413, 4033.33333285, 4112.05128178, 4129.74358947, 4112.94871767, 4126.79487152, 4129.61538434, 4197.56410243,8.57
4138.46153826, 4133.71794844, 4138.33333313, 4123.84615357, 4124.74358947, 4085.25640991, 4019.35897388, 4035.89743541, 4116.79487152, 4128.20512793, 4114.35897408, 4134.35897408, 4131.66666639, 4197.05128192,8.57
4110.25640998, 4114.35897408, 4109.35897408, 4108.84615357, 4117.82051255, 4102.69230742, 4040.51282010, 4065.89743548, 4135.38461518, 4128.58974332, 4111.79487152, 4126.66666639, 4129.74358947, 4196.02564089,8.57
4132.17948691, 4126.53846126, 4127.94871767, 4118.84615357, 4125.25640998, 4099.10256376, 4041.66666625, 4066.28205087, 4136.41025621, 4129.61538434, 4112.30769203, 4136.92307672, 4132.94871767, 4201.66666660,8.57
4113.46153819, 4119.48717921, 4118.84615357, 4115.25640998, 4124.35897408, 4094.23076889, 4035.89743541, 4058.07692266, 4131.28205101, 4128.07692280, 4110.64102537, 4125.51282024, 4131.02564075, 4195.38461525,8.57
4117.30769203, 4119.10256383, 4117.43589716, 4114.61538434, 4121.92307665, 4101.02564068, 4045.12820472, 4069.48717907, 4136.53846133, 4127.69230742, 4111.79487152, 4126.66666639, 4134.35897408, 4198.33333320,8.57
4132.94871767, 4129.99999973, 4125.89743562, 4121.53846126, 4127.30769203, 4094.35897402, 4038.20512779, 4060.25640984, 4131.66666639, 4129.48717921, 4110.12820485, 4135.64102544, 4134.87179460, 4199.10256397,8.57
4101.53846119, 4111.79487152, 4102.30769196, 4106.41025614, 4122.05128178, 4082.82051248, 4023.33333285, 4040.89743548, 4121.28205101, 4130.51282024, 4105.89743562, 4123.84615357, 4124.61538434, 4197.94871781,8.57
4121.53846126, 4125.76923050, 4122.82051255, 4116.41025614, 4125.51282024, 4084.74358940, 4028.58974311, 4043.71794830, 4123.71794844, 4129.87179460, 4111.15384588, 4131.15384588, 4128.20512793, 4200.38461525,8.57
4112.94871767, 4123.58974332, 4114.10256383, 4113.58974332, 4121.79487152, 4093.20512786, 4041.79487138, 4056.41025600, 4131.28205101, 4128.84615357, 4111.02564075, 4121.79487152, 4127.82051255, 4192.05128192,8.57
