AF3,F7,F3,FC5,T7,P7,O1,O2,P8,T8,FC6,F4,F8,AF4,Label
4111.41025614, 4133.33333306, 4109.23076896, 4137.17948697, 4135.51282031, 4117.05128178, 4107.56410229, 4118.84615357, 4114.35897408, 4132.17948691, 4123.20512793, 4114.23076896, 4126.15384588, 4126.66666639,12.0
4110.76923050, 4132.94871767, 4107.17948691, 4137.30769210, 4138.71794851, 4119.99999973, 4108.07692280, 4110.38461511, 4106.79487152, 4128.46153819, 4124.23076896, 4116.02564075, 4122.05128178, 4123.71794844,12.0
4115.38461511, 4135.25640998, 4119.48717921, 4137.69230749, 4142.56410236, 4119.35897408, 4112.30769203, 4121.28205101, 4119.35897408, 4131.92307665, 4126.02564075, 4116.28205101, 4124.99999973, 4127.56410229,12.0
4114.23076896, 4138.58974339, 4123.84615357, 4135.51282031, 4143.33333313, 4122.30769203, 4113.71794844, 4122.05128178, 4120.25640998, 4130.12820485, 4123.71794844, 4115.12820485, 4124.23076896, 4128.20512793,12.0
4104.74358947, 4135.51282031, 4116.28205101, 4132.94871767, 4138.97435877, 4122.94871767, 4104.87179460, 4099.74358940, 4092.56410222, 4114.35897408, 4112.17948691, 4110.64102537, 4112.05128178, 4125.76923050,12.0
4110.76923050, 4140.89743569, 4124.10256383, 4142.43589723, 4143.33333313, 4125.25640998, 4108.84615357, 4100.25640991, 4091.28205094, 4116.41025614, 4119.10256383, 4118.58974332, 4122.17948691, 4126.53846126,12.0
4127.30769203, 4152.56410236, 4138.71794851, 4154.99999980, 4152.82051262, 4133.20512793, 4127.05128178, 4125.25640998, 4125.89743562, 4142.43589723, 4148.20512800, 4135.89743569, 4147.30769210, 4127.56410229,12.0
4127.82051255, 4152.56410236, 4142.69230749, 4156.79487159, 4154.74358954, 4136.79487159, 4134.35897408, 4135.51282031, 4140.38461518, 4154.35897415, 4160.64102544, 4143.33333313, 4150.64102544, 4127.43589716,12.0
4119.74358947, 4146.92307672, 4141.92307672, 4153.46153826, 4154.99999980, 4134.35897408, 4129.99999973, 4128.58974332, 4127.82051255, 4145.64102544, 4151.41025621, 4140.25641005, 4142.82051262, 4126.53846126,12.0
4122.82051255, 4146.66666646, 4142.30769210, 4156.53846133, 4154.87179467, 4129.35897408, 4122.17948691, 4127.05128178, 4127.56410229, 4142.82051262, 4146.92307672, 4137.94871774, 4143.84615364, 4127.05128178,12.0
4121.66666639, 4141.92307672, 4140.89743569, 4154.99999980, 4144.87179467, 4120.25640998, 4113.33333306, 4124.87179460, 4133.58974332, 4142.17948697, 4145.76923056, 4134.35897408, 4138.46153826, 4127.17948691,12.0
4110.25640998, 4132.30769203, 4135.76923056, 4142.05128185, 4133.84615357, 4116.41025614, 4115.51282024, 4122.69230742, 4130.38461511, 4136.66666646, 4139.87179467, 4127.69230742, 4128.20512793, 4124.23076896,12.0
4113.20512793, 4135.51282031, 4136.28205108, 4140.76923056, 4136.79487159, 4124.99999973, 4126.41025614, 4130.76923050, 4132.69230742, 4139.48717928, 4139.87179467, 4128.46153819, 4133.84615357, 4123.20512793,12.0
4122.17948691, 4144.23076903, 4139.35897415, 4147.69230749, 4142.30769210, 4126.79487152, 4126.66666639, 4128.71794844, 4132.30769203, 4141.15384595, 4138.71794851, 4131.79487152, 4139.35897415, 4124.48717921,12.0
4122.17948691, 4144.23076903, 4139.35897415, 4147.69230749, 4142.30769210, 4126.79487152, 4126.66666639, 4128.71794844, 4132.30769203, 4141.15384595, 4138.71794851, 4131.79487152, 4139.35897415, 4124.48717921,12.0
4115.51282024, 4143.46153826, 4132.43589716, 4147.82051262, 4137.30769210, 4119.87179460, 4117.17948691, 4115.25640998, 4119.61538434, 4133.33333306, 4127.94871767, 4123.84615357, 4131.28205101, 4128.33333306,12.0
4106.28205101, 4140.25641005, 4123.07692280, 4148.07692287, 4135.89743569, 4123.97435870, 4117.05128178, 4114.23076896, 4118.33333306, 4129.87179460, 4125.51282024, 4114.35897408, 4127.94871767, 4130.12820485,12.0
4106.79487152, 4143.20512800, 4121.41025614, 4149.87179467, 4148.71794851, 4132.82051255, 4123.97435870, 4123.20512793, 4129.74358947, 4132.69230742, 4132.69230742, 4114.99999973, 4133.71794844, 4125.89743562,12.0
4112.05128178, 4144.23076903, 4123.07692280, 4146.41025621, 4154.10256390, 4130.64102537, 4124.61538434, 4126.53846126, 4127.69230742, 4131.66666639, 4132.30769203, 4118.20512793, 4132.17948691, 4126.92307665,12.0
4123.33333306, 4145.38461518, 4132.05128178, 4150.51282031, 4141.53846133, 4132.30769203, 4128.97435870, 4131.28205101, 4126.15384588, 4135.64102544, 4136.79487159, 4128.20512793, 4131.92307665, 4129.48717921,12.0
4137.69230749, 4149.87179467, 4144.74358954, 4157.94871774, 4137.94871774, 4136.15384595, 4137.69230749, 4140.38461518, 4139.99999980, 4148.07692287, 4151.28205108, 4142.69230749, 4142.30769210, 4127.17948691,12.0
4143.33333313, 4152.82051262, 4143.46153826, 4154.48717928, 4147.94871774, 4132.05128178, 4135.25640998, 4139.99999980, 4143.58974339, 4152.05128185, 4154.74358954, 4147.43589723, 4148.33333313, 4127.43589716,12.0
4141.28205108, 4156.53846133, 4143.20512800, 4159.61538441, 4157.56410236, 4135.25640998, 4134.10256383, 4137.69230749, 4133.71794844, 4151.02564082, 4154.48717928, 4147.56410236, 4149.61538441, 4130.64102537,12.0
4138.84615364, 4160.25641005, 4152.69230749, 4170.51282038, 4163.20512800, 4145.64102544, 4144.87179467, 4144.23076903, 4139.10256390, 4155.76923056, 4161.28205108, 4148.46153826, 4153.07692287, 4130.51282024,12.0
4135.89743569, 4158.97435877, 4152.17948697, 4168.20512807, 4161.15384595, 4148.07692287, 4152.30769210, 4152.82051262, 4156.02564082, 4160.76923056, 4164.48717928, 4146.41025621, 4156.53846133, 4127.94871767,12.0
4140.25641005, 4157.69230749, 4147.43589723, 4162.94871774, 4156.28205108, 4146.02564082, 4147.05128185, 4149.87179467, 4155.51282031, 4159.87179467, 4159.99999980, 4147.05128185, 4154.35897415, 4129.23076896,12.0
4152.43589723, 4163.33333313, 4157.17948697, 4168.58974345, 4162.56410236, 4149.61538441, 4147.82051262, 4144.48717928, 4144.61538441, 4159.61538441, 4164.87179467, 4153.20512800, 4155.12820492, 4130.38461511,12.0
4163.71794851, 4173.20512807, 4172.43589730, 4179.23076910, 4173.20512807, 4156.92307672, 4159.74358954, 4152.82051262, 4150.25641005, 4166.15384595, 4179.10256397, 4166.28205108, 4166.92307672, 4126.79487152,12.0
4169.87179474, 4180.38461525, 4177.43589730, 4185.89743576, 4172.05128192, 4159.87179467, 4162.17948697, 4154.99999980, 4154.48717928, 4168.84615371, 4185.64102551, 4177.05128192, 4172.94871781, 4126.28205101,12.0
4166.66666646, 4178.71794858, 4175.12820499, 4183.84615371, 4169.74358961, 4152.94871774, 4149.74358954, 4142.94871774, 4140.38461518, 4159.61538441, 4182.05128192, 4171.79487166, 4165.12820492, 4127.05128178,12.0
4160.38461518, 4172.69230756, 4171.02564089, 4174.99999986, 4170.12820499, 4147.82051262, 4144.87179467, 4142.82051262, 4132.43589716, 4147.94871774, 4171.66666653, 4160.25641005, 4158.71794851, 4124.87179460,12.0
4163.46153826, 4173.71794858, 4171.41025628, 4171.41025628, 4169.48717935, 4156.92307672, 4152.30769210, 4148.71794851, 4140.89743569, 4147.69230749, 4166.41025621, 4156.92307672, 4157.94871774, 4124.99999973,12.0
4160.12820492, 4169.10256397, 4162.94871774, 4165.76923056, 4173.97435884, 4156.15384595, 4145.76923056, 4139.35897415, 4142.17948697, 4153.84615364, 4164.10256390, 4153.07692287, 4151.15384595, 4124.99999973,12.0
4145.12820492, 4156.66666646, 4134.35897408, 4154.48717928, 4170.89743576, 4141.92307672, 4128.33333306, 4130.64102537, 4130.12820485, 4146.66666646, 4153.58974339, 4138.84615364, 4140.64102544, 4124.48717921,12.0
4139.23076903, 4154.23076903, 4116.92307665, 4151.92307672, 4159.23076903, 4137.56410236, 4124.23076896, 4126.41025614, 4123.71794844, 4139.10256390, 4143.84615364, 4130.25640998, 4139.10256390, 4124.87179460,12.0
4140.51282031, 4154.23076903, 4120.12820485, 4150.76923056, 4156.79487159, 4141.92307672, 4129.99999973, 4117.17948691, 4124.10256383, 4144.10256390, 4146.02564082, 4131.66666639, 4138.33333313, 4125.51282024,12.0
4135.51282031, 4143.71794851, 4115.64102537, 4140.38461518, 4155.76923056, 4137.94871774, 4122.05128178, 4112.30769203, 4119.99999973, 4143.71794851, 4149.48717928, 4126.15384588, 4132.43589716, 4126.41025614,12.0
4129.23076896, 4133.20512793, 4102.56410229, 4134.48717921, 4144.23076903, 4126.53846126, 4103.46153819, 4109.10256383, 4117.56410229, 4138.71794851, 4145.64102544, 4118.20512793, 4132.94871767, 4124.99999973,12.0
4132.56410229, 4133.58974332, 4106.28205101, 4140.89743569, 4139.10256390, 4123.33333306, 4104.23076896, 4107.69230742, 4123.97435870, 4143.97435877, 4145.51282031, 4121.15384588, 4139.23076903, 4126.02564075,12.0
4139.48717928, 4136.53846133, 4120.38461511, 4143.46153826, 4142.56410236, 4128.46153819, 4119.23076896, 4117.56410229, 4128.20512793, 4148.71794851, 4147.43589723, 4128.97435870, 4140.64102544, 4128.33333306,12.0
4140.64102544, 4133.33333306, 4123.46153819, 4140.76923056, 4142.30769210, 4128.84615357, 4123.71794844, 4124.61538434, 4128.97435870, 4145.76923056, 4145.89743569, 4129.99999973, 4139.87179467, 4126.53846126,12.0
4142.56410236, 4132.05128178, 4121.53846126, 4148.20512800, 4139.23076903, 4125.76923050, 4125.38461511, 4126.79487152, 4137.82051262, 4150.38461518, 4148.58974339, 4129.87179460, 4143.07692287, 4127.94871767,12.0
4151.92307672, 4139.74358954, 4121.66666639, 4155.12820492, 4140.12820492, 4129.35897408, 4134.87179460, 4136.15384595, 4142.82051262, 4156.92307672, 4152.17948697, 4136.15384595, 4147.17948697, 4127.69230742,12.0
4157.30769210, 4144.87179467, 4119.99999973, 4147.82051262, 4147.69230749, 4137.30769210, 4139.61538441, 4132.17948691, 4130.51282024, 4151.15384595, 4147.94871774, 4137.05128185, 4146.28205108, 4124.35897408,12.0
4146.41025621, 4134.87179460, 4109.99999973, 4138.20512800, 4149.35897415, 4131.41025614, 4128.58974332, 4113.46153819, 4114.48717921, 4143.46153826, 4143.07692287, 4129.48717921, 4140.25641005, 4127.17948691,12.0
4136.53846133, 4125.38461511, 4104.48717921, 4134.35897408, 4139.87179467, 4117.17948691, 4113.07692280, 4112.05128178, 4115.76923050, 4140.64102544, 4149.10256390, 4125.51282024, 4138.71794851, 4129.23076896,12.0
4141.41025621, 4129.99999973, 4112.30769203, 4128.07692280, 4138.46153826, 4118.46153819, 4111.79487152, 4125.25640998, 4125.25640998, 4144.10256390, 4161.28205108, 4129.87179460, 4146.41025621, 4127.30769203,12.0
4141.53846133, 4129.87179460, 4115.12820485, 4118.07692280, 4146.28205108, 4129.10256383, 4123.46153819, 4123.58974332, 4126.15384588, 4152.82051262, 4173.33333320, 4133.71794844, 4155.12820492, 4125.38461511,12.0
4133.97435870, 4117.43589716, 4106.28205101, 4109.23076896, 4142.17948697, 4130.64102537, 4130.51282024, 4117.56410229, 4126.53846126, 4159.48717928, 4181.92307679, 4130.38461511, 4154.48717928, 4126.66666639,12.0
4140.12820492, 4114.48717921, 4103.07692280, 4104.48717921, 4138.33333313, 4133.46153819, 4133.58974332, 4134.35897408, 4136.92307672, 4163.58974339, 4185.12820499, 4130.51282024, 4153.97435877, 4128.46153819,12.0
4145.89743569, 4119.10256383, 4104.74358947, 4106.15384588, 4142.56410236, 4140.12820492, 4135.76923056, 4142.82051262, 4136.41025621, 4160.89743569, 4180.12820499, 4132.17948691, 4154.61538441, 4125.64102537,12.0
4138.97435877, 4114.87179460, 4097.17948684, 4107.17948691, 4140.51282031, 4135.12820485, 4134.10256383, 4129.35897408, 4125.12820485, 4152.56410236, 4170.76923063, 4126.53846126, 4148.20512800, 4125.76923050,12.0
4138.07692287, 4111.28205101, 4092.69230735, 4105.64102537, 4134.10256383, 4128.71794844, 4133.07692280, 4132.30769203, 4133.84615357, 4153.20512800, 4170.38461525, 4125.64102537, 4144.99999980, 4128.20512793,12.0
4142.30769210, 4114.74358947, 4096.92307658, 4105.12820485, 4128.20512793, 4133.33333306, 4133.97435870, 4139.87179467, 4144.48717928, 4158.20512800, 4174.35897422, 4133.58974332, 4148.71794851, 4126.92307665,12.0
4139.87179467, 4111.41025614, 4093.20512786, 4102.94871767, 4124.99999973, 4136.15384595, 4134.10256383, 4128.07692280, 4133.71794844, 4152.05128185, 4167.56410236, 4132.17948691, 4148.71794851, 4125.12820485,12.0
4136.02564082, 4105.12820485, 4087.30769196, 4103.84615357, 4124.48717921, 4126.15384588, 4127.56410229, 4119.99999973, 4123.20512793, 4143.84615364, 4159.74358954, 4124.87179460, 4145.12820492, 4125.12820485,12.0
4136.02564082, 4106.66666639, 4096.66666632, 4106.92307665, 4123.58974332, 4118.84615357, 4114.61538434, 4125.12820485, 4122.05128178, 4143.97435877, 4162.05128185, 4125.51282024, 4145.51282031, 4126.79487152,12.0
4132.05128178, 4104.48717921, 4110.51282024, 4105.38461511, 4120.89743562, 4124.99999973, 4110.76923050, 4126.28205101, 4122.30769203, 4143.71794851, 4165.64102544, 4124.23076896, 4147.56410236, 4127.43589716,12.0
4132.05128178, 4104.48717921, 4110.51282024, 4105.38461511, 4120.89743562, 4124.99999973, 4110.76923050, 4126.28205101, 4122.30769203, 4143.71794851, 4165.64102544, 4124.23076896, 4147.56410236, 4127.43589716,12.0
4125.12820485, 4097.82051248, 4108.20512793, 4102.56410229, 4120.25640998, 4129.99999973, 4120.38461511, 4129.48717921, 4118.33333306, 4139.23076903, 4163.58974339, 4114.23076896, 4145.12820492, 4124.35897408,12.0
4129.74358947, 4104.87179460, 4103.97435870, 4106.15384588, 4128.71794844, 4131.79487152, 4137.94871774, 4141.53846133, 4119.23076896, 4141.15384595, 4161.92307672, 4111.41025614, 4145.38461518, 4124.10256383,12.0
4137.43589723, 4117.05128178, 4110.12820485, 4110.76923050, 4143.07692287, 4141.28205108, 4156.92307672, 4144.87179467, 4124.35897408, 4147.17948697, 4163.33333313, 4120.64102537, 4150.38461518, 4124.99999973,12.0
4131.28205101, 4116.15384588, 4112.94871767, 4109.10256383, 4145.38461518, 4147.43589723, 4161.79487159, 4144.48717928, 4125.25640998, 4141.53846133, 4159.87179467, 4124.48717921, 4147.05128185, 4124.35897408,12.0
4120.25640998, 4111.02564075, 4106.15384588, 4111.02564075, 4137.43589723, 4136.28205108, 4150.89743569, 4148.46153826, 4129.87179460, 4133.46153819, 4152.69230749, 4119.87179460, 4139.74358954, 4126.41025614,12.0
4126.15384588, 4118.58974332, 4109.74358947, 4121.28205101, 4143.20512800, 4131.79487152, 4146.41025621, 4146.53846133, 4143.07692287, 4145.64102544, 4156.41025621, 4124.74358947, 4145.89743569, 4126.28205101,12.0
4132.56410229, 4123.97435870, 4117.82051255, 4121.28205101, 4144.35897415, 4136.53846133, 4142.05128185, 4134.35897408, 4140.51282031, 4153.71794851, 4158.07692287, 4129.23076896, 4148.33333313, 4126.41025614,12.0
4116.53846126, 4107.82051255, 4110.89743562, 4105.64102537, 4127.05128178, 4122.56410229, 4121.15384588, 4123.33333306, 4121.41025614, 4138.46153826, 4145.38461518, 4117.94871767, 4130.89743562, 4127.43589716,12.0
4116.53846126, 4107.82051255, 4110.89743562, 4105.64102537, 4127.05128178, 4122.56410229, 4121.15384588, 4123.33333306, 4121.41025614, 4138.46153826, 4145.38461518, 4117.94871767, 4130.89743562, 4127.43589716,12.0
4109.74358947, 4096.15384581, 4106.53846126, 4101.28205094, 4121.02564075, 4108.20512793, 4107.94871767, 4119.74358947, 4119.48717921, 4135.64102544, 4141.53846133, 4114.74358947, 4126.53846126, 4124.87179460,12.0
4117.43589716, 4101.66666632, 4113.07692280, 4107.17948691, 4125.64102537, 4112.69230742, 4112.43589716, 4118.20512793, 4124.10256383, 4148.46153826, 4151.53846133, 4123.46153819, 4139.74358954, 4125.38461511,12.0
4113.33333306, 4101.02564068, 4111.79487152, 4104.87179460, 4121.28205101, 4114.74358947, 4113.20512793, 4119.61538434, 4121.66666639, 4147.17948697, 4151.28205108, 4119.87179460, 4138.58974339, 4127.56410229,12.0
4108.71794844, 4096.79487145, 4106.15384588, 4101.53846119, 4114.23076896, 4109.23076896, 4109.74358947, 4117.56410229, 4121.28205101, 4138.33333313, 4146.53846133, 4111.41025614, 4132.43589716, 4129.23076896,12.0
4119.99999973, 4106.15384588, 4114.99999973, 4111.66666639, 4120.12820485, 4113.58974332, 4114.10256383, 4112.17948691, 4122.56410229, 4143.46153826, 4152.30769210, 4121.79487152, 4142.17948697, 4127.17948691,12.0
4127.94871767, 4112.56410229, 4126.66666639, 4122.82051255, 4128.07692280, 4122.17948691, 4119.61538434, 4114.35897408, 4120.25640998, 4148.97435877, 4156.15384595, 4132.94871767, 4147.82051262, 4124.10256383,12.0
4117.17948691, 4103.07692280, 4119.10256383, 4115.89743562, 4124.10256383, 4120.89743562, 4120.12820485, 4117.69230742, 4113.71794844, 4140.25641005, 4146.66666646, 4123.07692280, 4138.84615364, 4126.53846126,12.0
4112.05128178, 4101.92307658, 4108.97435870, 4108.33333306, 4122.82051255, 4119.74358947, 4124.87179460, 4121.15384588, 4117.56410229, 4137.17948697, 4135.51282031, 4112.82051255, 4133.97435870, 4124.99999973,12.0
4117.43589716, 4107.56410229, 4106.92307665, 4109.87179460, 4128.46153819, 4124.48717921, 4132.56410229, 4131.79487152, 4124.23076896, 4135.25640998, 4126.92307665, 4108.33333306, 4130.38461511, 4124.35897408,12.0
4112.30769203, 4102.94871767, 4102.30769196, 4109.48717921, 4128.07692280, 4124.35897408, 4129.99999973, 4133.07692280, 4114.10256383, 4120.76923050, 4123.58974332, 4102.94871767, 4122.05128178, 4127.69230742,12.0
4105.51282024, 4099.10256376, 4099.61538427, 4110.25640998, 4123.58974332, 4120.76923050, 4121.53846126, 4119.23076896, 4104.87179460, 4114.87179460, 4126.02564075, 4102.82051255, 4118.20512793, 4127.17948691,12.0
4102.43589709, 4094.74358940, 4092.30769196, 4108.33333306, 4120.64102537, 4114.99999973, 4112.05128178, 4113.84615357, 4106.41025614, 4119.10256383, 4117.30769203, 4098.20512786, 4116.92307665, 4128.33333306,12.0
4094.48717914, 4087.05128171, 4076.66666632, 4102.56410229, 4111.66666639, 4102.82051255, 4099.87179453, 4116.28205101, 4103.07692280, 4114.35897408, 4102.82051255, 4085.38461504, 4114.10256383, 4127.30769203,12.0
4091.66666632, 4092.17948684, 4075.38461504, 4108.58974332, 4104.48717921, 4097.30769196, 4094.99999966, 4108.33333306, 4097.69230735, 4110.12820485, 4106.15384588, 4085.51282017, 4113.71794844, 4125.38461511,12.0
4096.53846119, 4100.38461504, 4087.30769196, 4118.07692280, 4105.51282024, 4100.89743555, 4096.15384581, 4101.02564068, 4098.46153812, 4116.92307665, 4117.82051255, 4095.12820478, 4116.79487152, 4126.66666639,12.0
4101.15384581, 4102.30769196, 4098.20512786, 4123.46153819, 4111.41025614, 4099.48717914, 4101.28205094, 4108.46153819, 4106.92307665, 4126.41025614, 4120.64102537, 4099.87179453, 4123.58974332, 4124.48717921,12.0
4107.43589716, 4107.30769203, 4102.82051255, 4126.92307665, 4119.87179460, 4101.53846119, 4113.46153819, 4112.56410229, 4113.84615357, 4132.05128178, 4117.56410229, 4107.56410229, 4129.35897408, 4124.48717921,12.0
4110.12820485, 4108.20512793, 4098.20512786, 4126.02564075, 4112.94871767, 4105.89743562, 4111.79487152, 4104.99999973, 4108.97435870, 4125.51282024, 4115.51282024, 4111.66666639, 4125.76923050, 4125.12820485,12.0
4114.87179460, 4109.99999973, 4098.46153812, 4129.99999973, 4103.58974332, 4110.51282024, 4110.38461511, 4108.84615357, 4110.76923050, 4124.10256383, 4122.17948691, 4111.53846126, 4124.23076896, 4124.48717921,12.0
4121.53846126, 4117.82051255, 4106.15384588, 4134.23076896, 4121.92307665, 4126.02564075, 4131.41025614, 4119.74358947, 4118.20512793, 4133.33333306, 4129.87179460, 4116.15384588, 4129.10256383, 4126.41025614,12.0
4107.05128178, 4106.79487152, 4098.58974325, 4125.76923050, 4131.41025614, 4123.97435870, 4127.94871767, 4112.05128178, 4106.28205101, 4121.28205101, 4113.97435870, 4108.07692280, 4120.38461511, 4125.38461511,12.0
4088.71794837, 4091.15384581, 4082.69230735, 4114.35897408, 4113.33333306, 4102.56410229, 4099.35897402, 4104.10256383, 4100.12820478, 4106.02564075, 4094.48717914, 4092.30769196, 4109.87179460, 4124.48717921,12.0
4091.28205094, 4096.02564068, 4080.76923043, 4112.94871767, 4106.28205101, 4100.64102530, 4103.97435870, 4111.92307665, 4118.97435870, 4118.07692280, 4098.07692273, 4092.05128171, 4113.20512793, 4126.53846126,12.0
4097.56410222, 4102.56410229, 4083.20512786, 4117.05128178, 4109.99999973, 4108.71794844, 4119.61538434, 4119.48717921, 4123.33333306, 4124.87179460, 4099.74358940, 4093.58974325, 4109.99999973, 4129.35897408,12.0
4092.82051248, 4099.61538427, 4079.48717914, 4115.12820485, 4106.28205101, 4104.10256383, 4107.82051255, 4119.23076896, 4117.56410229, 4115.51282024, 4088.33333299, 4084.10256376, 4100.64102530, 4131.28205101,12.0
4084.74358940, 4097.94871761, 4070.64102530, 4110.25640998, 4106.41025614, 4104.48717921, 4099.48717914, 4111.53846126, 4127.82051255, 4112.94871767, 4082.43589709, 4078.71794837, 4099.35897402, 4127.82051255,12.0
4078.58974325, 4096.66666632, 4057.82051241, 4106.41025614, 4111.02564075, 4112.69230742, 4106.53846126, 4105.64102537, 4129.61538434, 4108.97435870, 4083.84615350, 4077.43589709, 4099.99999966, 4126.92307665,12.0
4077.43589709, 4094.74358940, 4055.25640984, 4106.66666639, 4107.17948691, 4109.35897408, 4100.38461504, 4099.74358940, 4113.84615357, 4098.58974325, 4086.92307658, 4076.92307658, 4097.17948684, 4129.48717921,12.0
4088.58974325, 4101.53846119, 4068.07692266, 4113.33333306, 4104.10256383, 4102.94871767, 4093.71794837, 4096.53846119, 4111.15384588, 4102.56410229, 4094.10256376, 4085.12820478, 4098.33333299, 4128.58974332,12.0
4095.64102530, 4110.76923050, 4075.12820478, 4121.92307665, 4108.84615357, 4103.71794844, 4104.74358947, 4108.20512793, 4125.12820485, 4114.74358947, 4103.33333306, 4094.23076889, 4104.61538434, 4128.20512793,12.0
4089.35897402, 4111.28205101, 4067.56410215, 4126.66666639, 4112.69230742, 4103.33333306, 4103.84615357, 4107.43589716, 4119.35897408, 4112.43589716, 4103.58974332, 4092.69230735, 4105.64102537, 4126.92307665,12.0
4082.94871761, 4103.84615357, 4060.76923036, 4123.97435870, 4107.30769203, 4094.35897402, 4082.43589709, 4091.92307658, 4101.15384581, 4101.41025607, 4095.76923043, 4083.97435863, 4100.25640991, 4125.51282024,12.0
4079.48717914, 4098.84615350, 4064.10256369, 4118.46153819, 4096.79487145, 4086.79487145, 4077.30769196, 4090.12820478, 4101.66666632, 4099.87179453, 4089.74358940, 4080.89743555, 4098.46153812, 4124.61538434,12.0
4077.05128171, 4099.87179453, 4063.58974318, 4116.66666639, 4095.38461504, 4087.69230735, 4080.64102530, 4085.64102530, 4103.71794844, 4097.30769196, 4086.28205094, 4079.87179453, 4094.61538427, 4124.23076896,12.0
4072.43589709, 4093.71794837, 4051.92307651, 4109.87179460, 4087.94871761, 4081.79487145, 4063.46153805, 4072.43589709, 4094.87179453, 4084.99999966, 4077.69230735, 4070.64102530, 4084.48717914, 4127.69230742,12.0
4068.97435856, 4085.64102530, 4049.35897395, 4105.76923050, 4069.61538420, 4073.71794837, 4052.82051241, 4074.35897402, 4093.71794837, 4078.84615350, 4068.20512779, 4064.87179446, 4079.35897402, 4126.66666639,12.0
4072.69230735, 4089.61538427, 4059.10256369, 4111.66666639, 4072.69230735, 4077.43589709, 4066.28205087, 4079.48717914, 4092.30769196, 4077.69230735, 4067.30769189, 4071.41025607, 4078.58974325, 4124.48717921,12.0
4075.64102530, 4096.41025607, 4064.61538420, 4114.10256383, 4091.92307658, 4081.41025607, 4071.66666632, 4077.94871761, 4088.07692273, 4074.61538427, 4073.58974325, 4079.74358940, 4079.99999966, 4127.05128178,12.0
4074.99999966, 4096.79487145, 4065.64102523, 4117.17948691, 4092.56410222, 4081.79487145, 4068.58974318, 4082.69230735, 4094.23076889, 4074.61538427, 4077.17948684, 4075.12820478, 4083.33333299, 4127.05128178,12.0
4073.97435863, 4097.17948684, 4065.89743548, 4119.23076896, 4085.25640991, 4085.89743555, 4070.64102530, 4080.89743555, 4096.15384581, 4075.76923043, 4071.41025607, 4068.07692266, 4082.17948684, 4125.12820485,12.0
4072.17948684, 4098.58974325, 4062.82051241, 4114.35897408, 4091.41025607, 4084.23076889, 4069.10256369, 4076.15384581, 4093.20512786, 4075.38461504, 4064.74358933, 4069.74358940, 4079.23076889, 4125.76923050,12.0
4072.30769196, 4100.38461504, 4062.69230728, 4114.61538434, 4095.38461504, 4082.17948684, 4075.89743555, 4088.07692273, 4103.58974332, 4080.12820478, 4067.69230728, 4072.82051248, 4083.46153812, 4128.58974332,12.0
4069.61538420, 4100.76923043, 4062.43589702, 4118.20512793, 4089.23076889, 4085.51282017, 4082.94871761, 4093.46153812, 4107.94871767, 4082.94871761, 4071.41025607, 4068.46153805, 4088.58974325, 4128.84615357,12.0
4062.17948677, 4098.33333299, 4054.23076882, 4120.12820485, 4085.38461504, 4080.76923043, 4068.46153805, 4078.33333299, 4090.51282017, 4074.35897402, 4061.92307651, 4057.69230728, 4079.99999966, 4126.28205101,12.0
4058.58974318, 4097.30769196, 4049.48717907, 4117.82051255, 4082.43589709, 4070.12820478, 4054.74358933, 4068.46153805, 4077.17948684, 4063.33333292, 4049.87179446, 4051.79487138, 4069.99999966, 4129.61538434,12.0
4058.46153805, 4095.25640991, 4050.89743548, 4114.10256383, 4078.46153812, 4064.48717907, 4055.38461497, 4073.46153812, 4077.43589709, 4058.97435856, 4048.07692266, 4053.07692266, 4068.97435856, 4129.87179460,12.0
4058.58974318, 4094.74358940, 4052.17948677, 4114.35897408, 4074.74358940, 4065.12820472, 4053.20512779, 4072.82051248, 4079.99999966, 4063.84615343, 4049.99999959, 4057.30769189, 4069.23076882, 4124.61538434,12.0
4058.71794830, 4095.38461504, 4053.20512779, 4113.33333306, 4071.02564068, 4063.07692266, 4044.87179446, 4067.30769189, 4083.97435863, 4069.87179453, 4054.48717907, 4062.30769189, 4073.33333299, 4127.17948691,12.0
4066.28205087, 4100.25640991, 4063.58974318, 4117.82051255, 4073.58974325, 4065.51282010, 4050.25640984, 4071.02564068, 4092.30769196, 4072.69230735, 4064.87179446, 4071.28205094, 4083.46153812, 4129.10256383,12.0
4080.89743555, 4113.84615357, 4081.41025607, 4129.61538434, 4092.94871761, 4082.69230735, 4073.58974325, 4086.15384581, 4105.25640998, 4083.07692273, 4075.38461504, 4084.23076889, 4090.76923043, 4127.82051255,12.0
4079.23076889, 4114.10256383, 4085.64102530, 4127.30769203, 4096.41025607, 4087.05128171, 4082.30769196, 4093.97435863, 4111.28205101, 4092.30769196, 4077.30769196, 4084.74358940, 4089.99999966, 4125.89743562,12.0
4069.61538420, 4100.64102530, 4079.87179453, 4115.64102537, 4068.58974318, 4069.10256369, 4065.12820472, 4081.92307658, 4106.41025614, 4087.05128171, 4072.94871761, 4076.02564068, 4086.15384581, 4124.61538434,12.0
4075.89743555, 4101.66666632, 4083.33333299, 4118.71794844, 4069.35897395, 4071.66666632, 4064.23076882, 4078.84615350, 4102.94871767, 4083.20512786, 4069.23076882, 4077.05128171, 4088.33333299, 4127.82051255,12.0
4078.71794837, 4108.84615357, 4086.15384581, 4124.61538434, 4099.35897402, 4087.69230735, 4078.33333299, 4082.43589709, 4099.10256376, 4081.92307658, 4064.35897395, 4076.15384581, 4086.92307658, 4129.10256383,12.0
4057.05128164, 4089.87179453, 4062.43589702, 4106.02564075, 4087.30769196, 4063.71794830, 4053.46153805, 4063.71794830, 4083.84615350, 4063.46153805, 4045.64102523, 4049.87179446, 4063.97435856, 4126.28205101,12.0
4031.53846106, 4063.07692266, 4032.30769183, 4082.30769196, 4047.05128164, 4030.64102516, 4011.41025593, 4040.89743548, 4067.17948677, 4042.56410215, 4020.64102516, 4025.38461490, 4041.66666625, 4123.84615357,12.0
4025.12820465, 4060.12820472, 4028.33333285, 4080.25640991, 4036.02564054, 4032.69230721, 4006.41025593, 4041.28205087, 4061.28205087, 4038.71794830, 4014.74358926, 4025.89743541, 4042.43589702, 4126.92307665,12.0
4023.97435849, 4060.64102523, 4029.74358926, 4078.07692273, 4038.71794830, 4038.58974318, 4014.87179439, 4042.82051241, 4056.28205087, 4032.82051234, 4013.97435849, 4022.17948670, 4043.07692266, 4129.23076896,12.0
4019.74358926, 4054.23076882, 4022.30769183, 4070.51282017, 4034.23076875, 4026.92307644, 4006.92307644, 4028.33333285, 4044.23076882, 4015.12820465, 4000.76923022, 4009.48717900, 4032.82051234, 4124.87179460,12.0
4023.46153798, 4061.92307651, 4026.79487131, 4075.89743555, 4036.41025593, 4026.41025593, 4012.30769183, 4033.33333285, 4039.35897395, 4009.35897388, 3993.97435842, 4012.69230721, 4028.84615336, 4123.84615357,12.0
4031.66666618, 4077.17948684, 4042.56410215, 4090.38461504, 4044.35897395, 4039.10256369, 4033.33333285, 4053.07692266, 4052.82051241, 4023.97435849, 4004.87179439, 4028.84615336, 4037.30769189, 4124.99999973,12.0
4035.76923029, 4080.89743555, 4046.28205087, 4097.82051248, 4050.38461497, 4039.48717907, 4031.66666618, 4048.07692266, 4063.84615343, 4037.94871754, 4013.58974311, 4036.66666618, 4048.07692266, 4126.66666639,12.0
4037.43589702, 4080.64102530, 4042.56410215, 4094.87179453, 4056.79487138, 4040.25640984, 4027.82051234, 4043.07692266, 4066.41025600, 4042.17948677, 4015.64102516, 4037.17948677, 4055.12820472, 4127.30769203,12.0
4041.02564061, 4083.58974325, 4049.74358933, 4095.38461504, 4063.07692266, 4051.02564061, 4044.23076882, 4059.48717907, 4071.41025607, 4044.61538420, 4023.71794824, 4042.30769189, 4054.99999959, 4125.12820485,12.0
4043.33333292, 4082.05128171, 4054.48717907, 4096.41025607, 4061.41025600, 4052.82051241, 4047.17948677, 4063.33333292, 4071.79487145, 4046.66666625, 4025.89743541, 4042.82051241, 4053.33333292, 4126.66666639,12.0
4044.10256369, 4078.58974325, 4051.66666625, 4093.46153812, 4059.23076882, 4050.64102523, 4037.94871754, 4054.61538420, 4074.99999966, 4050.51282010, 4024.48717900, 4039.87179446, 4060.25640984, 4127.05128178,12.0
4052.82051241, 4085.12820478, 4059.10256369, 4096.41025607, 4068.20512779, 4061.41025600, 4047.43589702, 4064.23076882, 4092.82051248, 4061.41025600, 4034.87179439, 4049.23076882, 4068.33333292, 4126.41025614,12.0
4067.30769189, 4096.02564068, 4068.97435856, 4096.66666632, 4076.28205094, 4073.46153812, 4064.23076882, 4078.58974325, 4103.20512793, 4067.82051241, 4045.38461497, 4060.64102523, 4071.28205094, 4127.30769203,12.0
4082.43589709, 4104.48717921, 4080.89743555, 4099.23076889, 4087.43589709, 4079.74358940, 4075.38461504, 4084.23076889, 4106.15384588, 4076.79487145, 4053.46153805, 4070.51282017, 4079.61538427, 4127.30769203,12.0
4095.64102530, 4113.97435870, 4094.74358940, 4112.56410229, 4102.17948684, 4084.99999966, 4082.17948684, 4093.84615350, 4124.99999973, 4093.20512786, 4067.56410215, 4083.58974325, 4090.89743555, 4128.20512793,12.0
4090.89743555, 4109.10256383, 4088.20512786, 4110.38461511, 4097.05128171, 4079.23076889, 4075.12820478, 4097.17948684, 4132.82051255, 4093.58974325, 4070.89743555, 4084.61538427, 4087.94871761, 4125.89743562,12.0
4092.30769196, 4105.12820485, 4085.25640991, 4105.12820485, 4092.05128171, 4078.84615350, 4079.74358940, 4098.71794837, 4129.23076896, 4094.10256376, 4072.05128171, 4086.92307658, 4089.87179453, 4124.87179460,12.0
4106.66666639, 4111.66666639, 4097.69230735, 4109.48717921, 4092.94871761, 4086.92307658, 4093.46153812, 4100.89743555, 4132.56410229, 4105.64102537, 4082.69230735, 4095.38461504, 4101.28205094, 4128.58974332,12.0
4091.28205094, 4098.33333299, 4084.10256376, 4093.97435863, 4067.69230728, 4065.89743548, 4063.97435856, 4077.69230735, 4106.92307665, 4091.02564068, 4070.25640991, 4079.74358940, 4084.23076889, 4129.23076896,12.0
4067.43589702, 4077.05128171, 4060.64102523, 4073.71794837, 4052.17948677, 4038.46153805, 4026.79487131, 4052.94871754, 4078.20512786, 4066.28205087, 4045.25640984, 4057.82051241, 4062.43589702, 4126.15384588,12.0
4074.10256376, 4075.51282017, 4068.20512779, 4075.38461504, 4067.69230728, 4042.17948677, 4031.28205080, 4054.99999959, 4090.76923043, 4067.56410215, 4041.28205087, 4060.38461497, 4068.07692266, 4125.25640998,12.0
4083.33333299, 4078.07692273, 4077.17948684, 4080.64102530, 4067.30769189, 4053.46153805, 4042.82051241, 4058.97435856, 4100.89743555, 4069.87179453, 4041.15384574, 4064.99999959, 4070.25640991, 4128.20512793,12.0
4070.38461504, 4068.84615343, 4061.66666625, 4073.33333299, 4051.92307651, 4050.64102523, 4038.84615343, 4054.35897395, 4077.69230735, 4053.07692266, 4028.97435849, 4051.15384574, 4056.79487138, 4127.82051255,12.0
4059.10256369, 4062.30769189, 4050.76923036, 4067.17948677, 4054.74358933, 4048.97435856, 4037.56410215, 4057.82051241, 4070.38461504, 4046.53846113, 4021.53846106, 4040.25640984, 4052.05128164, 4125.12820485,12.0
4063.58974318, 4063.07692266, 4054.23076882, 4070.89743555, 4061.66666625, 4053.84615343, 4038.97435856, 4061.41025600, 4089.35897402, 4055.38461497, 4022.05128157, 4042.17948677, 4054.87179446, 4126.53846126,12.0
4064.87179446, 4067.17948677, 4054.35897395, 4075.51282017, 4058.84615343, 4055.64102523, 4038.33333292, 4058.46153805, 4084.61538427, 4056.15384574, 4023.71794824, 4046.28205087, 4051.92307651, 4125.12820485,12.0
4058.20512779, 4070.76923043, 4050.38461497, 4077.94871761, 4056.92307651, 4050.38461497, 4034.99999952, 4057.05128164, 4054.61538420, 4047.43589702, 4021.28205080, 4044.48717907, 4046.41025600, 4123.84615357,12.0
4059.87179446, 4068.07692266, 4051.15384574, 4079.87179453, 4058.07692266, 4048.46153805, 4034.23076875, 4056.79487138, 4035.51282003, 4039.87179446, 4012.94871747, 4038.97435856, 4041.02564061, 4126.66666639,12.0
4067.94871754, 4065.38461497, 4053.58974318, 4079.48717914, 4064.61538420, 4054.35897395, 4044.61538420, 4061.41025600, 4042.94871754, 4042.56410215, 4014.10256362, 4039.87179446, 4041.15384574, 4126.41025614,12.0
4061.79487138, 4063.84615343, 4048.84615343, 4074.23076889, 4064.10256369, 4055.25640984, 4046.53846113, 4065.25640984, 4055.12820472, 4049.10256369, 4021.41025593, 4039.48717907, 4043.71794830, 4126.79487152,12.0
4053.71794830, 4063.20512779, 4046.66666625, 4071.66666632, 4057.82051241, 4052.69230728, 4040.64102523, 4065.64102523, 4055.76923036, 4054.99999959, 4023.20512772, 4035.38461490, 4043.20512779, 4128.58974332,12.0
4055.89743548, 4059.35897395, 4048.71794830, 4067.43589702, 4057.69230728, 4055.51282010, 4040.64102523, 4059.10256369, 4047.05128164, 4055.76923036, 4018.20512772, 4033.46153798, 4042.05128164, 4127.30769203,12.0
4054.23076882, 4052.30769189, 4042.05128164, 4055.89743548, 4053.84615343, 4051.28205087, 4033.20512772, 4048.20512779, 4035.12820465, 4048.46153805, 4013.84615336, 4030.38461490, 4039.61538420, 4128.58974332,12.0
4045.76923036, 4049.10256369, 4035.64102516, 4050.12820472, 4046.02564061, 4039.35897395, 4023.07692259, 4053.71794830, 4041.41025600, 4050.51282010, 4017.82051234, 4027.82051234, 4039.99999959, 4126.66666639,12.0
4043.97435856, 4048.58974318, 4039.61538420, 4049.87179446, 4044.74358933, 4040.25640984, 4030.38461490, 4065.64102523, 4047.43589702, 4055.89743548, 4022.30769183, 4031.53846106, 4043.58974318, 4123.71794844,12.0
4053.71794830, 4053.46153805, 4049.74358933, 4054.35897395, 4055.12820472, 4050.25640984, 4039.48717907, 4062.82051241, 4038.71794830, 4051.53846113, 4027.56410208, 4040.51282010, 4048.58974318, 4128.46153819,12.0
4063.84615343, 4063.58974318, 4062.05128164, 4065.89743548, 4060.38461497, 4052.94871754, 4035.38461490, 4053.71794830, 4036.41025593, 4050.64102523, 4039.10256369, 4049.87179446, 4053.71794830, 4129.61538434,12.0
4072.17948684, 4072.17948684, 4072.30769196, 4072.94871761, 4051.92307651, 4053.97435856, 4039.10256369, 4062.43589702, 4049.10256369, 4060.51282010, 4043.46153805, 4061.79487138, 4055.12820472, 4128.20512793,12.0
4078.33333299, 4074.61538427, 4078.84615350, 4069.23076882, 4058.07692266, 4059.61538420, 4053.84615343, 4080.76923043, 4063.33333292, 4070.25640991, 4040.89743548, 4069.23076882, 4057.82051241, 4128.33333306,12.0
4076.41025607, 4072.69230735, 4080.51282017, 4064.23076882, 4075.12820478, 4060.25640984, 4053.46153805, 4074.61538427, 4058.33333292, 4066.53846113, 4042.56410215, 4064.61538420, 4059.74358933, 4126.28205101,12.0
4073.84615350, 4071.15384581, 4077.69230735, 4058.97435856, 4072.43589709, 4054.10256369, 4038.46153805, 4059.10256369, 4043.84615343, 4058.46153805, 4043.58974318, 4058.97435856, 4054.23076882, 4125.38461511,12.0
4077.30769196, 4071.79487145, 4072.43589709, 4054.61538420, 4062.17948677, 4052.05128164, 4035.12820465, 4063.20512779, 4046.92307651, 4061.15384574, 4042.43589702, 4059.74358933, 4051.92307651, 4127.17948691,12.0
4074.87179453, 4071.28205094, 4064.87179446, 4054.23076882, 4066.92307651, 4052.43589702, 4041.79487138, 4068.58974318, 4057.43589702, 4062.82051241, 4041.28205087, 4055.38461497, 4056.28205087, 4129.61538434,12.0
4065.76923036, 4066.41025600, 4057.94871754, 4047.82051241, 4066.15384574, 4049.48717907, 4041.92307651, 4061.79487138, 4051.79487138, 4055.89743548, 4035.12820465, 4048.07692266, 4054.23076882, 4125.64102537,12.0
4069.35897395, 4067.94871754, 4062.43589702, 4046.66666625, 4064.48717907, 4054.10256369, 4046.15384574, 4068.97435856, 4052.43589702, 4058.07692266, 4037.82051241, 4054.61538420, 4055.64102523, 4122.30769203,12.0
4080.89743555, 4079.10256376, 4072.94871761, 4056.92307651, 4079.87179453, 4067.56410215, 4056.79487138, 4082.05128171, 4068.46153805, 4069.48717907, 4048.33333292, 4064.23076882, 4064.23076882, 4127.17948691,12.0
4087.17948684, 4088.46153812, 4076.41025607, 4064.23076882, 4087.69230735, 4073.07692273, 4062.30769189, 4078.20512786, 4073.71794837, 4075.38461504, 4054.48717907, 4068.97435856, 4068.58974318, 4129.10256383,12.0
4095.64102530, 4092.69230735, 4078.46153812, 4067.69230728, 4086.15384581, 4072.69230735, 4065.89743548, 4078.46153812, 4078.58974325, 4083.07692273, 4062.82051241, 4079.61538427, 4074.48717914, 4125.64102537,12.0
4092.69230735, 4086.02564068, 4076.15384581, 4062.17948677, 4080.64102530, 4071.53846119, 4064.61538420, 4081.92307658, 4082.82051248, 4085.76923043, 4065.12820472, 4081.28205094, 4075.89743555, 4126.02564075,12.0
4078.58974325, 4074.99999966, 4072.82051248, 4053.46153805, 4071.66666632, 4061.41025600, 4048.46153805, 4072.17948684, 4070.64102530, 4076.15384581, 4057.43589702, 4073.46153812, 4066.41025600, 4128.20512793,12.0
4082.30769196, 4077.82051248, 4082.05128171, 4055.51282010, 4070.12820478, 4056.02564061, 4044.74358933, 4066.02564061, 4063.84615343, 4072.30769196, 4058.07692266, 4077.82051248, 4065.89743548, 4126.79487152,12.0
4090.25640991, 4082.43589709, 4089.87179453, 4059.61538420, 4066.79487138, 4064.23076882, 4060.38461497, 4073.71794837, 4069.23076882, 4073.84615350, 4062.43589702, 4081.66666632, 4072.56410222, 4125.89743562,12.0
4083.84615350, 4079.87179453, 4084.48717914, 4055.64102523, 4062.82051241, 4069.35897395, 4064.87179446, 4078.33333299, 4070.76923043, 4072.82051248, 4058.58974318, 4073.97435863, 4069.48717907, 4127.43589716,12.0
4086.79487145, 4084.48717914, 4087.43589709, 4058.84615343, 4079.74358940, 4067.94871754, 4062.30769189, 4078.20512786, 4075.89743555, 4078.07692273, 4060.51282010, 4078.07692273, 4073.33333299, 4126.41025614,12.0
4097.56410222, 4092.94871761, 4099.99999966, 4067.43589702, 4095.38461504, 4071.92307658, 4067.56410215, 4081.53846119, 4083.97435863, 4085.12820478, 4071.53846119, 4090.25640991, 4083.84615350, 4124.10256383,12.0
4093.97435863, 4092.56410222, 4095.76923043, 4062.94871754, 4085.64102530, 4076.66666632, 4067.43589702, 4081.28205094, 4075.12820478, 4078.33333299, 4066.41025600, 4084.87179453, 4077.82051248, 4127.05128178,12.0
4088.58974325, 4087.94871761, 4085.51282017, 4055.12820472, 4081.79487145, 4071.15384581, 4059.74358933, 4077.94871761, 4067.17948677, 4072.17948684, 4053.97435856, 4073.46153812, 4069.61538420, 4127.82051255,12.0
4096.53846119, 4092.69230735, 4093.07692273, 4058.71794830, 4089.61538427, 4072.43589709, 4067.05128164, 4087.82051248, 4087.43589709, 4084.99999966, 4064.48717907, 4082.30769196, 4081.53846119, 4124.87179460,12.0
4102.82051255, 4100.89743555, 4102.05128171, 4064.74358933, 4090.25640991, 4082.43589709, 4076.66666632, 4094.87179453, 4096.79487145, 4092.82051248, 4078.33333299, 4092.43589709, 4088.20512786, 4126.15384588,12.0
4095.51282017, 4097.56410222, 4096.53846119, 4064.74358933, 4088.97435863, 4077.94871761, 4064.74358933, 4080.64102530, 4073.84615350, 4083.20512786, 4064.48717907, 4085.51282017, 4074.48717914, 4126.15384588,12.0
4089.61538427, 4095.51282017, 4094.99999966, 4067.43589702, 4094.10256376, 4073.20512786, 4062.43589702, 4079.48717914, 4069.48717907, 4079.99999966, 4053.97435856, 4082.05128171, 4072.43589709, 4125.25640998,12.0
4097.94871761, 4104.23076896, 4108.33333306, 4077.05128171, 4102.82051255, 4085.38461504, 4080.89743555, 4094.48717914, 4087.94871761, 4089.23076889, 4071.41025607, 4091.66666632, 4085.51282017, 4123.58974332,12.0
4106.28205101, 4108.20512793, 4114.35897408, 4081.41025607, 4104.48717921, 4093.07692273, 4088.33333299, 4087.56410222, 4085.89743555, 4091.02564068, 4081.02564068, 4096.41025607, 4088.20512786, 4122.43589716,12.0
4102.56410229, 4104.48717921, 4106.15384588, 4075.38461504, 4103.20512793, 4086.92307658, 4082.05128171, 4074.35897402, 4076.02564068, 4085.25640991, 4069.99999966, 4089.23076889, 4079.35897402, 4123.33333306,12.0
4100.38461504, 4106.02564075, 4104.23076896, 4074.35897402, 4103.20512793, 4086.79487145, 4083.07692273, 4083.46153812, 4087.43589709, 4092.05128171, 4073.33333299, 4089.99999966, 4081.41025607, 4125.76923050,12.0
4103.97435870, 4107.69230742, 4111.02564075, 4077.05128171, 4092.69230735, 4086.02564068, 4078.84615350, 4088.71794837, 4096.02564068, 4101.79487145, 4084.48717914, 4101.41025607, 4092.94871761, 4129.35897408,12.0
4108.07692280, 4110.76923050, 4116.66666639, 4078.07692273, 4093.84615350, 4083.33333299, 4072.43589709, 4086.92307658, 4095.25640991, 4103.71794844, 4087.82051248, 4108.84615357, 4098.07692273, 4125.64102537,12.0
4114.74358947, 4124.99999973, 4125.38461511, 4090.76923043, 4123.33333306, 4096.92307658, 4087.69230735, 4094.23076889, 4102.05128171, 4110.38461511, 4099.61538427, 4116.79487152, 4103.33333306, 4122.94871767,12.0
4112.69230742, 4128.07692280, 4125.25640998, 4095.76923043, 4131.28205101, 4101.41025607, 4092.30769196, 4089.10256376, 4098.97435863, 4112.82051255, 4105.89743562, 4117.17948691, 4105.38461511, 4125.89743562,12.0
4101.79487145, 4115.51282024, 4115.51282024, 4083.20512786, 4105.89743562, 4081.53846119, 4066.79487138, 4071.92307658, 4087.43589709, 4097.05128171, 4090.51282017, 4106.53846126, 4097.05128171, 4122.69230742,12.0
4106.79487152, 4116.79487152, 4123.71794844, 4084.74358940, 4102.82051255, 4073.33333299, 4061.66666625, 4078.58974325, 4093.33333299, 4093.58974325, 4086.41025607, 4109.61538434, 4096.92307658, 4122.69230742,12.0
4122.94871767, 4130.25640998, 4139.99999980, 4098.20512786, 4117.82051255, 4091.66666632, 4093.71794837, 4104.99999973, 4112.43589716, 4115.12820485, 4107.82051255, 4129.74358947, 4112.43589716, 4127.43589716,12.0
4122.56410229, 4128.58974332, 4140.12820492, 4096.41025607, 4115.12820485, 4102.05128171, 4106.15384588, 4107.56410229, 4117.56410229, 4121.41025614, 4118.46153819, 4134.10256383, 4117.69230742, 4127.43589716,12.0
4119.23076896, 4121.28205101, 4139.35897415, 4093.07692273, 4111.02564075, 4095.25640991, 4089.10256376, 4093.33333299, 4108.20512793, 4111.53846126, 4111.41025614, 4125.12820485, 4110.89743562, 4125.64102537,12.0
4125.12820485, 4125.12820485, 4142.69230749, 4101.66666632, 4118.58974332, 4099.35897402, 4091.02564068, 4093.33333299, 4107.69230742, 4114.23076896, 4105.64102537, 4124.61538434, 4112.82051255, 4125.51282024,12.0
4121.66666639, 4127.17948691, 4137.69230749, 4102.05128171, 4121.66666639, 4108.20512793, 4103.71794844, 4097.94871761, 4112.17948691, 4121.28205101, 4103.46153819, 4125.51282024, 4116.15384588, 4128.33333306,12.0
4110.76923050, 4120.76923050, 4130.12820485, 4087.05128171, 4113.84615357, 4101.92307658, 4093.20512786, 4091.79487145, 4108.46153819, 4117.82051255, 4101.15384581, 4120.76923050, 4112.05128178, 4130.25640998,12.0
4111.79487152, 4118.71794844, 4132.05128178, 4080.38461504, 4108.46153819, 4092.05128171, 4079.61538427, 4087.94871761, 4107.30769203, 4113.84615357, 4100.12820478, 4121.15384588, 4113.46153819, 4127.05128178,12.0
4121.66666639, 4122.94871767, 4132.94871767, 4087.94871761, 4109.10256383, 4095.51282017, 4085.51282017, 4095.25640991, 4113.84615357, 4115.38461511, 4099.99999966, 4124.48717921, 4117.69230742, 4126.15384588,12.0
4118.97435870, 4121.66666639, 4122.05128178, 4089.61538427, 4110.76923050, 4099.61538427, 4092.05128171, 4097.05128171, 4113.71794844, 4111.28205101, 4096.15384581, 4115.89743562, 4111.41025614, 4128.33333306,12.0
4111.41025614, 4120.38461511, 4119.48717921, 4086.41025607, 4110.89743562, 4101.15384581, 4098.71794837, 4102.82051255, 4114.99999973, 4111.02564075, 4096.53846119, 4110.38461511, 4109.48717921, 4127.69230742,12.0
4113.97435870, 4121.41025614, 4127.82051255, 4088.07692273, 4105.76923050, 4105.76923050, 4108.46153819, 4113.58974332, 4121.28205101, 4116.02564075, 4098.97435863, 4114.61538434, 4114.35897408, 4126.28205101,12.0
4119.99999973, 4124.10256383, 4133.20512793, 4094.23076889, 4112.05128178, 4108.84615357, 4110.12820485, 4108.71794844, 4123.20512793, 4116.66666639, 4101.28205094, 4118.71794844, 4116.02564075, 4124.48717921,12.0
4121.53846126, 4129.35897408, 4132.17948691, 4099.87179453, 4127.05128178, 4104.48717921, 4105.38461511, 4099.87179453, 4122.69230742, 4114.35897408, 4103.84615357, 4121.15384588, 4113.84615357, 4124.23076896,12.0
4115.89743562, 4129.23076896, 4127.43589716, 4098.46153812, 4124.48717921, 4099.87179453, 4104.23076896, 4107.69230742, 4122.43589716, 4112.05128178, 4102.30769196, 4118.58974332, 4108.33333306, 4122.56410229,12.0
4111.41025614, 4124.61538434, 4127.30769203, 4095.25640991, 4112.05128178, 4100.38461504, 4099.87179453, 4105.12820485, 4115.89743562, 4109.10256383, 4099.99999966, 4115.12820485, 4104.10256383, 4123.20512793,12.0
4109.99999973, 4123.46153819, 4130.25640998, 4094.48717914, 4111.28205101, 4101.41025607, 4090.38461504, 4084.99999966, 4101.53846119, 4104.35897408, 4099.23076889, 4116.41025614, 4107.56410229, 4127.30769203,12.0
4111.41025614, 4125.89743562, 4133.07692280, 4099.48717914, 4117.94871767, 4101.79487145, 4091.41025607, 4086.79487145, 4103.20512793, 4109.48717921, 4106.28205101, 4126.15384588, 4115.12820485, 4125.76923050,12.0
4114.23076896, 4125.89743562, 4133.07692280, 4102.82051255, 4116.66666639, 4097.05128171, 4092.82051248, 4097.43589709, 4111.28205101, 4115.89743562, 4113.71794844, 4129.99999973, 4115.76923050, 4126.15384588,12.0
4113.07692280, 4122.82051255, 4132.17948691, 4097.05128171, 4111.41025614, 4090.12820478, 4083.33333299, 4090.12820478, 4102.94871767, 4110.51282024, 4109.23076896, 4122.43589716, 4114.61538434, 4129.74358947,12.0
4110.51282024, 4121.66666639, 4131.79487152, 4093.84615350, 4113.58974332, 4092.30769196, 4086.92307658, 4090.12820478, 4101.02564068, 4108.33333306, 4106.15384588, 4119.87179460, 4115.76923050, 4126.66666639,12.0
4108.84615357, 4121.79487152, 4130.64102537, 4096.66666632, 4118.33333306, 4101.41025607, 4106.66666639, 4102.56410229, 4110.64102537, 4111.15384588, 4108.97435870, 4121.02564075, 4116.02564075, 4122.69230742,12.0
4110.64102537, 4125.38461511, 4132.56410229, 4100.64102530, 4122.05128178, 4109.87179460, 4117.82051255, 4111.02564075, 4119.10256383, 4113.20512793, 4112.43589716, 4125.89743562, 4119.87179460, 4123.84615357,12.0
4115.25640998, 4126.41025614, 4133.33333306, 4101.92307658, 4124.74358947, 4115.38461511, 4114.99999973, 4117.05128178, 4131.41025614, 4116.92307665, 4114.74358947, 4131.41025614, 4121.02564075, 4128.58974332,12.0
4115.38461511, 4124.48717921, 4131.28205101, 4100.25640991, 4122.82051255, 4117.82051255, 4115.76923050, 4120.12820485, 4138.33333313, 4120.51282024, 4117.43589716, 4130.76923050, 4118.58974332, 4126.02564075,12.0
4113.84615357, 4128.97435870, 4132.94871767, 4102.05128171, 4121.79487152, 4116.53846126, 4117.30769203, 4113.71794844, 4124.99999973, 4114.87179460, 4118.71794844, 4128.58974332, 4122.05128178, 4121.15384588,12.0
4115.38461511, 4133.07692280, 4134.99999973, 4106.15384588, 4126.79487152, 4117.43589716, 4110.25640998, 4105.76923050, 4109.99999973, 4106.28205101, 4114.61538434, 4128.20512793, 4122.17948691, 4126.79487152,12.0
4110.25640998, 4126.53846126, 4127.56410229, 4101.92307658, 4117.05128178, 4110.12820485, 4096.66666632, 4097.69230735, 4107.82051255, 4104.74358947, 4107.17948691, 4123.33333306, 4113.46153819, 4128.97435870,12.0
4103.20512793, 4119.61538434, 4116.02564075, 4096.28205094, 4098.58974325, 4099.61538427, 4092.82051248, 4094.35897402, 4108.20512793, 4103.97435870, 4106.02564075, 4119.99999973, 4112.56410229, 4124.48717921,12.0
4106.92307665, 4122.05128178, 4117.82051255, 4100.76923043, 4106.66666639, 4101.92307658, 4096.79487145, 4098.97435863, 4107.05128178, 4103.20512793, 4111.15384588, 4123.07692280, 4117.82051255, 4122.94871767,12.0
4109.99999973, 4128.33333306, 4125.12820485, 4106.92307665, 4125.25640998, 4103.20512793, 4099.35897402, 4098.97435863, 4105.38461511, 4103.84615357, 4113.58974332, 4122.30769203, 4114.48717921, 4125.51282024,12.0
4115.64102537, 4137.82051262, 4131.15384588, 4114.35897408, 4132.05128178, 4110.38461511, 4122.17948691, 4116.02564075, 4123.46153819, 4115.89743562, 4120.25640998, 4128.07692280, 4120.12820485, 4130.25640998,12.0
4122.82051255, 4142.43589723, 4137.17948697, 4119.87179460, 4132.43589716, 4118.33333306, 4138.46153826, 4140.38461518, 4144.99999980, 4131.79487152, 4131.15384588, 4141.15384595, 4135.25640998, 4127.69230742,12.0
4118.58974332, 4135.76923056, 4137.69230749, 4115.64102537, 4125.51282024, 4106.28205101, 4109.48717921, 4120.64102537, 4130.89743562, 4127.94871767, 4132.56410229, 4144.10256390, 4136.28205108, 4124.48717921,12.0
4121.66666639, 4136.66666646, 4140.64102544, 4113.58974332, 4122.43589716, 4101.92307658, 4095.12820478, 4100.12820478, 4115.76923050, 4123.20512793, 4134.61538434, 4143.71794851, 4131.53846126, 4126.41025614,12.0
4131.15384588, 4142.05128185, 4146.53846133, 4117.82051255, 4128.46153819, 4116.92307665, 4117.56410229, 4118.84615357, 4128.97435870, 4129.74358947, 4139.23076903, 4146.79487159, 4134.87179460, 4128.20512793,12.0
4125.89743562, 4139.48717928, 4142.30769210, 4118.20512793, 4128.07692280, 4119.10256383, 4119.74358947, 4124.61538434, 4132.43589716, 4126.53846126, 4128.97435870, 4142.43589723, 4131.92307665, 4126.92307665,12.0
4116.53846126, 4133.07692280, 4129.74358947, 4113.71794844, 4120.64102537, 4103.97435870, 4099.10256376, 4102.94871767, 4114.10256383, 4112.05128178, 4111.41025614, 4129.23076896, 4117.30769203, 4123.20512793,12.0
4120.76923050, 4133.46153819, 4127.69230742, 4115.51282024, 4121.79487152, 4102.94871767, 4098.84615350, 4102.17948684, 4109.74358947, 4111.92307665, 4113.20512793, 4128.07692280, 4116.92307665, 4126.28205101,12.0
4131.92307665, 4145.38461518, 4141.66666646, 4126.15384588, 4131.92307665, 4114.48717921, 4112.43589716, 4116.92307665, 4121.53846126, 4126.53846126, 4131.92307665, 4140.38461518, 4132.17948691, 4129.87179460,12.0
4134.87179460, 4152.69230749, 4151.28205108, 4134.87179460, 4140.12820492, 4118.46153819, 4114.48717921, 4118.84615357, 4123.46153819, 4132.69230742, 4137.82051262, 4146.15384595, 4135.25640998, 4125.38461511,12.0
4133.97435870, 4151.92307672, 4151.41025621, 4135.76923056, 4137.17948697, 4121.41025614, 4122.05128178, 4129.23076896, 4124.87179460, 4130.89743562, 4135.12820485, 4146.92307672, 4133.58974332, 4125.38461511,12.0
4138.46153826, 4153.58974339, 4151.79487159, 4134.61538434, 4135.25640998, 4128.97435870, 4135.76923056, 4139.10256390, 4131.41025614, 4135.38461518, 4143.84615364, 4152.30769210, 4141.53846133, 4127.43589716,12.0
4141.53846133, 4158.33333313, 4155.38461518, 4140.51282031, 4141.28205108, 4129.99999973, 4137.43589723, 4131.02564075, 4130.12820485, 4144.35897415, 4150.12820492, 4156.28205108, 4144.74358954, 4124.74358947,12.0
4134.99999973, 4155.89743569, 4150.64102544, 4140.76923056, 4139.74358954, 4126.66666639, 4134.48717921, 4125.38461511, 4121.41025614, 4139.10256390, 4140.38461518, 4148.71794851, 4135.51282031, 4123.84615357,12.0
4128.58974332, 4152.43589723, 4146.79487159, 4134.48717921, 4141.15384595, 4133.46153819, 4139.74358954, 4127.30769203, 4121.28205101, 4131.53846126, 4135.89743569, 4142.94871774, 4132.82051255, 4125.25640998,12.0
4132.94871767, 4154.99999980, 4154.87179467, 4134.99999973, 4143.20512800, 4138.07692287, 4139.35897415, 4121.28205101, 4123.20512793, 4134.23076896, 4139.35897415, 4144.61538441, 4136.02564082, 4126.53846126,12.0
4134.10256383, 4153.07692287, 4155.51282031, 4135.89743569, 4129.74358947, 4128.58974332, 4126.15384588, 4114.23076896, 4114.99999973, 4129.35897408, 4134.99999973, 4140.76923056, 4132.82051255, 4126.02564075,12.0
4138.84615364, 4151.53846133, 4158.46153826, 4138.20512800, 4132.82051255, 4128.71794844, 4126.28205101, 4122.05128178, 4115.76923050, 4124.99999973, 4137.69230749, 4140.38461518, 4135.12820485, 4125.38461511,12.0
4157.82051262, 4158.71794851, 4172.82051269, 4146.92307672, 4160.64102544, 4142.82051262, 4140.51282031, 4131.79487152, 4130.64102537, 4136.02564082, 4149.10256390, 4152.69230749, 4143.20512800, 4126.92307665,12.0
4161.79487159, 4159.99999980, 4170.76923063, 4145.51282031, 4162.94871774, 4143.84615364, 4142.56410236, 4130.89743562, 4133.58974332, 4140.89743569, 4145.51282031, 4157.05128185, 4143.33333313, 4125.76923050,12.0
4146.15384595, 4152.05128185, 4152.05128185, 4132.30769203, 4141.02564082, 4129.35897408, 4134.23076896, 4131.79487152, 4128.46153819, 4132.43589716, 4133.07692280, 4144.10256390, 4136.79487159, 4126.15384588,12.0
4147.56410236, 4150.89743569, 4149.74358954, 4128.20512793, 4139.35897415, 4124.35897408, 4136.15384595, 4138.07692287, 4133.84615357, 4132.69230742, 4133.20512793, 4139.10256390, 4135.76923056, 4128.07692280,12.0
4159.74358954, 4154.23076903, 4159.87179467, 4133.33333306, 4145.12820492, 4127.43589716, 4140.38461518, 4127.69230742, 4126.92307665, 4131.79487152, 4136.66666646, 4147.30769210, 4138.20512800, 4128.33333306,12.0
4159.48717928, 4154.87179467, 4160.25641005, 4134.61538434, 4142.05128185, 4121.79487152, 4131.92307665, 4112.69230742, 4112.43589716, 4128.33333306, 4135.51282031, 4151.15384595, 4140.51282031, 4127.05128178,12.0
4151.53846133, 4148.71794851, 4153.07692287, 4128.97435870, 4136.92307672, 4114.23076896, 4122.94871767, 4119.10256383, 4118.20512793, 4130.76923050, 4132.05128178, 4144.23076903, 4137.69230749, 4123.84615357,12.0
4139.35897415, 4132.56410229, 4140.12820492, 4119.74358947, 4121.15384588, 4111.02564075, 4119.35897408, 4124.10256383, 4119.87179460, 4124.48717921, 4120.38461511, 4130.64102537, 4126.28205101, 4124.87179460,12.0
4132.56410229, 4122.30769203, 4131.92307665, 4115.51282024, 4112.82051255, 4111.66666639, 4116.53846126, 4116.79487152, 4107.05128178, 4117.43589716, 4116.66666639, 4126.41025614, 4124.61538434, 4128.07692280,12.0
4137.94871774, 4126.53846126, 4136.15384595, 4119.23076896, 4123.71794844, 4112.56410229, 4112.69230742, 4115.64102537, 4107.69230742, 4124.48717921, 4128.33333306, 4131.15384588, 4131.79487152, 4125.38461511,12.0
4142.94871774, 4130.51282024, 4138.84615364, 4122.56410229, 4136.41025621, 4117.17948691, 4120.38461511, 4122.69230742, 4118.20512793, 4132.69230742, 4129.10256383, 4130.12820485, 4131.79487152, 4123.97435870,12.0
4137.69230749, 4127.56410229, 4134.35897408, 4122.82051255, 4134.48717921, 4126.41025614, 4136.15384595, 4131.15384588, 4122.56410229, 4129.99999973, 4117.30769203, 4124.99999973, 4127.17948691, 4124.99999973,12.0
4130.51282024, 4123.97435870, 4129.23076896, 4121.02564075, 4128.71794844, 4122.43589716, 4125.89743562, 4124.35897408, 4116.66666639, 4124.10256383, 4113.58974332, 4125.25640998, 4125.89743562, 4126.15384588,12.0
4134.87179460, 4123.33333306, 4132.17948691, 4121.15384588, 4130.25640998, 4114.74358947, 4111.53846126, 4109.61538434, 4105.25640998, 4121.79487152, 4116.92307665, 4129.10256383, 4126.92307665, 4126.79487152,12.0
4140.51282031, 4124.61538434, 4137.94871774, 4126.92307665, 4128.84615357, 4119.87179460, 4123.97435870, 4113.46153819, 4104.35897408, 4121.92307665, 4119.61538434, 4128.84615357, 4126.53846126, 4126.41025614,12.0
4134.87179460, 4122.17948691, 4133.33333306, 4124.74358947, 4119.87179460, 4119.48717921, 4121.53846126, 4119.87179460, 4106.28205101, 4116.53846126, 4119.61538434, 4124.61538434, 4125.25640998, 4127.43589716,12.0
4129.99999973, 4121.66666639, 4133.84615357, 4120.64102537, 4117.56410229, 4113.58974332, 4104.74358947, 4112.82051255, 4102.30769196, 4115.25640998, 4119.35897408, 4123.33333306, 4124.74358947, 4128.71794844,12.0
4132.94871767, 4124.23076896, 4146.02564082, 4128.97435870, 4129.23076896, 4118.46153819, 4112.82051255, 4112.05128178, 4106.66666639, 4121.79487152, 4121.66666639, 4127.69230742, 4124.74358947, 4126.92307665,12.0
4127.56410229, 4114.10256383, 4141.28205108, 4126.41025614, 4127.69230742, 4118.84615357, 4119.74358947, 4110.12820485, 4102.43589709, 4111.02564075, 4116.79487152, 4121.66666639, 4118.84615357, 4124.87179460,12.0
4119.35897408, 4106.02564075, 4129.23076896, 4118.46153819, 4117.94871767, 4110.12820485, 4105.89743562, 4096.92307658, 4086.79487145, 4097.94871761, 4112.43589716, 4113.46153819, 4115.12820485, 4125.38461511,12.0
4127.56410229, 4119.87179460, 4138.20512800, 4130.76923050, 4126.92307665, 4114.23076896, 4105.38461511, 4100.51282017, 4093.46153812, 4110.25640998, 4121.41025614, 4122.82051255, 4119.23076896, 4125.76923050,12.0
4131.02564075, 4122.94871767, 4137.05128185, 4133.33333306, 4122.05128178, 4112.30769203, 4108.84615357, 4112.94871767, 4108.33333306, 4117.82051255, 4122.94871767, 4125.51282024, 4116.66666639, 4124.48717921,12.0
4120.12820485, 4107.56410229, 4120.25640998, 4120.89743562, 4105.76923050, 4100.76923043, 4100.25640991, 4107.56410229, 4099.99999966, 4104.74358947, 4110.38461511, 4115.12820485, 4113.97435870, 4124.61538434,12.0
4119.35897408, 4108.97435870, 4123.46153819, 4126.28205101, 4114.10256383, 4105.76923050, 4099.74358940, 4103.20512793, 4093.46153812, 4103.33333306, 4108.20512793, 4116.92307665, 4120.64102537, 4125.38461511,12.0
4130.12820485, 4122.69230742, 4134.87179460, 4138.20512800, 4130.12820485, 4117.43589716, 4108.58974332, 4112.69230742, 4109.23076896, 4121.66666639, 4121.41025614, 4128.84615357, 4127.17948691, 4125.38461511,12.0
4133.33333306, 4123.46153819, 4132.82051255, 4135.25640998, 4128.20512793, 4116.02564075, 4113.33333306, 4115.51282024, 4118.07692280, 4129.87179460, 4130.89743562, 4130.89743562, 4130.12820485, 4125.12820485,12.0
4127.43589716, 4118.07692280, 4128.84615357, 4129.74358947, 4118.33333306, 4109.35897408, 4110.89743562, 4111.66666639, 4109.61538434, 4120.76923050, 4126.66666639, 4125.25640998, 4129.99999973, 4126.53846126,12.0
4128.84615357, 4122.82051255, 4134.10256383, 4133.71794844, 4115.89743562, 4111.15384588, 4114.35897408, 4118.33333306, 4108.71794844, 4117.30769203, 4121.41025614, 4129.10256383, 4130.38461511, 4127.30769203,12.0
4130.51282024, 4119.74358947, 4135.89743569, 4135.12820485, 4116.28205101, 4111.02564075, 4116.92307665, 4118.97435870, 4110.38461511, 4116.79487152, 4122.69230742, 4129.87179460, 4128.58974332, 4126.66666639,12.0
4124.61538434, 4106.41025614, 4129.99999973, 4130.25640998, 4114.23076896, 4103.58974332, 4108.84615357, 4105.12820485, 4103.07692280, 4109.99999973, 4122.05128178, 4121.28205101, 4122.43589716, 4128.58974332,12.0
4124.10256383, 4110.76923050, 4130.89743562, 4129.23076896, 4114.35897408, 4103.84615357, 4105.64102537, 4103.84615357, 4103.58974332, 4111.66666639, 4121.15384588, 4119.48717921, 4121.28205101, 4129.10256383,12.0
4129.74358947, 4119.48717921, 4135.89743569, 4129.87179460, 4114.74358947, 4109.74358947, 4113.46153819, 4118.33333306, 4113.46153819, 4117.56410229, 4125.38461511, 4123.71794844, 4123.58974332, 4127.17948691,12.0
4133.33333306, 4114.87179460, 4138.46153826, 4131.53846126, 4113.97435870, 4113.07692280, 4120.51282024, 4122.94871767, 4120.12820485, 4119.10256383, 4130.76923050, 4128.97435870, 4125.12820485, 4126.66666639,12.0
4131.92307665, 4113.97435870, 4140.51282031, 4131.92307665, 4112.43589716, 4114.61538434, 4115.89743562, 4111.79487152, 4119.99999973, 4120.12820485, 4132.69230742, 4131.53846126, 4125.64102537, 4127.82051255,12.0
4128.71794844, 4117.56410229, 4136.53846133, 4127.30769203, 4118.46153819, 4115.38461511, 4112.17948691, 4109.74358947, 4116.02564075, 4116.79487152, 4127.43589716, 4122.30769203, 4120.76923050, 4128.97435870,12.0
4129.48717921, 4118.33333306, 4135.12820485, 4128.46153819, 4125.76923050, 4118.33333306, 4126.66666639, 4123.58974332, 4120.38461511, 4116.92307665, 4126.53846126, 4116.28205101, 4119.61538434, 4126.28205101,12.0
4130.76923050, 4118.07692280, 4142.30769210, 4132.69230742, 4118.20512793, 4124.61538434, 4136.53846133, 4121.92307665, 4122.43589716, 4122.56410229, 4130.12820485, 4122.56410229, 4123.84615357, 4125.12820485,12.0
4126.92307665, 4112.30769203, 4139.35897415, 4127.17948691, 4110.51282024, 4118.58974332, 4120.64102537, 4103.33333306, 4107.94871767, 4114.74358947, 4124.61538434, 4123.84615357, 4118.97435870, 4128.07692280,12.0
4128.71794844, 4111.53846126, 4134.99999973, 4124.61538434, 4118.84615357, 4110.12820485, 4115.76923050, 4110.38461511, 4107.43589716, 4110.12820485, 4124.23076896, 4122.56410229, 4117.69230742, 4127.43589716,12.0
4134.23076896, 4121.53846126, 4144.23076903, 4132.82051255, 4129.35897408, 4118.33333306, 4128.46153819, 4125.25640998, 4123.46153819, 4124.23076896, 4134.61538434, 4128.20512793, 4126.79487152, 4127.56410229,12.0
4128.46153819, 4120.89743562, 4147.94871774, 4133.97435870, 4124.61538434, 4121.41025614, 4119.10256383, 4116.02564075, 4121.53846126, 4124.10256383, 4132.43589716, 4128.97435870, 4124.35897408, 4127.43589716,12.0
4123.84615357, 4116.79487152, 4139.48717928, 4129.35897408, 4120.25640998, 4113.71794844, 4105.64102537, 4108.71794844, 4106.02564075, 4110.51282024, 4122.56410229, 4122.56410229, 4115.51282024, 4125.76923050,12.0
4129.10256383, 4123.07692280, 4138.84615364, 4132.56410229, 4122.94871767, 4111.79487152, 4107.94871767, 4112.17948691, 4103.07692280, 4111.79487152, 4125.76923050, 4124.10256383, 4121.92307665, 4128.71794844,12.0
4137.69230749, 4124.99999973, 4149.74358954, 4138.20512800, 4127.69230742, 4120.38461511, 4115.51282024, 4113.97435870, 4115.38461511, 4122.05128178, 4136.02564082, 4137.43589723, 4130.89743562, 4129.61538434,12.0
4142.30769210, 4124.74358947, 4154.35897415, 4139.99999980, 4131.66666639, 4125.89743562, 4122.05128178, 4112.69230742, 4118.84615357, 4120.12820485, 4138.84615364, 4141.41025621, 4127.30769203, 4127.82051255,12.0
4136.41025621, 4124.48717921, 4150.12820492, 4137.30769210, 4121.41025614, 4116.41025614, 4116.15384588, 4112.05128178, 4111.02564075, 4115.64102537, 4132.94871767, 4132.17948691, 4124.48717921, 4127.43589716,12.0
4128.07692280, 4119.23076896, 4145.38461518, 4132.05128178, 4115.12820485, 4113.07692280, 4110.64102537, 4114.74358947, 4110.38461511, 4119.35897408, 4128.71794844, 4128.07692280, 4128.46153819, 4127.56410229,12.0
4131.28205101, 4121.92307665, 4147.43589723, 4132.94871767, 4129.99999973, 4130.51282024, 4132.43589716, 4126.15384588, 4119.87179460, 4126.41025614, 4134.74358947, 4132.17948691, 4130.89743562, 4128.71794844,12.0
4129.61538434, 4118.97435870, 4142.17948697, 4130.12820485, 4126.66666639, 4132.94871767, 4138.46153826, 4128.84615357, 4119.74358947, 4125.76923050, 4132.82051255, 4124.10256383, 4122.30769203, 4128.58974332,12.0
4115.25640998, 4107.05128178, 4127.05128178, 4122.05128178, 4105.89743562, 4109.74358947, 4108.07692280, 4114.35897408, 4105.89743562, 4113.07692280, 4117.82051255, 4107.94871767, 4111.92307665, 4126.66666639,12.0
4117.69230742, 4114.87179460, 4131.28205101, 4129.61538434, 4119.74358947, 4111.28205101, 4110.12820485, 4115.25640998, 4106.41025614, 4110.51282024, 4118.84615357, 4114.87179460, 4117.30769203, 4125.12820485,12.0
4130.12820485, 4128.33333306, 4146.28205108, 4140.89743569, 4146.28205108, 4129.99999973, 4134.10256383, 4127.69230742, 4116.92307665, 4118.84615357, 4131.28205101, 4134.10256383, 4126.28205101, 4126.02564075,12.0
4126.15384588, 4124.35897408, 4147.30769210, 4138.58974339, 4139.74358954, 4121.53846126, 4119.35897408, 4125.64102537, 4114.23076896, 4117.82051255, 4131.79487152, 4135.51282031, 4127.56410229, 4126.66666639,12.0
4126.28205101, 4127.05128178, 4149.61538441, 4140.64102544, 4131.53846126, 4112.43589716, 4107.43589716, 4119.35897408, 4112.05128178, 4117.30769203, 4133.84615357, 4131.41025614, 4131.15384588, 4124.35897408,12.0
4143.46153826, 4139.61538441, 4160.64102544, 4150.76923056, 4140.38461518, 4125.76923050, 4127.43589716, 4122.43589716, 4118.46153819, 4123.97435870, 4146.66666646, 4141.15384595, 4134.87179460, 4127.17948691,12.0
4150.25641005, 4140.12820492, 4165.51282031, 4154.87179467, 4140.12820492, 4132.56410229, 4135.51282031, 4124.35897408, 4119.10256383, 4128.84615357, 4155.25641005, 4151.41025621, 4134.74358947, 4128.07692280,12.0
4137.17948697, 4134.10256383, 4161.28205108, 4150.89743569, 4131.02564075, 4125.12820485, 4125.12820485, 4123.33333306, 4116.41025614, 4127.17948691, 4151.28205108, 4145.89743569, 4134.74358947, 4124.48717921,12.0
4135.51282031, 4135.89743569, 4160.64102544, 4148.33333313, 4128.58974332, 4128.46153819, 4130.76923050, 4131.66666639, 4127.56410229, 4128.71794844, 4148.97435877, 4142.30769210, 4136.66666646, 4127.17948691,12.0
4140.89743569, 4138.33333313, 4159.48717928, 4148.33333313, 4134.61538434, 4132.94871767, 4139.23076903, 4138.20512800, 4136.02564082, 4133.33333306, 4153.33333313, 4145.64102544, 4136.79487159, 4129.87179460,12.0
4135.51282031, 4136.28205108, 4152.17948697, 4146.15384595, 4129.23076896, 4125.51282024, 4131.92307665, 4133.33333306, 4125.76923050, 4130.89743562, 4150.76923056, 4142.43589723, 4135.51282031, 4127.05128178,12.0
4132.69230742, 4136.15384595, 4151.66666646, 4145.25641005, 4118.97435870, 4127.17948691, 4135.38461518, 4129.61538434, 4121.41025614, 4126.92307665, 4145.38461518, 4141.28205108, 4134.61538434, 4126.53846126,12.0
4135.64102544, 4139.10256390, 4156.66666646, 4148.20512800, 4133.07692280, 4135.38461518, 4146.02564082, 4129.87179460, 4128.71794844, 4124.10256383, 4143.84615364, 4145.25641005, 4131.66666639, 4126.53846126,12.0
4136.79487159, 4143.07692287, 4157.69230749, 4152.56410236, 4153.33333313, 4133.46153819, 4138.07692287, 4125.12820485, 4124.23076896, 4123.84615357, 4148.20512800, 4143.71794851, 4132.30769203, 4124.99999973,12.0
4136.15384595, 4147.30769210, 4156.53846133, 4157.05128185, 4150.51282031, 4131.79487152, 4130.12820485, 4119.74358947, 4111.92307665, 4128.33333306, 4154.35897415, 4140.51282031, 4135.38461518, 4126.66666639,12.0
4139.87179467, 4152.30769210, 4158.84615364, 4159.48717928, 4145.38461518, 4139.23076903, 4138.58974339, 4129.35897408, 4121.53846126, 4135.38461518, 4159.10256390, 4145.64102544, 4136.79487159, 4128.97435870,12.0
4144.61538441, 4154.35897415, 4161.15384595, 4157.94871774, 4151.92307672, 4139.61538441, 4143.33333313, 4135.51282031, 4137.17948697, 4142.30769210, 4162.05128185, 4152.56410236, 4140.64102544, 4127.30769203,12.0
4139.99999980, 4147.94871774, 4159.48717928, 4152.94871774, 4143.71794851, 4131.53846126, 4138.33333313, 4125.38461511, 4127.43589716, 4138.20512800, 4157.69230749, 4149.87179467, 4138.71794851, 4127.30769203,12.0
4136.15384595, 4142.17948697, 4158.84615364, 4151.15384595, 4132.94871767, 4132.05128178, 4141.53846133, 4128.97435870, 4124.48717921, 4133.07692280, 4155.25641005, 4146.15384595, 4134.35897408, 4129.35897408,12.0
4141.02564082, 4145.51282031, 4158.84615364, 4153.07692287, 4139.99999980, 4139.74358954, 4149.23076903, 4142.17948697, 4144.23076903, 4141.41025621, 4162.56410236, 4148.46153826, 4141.28205108, 4127.94871767,12.0
4138.20512800, 4143.46153826, 4150.51282031, 4144.87179467, 4139.10256390, 4134.23076896, 4144.61538441, 4132.82051255, 4142.30769210, 4142.05128185, 4156.02564082, 4138.71794851, 4142.82051262, 4127.05128178,12.0
4128.71794844, 4133.97435870, 4142.05128185, 4134.10256383, 4130.38461511, 4124.61538434, 4138.20512800, 4123.97435870, 4126.15384588, 4126.53846126, 4135.51282031, 4123.84615357, 4131.28205101, 4128.33333306,12.0
4141.02564082, 4142.30769210, 4152.05128185, 4143.07692287, 4145.38461518, 4140.38461518, 4158.33333313, 4147.17948697, 4141.28205108, 4134.48717921, 4141.02564082, 4135.38461518, 4137.05128185, 4126.92307665,12.0
4152.17948697, 4152.82051262, 4162.05128185, 4151.53846133, 4155.64102544, 4155.51282031, 4168.84615371, 4159.35897415, 4160.12820492, 4155.64102544, 4156.15384595, 4146.79487159, 4148.71794851, 4126.15384588,12.0
4136.79487159, 4141.53846133, 4151.79487159, 4139.48717928, 4131.28205101, 4134.74358947, 4132.05128178, 4131.79487152, 4140.89743569, 4142.94871774, 4143.20512800, 4133.71794844, 4137.30769210, 4127.17948691,12.0
4127.17948691, 4130.12820485, 4141.53846133, 4128.33333306, 4118.07692280, 4115.76923050, 4107.17948691, 4113.97435870, 4116.53846126, 4123.97435870, 4133.07692280, 4126.41025614, 4125.25640998, 4126.66666639,12.0
4133.07692280, 4135.12820485, 4143.71794851, 4133.97435870, 4138.20512800, 4131.02564075, 4129.99999973, 4126.79487152, 4122.56410229, 4127.43589716, 4140.51282031, 4134.10256383, 4127.56410229, 4126.66666639,12.0
4135.89743569, 4144.61538441, 4149.48717928, 4142.30769210, 4152.43589723, 4147.17948697, 4149.99999980, 4138.84615364, 4140.12820492, 4136.28205108, 4147.82051262, 4137.30769210, 4135.25640998, 4126.02564075,12.0
4139.10256390, 4153.07692287, 4159.35897415, 4146.15384595, 4153.20512800, 4147.56410236, 4154.48717928, 4143.33333313, 4151.41025621, 4146.15384595, 4153.84615364, 4138.33333313, 4143.84615364, 4125.64102537,12.0
4143.07692287, 4154.61538441, 4165.76923056, 4146.41025621, 4155.76923056, 4146.02564082, 4156.15384595, 4143.84615364, 4150.51282031, 4147.82051262, 4151.28205108, 4140.89743569, 4141.66666646, 4126.92307665,12.0
4145.89743569, 4152.17948697, 4166.79487159, 4146.28205108, 4154.48717928, 4145.38461518, 4154.87179467, 4146.66666646, 4152.69230749, 4142.82051262, 4146.15384595, 4140.89743569, 4136.02564082, 4127.82051255,12.0
4154.99999980, 4158.71794851, 4177.05128192, 4152.05128185, 4156.53846133, 4152.05128185, 4170.38461525, 4158.33333313, 4167.82051262, 4153.33333313, 4160.12820492, 4148.84615364, 4145.89743569, 4127.94871767,12.0
4153.97435877, 4158.97435877, 4178.97435884, 4153.71794851, 4159.99999980, 4156.02564082, 4179.87179474, 4150.76923056, 4158.07692287, 4154.87179467, 4166.79487159, 4153.71794851, 4148.84615364, 4126.53846126,12.0
4140.51282031, 4149.74358954, 4164.35897415, 4146.28205108, 4153.07692287, 4147.05128185, 4162.05128185, 4138.33333313, 4140.51282031, 4139.48717928, 4148.58974339, 4145.12820492, 4139.35897415, 4124.48717921,12.0
4141.28205108, 4150.76923056, 4166.15384595, 4146.28205108, 4150.64102544, 4145.51282031, 4158.46153826, 4154.35897415, 4159.48717928, 4148.97435877, 4150.38461518, 4146.28205108, 4143.84615364, 4123.46153819,12.0
4149.61538441, 4156.92307672, 4180.12820499, 4154.87179467, 4155.38461518, 4154.35897415, 4164.99999980, 4154.10256390, 4166.66666646, 4163.33333313, 4172.30769217, 4159.23076903, 4152.30769210, 4124.23076896,12.0
4149.35897415, 4155.89743569, 4176.92307679, 4156.41025621, 4155.89743569, 4151.53846133, 4147.94871774, 4126.02564075, 4137.56410236, 4150.64102544, 4171.28205115, 4159.99999980, 4148.46153826, 4127.56410229,12.0
4142.94871774, 4153.58974339, 4170.25641012, 4153.20512800, 4151.79487159, 4141.15384595, 4135.12820485, 4124.99999973, 4132.43589716, 4142.94871774, 4159.10256390, 4152.56410236, 4144.61538441, 4128.58974332,12.0
4146.15384595, 4160.64102544, 4181.79487166, 4158.58974339, 4157.30769210, 4142.94871774, 4147.69230749, 4147.17948697, 4155.51282031, 4154.35897415, 4169.10256397, 4162.56410236, 4151.79487159, 4127.05128178,12.0
4155.76923056, 4168.20512807, 4193.58974345, 4165.89743569, 4155.12820492, 4144.99999980, 4149.74358954, 4148.07692287, 4158.46153826, 4159.74358954, 4183.58974345, 4176.53846140, 4159.99999980, 4126.15384588,12.0
4154.74358954, 4169.10256397, 4193.84615371, 4166.28205108, 4145.25641005, 4143.20512800, 4148.20512800, 4140.89743569, 4146.15384595, 4153.97435877, 4179.23076910, 4174.23076910, 4159.48717928, 4125.38461511,12.0
4152.56410236, 4165.12820492, 4194.99999986, 4164.87179467, 4154.48717928, 4149.74358954, 4163.07692287, 4150.51282031, 4147.05128185, 4154.87179467, 4174.48717935, 4169.74358961, 4156.41025621, 4127.05128178,12.0
4153.84615364, 4159.10256390, 4193.58974345, 4162.17948697, 4167.30769210, 4153.84615364, 4165.38461518, 4159.99999980, 4159.87179467, 4160.76923056, 4178.20512807, 4168.97435884, 4156.92307672, 4128.58974332,12.0
4149.99999980, 4153.84615364, 4181.53846140, 4154.87179467, 4155.38461518, 4149.61538441, 4149.87179467, 4154.10256390, 4162.30769210, 4157.17948697, 4172.69230756, 4160.51282031, 4151.92307672, 4125.89743562,12.0
4144.61538441, 4152.69230749, 4174.35897422, 4153.33333313, 4140.38461518, 4146.79487159, 4143.84615364, 4146.02564082, 4152.56410236, 4149.48717928, 4159.23076903, 4151.92307672, 4144.23076903, 4125.12820485,12.0
4149.74358954, 4157.82051262, 4182.56410243, 4163.20512800, 4151.53846133, 4150.25641005, 4152.69230749, 4153.71794851, 4156.15384595, 4157.43589723, 4161.15384595, 4156.28205108, 4148.84615364, 4127.69230742,12.0
4149.74358954, 4157.82051262, 4182.56410243, 4163.20512800, 4151.53846133, 4150.25641005, 4152.69230749, 4153.71794851, 4156.15384595, 4157.43589723, 4161.15384595, 4156.28205108, 4148.84615364, 4127.69230742,12.0
4151.28205108, 4160.51282031, 4182.69230756, 4163.84615364, 4157.30769210, 4146.15384595, 4151.79487159, 4157.82051262, 4161.79487159, 4164.10256390, 4166.15384595, 4154.23076903, 4150.12820492, 4128.71794844,12.0
4137.94871774, 4153.07692287, 4166.92307672, 4149.48717928, 4142.94871774, 4131.02564075, 4132.17948691, 4137.43589723, 4144.87179467, 4148.33333313, 4156.53846133, 4142.05128185, 4140.51282031, 4126.28205101,12.0
4135.64102544, 4149.61538441, 4162.69230749, 4144.23076903, 4142.17948697, 4133.20512793, 4136.02564082, 4130.89743562, 4140.38461518, 4142.17948697, 4154.99999980, 4142.94871774, 4142.56410236, 4125.38461511,12.0
4149.74358954, 4152.56410236, 4164.87179467, 4142.30769210, 4154.74358954, 4146.28205108, 4157.43589723, 4157.43589723, 4164.61538441, 4151.92307672, 4160.51282031, 4147.69230749, 4143.46153826, 4127.82051255,12.0
4148.07692287, 4150.64102544, 4164.48717928, 4139.99999980, 4155.12820492, 4147.30769210, 4146.92307672, 4148.07692287, 4161.28205108, 4153.58974339, 4163.97435877, 4148.97435877, 4149.35897415, 4128.20512793,12.0
4145.89743569, 4153.84615364, 4163.46153826, 4135.38461518, 4153.58974339, 4152.94871774, 4154.10256390, 4148.97435877, 4157.43589723, 4157.30769210, 4165.12820492, 4143.46153826, 4153.71794851, 4126.02564075,12.0
4148.84615364, 4152.05128185, 4164.61538441, 4138.33333313, 4153.07692287, 4149.87179467, 4149.61538441, 4147.30769210, 4151.53846133, 4149.87179467, 4164.74358954, 4142.05128185, 4153.71794851, 4126.15384588,12.0
4160.76923056, 4157.69230749, 4176.79487166, 4149.99999980, 4156.28205108, 4147.69230749, 4146.28205108, 4146.79487159, 4156.28205108, 4149.10256390, 4169.35897422, 4152.69230749, 4157.30769210, 4126.92307665,12.0
4177.17948704, 4172.43589730, 4190.51282038, 4159.61538441, 4165.89743569, 4159.99999980, 4163.84615364, 4157.30769210, 4162.56410236, 4159.74358954, 4178.46153833, 4166.79487159, 4162.56410236, 4127.82051255,12.0
4181.28205115, 4171.66666653, 4189.74358961, 4157.94871774, 4166.92307672, 4164.35897415, 4171.92307679, 4160.51282031, 4157.05128185, 4156.28205108, 4181.02564089, 4169.23076910, 4162.30769210, 4125.76923050,12.0
4167.69230749, 4156.66666646, 4175.12820499, 4146.28205108, 4152.82051262, 4151.79487159, 4156.92307672, 4146.28205108, 4143.58974339, 4138.46153826, 4167.17948697, 4153.20512800, 4152.43589723, 4124.23076896,12.0
4160.76923056, 4153.07692287, 4170.25641012, 4143.07692287, 4152.30769210, 4152.69230749, 4160.89743569, 4147.43589723, 4148.33333313, 4142.05128185, 4162.43589723, 4145.38461518, 4150.76923056, 4127.94871767,12.0
4171.41025628, 4159.10256390, 4181.28205115, 4150.12820492, 4162.94871774, 4164.61538441, 4182.30769217, 4167.94871774, 4170.12820499, 4164.99999980, 4178.84615371, 4157.82051262, 4162.30769210, 4129.23076896,12.0
4177.69230756, 4156.66666646, 4184.35897422, 4149.74358954, 4154.87179467, 4157.30769210, 4174.10256397, 4165.25641005, 4173.33333320, 4165.51282031, 4182.94871781, 4160.76923056, 4159.87179467, 4127.17948691,12.0
4165.76923056, 4147.05128185, 4173.58974345, 4141.41025621, 4143.84615364, 4140.51282031, 4145.64102544, 4140.64102544, 4156.66666646, 4151.15384595, 4164.23076903, 4146.79487159, 4146.02564082, 4126.41025614,12.0
4155.25641005, 4139.23076903, 4164.87179467, 4134.10256383, 4151.53846133, 4141.41025621, 4140.38461518, 4136.41025621, 4151.53846133, 4149.10256390, 4154.61538441, 4137.43589723, 4146.53846133, 4125.64102537,12.0
4156.41025621, 4137.05128185, 4161.66666646, 4133.07692280, 4158.07692287, 4147.82051262, 4150.12820492, 4148.71794851, 4162.69230749, 4156.41025621, 4164.74358954, 4140.38461518, 4153.97435877, 4125.89743562,12.0
4156.66666646, 4138.84615364, 4161.15384595, 4139.23076903, 4152.56410236, 4142.30769210, 4142.94871774, 4142.94871774, 4166.28205108, 4164.10256390, 4176.02564089, 4149.23076903, 4155.51282031, 4127.56410229,12.0
4163.20512800, 4141.79487159, 4167.56410236, 4145.89743569, 4152.05128185, 4142.17948697, 4141.92307672, 4137.05128185, 4165.76923056, 4169.99999986, 4181.92307679, 4159.10256390, 4160.38461518, 4128.20512793,12.0
4173.84615371, 4142.43589723, 4170.25641012, 4145.25641005, 4154.61538441, 4147.69230749, 4157.43589723, 4143.07692287, 4163.07692287, 4166.41025621, 4176.66666653, 4159.99999980, 4159.87179467, 4127.05128178,12.0
4169.87179474, 4138.71794851, 4159.48717928, 4135.51282031, 4149.10256390, 4143.33333313, 4157.69230749, 4139.61538441, 4146.92307672, 4150.64102544, 4160.64102544, 4151.53846133, 4147.94871774, 4126.28205101,12.0
4161.28205108, 4136.15384595, 4155.76923056, 4133.71794844, 4147.05128185, 4144.48717928, 4152.69230749, 4145.12820492, 4149.87179467, 4149.87179467, 4161.79487159, 4152.05128185, 4149.23076903, 4127.43589716,12.0
4164.10256390, 4140.64102544, 4167.30769210, 4144.35897415, 4152.56410236, 4157.17948697, 4164.74358954, 4163.07692287, 4174.35897422, 4165.25641005, 4178.33333320, 4162.43589723, 4158.84615364, 4127.56410229,12.0
4165.89743569, 4140.64102544, 4170.38461525, 4144.74358954, 4156.02564082, 4156.15384595, 4168.07692287, 4153.84615364, 4169.23076910, 4162.17948697, 4175.51282038, 4159.99999980, 4152.56410236, 4127.05128178,12.0
4158.58974339, 4131.53846126, 4161.41025621, 4131.92307665, 4142.94871774, 4142.69230749, 4149.61538441, 4132.05128178, 4142.82051262, 4144.48717928, 4157.94871774, 4144.99999980, 4141.53846133, 4127.82051255,12.0
4160.64102544, 4132.43589716, 4162.82051262, 4133.20512793, 4132.43589716, 4145.25641005, 4151.79487159, 4144.35897415, 4147.69230749, 4148.46153826, 4159.61538441, 4143.84615364, 4145.12820492, 4127.05128178,12.0
4164.99999980, 4140.51282031, 4166.53846133, 4139.35897415, 4139.99999980, 4152.56410236, 4166.02564082, 4156.15384595, 4162.56410236, 4159.23076903, 4163.71794851, 4146.15384595, 4149.35897415, 4125.89743562,12.0
4150.38461518, 4133.84615357, 4154.48717928, 4128.84615357, 4143.46153826, 4142.82051262, 4147.30769210, 4130.51282024, 4147.30769210, 4146.66666646, 4146.79487159, 4132.30769203, 4140.25641005, 4125.89743562,12.0
4143.20512800, 4129.10256383, 4146.41025621, 4123.46153819, 4143.84615364, 4134.10256383, 4125.38461511, 4114.87179460, 4133.07692280, 4141.15384595, 4140.12820492, 4128.20512793, 4136.02564082, 4127.69230742,12.0
4158.58974339, 4139.87179467, 4157.82051262, 4136.53846133, 4150.64102544, 4136.92307672, 4132.94871767, 4127.94871767, 4140.76923056, 4149.74358954, 4155.38461518, 4142.30769210, 4142.30769210, 4128.20512793,12.0
4159.23076903, 4138.71794851, 4162.69230749, 4140.64102544, 4146.15384595, 4136.41025621, 4137.56410236, 4138.71794851, 4141.66666646, 4143.33333313, 4157.05128185, 4143.20512800, 4140.25641005, 4125.38461511,12.0
4144.23076903, 4126.66666639, 4159.23076903, 4130.51282024, 4133.33333306, 4132.30769203, 4130.51282024, 4142.69230749, 4136.53846133, 4133.58974332, 4145.76923056, 4131.66666639, 4134.23076896, 4125.64102537,12.0
4143.07692287, 4126.41025614, 4162.82051262, 4129.61538434, 4136.41025621, 4136.41025621, 4141.41025621, 4141.92307672, 4137.69230749, 4133.58974332, 4145.38461518, 4132.43589716, 4136.92307672, 4126.28205101,12.0
4138.46153826, 4126.28205101, 4152.56410236, 4128.58974332, 4136.66666646, 4135.76923056, 4142.30769210, 4123.20512793, 4122.82051255, 4121.92307665, 4141.15384595, 4129.74358947, 4131.53846126, 4124.74358947,12.0
4125.76923050, 4118.97435870, 4136.28205108, 4121.53846126, 4116.02564075, 4124.10256383, 4124.48717921, 4114.61538434, 4108.20512793, 4111.92307665, 4132.82051255, 4122.05128178, 4123.97435870, 4125.38461511,12.0
4129.99999973, 4118.97435870, 4141.41025621, 4123.71794844, 4115.76923050, 4129.48717921, 4135.64102544, 4138.58974339, 4124.48717921, 4125.25640998, 4135.38461518, 4127.30769203, 4131.66666639, 4126.79487152,12.0
4138.84615364, 4123.33333306, 4147.82051262, 4125.38461511, 4134.99999973, 4146.15384595, 4161.66666646, 4155.25641005, 4143.20512800, 4136.92307672, 4138.84615364, 4134.23076896, 4135.12820485, 4126.92307665,12.0
4133.07692280, 4121.28205101, 4137.43589723, 4117.30769203, 4134.74358947, 4141.02564082, 4147.56410236, 4141.41025621, 4139.74358954, 4139.23076903, 4138.46153826, 4134.61538434, 4132.82051255, 4124.48717921,12.0
4130.38461511, 4119.10256383, 4132.30769203, 4114.35897408, 4124.74358947, 4127.82051255, 4122.30769203, 4126.41025614, 4134.87179460, 4146.15384595, 4143.71794851, 4136.79487159, 4139.48717928, 4123.84615357,12.0
4137.30769210, 4122.30769203, 4137.82051262, 4122.17948691, 4133.97435870, 4132.43589716, 4127.30769203, 4130.51282024, 4138.07692287, 4150.64102544, 4149.74358954, 4139.99999980, 4144.10256390, 4126.79487152,12.0
4134.61538434, 4124.48717921, 4136.66666646, 4122.82051255, 4143.58974339, 4136.41025621, 4133.84615357, 4136.79487159, 4140.64102544, 4151.02564082, 4145.25641005, 4134.74358947, 4137.30769210, 4127.56410229,12.0
4127.17948691, 4121.66666639, 4130.89743562, 4115.76923050, 4135.64102544, 4130.76923050, 4130.25640998, 4135.76923056, 4142.05128185, 4148.58974339, 4135.25640998, 4124.35897408, 4129.35897408, 4128.71794844,12.0
4127.30769203, 4123.33333306, 4132.82051255, 4118.20512793, 4138.33333313, 4130.64102537, 4131.66666639, 4133.71794844, 4141.79487159, 4143.97435877, 4131.15384588, 4120.89743562, 4127.94871767, 4128.97435870,12.0
4125.89743562, 4126.15384588, 4136.66666646, 4124.87179460, 4143.46153826, 4134.87179460, 4130.12820485, 4128.33333306, 4135.12820485, 4140.51282031, 4132.17948691, 4122.56410229, 4128.46153819, 4126.66666639,12.0
4117.05128178, 4115.64102537, 4129.99999973, 4117.30769203, 4122.43589716, 4125.38461511, 4115.76923050, 4115.25640998, 4120.64102537, 4132.30769203, 4125.51282024, 4119.23076896, 4121.02564075, 4128.46153819,12.0
4113.33333306, 4109.23076896, 4126.15384588, 4105.89743562, 4111.15384588, 4113.84615357, 4106.92307665, 4111.15384588, 4114.99999973, 4122.43589716, 4121.41025614, 4118.84615357, 4115.64102537, 4129.23076896,12.0
4129.99999973, 4121.79487152, 4142.56410236, 4114.10256383, 4137.30769210, 4130.12820485, 4130.25640998, 4129.23076896, 4129.61538434, 4130.64102537, 4138.46153826, 4134.35897408, 4128.33333306, 4125.76923050,12.0
4129.99999973, 4121.79487152, 4142.56410236, 4114.10256383, 4137.30769210, 4130.12820485, 4130.25640998, 4129.23076896, 4129.61538434, 4130.64102537, 4138.46153826, 4134.35897408, 4128.33333306, 4125.76923050,12.0
4146.28205108, 4129.87179460, 4154.10256390, 4123.97435870, 4152.94871774, 4146.79487159, 4150.12820492, 4136.28205108, 4134.87179460, 4142.69230749, 4149.48717928, 4147.05128185, 4139.48717928, 4124.74358947,12.0
4138.20512800, 4121.79487152, 4138.84615364, 4112.69230742, 4132.05128178, 4132.94871767, 4130.89743562, 4117.82051255, 4117.82051255, 4130.64102537, 4132.69230742, 4133.33333306, 4129.74358947, 4127.69230742,12.0
4124.74358947, 4117.43589716, 4123.46153819, 4102.43589709, 4122.69230742, 4125.12820485, 4115.38461511, 4113.97435870, 4113.33333306, 4118.58974332, 4116.15384588, 4113.71794844, 4122.05128178, 4128.33333306,12.0
4128.84615357, 4122.17948691, 4130.38461511, 4111.28205101, 4138.46153826, 4146.02564082, 4139.23076903, 4135.76923056, 4130.76923050, 4131.28205101, 4125.25640998, 4120.38461511, 4132.69230742, 4125.25640998,12.0
4142.30769210, 4126.79487152, 4142.56410236, 4118.71794844, 4149.74358954, 4161.15384595, 4160.38461518, 4144.48717928, 4137.94871774, 4141.66666646, 4141.53846133, 4140.38461518, 4143.20512800, 4125.76923050,12.0
4143.46153826, 4128.46153819, 4144.87179467, 4114.99999973, 4138.71794851, 4152.43589723, 4144.48717928, 4130.51282024, 4124.99999973, 4132.05128178, 4138.97435877, 4142.82051262, 4138.20512800, 4128.33333306,12.0
4138.07692287, 4128.33333306, 4145.25641005, 4114.61538434, 4127.82051255, 4143.97435877, 4125.64102537, 4122.17948691, 4115.76923050, 4126.02564075, 4132.05128178, 4134.61538434, 4130.25640998, 4128.46153819,12.0
4140.25641005, 4128.97435870, 4146.15384595, 4118.46153819, 4141.41025621, 4148.71794851, 4129.87179460, 4133.71794844, 4127.82051255, 4136.41025621, 4139.23076903, 4136.66666646, 4133.71794844, 4127.82051255,12.0
4142.94871774, 4127.69230742, 4146.02564082, 4117.05128178, 4152.69230749, 4157.43589723, 4141.92307672, 4144.87179467, 4139.23076903, 4142.05128185, 4149.99999980, 4144.99999980, 4137.82051262, 4125.51282024,12.0
4143.97435877, 4129.61538434, 4151.28205108, 4118.97435870, 4146.15384595, 4159.99999980, 4147.30769210, 4141.41025621, 4134.23076896, 4138.97435877, 4152.82051262, 4151.02564082, 4137.94871774, 4124.87179460,12.0
4150.12820492, 4138.07692287, 4162.17948697, 4129.61538434, 4144.99999980, 4157.94871774, 4142.82051262, 4138.07692287, 4134.35897408, 4140.38461518, 4154.23076903, 4157.94871774, 4142.43589723, 4128.20512793,12.0
4149.35897415, 4136.66666646, 4160.38461518, 4129.74358947, 4147.30769210, 4147.69230749, 4122.17948691, 4126.41025614, 4132.30769203, 4133.71794844, 4152.94871774, 4156.41025621, 4138.84615364, 4128.33333306,12.0
4134.87179460, 4121.79487152, 4141.66666646, 4115.89743562, 4132.69230742, 4133.33333306, 4107.43589716, 4106.15384588, 4114.74358947, 4118.97435870, 4139.61538441, 4141.92307672, 4124.87179460, 4126.02564075,12.0
4132.43589716, 4120.25640998, 4137.56410236, 4115.89743562, 4129.87179460, 4139.10256390, 4130.25640998, 4116.92307665, 4121.53846126, 4127.94871767, 4139.74358954, 4141.41025621, 4127.69230742, 4124.23076896,12.0
4144.48717928, 4130.64102537, 4152.94871774, 4127.94871767, 4150.25641005, 4155.51282031, 4152.30769210, 4147.82051262, 4155.38461518, 4155.51282031, 4162.05128185, 4156.79487159, 4146.66666646, 4124.74358947,12.0
4138.33333313, 4128.46153819, 4150.64102544, 4124.61538434, 4143.84615364, 4151.28205108, 4137.30769210, 4138.71794851, 4153.46153826, 4155.38461518, 4164.48717928, 4149.48717928, 4145.12820492, 4128.20512793,12.0
4118.97435870, 4119.48717921, 4130.25640998, 4108.97435870, 4119.10256383, 4139.87179467, 4121.66666639, 4109.23076896, 4121.79487152, 4129.35897408, 4137.69230749, 4124.74358947, 4124.35897408, 4126.15384588,12.0
4117.17948691, 4119.87179460, 4124.74358947, 4101.92307658, 4128.20512793, 4144.61538441, 4127.56410229, 4117.69230742, 4118.71794844, 4121.15384588, 4124.35897408, 4122.05128178, 4119.48717921, 4124.23076896,12.0
4128.33333306, 4128.71794844, 4138.33333313, 4113.33333306, 4156.15384595, 4155.38461518, 4140.76923056, 4139.74358954, 4137.94871774, 4134.74358947, 4141.92307672, 4139.87179467, 4133.97435870, 4128.33333306,12.0
4137.43589723, 4138.97435877, 4155.51282031, 4128.84615357, 4159.87179467, 4162.69230749, 4158.46153826, 4143.07692287, 4145.12820492, 4149.23076903, 4162.56410236, 4155.64102544, 4144.99999980, 4126.02564075,12.0
4143.33333313, 4142.43589723, 4157.17948697, 4126.15384588, 4147.17948697, 4161.53846133, 4162.43589723, 4134.74358947, 4135.12820485, 4148.71794851, 4163.20512800, 4160.89743569, 4144.61538441, 4121.66666639,12.0
4141.15384595, 4137.94871774, 4144.61538441, 4115.38461511, 4142.56410236, 4150.51282031, 4143.58974339, 4127.05128178, 4128.33333306, 4136.66666646, 4153.07692287, 4153.84615364, 4141.66666646, 4123.71794844,12.0
4142.43589723, 4137.69230749, 4145.25641005, 4118.46153819, 4144.87179467, 4145.76923056, 4139.35897415, 4131.92307665, 4136.79487159, 4137.69230749, 4156.02564082, 4151.66666646, 4144.10256390, 4127.30769203,12.0
4152.94871774, 4144.23076903, 4160.89743569, 4127.56410229, 4146.92307672, 4150.64102544, 4150.25641005, 4146.41025621, 4145.25641005, 4153.20512800, 4169.99999986, 4163.97435877, 4155.25641005, 4126.79487152,12.0
4152.82051262, 4146.02564082, 4159.10256390, 4123.07692280, 4142.56410236, 4148.97435877, 4144.74358954, 4153.20512800, 4143.20512800, 4153.33333313, 4165.89743569, 4164.23076903, 4159.48717928, 4125.89743562,12.0
4151.92307672, 4150.51282031, 4151.53846133, 4121.41025614, 4147.94871774, 4152.56410236, 4149.99999980, 4154.48717928, 4145.38461518, 4147.69230749, 4159.48717928, 4157.69230749, 4155.38461518, 4128.71794844,12.0
4167.69230749, 4161.02564082, 4164.99999980, 4137.17948697, 4160.64102544, 4169.35897422, 4174.61538448, 4158.07692287, 4159.35897415, 4166.66666646, 4173.58974345, 4168.07692287, 4163.20512800, 4129.48717921,12.0
4169.74358961, 4160.25641005, 4169.74358961, 4139.10256390, 4148.71794851, 4167.56410236, 4169.48717935, 4150.89743569, 4157.43589723, 4171.15384602, 4172.82051269, 4166.41025621, 4164.87179467, 4127.17948691,12.0
4155.51282031, 4151.41025621, 4159.87179467, 4128.97435870, 4139.61538441, 4153.97435877, 4148.58974339, 4145.76923056, 4148.33333313, 4151.79487159, 4157.05128185, 4152.17948697, 4153.58974339, 4126.53846126,12.0
4157.43589723, 4154.10256390, 4161.02564082, 4134.23076896, 4157.05128185, 4160.51282031, 4158.33333313, 4158.71794851, 4165.38461518, 4158.20512800, 4158.84615364, 4154.61538441, 4151.92307672, 4126.79487152,12.0
4161.28205108, 4160.12820492, 4160.64102544, 4140.51282031, 4161.79487159, 4170.89743576, 4172.94871781, 4161.92307672, 4172.69230756, 4170.64102551, 4160.12820492, 4153.84615364, 4152.82051262, 4127.17948691,12.0
4143.20512800, 4148.46153826, 4141.41025621, 4127.43589716, 4144.48717928, 4162.30769210, 4159.99999980, 4138.84615364, 4142.05128185, 4149.23076903, 4144.23076903, 4133.97435870, 4140.25641005, 4126.92307665,12.0
4129.99999973, 4136.53846133, 4127.30769203, 4115.76923050, 4141.41025621, 4153.58974339, 4152.56410236, 4130.64102537, 4123.84615357, 4130.25640998, 4134.48717921, 4124.35897408, 4133.46153819, 4126.92307665,12.0
4135.89743569, 4144.10256390, 4135.89743569, 4123.71794844, 4150.38461518, 4158.33333313, 4163.20512800, 4143.58974339, 4136.66666646, 4138.46153826, 4139.61538441, 4132.94871767, 4140.89743569, 4127.43589716,12.0
4142.43589723, 4152.94871774, 4146.41025621, 4135.64102544, 4151.79487159, 4162.17948697, 4164.99999980, 4143.20512800, 4139.10256390, 4142.94871774, 4145.51282031, 4143.58974339, 4145.38461518, 4127.94871767,12.0
4148.58974339, 4154.87179467, 4152.43589723, 4138.97435877, 4147.69230749, 4160.76923056, 4161.02564082, 4142.43589723, 4140.12820492, 4144.10256390, 4151.02564082, 4154.48717928, 4147.82051262, 4127.05128178,12.0
4144.23076903, 4150.25641005, 4148.84615364, 4131.92307665, 4138.20512800, 4151.15384595, 4151.66666646, 4144.74358954, 4145.64102544, 4146.41025621, 4149.35897415, 4152.05128185, 4145.89743569, 4126.41025614,12.0
4134.10256383, 4145.89743569, 4142.30769210, 4127.05128178, 4138.97435877, 4148.07692287, 4143.58974339, 4136.66666646, 4136.41025621, 4137.17948697, 4143.71794851, 4139.74358954, 4140.89743569, 4127.43589716,12.0
4138.97435877, 4151.41025621, 4146.79487159, 4131.66666639, 4153.07692287, 4161.53846133, 4154.10256390, 4137.69230749, 4137.43589723, 4135.12820485, 4148.58974339, 4145.25641005, 4145.25641005, 4127.17948691,12.0
4148.71794851, 4158.71794851, 4152.94871774, 4133.84615357, 4161.02564082, 4165.51282031, 4166.28205108, 4147.43589723, 4156.79487159, 4151.28205108, 4160.25641005, 4161.41025621, 4151.53846133, 4124.35897408,12.0
4147.43589723, 4156.66666646, 4150.76923056, 4132.17948691, 4156.79487159, 4155.64102544, 4154.61538441, 4138.97435877, 4152.56410236, 4156.28205108, 4161.02564082, 4161.02564082, 4148.71794851, 4126.66666639,12.0
4142.82051262, 4154.35897415, 4146.02564082, 4132.82051255, 4155.38461518, 4157.69230749, 4147.69230749, 4132.30769203, 4136.79487159, 4142.56410236, 4146.92307672, 4148.97435877, 4142.56410236, 4128.84615357,12.0
4141.53846133, 4157.30769210, 4142.56410236, 4135.51282031, 4162.30769210, 4166.28205108, 4162.30769210, 4146.02564082, 4149.61538441, 4142.17948697, 4140.76923056, 4143.71794851, 4143.33333313, 4125.12820485,12.0
4138.33333313, 4154.35897415, 4138.84615364, 4135.51282031, 4165.89743569, 4163.07692287, 4162.56410236, 4142.30769210, 4153.71794851, 4149.61538441, 4146.92307672, 4142.05128185, 4144.61538441, 4124.23076896,12.0
4134.35897408, 4150.89743569, 4137.56410236, 4129.48717921, 4150.12820492, 4156.53846133, 4143.58974339, 4124.35897408, 4128.97435870, 4141.02564082, 4144.10256390, 4139.87179467, 4143.71794851, 4125.25640998,12.0
4137.30769210, 4152.05128185, 4137.05128185, 4123.58974332, 4131.28205101, 4153.58974339, 4139.48717928, 4128.71794844, 4130.64102537, 4137.69230749, 4140.38461518, 4138.71794851, 4144.61538441, 4125.38461511,12.0
4142.69230749, 4152.82051262, 4138.58974339, 4126.79487152, 4143.84615364, 4157.82051262, 4155.25641005, 4143.71794851, 4155.51282031, 4150.51282031, 4151.53846133, 4139.61538441, 4147.82051262, 4126.28205101,12.0
4139.10256390, 4151.28205108, 4140.51282031, 4126.53846126, 4158.33333313, 4164.48717928, 4162.69230749, 4148.20512800, 4157.82051262, 4152.69230749, 4160.38461518, 4139.23076903, 4147.43589723, 4126.53846126,12.0
4139.23076903, 4151.15384595, 4142.82051262, 4122.82051255, 4153.07692287, 4161.53846133, 4160.76923056, 4151.92307672, 4154.99999980, 4149.74358954, 4158.07692287, 4142.56410236, 4148.84615364, 4127.30769203,12.0
4154.10256390, 4157.69230749, 4152.82051262, 4134.35897408, 4153.71794851, 4157.82051262, 4163.84615364, 4151.02564082, 4164.35897415, 4159.48717928, 4161.66666646, 4156.15384595, 4155.64102544, 4126.15384588,12.0
4157.43589723, 4160.25641005, 4153.84615364, 4141.41025621, 4158.07692287, 4162.56410236, 4162.94871774, 4140.64102544, 4158.97435877, 4158.07692287, 4160.64102544, 4159.74358954, 4152.69230749, 4125.12820485,12.0
4144.61538441, 4158.58974339, 4143.97435877, 4132.82051255, 4154.10256390, 4167.17948697, 4158.46153826, 4139.23076903, 4151.53846133, 4146.79487159, 4149.35897415, 4151.15384595, 4145.12820492, 4127.30769203,12.0
4143.58974339, 4160.12820492, 4146.79487159, 4134.74358947, 4154.48717928, 4166.15384595, 4158.33333313, 4144.74358954, 4155.64102544, 4149.35897415, 4149.87179467, 4153.33333313, 4147.82051262, 4127.94871767,12.0
4150.38461518, 4162.05128185, 4156.79487159, 4145.25641005, 4163.84615364, 4163.58974339, 4157.05128185, 4139.61538441, 4154.35897415, 4154.99999980, 4157.94871774, 4156.41025621, 4152.05128185, 4125.89743562,12.0
4151.79487159, 4167.82051262, 4160.89743569, 4146.28205108, 4167.43589723, 4162.05128185, 4154.74358954, 4135.25640998, 4152.17948697, 4153.33333313, 4159.99999980, 4153.07692287, 4151.28205108, 4124.61538434,12.0
4154.48717928, 4170.64102551, 4158.58974339, 4141.15384595, 4156.53846133, 4163.33333313, 4159.87179467, 4140.38461518, 4153.33333313, 4148.84615364, 4156.79487159, 4152.82051262, 4150.25641005, 4126.02564075,12.0
4152.43589723, 4159.99999980, 4153.33333313, 4138.58974339, 4148.20512800, 4165.89743569, 4165.12820492, 4146.79487159, 4148.97435877, 4146.53846133, 4154.48717928, 4151.79487159, 4152.05128185, 4127.17948691,12.0
4147.17948697, 4153.58974339, 4154.99999980, 4138.20512800, 4163.71794851, 4167.30769210, 4167.56410236, 4154.35897415, 4157.05128185, 4156.02564082, 4160.89743569, 4151.41025621, 4156.66666646, 4124.10256383,12.0
4147.69230749, 4160.12820492, 4161.15384595, 4139.23076903, 4175.51282038, 4167.82051262, 4169.35897422, 4160.38461518, 4171.15384602, 4167.05128185, 4165.51282031, 4154.10256390, 4158.33333313, 4124.99999973,12.0
4150.89743569, 4159.87179467, 4159.23076903, 4142.30769210, 4163.20512800, 4165.64102544, 4166.53846133, 4158.84615364, 4166.79487159, 4163.46153826, 4159.74358954, 4156.02564082, 4153.58974339, 4128.33333306,12.0
4150.64102544, 4153.58974339, 4149.87179467, 4139.99999980, 4158.07692287, 4162.82051262, 4164.61538441, 4148.58974339, 4155.89743569, 4152.69230749, 4154.10256390, 4152.17948697, 4145.25641005, 4126.92307665,12.0
4151.15384595, 4159.35897415, 4146.66666646, 4139.23076903, 4167.56410236, 4167.05128185, 4174.10256397, 4146.92307672, 4160.25641005, 4153.71794851, 4159.48717928, 4149.99999980, 4144.10256390, 4125.76923050,12.0
4156.92307672, 4169.87179474, 4153.33333313, 4150.51282031, 4171.92307679, 4176.15384602, 4182.17948704, 4155.64102544, 4172.56410243, 4167.43589723, 4168.84615371, 4156.79487159, 4158.71794851, 4126.79487152,12.0
4163.20512800, 4173.07692294, 4161.15384595, 4157.30769210, 4171.28205115, 4175.51282038, 4166.28205108, 4150.89743569, 4169.10256397, 4170.51282038, 4172.30769217, 4163.07692287, 4163.71794851, 4127.05128178,12.0
4161.41025621, 4171.53846140, 4164.10256390, 4152.43589723, 4164.74358954, 4162.82051262, 4142.43589723, 4135.51282031, 4151.92307672, 4158.97435877, 4169.48717935, 4161.92307672, 4151.41025621, 4126.66666639,12.0
4153.33333313, 4168.46153833, 4161.66666646, 4149.87179467, 4151.79487159, 4159.23076903, 4143.71794851, 4137.82051262, 4146.41025621, 4156.53846133, 4164.61538441, 4156.66666646, 4151.66666646, 4127.82051255,12.0
4156.79487159, 4170.25641012, 4160.76923056, 4154.23076903, 4158.97435877, 4171.53846140, 4169.61538448, 4157.43589723, 4157.56410236, 4166.28205108, 4169.10256397, 4160.25641005, 4163.58974339, 4129.61538434,12.0
4171.53846140, 4181.41025628, 4167.56410236, 4164.23076903, 4185.89743576, 4181.92307679, 4187.82051269, 4164.87179467, 4170.38461525, 4176.02564089, 4184.48717935, 4172.56410243, 4169.10256397, 4128.20512793,12.0
4175.64102551, 4190.64102551, 4176.92307679, 4172.69230756, 4196.28205115, 4182.56410243, 4186.79487166, 4169.99999986, 4182.43589730, 4185.51282038, 4194.23076910, 4177.69230756, 4174.48717935, 4127.94871767,12.0
4163.84615364, 4182.43589730, 4171.79487166, 4164.61538441, 4181.15384602, 4175.76923063, 4175.12820499, 4169.23076910, 4181.53846140, 4179.35897422, 4182.94871781, 4167.43589723, 4170.12820499, 4128.46153819,12.0
4156.02564082, 4167.69230749, 4159.61538441, 4149.23076903, 4166.15384595, 4170.25641012, 4165.38461518, 4151.66666646, 4157.56410236, 4156.53846133, 4163.71794851, 4154.10256390, 4148.46153826, 4125.51282024,12.0
4164.35897415, 4166.92307672, 4162.30769210, 4149.87179467, 4166.15384595, 4174.61538448, 4171.41025628, 4152.30769210, 4155.51282031, 4156.53846133, 4163.07692287, 4154.87179467, 4143.84615364, 4126.02564075,12.0
4172.43589730, 4173.20512807, 4166.79487159, 4158.20512800, 4174.74358961, 4182.30769217, 4181.15384602, 4162.94871774, 4176.41025628, 4174.61538448, 4171.79487166, 4161.15384595, 4156.15384595, 4127.94871767,12.0
4170.25641012, 4169.10256397, 4158.07692287, 4155.12820492, 4173.33333320, 4180.76923063, 4174.87179474, 4150.64102544, 4167.05128185, 4169.99999986, 4167.56410236, 4158.46153826, 4153.07692287, 4127.69230742,12.0
4162.30769210, 4158.46153826, 4146.02564082, 4147.17948697, 4160.89743569, 4164.87179467, 4158.71794851, 4137.05128185, 4145.89743569, 4149.48717928, 4156.02564082, 4147.69230749, 4143.20512800, 4128.46153819,12.0
4152.69230749, 4148.71794851, 4135.76923056, 4142.43589723, 4153.71794851, 4153.71794851, 4151.53846133, 4140.89743569, 4152.17948697, 4143.07692287, 4147.56410236, 4136.92307672, 4137.43589723, 4126.92307665,12.0
4147.17948697, 4143.07692287, 4134.87179460, 4141.15384595, 4144.48717928, 4151.66666646, 4149.10256390, 4139.61538441, 4155.38461518, 4145.89743569, 4149.48717928, 4133.97435870, 4136.66666646, 4126.15384588,12.0
4144.99999980, 4141.66666646, 4142.43589723, 4141.79487159, 4138.84615364, 4149.48717928, 4147.30769210, 4136.66666646, 4141.02564082, 4146.66666646, 4156.66666646, 4136.79487159, 4140.64102544, 4126.53846126,12.0
4141.66666646, 4138.07692287, 4137.17948697, 4135.64102544, 4148.58974339, 4150.25641005, 4153.71794851, 4146.28205108, 4140.89743569, 4147.56410236, 4153.33333313, 4133.97435870, 4137.43589723, 4126.02564075,12.0
4146.66666646, 4135.64102544, 4127.17948691, 4131.28205101, 4156.41025621, 4154.23076903, 4163.20512800, 4156.15384595, 4153.71794851, 4152.43589723, 4149.35897415, 4133.84615357, 4136.28205108, 4127.05128178,12.0
4159.10256390, 4141.53846133, 4138.71794851, 4139.23076903, 4155.38461518, 4155.25641005, 4167.17948697, 4160.12820492, 4158.71794851, 4160.12820492, 4158.20512800, 4144.87179467, 4147.30769210, 4127.69230742,12.0
4158.33333313, 4141.02564082, 4143.58974339, 4138.20512800, 4147.69230749, 4151.28205108, 4159.99999980, 4157.05128185, 4149.99999980, 4152.82051262, 4156.28205108, 4143.07692287, 4143.71794851, 4126.79487152,12.0
4150.76923056, 4135.38461518, 4134.35897408, 4132.17948691, 4140.51282031, 4153.46153826, 4158.33333313, 4156.15384595, 4142.17948697, 4140.76923056, 4143.33333313, 4133.97435870, 4130.76923050, 4126.53846126,12.0
4155.51282031, 4139.35897415, 4136.92307672, 4139.99999980, 4146.02564082, 4158.97435877, 4162.17948697, 4155.89743569, 4143.71794851, 4148.46153826, 4146.53846133, 4138.84615364, 4136.28205108, 4127.30769203,12.0
4152.43589723, 4134.87179460, 4133.97435870, 4138.71794851, 4147.56410236, 4143.58974339, 4140.89743569, 4137.05128185, 4133.33333306, 4147.69230749, 4148.58974339, 4136.02564082, 4134.87179460, 4127.05128178,12.0
4134.74358947, 4115.12820485, 4116.53846126, 4123.71794844, 4122.05128178, 4122.05128178, 4115.38461511, 4118.33333306, 4119.61538434, 4129.35897408, 4141.15384595, 4122.43589716, 4122.30769203, 4125.51282024,12.0
4136.28205108, 4114.48717921, 4121.53846126, 4127.05128178, 4113.20512793, 4134.23076896, 4129.61538434, 4128.84615357, 4133.58974332, 4136.28205108, 4151.41025621, 4131.41025614, 4132.69230742, 4126.15384588,12.0
4151.66666646, 4131.41025614, 4143.33333313, 4139.23076903, 4136.28205108, 4149.10256390, 4147.69230749, 4141.15384595, 4149.10256390, 4158.84615364, 4164.10256390, 4151.28205108, 4148.33333313, 4127.43589716,12.0
4159.23076903, 4138.20512800, 4149.74358954, 4136.92307672, 4151.28205108, 4140.89743569, 4146.28205108, 4144.87179467, 4151.53846133, 4163.97435877, 4162.94871774, 4153.58974339, 4147.30769210, 4127.69230742,12.0
4163.46153826, 4135.89743569, 4145.76923056, 4135.51282031, 4147.56410236, 4143.58974339, 4155.12820492, 4152.05128185, 4161.53846133, 4162.17948697, 4162.43589723, 4149.74358954, 4144.74358954, 4127.17948691,12.0
4164.10256390, 4137.17948697, 4143.46153826, 4137.82051262, 4146.66666646, 4149.99999980, 4164.35897415, 4149.87179467, 4167.17948697, 4163.46153826, 4162.56410236, 4148.71794851, 4142.69230749, 4124.74358947,12.0
4158.84615364, 4139.10256390, 4140.64102544, 4131.66666639, 4149.61538441, 4144.35897415, 4162.69230749, 4145.25641005, 4155.89743569, 4159.61538441, 4151.79487159, 4141.92307672, 4136.02564082, 4125.76923050,12.0
4150.76923056, 4131.79487152, 4134.99999973, 4124.61538434, 4146.79487159, 4144.10256390, 4157.82051262, 4144.10256390, 4142.69230749, 4151.79487159, 4140.25641005, 4132.56410229, 4130.89743562, 4128.84615357,12.0
4148.71794851, 4126.92307665, 4135.38461518, 4124.99999973, 4147.30769210, 4155.89743569, 4157.43589723, 4138.97435877, 4145.38461518, 4153.97435877, 4140.64102544, 4131.79487152, 4130.89743562, 4126.92307665,12.0
4156.02564082, 4135.76923056, 4145.12820492, 4129.48717921, 4149.10256390, 4159.87179467, 4159.99999980, 4135.38461518, 4152.69230749, 4161.28205108, 4146.41025621, 4137.43589723, 4134.99999973, 4126.28205101,12.0
4158.33333313, 4139.35897415, 4148.33333313, 4132.30769203, 4144.61538441, 4150.64102544, 4155.12820492, 4134.48717921, 4144.61538441, 4154.74358954, 4147.17948697, 4138.33333313, 4133.07692280, 4126.41025614,12.0
4151.92307672, 4133.97435870, 4144.61538441, 4131.79487152, 4147.30769210, 4148.58974339, 4152.56410236, 4138.20512800, 4138.07692287, 4144.87179467, 4144.48717928, 4136.28205108, 4129.10256383, 4126.02564075,12.0
4150.12820492, 4135.64102544, 4143.97435877, 4131.92307665, 4156.15384595, 4153.46153826, 4153.84615364, 4138.71794851, 4147.30769210, 4149.99999980, 4147.05128185, 4141.79487159, 4135.89743569, 4126.41025614,12.0
4153.84615364, 4138.46153826, 4145.89743569, 4131.79487152, 4153.20512800, 4144.61538441, 4143.46153826, 4128.07692280, 4145.76923056, 4154.87179467, 4150.76923056, 4148.20512800, 4140.12820492, 4124.74358947,12.0
4150.76923056, 4128.20512793, 4142.56410236, 4128.20512793, 4138.46153826, 4124.74358947, 4125.76923050, 4114.35897408, 4121.15384588, 4143.33333313, 4145.38461518, 4142.17948697, 4131.66666639, 4124.99999973,12.0
4143.20512800, 4122.17948691, 4138.71794851, 4128.07692280, 4135.89743569, 4125.38461511, 4128.33333306, 4119.61538434, 4118.97435870, 4139.48717928, 4141.02564082, 4135.51282031, 4129.35897408, 4126.02564075,12.0
4139.99999980, 4128.84615357, 4134.35897408, 4130.38461511, 4145.12820492, 4140.76923056, 4144.61538441, 4139.35897415, 4143.46153826, 4149.87179467, 4144.61538441, 4137.56410236, 4133.46153819, 4124.48717921,12.0
4144.35897415, 4133.07692280, 4131.28205101, 4130.38461511, 4148.07692287, 4148.33333313, 4151.66666646, 4140.89743569, 4149.87179467, 4156.15384595, 4148.20512800, 4140.89743569, 4134.23076896, 4124.61538434,12.0
4147.94871774, 4128.58974332, 4133.58974332, 4130.51282024, 4144.23076903, 4144.74358954, 4150.38461518, 4130.38461511, 4137.94871774, 4151.15384595, 4148.97435877, 4139.87179467, 4135.38461518, 4126.02564075,12.0
4144.87179467, 4124.74358947, 4129.87179460, 4129.10256383, 4140.25641005, 4134.10256383, 4141.41025621, 4127.17948691, 4128.33333306, 4138.46153826, 4143.33333313, 4133.58974332, 4130.51282024, 4127.82051255,12.0
4140.64102544, 4123.07692280, 4120.25640998, 4122.82051255, 4126.53846126, 4126.41025614, 4129.10256383, 4122.30769203, 4120.25640998, 4127.17948691, 4134.74358947, 4127.30769203, 4120.12820485, 4127.05128178,12.0
4142.17948697, 4121.15384588, 4120.38461511, 4119.61538434, 4116.79487152, 4127.69230742, 4132.05128178, 4118.97435870, 4117.43589716, 4127.56410229, 4138.46153826, 4132.17948691, 4121.41025614, 4124.23076896,12.0
4147.56410236, 4125.51282024, 4128.46153819, 4128.97435870, 4135.89743569, 4136.28205108, 4149.99999980, 4126.53846126, 4126.41025614, 4139.10256390, 4149.23076903, 4143.71794851, 4131.92307665, 4124.23076896,12.0
4146.41025621, 4127.94871767, 4124.74358947, 4135.89743569, 4148.58974339, 4137.30769210, 4151.15384595, 4130.25640998, 4133.46153819, 4143.20512800, 4147.56410236, 4144.61538441, 4134.23076896, 4126.02564075,12.0
4139.74358954, 4120.51282024, 4115.76923050, 4128.46153819, 4128.07692280, 4125.64102537, 4132.43589716, 4127.43589716, 4134.61538434, 4142.82051262, 4143.71794851, 4137.69230749, 4131.02564075, 4127.69230742,12.0
4137.82051262, 4117.30769203, 4118.46153819, 4124.87179460, 4117.56410229, 4119.23076896, 4129.10256383, 4140.25641005, 4142.30769210, 4149.99999980, 4149.10256390, 4138.20512800, 4134.23076896, 4126.41025614,12.0
4138.71794851, 4120.38461511, 4121.41025614, 4126.15384588, 4129.61538434, 4122.30769203, 4140.38461518, 4149.99999980, 4144.10256390, 4148.07692287, 4147.94871774, 4138.46153826, 4133.84615357, 4125.25640998,12.0
4138.71794851, 4121.28205101, 4116.92307665, 4121.53846126, 4133.84615357, 4130.12820485, 4146.02564082, 4144.10256390, 4136.53846133, 4136.28205108, 4142.05128185, 4134.74358947, 4125.64102537, 4128.20512793,12.0
4136.66666646, 4119.87179460, 4112.17948691, 4118.84615357, 4126.28205101, 4131.53846126, 4142.05128185, 4135.89743569, 4128.84615357, 4130.38461511, 4139.48717928, 4132.69230742, 4119.35897408, 4128.33333306,12.0
4131.92307665, 4119.99999973, 4107.94871767, 4118.71794844, 4115.64102537, 4121.02564075, 4131.28205101, 4124.74358947, 4117.56410229, 4123.58974332, 4133.07692280, 4127.43589716, 4116.53846126, 4126.66666639,12.0
4134.48717921, 4121.15384588, 4109.10256383, 4120.51282024, 4117.43589716, 4117.69230742, 4125.76923050, 4115.76923050, 4116.66666639, 4119.10256383, 4133.20512793, 4129.10256383, 4118.46153819, 4127.17948691,12.0
4146.41025621, 4125.89743562, 4116.79487152, 4130.25640998, 4134.99999973, 4130.76923050, 4135.12820485, 4116.66666639, 4127.43589716, 4128.71794844, 4144.61538441, 4140.89743569, 4123.84615357, 4126.53846126,12.0
4150.51282031, 4134.10256383, 4119.48717921, 4136.28205108, 4142.30769210, 4137.05128185, 4146.53846133, 4131.79487152, 4137.30769210, 4134.74358947, 4146.41025621, 4144.61538441, 4126.02564075, 4124.10256383,12.0
4147.30769210, 4137.30769210, 4118.97435870, 4135.12820485, 4136.92307672, 4131.15384588, 4151.66666646, 4148.33333313, 4146.53846133, 4135.25640998, 4139.99999980, 4141.66666646, 4124.99999973, 4123.20512793,12.0
4141.79487159, 4130.25640998, 4112.69230742, 4131.92307665, 4132.82051255, 4128.20512793, 4140.12820492, 4137.69230749, 4143.58974339, 4134.61538434, 4134.99999973, 4134.35897408, 4119.74358947, 4124.61538434,12.0
4131.28205101, 4120.64102537, 4099.99999966, 4125.64102537, 4126.28205101, 4127.82051255, 4126.41025614, 4116.79487152, 4130.12820485, 4126.92307665, 4131.41025614, 4126.15384588, 4113.71794844, 4124.74358947,12.0
4131.02564075, 4125.64102537, 4104.35897408, 4123.20512793, 4127.56410229, 4132.05128178, 4140.38461518, 4127.43589716, 4135.38461518, 4126.41025614, 4134.23076896, 4130.76923050, 4116.28205101, 4126.41025614,12.0
4137.82051262, 4132.17948691, 4116.02564075, 4125.51282024, 4140.12820492, 4137.30769210, 4153.46153826, 4143.33333313, 4146.53846133, 4131.92307665, 4136.02564082, 4134.87179460, 4120.76923050, 4129.35897408,12.0
4129.10256383, 4124.10256383, 4108.33333306, 4119.48717921, 4131.41025614, 4132.82051255, 4135.89743569, 4128.07692280, 4138.97435877, 4125.89743562, 4129.23076896, 4123.58974332, 4115.76923050, 4127.05128178,12.0
4125.25640998, 4122.69230742, 4102.94871767, 4117.17948691, 4119.10256383, 4135.25640998, 4132.56410229, 4122.17948691, 4140.38461518, 4124.61538434, 4131.79487152, 4124.74358947, 4115.25640998, 4125.64102537,12.0
4138.84615364, 4137.17948697, 4116.02564075, 4128.58974332, 4138.20512800, 4147.94871774, 4157.82051262, 4136.15384595, 4154.74358954, 4141.41025621, 4144.35897415, 4137.82051262, 4124.87179460, 4130.25640998,12.0
4139.48717928, 4138.97435877, 4117.94871767, 4128.84615357, 4150.38461518, 4146.66666646, 4162.56410236, 4135.51282031, 4152.43589723, 4144.87179467, 4145.38461518, 4134.99999973, 4130.25640998, 4126.66666639,12.0
4131.66666639, 4128.33333306, 4106.66666639, 4122.56410229, 4138.84615364, 4141.66666646, 4156.02564082, 4129.74358947, 4145.89743569, 4133.58974332, 4140.89743569, 4128.71794844, 4126.28205101, 4121.15384588,12.0
4137.30769210, 4131.53846126, 4107.43589716, 4127.82051255, 4136.28205108, 4147.43589723, 4159.61538441, 4139.99999980, 4153.58974339, 4136.53846133, 4145.12820492, 4132.30769203, 4125.25640998, 4124.48717921,12.0
4144.48717928, 4139.10256390, 4113.20512793, 4129.99999973, 4141.15384595, 4145.76923056, 4149.99999980, 4143.46153826, 4156.66666646, 4142.94871774, 4149.23076903, 4133.46153819, 4128.71794844, 4125.89743562,12.0
4145.51282031, 4137.05128185, 4119.35897408, 4128.07692280, 4136.79487159, 4132.82051255, 4130.12820485, 4129.35897408, 4145.76923056, 4135.64102544, 4146.53846133, 4138.46153826, 4125.64102537, 4125.76923050,12.0
4146.92307672, 4137.56410236, 4130.76923050, 4134.74358947, 4130.38461511, 4129.61538434, 4129.23076896, 4125.51282024, 4143.07692287, 4130.38461511, 4145.25641005, 4150.25641005, 4124.35897408, 4126.53846126,12.0
4147.56410236, 4140.25641005, 4132.30769203, 4135.76923056, 4128.20512793, 4136.53846133, 4143.46153826, 4132.43589716, 4151.79487159, 4135.25640998, 4146.92307672, 4150.38461518, 4129.48717921, 4124.10256383,12.0
4140.51282031, 4131.79487152, 4123.07692280, 4126.53846126, 4125.38461511, 4131.66666639, 4143.07692287, 4130.76923050, 4151.02564082, 4132.05128178, 4144.74358954, 4141.02564082, 4127.17948691, 4124.10256383,12.0
4140.12820492, 4125.76923050, 4125.12820485, 4128.33333306, 4117.69230742, 4126.15384588, 4139.35897415, 4136.02564082, 4145.25641005, 4128.46153819, 4142.17948697, 4140.89743569, 4121.41025614, 4128.07692280,12.0
4147.17948697, 4133.71794844, 4130.64102537, 4134.10256383, 4113.46153819, 4131.28205101, 4145.12820492, 4152.05128185, 4151.53846133, 4131.79487152, 4137.17948697, 4143.33333313, 4123.46153819, 4128.97435870,12.0
4147.43589723, 4139.61538441, 4126.41025614, 4134.74358947, 4128.20512793, 4136.53846133, 4151.79487159, 4149.99999980, 4157.17948697, 4131.92307665, 4133.71794844, 4140.38461518, 4128.33333306, 4123.71794844,12.0
4144.99999980, 4137.69230749, 4122.05128178, 4137.17948697, 4144.35897415, 4142.30769210, 4159.48717928, 4138.97435877, 4152.43589723, 4132.17948691, 4139.35897415, 4137.05128185, 4129.99999973, 4121.15384588,12.0
4144.61538441, 4137.43589723, 4121.92307665, 4137.82051262, 4139.87179467, 4148.46153826, 4162.05128185, 4139.99999980, 4153.33333313, 4139.10256390, 4145.12820492, 4138.07692287, 4132.82051255, 4125.38461511,12.0
4146.53846133, 4141.02564082, 4128.07692280, 4137.94871774, 4136.53846133, 4143.84615364, 4153.33333313, 4142.69230749, 4162.56410236, 4147.56410236, 4151.53846133, 4146.15384595, 4135.25640998, 4128.33333306,12.0
4148.20512800, 4141.53846133, 4128.84615357, 4138.58974339, 4138.07692287, 4129.74358947, 4138.97435877, 4134.87179460, 4156.66666646, 4147.05128185, 4158.84615364, 4150.12820492, 4135.12820485, 4127.05128178,12.0
4146.66666646, 4138.07692287, 4118.46153819, 4135.89743569, 4130.51282024, 4123.84615357, 4132.56410229, 4126.41025614, 4143.07692287, 4140.89743569, 4157.43589723, 4144.61538441, 4134.61538434, 4124.10256383,12.0
4147.30769210, 4138.33333313, 4118.33333306, 4136.92307672, 4129.35897408, 4127.69230742, 4137.43589723, 4134.87179460, 4153.58974339, 4143.84615364, 4153.84615364, 4146.02564082, 4137.69230749, 4124.61538434,12.0
4150.25641005, 4143.33333313, 4127.17948691, 4143.97435877, 4139.35897415, 4131.02564075, 4140.76923056, 4144.23076903, 4170.25641012, 4151.53846133, 4156.28205108, 4151.92307672, 4140.38461518, 4126.15384588,12.0
4143.97435877, 4139.74358954, 4121.15384588, 4139.74358954, 4128.33333306, 4127.69230742, 4130.25640998, 4133.07692280, 4155.38461518, 4140.89743569, 4151.15384595, 4143.71794851, 4131.41025614, 4125.12820485,12.0
4140.25641005, 4135.51282031, 4124.35897408, 4133.84615357, 4111.66666639, 4126.02564075, 4129.48717921, 4128.97435870, 4140.51282031, 4126.53846126, 4146.92307672, 4143.46153826, 4127.82051255, 4127.17948691,12.0
4156.53846133, 4147.05128185, 4146.66666646, 4143.58974339, 4130.89743562, 4135.51282031, 4147.43589723, 4144.23076903, 4159.35897415, 4137.69230749, 4164.35897415, 4163.33333313, 4142.17948697, 4127.69230742,12.0
4164.35897415, 4150.89743569, 4142.94871774, 4145.76923056, 4151.53846133, 4143.71794851, 4151.02564082, 4147.56410236, 4172.82051269, 4151.79487159, 4171.66666653, 4164.61538441, 4147.69230749, 4126.92307665,12.0
4153.58974339, 4144.61538441, 4122.94871767, 4138.97435877, 4144.87179467, 4146.15384595, 4154.74358954, 4147.43589723, 4171.66666653, 4152.05128185, 4156.79487159, 4149.99999980, 4140.89743569, 4126.92307665,12.0
4145.51282031, 4142.56410236, 4119.10256383, 4137.69230749, 4137.94871774, 4148.71794851, 4168.20512807, 4155.51282031, 4174.35897422, 4151.02564082, 4147.69230749, 4144.61538441, 4138.33333313, 4125.51282024,12.0
4145.38461518, 4140.38461518, 4119.74358947, 4136.79487159, 4140.25641005, 4146.79487159, 4159.87179467, 4152.82051262, 4168.97435884, 4148.07692287, 4146.41025621, 4141.41025621, 4134.74358947, 4127.17948691,12.0
4152.30769210, 4143.71794851, 4120.38461511, 4141.28205108, 4138.97435877, 4146.02564082, 4152.43589723, 4154.99999980, 4167.69230749, 4148.84615364, 4147.82051262, 4141.53846133, 4132.17948691, 4128.84615357,12.0
4159.99999980, 4151.02564082, 4127.05128178, 4147.30769210, 4141.41025621, 4153.58974339, 4167.05128185, 4161.41025621, 4178.84615371, 4155.25641005, 4150.38461518, 4145.89743569, 4138.46153826, 4125.51282024,12.0
4156.15384595, 4147.30769210, 4126.66666639, 4142.56410236, 4139.61538441, 4155.25641005, 4165.38461518, 4150.51282031, 4172.69230756, 4147.56410236, 4147.05128185, 4142.17948697, 4137.82051262, 4125.76923050,12.0
4145.76923056, 4136.92307672, 4114.35897408, 4138.46153826, 4122.17948691, 4146.15384595, 4144.74358954, 4132.94871767, 4152.17948697, 4131.53846126, 4135.38461518, 4133.58974332, 4126.15384588, 4129.74358947,12.0
4147.17948697, 4136.66666646, 4111.66666639, 4142.94871774, 4123.20512793, 4143.07692287, 4141.15384595, 4134.74358947, 4156.53846133, 4133.84615357, 4129.99999973, 4134.99999973, 4125.64102537, 4129.35897408,12.0
4158.20512800, 4147.43589723, 4121.66666639, 4148.07692287, 4145.51282031, 4150.25641005, 4147.69230749, 4150.89743569, 4175.12820499, 4150.12820492, 4141.41025621, 4149.74358954, 4140.51282031, 4125.51282024,12.0
4158.58974339, 4149.99999980, 4121.53846126, 4148.33333313, 4147.43589723, 4149.87179467, 4143.58974339, 4156.53846133, 4172.69230756, 4153.07692287, 4149.61538441, 4156.15384595, 4143.84615364, 4126.15384588,12.0
4150.64102544, 4141.28205108, 4115.89743562, 4145.64102544, 4133.71794844, 4144.10256390, 4140.76923056, 4153.07692287, 4164.35897415, 4143.20512800, 4148.58974339, 4147.69230749, 4136.02564082, 4130.12820485,12.0
4150.89743569, 4142.94871774, 4129.35897408, 4151.02564082, 4140.25641005, 4150.76923056, 4149.10256390, 4145.38461518, 4171.53846140, 4145.89743569, 4151.79487159, 4150.64102544, 4140.12820492, 4128.33333306,12.0
4158.97435877, 4156.15384595, 4142.56410236, 4158.71794851, 4151.15384595, 4157.94871774, 4157.43589723, 4135.12820485, 4170.25641012, 4148.33333313, 4153.33333313, 4159.61538441, 4143.71794851, 4125.25640998,12.0
4157.56410236, 4154.74358954, 4134.99999973, 4153.20512800, 4142.82051262, 4152.05128185, 4154.74358954, 4134.87179460, 4155.64102544, 4137.56410236, 4144.74358954, 4151.66666646, 4133.33333306, 4127.05128178,12.0
4148.33333313, 4147.30769210, 4127.17948691, 4146.28205108, 4138.71794851, 4146.02564082, 4148.58974339, 4147.30769210, 4155.89743569, 4134.87179460, 4140.25641005, 4140.64102544, 4127.69230742, 4127.69230742,12.0
4150.89743569, 4153.07692287, 4129.35897408, 4153.46153826, 4148.46153826, 4147.56410236, 4152.94871774, 4161.92307672, 4167.69230749, 4145.25641005, 4146.15384595, 4144.35897415, 4133.33333306, 4126.66666639,12.0
4161.79487159, 4159.10256390, 4134.10256383, 4164.61538441, 4150.12820492, 4151.15384595, 4160.38461518, 4170.51282038, 4177.82051269, 4154.48717928, 4153.84615364, 4156.02564082, 4138.33333313, 4125.89743562,12.0
4160.76923056, 4157.56410236, 4131.66666639, 4162.94871774, 4137.69230749, 4149.35897415, 4153.71794851, 4170.12820499, 4178.58974345, 4152.17948697, 4157.05128185, 4154.10256390, 4135.38461518, 4124.61538434,12.0
4145.64102544, 4151.66666646, 4121.53846126, 4151.79487159, 4134.74358947, 4140.12820492, 4137.82051262, 4158.71794851, 4163.97435877, 4142.17948697, 4147.69230749, 4139.48717928, 4129.61538434, 4125.38461511,12.0
4144.48717928, 4152.17948697, 4124.99999973, 4152.56410236, 4154.74358954, 4147.56410236, 4148.33333313, 4153.33333313, 4162.05128185, 4143.58974339, 4145.25641005, 4144.48717928, 4137.69230749, 4126.92307665,12.0
4158.07692287, 4161.15384595, 4142.17948697, 4165.51282031, 4167.43589723, 4167.56410236, 4169.10256397, 4151.02564082, 4173.07692294, 4157.69230749, 4160.25641005, 4164.61538441, 4151.28205108, 4126.53846126,12.0
4152.69230749, 4157.43589723, 4141.15384595, 4167.05128185, 4151.53846133, 4153.97435877, 4145.89743569, 4131.15384588, 4157.82051262, 4148.20512800, 4157.43589723, 4157.43589723, 4142.17948697, 4126.28205101,12.0
4142.05128185, 4149.10256390, 4130.51282024, 4160.25641005, 4143.20512800, 4131.41025614, 4118.97435870, 4117.17948691, 4138.20512800, 4126.53846126, 4143.07692287, 4138.58974339, 4127.56410229, 4127.17948691,12.0
4147.17948697, 4152.30769210, 4135.12820485, 4162.05128185, 4148.46153826, 4141.79487159, 4134.35897408, 4129.61538434, 4144.61538441, 4131.15384588, 4143.58974339, 4142.56410236, 4132.05128178, 4126.66666639,12.0
4145.12820492, 4152.17948697, 4136.15384595, 4162.30769210, 4137.30769210, 4150.25641005, 4146.15384595, 4141.02564082, 4145.12820492, 4135.76923056, 4141.28205108, 4147.43589723, 4133.33333306, 4126.28205101,12.0
4145.64102544, 4150.64102544, 4135.12820485, 4161.28205108, 4136.66666646, 4140.25641005, 4139.10256390, 4143.97435877, 4141.53846133, 4130.12820485, 4135.64102544, 4143.07692287, 4128.58974332, 4129.10256383,12.0
