AF3,F7,F3,FC5,T7,P7,O1,O2,P8,T8,FC6,F4,F8,AF4,Label
4100.25640991, 4097.82051248, 3948.46153784, 4162.69230749, 4107.82051255, 4118.58974332, 4107.43589716, 4116.28205101, 4110.38461511, 4123.33333306, 4122.43589716, 4117.30769203, 4120.12820485, 4129.61538434,10.0
4089.99999966, 4089.48717914, 3940.12820451, 4148.07692287, 4092.17948684, 4093.46153812, 4081.02564068, 4101.53846119, 4100.51282017, 4115.76923050, 4122.56410229, 4112.30769203, 4114.61538434, 4127.17948691,10.0
4088.20512786, 4093.84615350, 3940.25640963, 4138.07692287, 4091.41025607, 4092.43589709, 4081.66666632, 4107.17948691, 4105.25640998, 4114.23076896, 4119.61538434, 4109.23076896, 4114.61538434, 4131.66666639,10.0
4106.02564075, 4107.05128178, 3953.07692246, 4141.15384595, 4113.97435870, 4126.41025614, 4114.99999973, 4124.87179460, 4114.99999973, 4127.30769203, 4120.89743562, 4117.43589716, 4124.87179460, 4131.92307665,10.0
4119.74358947, 4115.25640998, 3964.87179425, 4138.84615364, 4123.58974332, 4136.53846133, 4126.02564075, 4128.33333306, 4114.87179460, 4133.97435870, 4130.38461511, 4124.87179460, 4127.43589716, 4125.38461511,10.0
4116.41025614, 4114.74358947, 3973.46153791, 4126.02564075, 4110.89743562, 4115.76923050, 4114.35897408, 4122.82051255, 4109.99999973, 4129.10256383, 4136.28205108, 4127.17948691, 4124.48717921, 4126.92307665,10.0
4113.07692280, 4104.61538434, 3976.79487124, 4116.15384588, 4101.92307658, 4108.07692280, 4111.41025614, 4123.58974332, 4106.92307665, 4123.07692280, 4128.33333306, 4130.25640998, 4125.12820485, 4127.30769203,10.0
4117.82051255, 4096.28205094, 3974.87179432, 4110.25640998, 4101.53846119, 4117.05128178, 4117.43589716, 4133.33333306, 4109.35897408, 4122.30769203, 4120.64102537, 4130.38461511, 4125.76923050, 4127.05128178,10.0
4124.48717921, 4106.53846126, 3980.64102509, 4111.92307665, 4106.02564075, 4119.23076896, 4124.10256383, 4138.07692287, 4112.30769203, 4123.20512793, 4131.41025614, 4131.92307665, 4127.05128178, 4127.69230742,10.0
4136.92307672, 4126.66666639, 3998.71794817, 4124.99999973, 4116.92307665, 4120.12820485, 4128.07692280, 4134.48717921, 4110.89743562, 4125.89743562, 4152.05128185, 4143.07692287, 4137.94871774, 4127.17948691,10.0
4144.61538441, 4131.53846126, 4006.02564054, 4126.92307665, 4118.71794844, 4126.53846126, 4125.51282024, 4134.35897408, 4108.71794844, 4127.43589716, 4154.35897415, 4148.58974339, 4143.71794851, 4125.89743562,10.0
4127.69230742, 4115.64102537, 3987.17948663, 4109.35897408, 4102.69230742, 4118.71794844, 4113.46153819, 4125.12820485, 4102.56410229, 4117.56410229, 4136.66666646, 4128.07692280, 4127.43589716, 4124.74358947,10.0
4114.48717921, 4111.53846126, 3975.25640970, 4106.79487152, 4098.71794837, 4110.89743562, 4109.48717921, 4117.30769203, 4099.10256376, 4113.20512793, 4131.79487152, 4112.82051255, 4120.38461511, 4126.66666639,10.0
4127.69230742, 4130.12820485, 3990.12820458, 4121.66666639, 4116.66666639, 4122.94871767, 4117.17948691, 4130.12820485, 4110.76923050, 4133.33333306, 4147.69230749, 4128.84615357, 4137.05128185, 4126.15384588,10.0
4122.17948691, 4127.82051255, 3987.94871740, 4112.56410229, 4114.74358947, 4118.46153819, 4106.79487152, 4127.17948691, 4112.56410229, 4143.07692287, 4141.66666646, 4127.82051255, 4134.87179460, 4125.12820485,10.0
4101.41025607, 4113.71794844, 3964.48717887, 4096.02564068, 4102.17948684, 4105.38461511, 4090.76923043, 4105.64102537, 4097.82051248, 4128.97435870, 4119.74358947, 4104.48717921, 4114.99999973, 4128.97435870,10.0
4107.43589716, 4124.74358947, 3964.74358912, 4108.20512793, 4116.53846126, 4118.84615357, 4105.38461511, 4112.69230742, 4103.33333306, 4132.56410229, 4126.02564075, 4106.66666639, 4118.71794844, 4129.61538434,10.0
4121.28205101, 4138.58974339, 3980.38461483, 4121.28205101, 4131.66666639, 4128.58974332, 4119.87179460, 4135.25640998, 4125.76923050, 4155.38461518, 4145.76923056, 4122.69230742, 4137.05128185, 4128.07692280,10.0
4120.89743562, 4134.87179460, 3978.46153791, 4115.51282024, 4123.46153819, 4116.28205101, 4108.97435870, 4129.74358947, 4124.48717921, 4159.99999980, 4149.10256390, 4119.48717921, 4141.53846133, 4126.79487152,10.0
4115.38461511, 4127.17948691, 3966.92307630, 4112.30769203, 4115.51282024, 4111.02564075, 4102.56410229, 4115.25640998, 4105.38461511, 4144.48717928, 4143.20512800, 4106.66666639, 4131.53846126, 4124.99999973,10.0
4112.82051255, 4124.99999973, 3968.33333271, 4118.71794844, 4117.17948691, 4120.64102537, 4115.38461511, 4120.38461511, 4100.89743555, 4136.66666646, 4146.66666646, 4106.15384588, 4125.51282024, 4126.28205101,10.0
4111.41025614, 4121.41025614, 3975.76923022, 4119.61538434, 4110.38461511, 4120.25640998, 4119.99999973, 4124.35897408, 4107.43589716, 4137.56410236, 4149.61538441, 4111.53846126, 4127.05128178, 4127.43589716,10.0
4115.64102537, 4121.02564075, 3978.58974304, 4117.94871767, 4103.97435870, 4113.33333306, 4113.97435870, 4126.41025614, 4109.99999973, 4138.71794851, 4146.53846133, 4115.76923050, 4130.51282024, 4127.69230742,10.0
4122.05128178, 4125.76923050, 3977.94871740, 4120.25640998, 4107.56410229, 4114.99999973, 4118.97435870, 4138.84615364, 4110.25640998, 4138.07692287, 4145.25641005, 4118.46153819, 4132.94871767, 4128.07692280,10.0
4118.20512793, 4125.64102537, 3974.61538406, 4116.15384588, 4107.05128178, 4120.64102537, 4126.15384588, 4140.12820492, 4108.58974332, 4131.53846126, 4138.07692287, 4115.64102537, 4129.10256383, 4128.97435870,10.0
4119.10256383, 4130.64102537, 3978.33333278, 4116.92307665, 4108.07692280, 4126.28205101, 4128.58974332, 4134.61538434, 4109.99999973, 4131.92307665, 4135.25640998, 4117.30769203, 4131.53846126, 4129.74358947,10.0
4134.23076896, 4144.48717928, 3992.94871740, 4129.10256383, 4118.71794844, 4132.05128178, 4136.15384595, 4143.97435877, 4119.10256383, 4148.07692287, 4147.43589723, 4133.07692280, 4143.84615364, 4128.33333306,10.0
4133.33333306, 4141.79487159, 3995.76923022, 4127.05128178, 4120.12820485, 4130.64102537, 4131.53846126, 4142.05128185, 4117.82051255, 4150.12820492, 4150.25641005, 4139.23076903, 4142.17948697, 4127.30769203,10.0
4121.79487152, 4129.10256383, 3992.56410201, 4114.23076896, 4114.61538434, 4124.87179460, 4121.02564075, 4131.15384588, 4110.51282024, 4143.97435877, 4145.12820492, 4131.92307665, 4136.92307672, 4127.30769203,10.0
4139.74358954, 4143.71794851, 4012.30769183, 4121.53846126, 4131.02564075, 4132.17948691, 4133.71794844, 4145.64102544, 4121.28205101, 4168.20512807, 4167.82051262, 4141.53846133, 4157.94871774, 4127.94871767,10.0
4149.35897415, 4152.17948697, 4018.84615336, 4119.35897408, 4139.23076903, 4136.41025621, 4136.66666646, 4145.12820492, 4123.46153819, 4177.82051269, 4178.71794858, 4145.25641005, 4163.84615364, 4128.71794844,10.0
4121.53846126, 4128.33333306, 3990.12820458, 4086.66666632, 4120.76923050, 4126.28205101, 4116.79487152, 4123.07692280, 4108.33333306, 4147.69230749, 4145.76923056, 4122.82051255, 4134.99999973, 4128.58974332,10.0
4107.17948691, 4120.38461511, 3974.99999945, 4070.38461504, 4118.07692280, 4126.41025614, 4117.82051255, 4121.92307665, 4104.61538434, 4134.99999973, 4128.97435870, 4111.28205101, 4121.66666639, 4127.82051255,10.0
4113.33333306, 4130.76923050, 3979.87179432, 4073.97435863, 4130.38461511, 4136.66666646, 4130.64102537, 4126.02564075, 4107.82051255, 4142.56410236, 4142.30769210, 4116.66666639, 4127.94871767, 4127.82051255,10.0
4108.20512793, 4123.84615357, 3973.46153791, 4060.76923036, 4126.02564075, 4134.23076896, 4120.51282024, 4118.46153819, 4103.20512793, 4134.23076896, 4143.84615364, 4112.69230742, 4123.71794844, 4127.56410229,10.0
4097.56410222, 4103.33333306, 3960.76923015, 4038.33333292, 4110.64102537, 4118.46153819, 4101.53846119, 4109.35897408, 4094.35897402, 4119.35897408, 4129.99999973, 4099.35897402, 4113.71794844, 4129.61538434,10.0
4095.51282017, 4095.51282017, 3962.30769169, 4032.82051234, 4107.30769203, 4111.15384588, 4094.10256376, 4105.51282024, 4090.12820478, 4118.20512793, 4125.76923050, 4093.97435863, 4110.89743562, 4129.10256383,10.0
4104.10256383, 4108.20512793, 3976.92307637, 4039.74358933, 4115.25640998, 4118.97435870, 4102.94871767, 4116.02564075, 4102.82051255, 4129.87179460, 4140.76923056, 4102.82051255, 4117.30769203, 4124.99999973,10.0
4113.46153819, 4120.51282024, 3983.46153791, 4039.61538420, 4120.25640998, 4120.89743562, 4114.61538434, 4128.46153819, 4114.61538434, 4140.76923056, 4151.92307672, 4108.46153819, 4122.05128178, 4126.41025614,10.0
4108.07692280, 4113.07692280, 3973.58974304, 4028.71794824, 4115.38461511, 4109.10256383, 4107.56410229, 4120.76923050, 4104.10256383, 4136.41025621, 4142.82051262, 4098.84615350, 4116.15384588, 4126.28205101,10.0
4099.61538427, 4103.58974332, 3966.92307630, 4015.38461490, 4106.53846126, 4107.56410229, 4098.33333299, 4111.15384588, 4094.10256376, 4129.35897408, 4128.84615357, 4093.58974325, 4109.87179460, 4123.84615357,10.0
4099.23076889, 4106.28205101, 3970.38461476, 4005.76923029, 4102.30769196, 4112.82051255, 4098.33333299, 4109.74358947, 4094.35897402, 4130.76923050, 4131.41025614, 4099.87179453, 4112.43589716, 4126.02564075,10.0
4101.53846119, 4110.25640998, 3978.07692252, 4002.94871740, 4102.17948684, 4106.79487152, 4092.05128171, 4103.20512793, 4093.07692273, 4136.41025621, 4147.05128185, 4106.41025614, 4120.76923050, 4126.79487152,10.0
4100.38461504, 4108.84615357, 3975.64102509, 3995.76923022, 4103.33333306, 4101.66666632, 4083.58974325, 4096.66666632, 4089.61538427, 4132.94871767, 4147.05128185, 4102.30769196, 4121.02564075, 4127.05128178,10.0
4087.30769196, 4102.56410229, 3959.35897374, 3979.74358919, 4099.74358940, 4102.94871767, 4083.97435863, 4093.33333299, 4082.05128171, 4117.56410229, 4128.07692280, 4088.33333299, 4110.51282024, 4126.53846126,10.0
4079.99999966, 4102.17948684, 3961.79487117, 3977.30769176, 4099.10256376, 4103.46153819, 4088.97435863, 4094.35897402, 4080.38461504, 4116.92307665, 4129.35897408, 4088.46153812, 4110.12820485, 4128.33333306,10.0
4099.87179453, 4113.97435870, 3991.15384560, 3989.99999945, 4113.20512793, 4115.12820485, 4102.69230742, 4109.74358947, 4098.20512786, 4137.94871774, 4159.10256390, 4109.61538434, 4127.69230742, 4129.61538434,10.0
4119.74358947, 4116.15384588, 4006.79487131, 3982.05128150, 4121.53846126, 4133.71794844, 4125.38461511, 4129.48717921, 4114.48717921, 4150.64102544, 4177.30769217, 4125.64102537, 4140.38461518, 4125.12820485,10.0
4114.23076896, 4102.69230742, 3996.79487124, 3957.94871733, 4107.56410229, 4131.53846126, 4131.79487152, 4138.46153826, 4112.17948691, 4145.64102544, 4179.35897422, 4127.94871767, 4142.56410236, 4127.05128178,10.0
4108.84615357, 4097.43589709, 3991.53846099, 3946.53846092, 4094.99999966, 4117.17948691, 4118.07692280, 4135.89743569, 4106.79487152, 4142.30769210, 4184.74358961, 4127.05128178, 4144.74358954, 4128.97435870,10.0
4118.71794844, 4106.53846126, 3996.79487124, 3941.02564040, 4097.82051248, 4122.05128178, 4119.48717921, 4134.61538434, 4109.23076896, 4143.33333313, 4185.64102551, 4120.89743562, 4143.97435877, 4127.56410229,10.0
4124.10256383, 4112.69230742, 3998.46153791, 3938.46153784, 4103.71794844, 4130.51282024, 4131.41025614, 4141.53846133, 4114.99999973, 4145.51282031, 4182.94871781, 4116.79487152, 4141.92307672, 4129.87179460,10.0
4119.74358947, 4109.23076896, 3997.56410201, 3941.92307630, 4108.46153819, 4123.33333306, 4126.15384588, 4139.23076903, 4111.53846126, 4148.58974339, 4182.94871781, 4118.20512793, 4142.05128185, 4126.53846126,10.0
4119.48717921, 4104.99999973, 3996.79487124, 3939.99999938, 4111.28205101, 4124.61538434, 4122.05128178, 4134.10256383, 4107.94871767, 4148.58974339, 4178.33333320, 4110.76923050, 4141.53846133, 4124.35897408,10.0
4117.94871767, 4099.23076889, 3990.12820458, 3928.97435828, 4102.82051255, 4125.64102537, 4118.84615357, 4129.48717921, 4109.99999973, 4146.02564082, 4167.17948697, 4098.84615350, 4134.87179460, 4128.71794844,10.0
4117.05128178, 4102.17948684, 3985.89743535, 3927.17948649, 4102.94871767, 4116.66666639, 4111.15384588, 4124.35897408, 4107.82051255, 4145.25641005, 4167.56410236, 4102.05128171, 4132.94871767, 4129.35897408,10.0
4127.56410229, 4120.38461511, 3998.33333278, 3936.41025572, 4122.17948691, 4127.94871767, 4127.82051255, 4134.87179460, 4111.53846126, 4156.28205108, 4186.53846140, 4116.79487152, 4148.33333313, 4126.53846126,10.0
4132.69230742, 4125.51282024, 4006.53846106, 3937.05128136, 4126.41025614, 4140.64102544, 4144.23076903, 4153.97435877, 4128.97435870, 4173.20512807, 4199.74358961, 4119.87179460, 4158.33333313, 4125.51282024,10.0
4115.76923050, 4105.38461511, 3989.74358919, 3926.66666598, 4106.02564075, 4123.84615357, 4125.25640998, 4144.10256390, 4127.43589716, 4168.71794858, 4184.99999986, 4104.48717921, 4143.33333313, 4126.53846126,10.0
4104.48717921, 4096.66666632, 3980.76923022, 3926.02564033, 4099.23076889, 4115.12820485, 4113.84615357, 4126.53846126, 4110.25640998, 4152.30769210, 4169.48717935, 4096.15384581, 4133.97435870, 4127.56410229,10.0
4113.20512793, 4112.17948691, 3994.99999945, 3942.82051220, 4109.10256383, 4128.97435870, 4127.05128178, 4136.15384595, 4110.76923050, 4151.15384595, 4176.41025628, 4104.99999973, 4141.66666646, 4126.28205101,10.0
4117.43589716, 4118.97435870, 4001.66666611, 3953.33333271, 4108.20512793, 4130.51282024, 4129.10256383, 4143.97435877, 4120.12820485, 4154.23076903, 4182.17948704, 4109.23076896, 4141.41025621, 4125.38461511,10.0
4114.74358947, 4113.46153819, 3995.25640970, 3951.66666605, 4106.66666639, 4127.05128178, 4126.53846126, 4139.61538441, 4118.58974332, 4149.61538441, 4176.53846140, 4103.84615357, 4136.28205108, 4125.25640998,10.0
4119.99999973, 4116.15384588, 3998.97435842, 3953.71794810, 4118.33333306, 4138.46153826, 4135.38461518, 4143.46153826, 4116.02564075, 4151.15384595, 4178.46153833, 4105.12820485, 4142.05128185, 4126.66666639,10.0
4126.53846126, 4121.53846126, 4008.46153798, 3959.10256348, 4122.94871767, 4141.66666646, 4133.97435870, 4146.53846133, 4119.99999973, 4161.15384595, 4187.17948704, 4111.28205101, 4150.12820492, 4128.58974332,10.0
4119.10256383, 4114.61538434, 4000.51281996, 3952.43589681, 4112.56410229, 4128.97435870, 4122.69230742, 4135.89743569, 4116.15384588, 4162.17948697, 4176.15384602, 4102.82051255, 4144.48717928, 4126.41025614,10.0
4120.76923050, 4113.33333306, 3995.64102509, 3947.69230707, 4114.23076896, 4128.46153819, 4126.92307665, 4138.71794851, 4115.64102537, 4160.64102544, 4166.02564082, 4098.97435863, 4141.15384595, 4125.89743562,10.0
4138.58974339, 4133.33333306, 4016.15384567, 3962.17948656, 4131.92307665, 4138.07692287, 4138.07692287, 4153.97435877, 4126.53846126, 4172.17948704, 4183.97435884, 4113.97435870, 4150.76923056, 4125.89743562,10.0
4142.82051262, 4147.05128185, 4033.97435849, 3975.25640970, 4138.58974339, 4142.56410236, 4142.69230749, 4155.12820492, 4126.66666639, 4183.71794858, 4200.64102551, 4123.46153819, 4157.17948697, 4125.38461511,10.0
4135.51282031, 4141.41025621, 4030.38461490, 3970.64102502, 4129.35897408, 4139.61538441, 4141.92307672, 4153.07692287, 4119.23076896, 4183.33333320, 4198.84615371, 4121.15384588, 4155.38461518, 4126.66666639,10.0
4134.35897408, 4139.23076903, 4025.89743541, 3961.92307630, 4123.46153819, 4132.82051255, 4137.56410236, 4154.74358954, 4119.87179460, 4177.43589730, 4191.92307679, 4117.94871767, 4151.53846133, 4126.15384588,10.0
4132.05128178, 4140.38461518, 4023.84615336, 3958.97435835, 4120.51282024, 4125.25640998, 4130.38461511, 4149.74358954, 4121.53846126, 4169.99999986, 4181.92307679, 4112.94871767, 4145.76923056, 4127.30769203,10.0
4127.94871767, 4133.46153819, 4020.38461490, 3956.28205066, 4115.51282024, 4124.87179460, 4130.64102537, 4146.02564082, 4117.05128178, 4167.56410236, 4173.58974345, 4111.28205101, 4146.41025621, 4128.07692280,10.0
4129.99999973, 4128.20512793, 4022.30769183, 3954.35897374, 4116.02564075, 4135.64102544, 4143.20512800, 4152.56410236, 4116.28205101, 4169.74358961, 4173.97435884, 4113.46153819, 4152.56410236, 4124.87179460,10.0
4132.30769203, 4130.25640998, 4021.41025593, 3956.02564040, 4115.76923050, 4139.35897415, 4150.76923056, 4156.02564082, 4117.30769203, 4165.64102544, 4171.79487166, 4112.82051255, 4148.46153826, 4123.84615357,10.0
4138.58974339, 4139.10256390, 4022.17948670, 3964.48717887, 4111.15384588, 4131.66666639, 4144.35897415, 4151.28205108, 4114.35897408, 4154.87179467, 4167.94871774, 4114.10256383, 4143.84615364, 4125.51282024,10.0
4140.38461518, 4145.64102544, 4025.38461490, 3972.30769176, 4103.97435870, 4121.28205101, 4128.97435870, 4141.66666646, 4106.41025614, 4142.43589723, 4162.56410236, 4109.99999973, 4139.10256390, 4128.20512793,10.0
4132.56410229, 4141.79487159, 4020.89743541, 3972.56410201, 4101.15384581, 4126.28205101, 4135.25640998, 4145.12820492, 4106.53846126, 4139.74358954, 4153.71794851, 4100.89743555, 4131.66666639, 4126.28205101,10.0
4136.41025621, 4143.84615364, 4018.97435849, 3978.71794817, 4106.41025614, 4143.58974339, 4158.71794851, 4166.53846133, 4124.99999973, 4152.05128185, 4160.38461518, 4104.48717921, 4139.35897415, 4124.10256383,10.0
4141.15384595, 4148.58974339, 4021.28205080, 3988.20512765, 4113.33333306, 4146.02564082, 4157.69230749, 4171.79487166, 4131.15384588, 4161.92307672, 4172.94871781, 4107.56410229, 4148.20512800, 4132.56410229,10.0
4129.35897408, 4138.46153826, 4013.20512772, 3992.17948663, 4115.25640998, 4134.99999973, 4135.89743569, 4151.53846133, 4116.41025614, 4155.38461518, 4165.64102544, 4096.53846119, 4138.20512800, 4132.82051255,10.0
4125.89743562, 4136.79487159, 4009.48717900, 4000.64102509, 4116.92307665, 4135.25640998, 4134.48717921, 4148.33333313, 4118.84615357, 4160.25641005, 4161.41025621, 4095.64102530, 4135.76923056, 4128.58974332,10.0
4130.89743562, 4149.23076903, 4017.94871747, 4012.05128157, 4121.41025614, 4143.71794851, 4146.92307672, 4161.02564082, 4127.82051255, 4173.20512807, 4170.25641012, 4100.38461504, 4143.46153826, 4128.84615357,10.0
4118.84615357, 4142.94871774, 4012.17948670, 4016.02564054, 4118.07692280, 4137.17948697, 4137.94871774, 4155.76923056, 4124.23076896, 4164.61538441, 4165.38461518, 4086.79487145, 4136.28205108, 4125.64102537,10.0
4117.94871767, 4138.58974339, 4011.15384567, 4035.51282003, 4118.71794844, 4129.61538434, 4127.56410229, 4146.92307672, 4124.48717921, 4157.43589723, 4168.46153833, 4088.46153812, 4135.38461518, 4129.99999973,10.0
4134.35897408, 4153.71794851, 4030.64102516, 4070.89743555, 4127.69230742, 4135.25640998, 4132.43589716, 4143.58974339, 4125.51282024, 4168.07692287, 4189.74358961, 4114.61538434, 4149.10256390, 4130.76923050,10.0
4124.61538434, 4144.10256390, 4026.02564054, 4079.10256376, 4115.51282024, 4125.25640998, 4114.61538434, 4125.64102537, 4110.76923050, 4157.17948697, 4180.76923063, 4108.71794844, 4139.35897415, 4125.76923050,10.0
4109.61538434, 4120.89743562, 4007.30769183, 4077.30769196, 4096.02564068, 4108.84615357, 4096.66666632, 4112.94871767, 4104.35897408, 4132.94871767, 4157.43589723, 4085.12820478, 4119.10256383, 4129.74358947,10.0
4120.38461511, 4125.89743562, 4014.10256362, 4097.17948684, 4098.07692273, 4118.84615357, 4118.46153819, 4128.97435870, 4116.28205101, 4134.87179460, 4160.25641005, 4095.12820478, 4121.79487152, 4128.84615357,10.0
4122.94871767, 4132.82051255, 4020.76923029, 4109.99999973, 4097.69230735, 4120.76923050, 4120.51282024, 4127.17948691, 4109.74358947, 4132.30769203, 4160.12820492, 4104.74358947, 4127.17948691, 4124.74358947,10.0
4111.53846126, 4124.99999973, 4012.30769183, 4109.61538434, 4087.43589709, 4104.87179460, 4098.46153812, 4111.79487152, 4100.76923043, 4116.41025614, 4146.92307672, 4092.43589709, 4123.33333306, 4125.25640998,10.0
4098.33333299, 4113.71794844, 3993.84615329, 4106.41025614, 4081.15384581, 4101.92307658, 4103.20512793, 4118.46153819, 4109.48717921, 4107.94871767, 4130.89743562, 4074.23076889, 4110.38461511, 4127.05128178,10.0
4081.92307658, 4103.58974332, 3974.23076868, 4099.48717914, 4075.64102530, 4105.64102537, 4108.58974332, 4121.41025614, 4107.30769203, 4093.71794837, 4111.15384588, 4059.48717907, 4094.48717914, 4130.64102537,10.0
4078.58974325, 4100.51282017, 3973.58974304, 4104.99999973, 4073.84615350, 4098.97435863, 4094.23076889, 4111.92307665, 4097.17948684, 4079.10256376, 4106.02564075, 4056.28205087, 4089.61538427, 4124.74358947,10.0
4079.23076889, 4099.87179453, 3976.66666611, 4112.17948691, 4072.05128171, 4090.12820478, 4089.74358940, 4109.61538434, 4101.41025607, 4076.53846119, 4107.43589716, 4052.56410215, 4089.10256376, 4122.69230742,10.0
4079.61538427, 4105.89743562, 3978.84615329, 4113.71794844, 4076.28205094, 4101.92307658, 4108.97435870, 4125.51282024, 4119.35897408, 4090.89743555, 4112.56410229, 4049.35897395, 4097.69230735, 4128.07692280,10.0
4093.20512786, 4124.23076896, 3989.23076868, 4126.28205101, 4089.48717914, 4115.25640998, 4117.94871767, 4139.61538441, 4132.30769203, 4113.97435870, 4132.82051255, 4059.61538420, 4113.58974332, 4122.56410229,10.0
4096.28205094, 4127.82051255, 3986.02564047, 4126.41025614, 4086.02564068, 4103.71794844, 4103.33333306, 4131.53846126, 4130.76923050, 4115.38461511, 4130.38461511, 4064.61538420, 4110.25640998, 4122.94871767,10.0
4068.71794830, 4103.33333306, 3956.92307630, 4096.41025607, 4058.07692266, 4082.05128171, 4082.56410222, 4104.35897408, 4112.30769203, 4082.82051248, 4090.12820478, 4042.30769189, 4081.92307658, 4126.53846126,10.0
4059.35897395, 4091.28205094, 3942.94871733, 4079.23076889, 4046.66666625, 4079.35897402, 4079.48717914, 4094.35897402, 4103.84615357, 4069.87179453, 4076.02564068, 4031.79487131, 4073.58974325, 4131.02564075,10.0
4075.25640991, 4097.56410222, 3951.53846092, 4080.38461504, 4057.30769189, 4086.28205094, 4087.94871761, 4110.51282024, 4117.43589716, 4088.20512786, 4091.92307658, 4046.79487138, 4091.02564068, 4131.41025614,10.0
4071.53846119, 4091.92307658, 3949.87179425, 4069.74358940, 4054.74358933, 4085.51282017, 4091.15384581, 4116.02564075, 4119.87179460, 4086.02564068, 4082.43589709, 4046.92307651, 4089.87179453, 4122.56410229,10.0
4061.66666625, 4081.15384581, 3943.46153784, 4054.87179446, 4044.48717907, 4087.43589709, 4096.02564068, 4110.38461511, 4109.35897408, 4069.23076882, 4064.48717907, 4035.64102516, 4076.28205094, 4127.17948691,10.0
4056.92307651, 4072.56410222, 3937.69230700, 4045.76923036, 4034.99999952, 4077.56410222, 4083.46153812, 4102.69230742, 4103.07692280, 4064.10256369, 4060.76923036, 4025.89743541, 4071.02564068, 4129.23076896,10.0
4053.07692266, 4069.48717907, 3939.35897374, 4039.99999959, 4025.38461490, 4066.02564061, 4070.25640991, 4104.48717921, 4103.71794844, 4065.38461497, 4056.53846113, 4022.05128157, 4073.07692273, 4124.61538434,10.0
4053.97435856, 4069.74358940, 3948.97435835, 4036.15384567, 4019.61538413, 4067.94871754, 4072.56410222, 4107.43589716, 4099.61538427, 4055.25640984, 4051.28205087, 4025.76923029, 4070.12820478, 4127.30769203,10.0
4057.17948677, 4067.82051241, 3952.43589681, 4029.99999952, 4017.94871747, 4069.35897395, 4071.02564068, 4096.79487145, 4083.33333299, 4034.99999952, 4050.51282010, 4031.15384567, 4063.84615343, 4124.61538434,10.0
4067.17948677, 4076.66666632, 3962.43589681, 4029.23076875, 4028.97435849, 4078.97435863, 4082.17948684, 4101.79487145, 4082.43589709, 4039.99999959, 4061.02564061, 4046.79487138, 4076.79487145, 4123.20512793,10.0
4069.87179453, 4083.58974325, 3970.89743528, 4024.99999952, 4040.76923036, 4088.33333299, 4094.23076889, 4111.66666639, 4092.69230735, 4053.20512779, 4064.23076882, 4056.02564061, 4083.58974325, 4125.38461511,10.0
4060.25640984, 4077.17948684, 3963.20512758, 4001.28205073, 4040.38461497, 4085.25640991, 4085.89743555, 4101.53846119, 4086.41025607, 4043.33333292, 4051.02564061, 4043.97435856, 4066.02564061, 4125.51282024,10.0
4048.07692266, 4070.12820478, 3951.79487117, 3972.17948663, 4032.69230721, 4072.05128171, 4063.97435856, 4088.84615350, 4076.92307658, 4035.12820465, 4041.41025600, 4028.97435849, 4057.82051241, 4124.87179460,10.0
4037.05128164, 4068.33333292, 3948.46153784, 3956.41025579, 4027.05128157, 4059.35897395, 4050.38461497, 4083.97435863, 4078.46153812, 4039.10256369, 4038.07692266, 4022.56410208, 4059.48717907, 4122.05128178,10.0
4034.23076875, 4069.48717907, 3953.20512758, 3952.05128143, 4032.69230721, 4064.74358933, 4059.10256369, 4084.74358940, 4081.66666632, 4041.79487138, 4039.74358933, 4024.10256362, 4056.41025600, 4124.87179460,10.0
4043.07692266, 4080.38461504, 3965.76923015, 3949.87179425, 4044.61538420, 4073.07692273, 4067.82051241, 4089.23076889, 4085.76923043, 4052.30769189, 4051.66666625, 4034.74358926, 4064.35897395, 4125.89743562,10.0
4045.12820472, 4087.94871761, 3970.64102502, 3941.79487117, 4044.23076882, 4069.61538420, 4063.58974318, 4091.79487145, 4092.17948684, 4061.53846113, 4052.82051241, 4035.25640977, 4072.17948684, 4124.10256383,10.0
4031.79487131, 4075.25640991, 3955.12820451, 3923.84615316, 4028.84615336, 4064.48717907, 4061.28205087, 4091.53846119, 4091.28205094, 4055.51282010, 4033.07692259, 4022.43589695, 4063.07692266, 4131.02564075,10.0
4025.12820465, 4060.38461497, 3939.74358912, 3902.56410180, 4014.48717900, 4057.56410215, 4056.66666625, 4087.43589709, 4085.76923043, 4048.20512779, 4022.17948670, 4014.35897388, 4053.97435856, 4127.69230742,10.0
4026.28205080, 4053.71794830, 3930.64102495, 3883.97435821, 4003.97435842, 4046.66666625, 4044.74358933, 4077.56410222, 4081.66666632, 4034.87179439, 4020.76923029, 4007.05128157, 4051.66666625, 4120.38461511,10.0
4021.66666618, 4051.92307651, 3922.05128136, 3871.92307609, 3995.38461483, 4044.10256369, 4047.69230728, 4073.84615350, 4079.99999966, 4017.43589695, 4009.10256362, 4001.41025586, 4047.56410215, 4125.76923050,10.0
4012.56410208, 4049.23076882, 3919.99999931, 3866.66666584, 3985.76923022, 4040.51282010, 4047.17948677, 4069.23076882, 4072.43589709, 4008.20512772, 3998.20512765, 4001.28205073, 4039.87179446, 4126.79487152,10.0
4013.97435849, 4045.76923036, 3927.56410187, 3860.89743507, 3979.74358919, 4035.38461490, 4039.10256369, 4068.07692266, 4067.69230728, 4004.74358926, 4001.79487124, 4003.97435842, 4039.10256369, 4121.66666639,10.0
4019.87179439, 4048.84615343, 3934.87179418, 3856.53846071, 3982.94871740, 4043.46153805, 4046.53846113, 4073.58974325, 4070.51282017, 4003.97435842, 4005.25640977, 4003.58974304, 4043.58974318, 4123.20512793,10.0
4013.07692259, 4046.79487138, 3932.94871726, 3853.71794789, 3982.69230714, 4045.64102523, 4047.69230728, 4064.87179446, 4062.82051241, 3998.84615329, 3995.64102509, 3995.76923022, 4034.10256362, 4129.61538434,10.0
3999.87179432, 4033.71794824, 3925.89743521, 3844.35897353, 3974.99999945, 4032.17948670, 4031.02564054, 4048.84615343, 4047.17948677, 3983.33333278, 3980.12820458, 3986.02564047, 4016.79487131, 4129.35897408,10.0
3993.58974304, 4025.76923029, 3919.74358905, 3835.38461449, 3969.23076861, 4022.05128157, 4019.61538413, 4043.33333292, 4040.76923036, 3972.82051227, 3972.94871740, 3976.92307637, 4013.58974311, 4125.76923050,10.0
3993.97435842, 4028.46153798, 3916.79487110, 3837.05128115, 3969.99999938, 4020.76923029, 4017.05128157, 4043.84615343, 4044.61538420, 3982.43589688, 3982.43589688, 3974.87179432, 4018.58974311, 4126.41025614,10.0
3990.76923022, 4024.74358926, 3913.58974290, 3836.92307602, 3970.25640963, 4015.76923029, 4009.48717900, 4038.46153805, 4044.10256369, 3991.53846099, 3988.58974304, 3973.71794817, 4016.79487131, 4125.25640998,10.0
3988.46153791, 4019.61538413, 3912.69230700, 3829.99999910, 3969.61538399, 4009.10256362, 4005.12820465, 4032.94871747, 4040.51282010, 3988.71794817, 3982.43589688, 3971.28205073, 4013.58974311, 4125.51282024,10.0
3990.64102509, 4026.02564054, 3915.51281982, 3830.64102474, 3973.58974304, 4013.71794824, 4010.51282003, 4033.46153798, 4039.87179446, 3992.30769176, 3989.74358919, 3980.12820458, 4017.82051234, 4128.20512793,10.0
3985.64102509, 4025.64102516, 3909.48717880, 3827.69230679, 3972.43589688, 4018.71794824, 4011.92307644, 4034.48717900, 4037.82051241, 3994.99999945, 3994.99999945, 3984.61538406, 4018.46153798, 4128.97435870,10.0
3973.20512765, 4012.56410208, 3893.71794796, 3808.84615295, 3958.46153784, 4003.46153791, 3997.05128150, 4027.82051234, 4032.69230721, 3982.94871740, 3972.94871740, 3967.56410194, 4005.38461490, 4130.12820485,10.0
3974.48717894, 4012.17948670, 3893.71794796, 3803.20512724, 3949.61538399, 3992.43589688, 3987.43589688, 4019.61538413, 4029.23076875, 3976.66666611, 3964.35897374, 3962.05128143, 4002.56410201, 4124.99999973,10.0
3990.76923022, 4031.28205080, 3915.64102495, 3819.87179397, 3961.92307630, 4010.51282003, 4003.58974304, 4026.02564054, 4029.61538413, 3986.92307637, 3988.97435842, 3986.53846099, 4018.58974311, 4123.20512793,10.0
3981.66666611, 4026.53846106, 3915.12820444, 3814.74358884, 3958.71794810, 4004.99999952, 3999.35897381, 4024.35897388, 4021.66666618, 3980.64102509, 3987.05128150, 3988.20512765, 4014.23076875, 4128.97435870,10.0
3960.25640963, 4001.41025586, 3896.15384539, 3791.66666570, 3937.82051213, 3981.15384560, 3980.12820458, 4018.97435849, 4018.71794824, 3964.10256348, 3961.41025579, 3966.92307630, 3995.38461483, 4124.99999973,10.0
3960.89743528, 3998.84615329, 3897.05128129, 3788.97435801, 3932.69230700, 3985.25640970, 3983.20512765, 4015.89743541, 4017.30769183, 3957.43589681, 3958.33333271, 3962.94871733, 3992.30769176, 4122.94871767,10.0
3963.33333271, 4003.58974304, 3899.61538385, 3790.76922980, 3933.71794803, 3992.43589688, 3988.58974304, 4002.82051227, 4000.12820458, 3946.28205066, 3962.43589681, 3964.87179425, 3989.10256355, 4127.69230742,10.0
3956.92307630, 3995.51281996, 3889.74358898, 3780.76922980, 3929.48717880, 3985.12820458, 3982.82051227, 4006.53846106, 3997.82051227, 3942.94871733, 3956.92307630, 3962.17948656, 3983.71794817, 4124.48717921,10.0
3957.82051220, 3993.07692252, 3891.53846078, 3773.97435794, 3930.76923008, 3983.71794817, 3979.48717894, 4021.66666618, 4012.43589695, 3953.97435835, 3955.38461476, 3963.33333271, 3988.71794817, 4121.15384588,10.0
3957.56410194, 3992.17948663, 3893.71794796, 3769.61538358, 3934.87179418, 3990.89743535, 3981.92307637, 4011.15384567, 4003.46153791, 3949.23076861, 3952.82051220, 3959.10256348, 3985.12820458, 4126.15384588,10.0
3949.99999938, 3985.76923022, 3880.38461462, 3765.64102460, 3937.43589674, 3996.53846099, 3985.76923022, 3997.82051227, 3988.97435842, 3934.87179418, 3947.43589681, 3945.76923015, 3974.99999945, 4128.20512793,10.0
3948.97435835, 3985.51281996, 3875.25640950, 3766.66666563, 3942.56410194, 3990.64102509, 3978.46153791, 4006.41025593, 3999.87179432, 3941.92307630, 3952.43589681, 3941.02564040, 3980.25640970, 4122.94871767,10.0
3939.87179425, 3976.53846099, 3873.84615309, 3758.97435794, 3932.17948649, 3969.61538399, 3954.23076861, 3992.56410201, 3994.61538406, 3948.84615322, 3954.74358912, 3939.61538399, 3981.66666611, 4124.35897408,10.0
3930.89743521, 3965.25640963, 3870.51281968, 3752.17948614, 3922.69230700, 3965.51281989, 3949.99999938, 3971.15384553, 3975.38461483, 3941.92307630, 3955.38461476, 3938.71794810, 3973.84615329, 4128.71794844,10.0
3949.48717887, 3979.99999945, 3890.89743514, 3772.56410153, 3941.02564040, 3986.66666611, 3977.17948663, 3992.30769176, 3992.17948663, 3958.20512758, 3974.10256355, 3952.69230707, 3984.87179432, 4125.51282024,10.0
3966.02564040, 3992.69230714, 3911.92307623, 3790.51281954, 3948.33333271, 3990.25640970, 3983.46153791, 4012.82051234, 4013.46153798, 3979.61538406, 3986.15384560, 3962.30769169, 3997.94871740, 4125.51282024,10.0
3966.79487117, 3992.17948663, 3910.76923008, 3788.07692211, 3945.12820451, 3988.46153791, 3982.05128150, 4013.33333285, 4008.71794824, 3979.61538406, 3982.94871740, 3966.02564040, 3999.48717894, 4124.61538434,10.0
3978.58974304, 4003.58974304, 3914.48717880, 3796.28205031, 3961.53846092, 4005.76923029, 4002.56410201, 4020.76923029, 4011.79487131, 3986.02564047, 3993.58974304, 3982.05128150, 4009.61538413, 4119.23076896,10.0
3978.58974304, 4003.58974304, 3914.48717880, 3796.28205031, 3961.53846092, 4005.76923029, 4002.56410201, 4020.76923029, 4011.79487131, 3986.02564047, 3993.58974304, 3982.05128150, 4009.61538413, 4119.23076896,10.0
3985.25640970, 4007.94871747, 3918.84615316, 3803.07692211, 3961.15384553, 4004.23076875, 4004.61538413, 4021.28205080, 4016.41025593, 3992.94871740, 4002.17948663, 3990.25640970, 4018.20512772, 4122.82051255,10.0
3962.82051220, 3981.02564047, 3896.15384539, 3783.71794775, 3927.30769162, 3972.17948663, 3970.38461476, 3999.10256355, 3993.07692252, 3965.38461476, 3978.33333278, 3970.12820451, 3999.74358919, 4125.51282024,10.0
3950.76923015, 3963.84615322, 3880.89743514, 3774.74358877, 3920.12820444, 3964.23076861, 3959.61538399, 3988.07692252, 3975.38461483, 3937.17948649, 3959.87179425, 3959.23076861, 3980.76923022, 4122.94871767,10.0
3975.38461483, 3983.84615329, 3907.05128136, 3799.87179390, 3948.84615322, 3995.25640970, 3993.07692252, 4009.23076875, 3991.28205073, 3957.30769169, 3983.07692252, 3981.92307637, 3995.25640970, 4124.74358947,10.0
3986.92307637, 3997.56410201, 3929.23076854, 3822.17948628, 3959.10256348, 4007.94871747, 4007.56410208, 4023.46153798, 4005.64102516, 3982.17948663, 4006.02564054, 3994.74358919, 4007.43589695, 4125.76923050,10.0
3968.97435835, 3986.92307637, 3921.28205059, 3825.89743500, 3952.94871733, 3990.25640970, 3986.15384560, 4012.17948670, 4000.38461483, 3973.33333278, 3997.94871740, 3979.87179432, 3993.46153791, 4123.58974332,10.0
3963.46153784, 3982.69230714, 3915.89743521, 3827.82051192, 3957.17948656, 3985.38461483, 3977.17948663, 4004.10256362, 3998.46153791, 3969.10256348, 3986.53846099, 3968.71794810, 3987.43589688, 4123.46153819,10.0
3966.92307630, 3983.97435842, 3913.33333264, 3829.23076833, 3956.92307630, 3993.58974304, 3983.84615329, 3997.69230714, 3992.94871740, 3976.28205073, 3981.53846099, 3967.94871733, 3992.05128150, 4124.61538434,10.0
3969.10256348, 3987.69230714, 3911.02564033, 3841.66666584, 3957.17948656, 3997.17948663, 3989.23076868, 3995.38461483, 3991.53846099, 3986.66666611, 3987.56410201, 3975.12820458, 3998.58974304, 4122.17948691,10.0
3985.38461483, 4004.10256362, 3925.25640957, 3866.28205045, 3976.79487124, 4005.12820465, 4000.12820458, 4020.51282003, 4017.94871747, 4009.61538413, 4009.74358926, 3992.82051227, 4013.20512772, 4121.28205101,10.0
3997.82051227, 4010.38461490, 3932.30769162, 3877.56410180, 3987.17948663, 4012.56410208, 4008.33333285, 4037.56410215, 4030.76923029, 4023.71794824, 4016.92307644, 3998.46153791, 4020.89743541, 4123.07692280,10.0
3989.23076868, 3998.46153791, 3920.76923008, 3879.23076847, 3972.17948663, 4006.28205080, 4003.33333278, 4019.23076875, 4007.69230721, 4010.64102516, 4003.71794817, 3993.33333278, 4013.46153798, 4122.69230742,10.0
3988.07692252, 3996.02564047, 3925.51281982, 3893.33333257, 3964.99999938, 3999.61538406, 3997.82051227, 4012.05128157, 4000.25640970, 4001.79487124, 4004.35897388, 3998.33333278, 4012.30769183, 4128.07692280,10.0
3997.82051227, 4000.51281996, 3939.48717887, 3906.79487110, 3973.97435842, 4002.56410201, 3998.97435842, 4026.92307644, 4017.43589695, 4011.53846106, 4020.64102516, 4001.79487124, 4019.35897388, 4130.38461511,10.0
3996.41025586, 3999.61538406, 3936.92307623, 3909.48717880, 3975.51281996, 4007.30769183, 4002.94871740, 4031.66666618, 4018.58974311, 4012.17948670, 4024.99999952, 3995.76923022, 4018.20512772, 4124.99999973,10.0
3983.84615329, 3994.74358919, 3929.48717880, 3907.17948649, 3961.41025579, 4000.38461483, 3997.94871740, 4018.58974311, 4003.07692252, 3990.76923022, 4006.79487131, 3987.69230714, 4005.38461490, 4127.30769203,10.0
3982.17948663, 3993.46153791, 3936.15384546, 3914.61538392, 3961.92307630, 4001.66666611, 3996.28205073, 4011.92307644, 4001.41025586, 3979.61538406, 3996.79487124, 3985.64102509, 4000.76923022, 4128.71794844,10.0
3999.10256355, 4000.38461483, 3944.99999938, 3929.74358905, 3985.76923022, 4022.17948670, 4015.64102516, 4031.02564054, 4019.23076875, 3996.53846099, 4016.66666618, 3994.87179432, 4014.99999952, 4124.74358947,10.0
3994.99999945, 3993.58974304, 3928.97435828, 3925.76923008, 3988.84615329, 4020.64102516, 4016.92307644, 4036.41025593, 4020.12820465, 3996.66666611, 4018.84615336, 3992.17948663, 4013.33333285, 4126.66666639,10.0
3971.02564040, 3973.46153791, 3903.84615309, 3911.41025572, 3970.12820451, 4005.12820465, 3995.25640970, 4015.64102516, 4003.58974304, 3976.28205073, 3993.71794817, 3971.92307637, 3993.20512765, 4128.58974332,10.0
3981.15384560, 3988.46153791, 3914.99999931, 3924.35897367, 3984.35897381, 4023.71794824, 4007.56410208, 4026.41025593, 4015.25640977, 3993.58974304, 3999.74358919, 3979.10256355, 4002.43589688, 4126.41025614,10.0
4005.25640977, 4016.92307644, 3941.92307630, 3947.94871733, 4011.53846106, 4039.74358933, 4026.02564054, 4040.76923036, 4031.79487131, 4021.41025593, 4021.92307644, 4001.28205073, 4023.20512772, 4123.97435870,10.0
3989.87179432, 3999.10256355, 3934.74358905, 3940.25640963, 3994.87179432, 4005.64102516, 3992.82051227, 4005.38461490, 4009.99999952, 4003.97435842, 4013.97435849, 3988.07692252, 4013.20512772, 4124.48717921,10.0
3970.25640963, 3975.76923022, 3920.51281982, 3928.71794803, 3972.30769176, 3982.30769176, 3967.69230707, 3984.87179432, 3995.76923022, 3988.97435842, 4006.92307644, 3972.43589688, 4002.69230714, 4126.28205101,10.0
3983.71794817, 3991.66666611, 3936.28205059, 3944.10256348, 3980.89743535, 4000.89743535, 3988.20512765, 4011.53846106, 4018.58974311, 4013.33333285, 4025.38461490, 3989.48717894, 4017.05128157, 4122.82051255,10.0
4001.02564047, 4009.10256362, 3960.38461476, 3960.89743528, 3990.25640970, 4013.84615336, 4004.35897388, 4024.87179439, 4029.61538413, 4030.38461490, 4040.12820472, 4007.82051234, 4029.74358926, 4122.82051255,10.0
4009.61538413, 4010.25640977, 3971.92307637, 3964.99999938, 3991.15384560, 4014.87179439, 4005.51282003, 4022.05128157, 4025.76923029, 4026.15384567, 4041.15384574, 4014.35897388, 4032.56410208, 4126.92307665,10.0
4014.23076875, 4015.25640977, 3969.99999938, 3965.89743528, 3993.71794817, 4018.07692259, 4012.43589695, 4035.51282003, 4035.12820465, 4028.46153798, 4040.38461497, 4018.07692259, 4034.61538413, 4122.30769203,10.0
4015.12820465, 4022.30769183, 3960.64102502, 3966.92307630, 3995.64102509, 4029.74358926, 4025.51282003, 4045.12820472, 4039.87179446, 4027.69230721, 4037.43589702, 4015.25640977, 4035.38461490, 4121.79487152,10.0
4018.20512772, 4029.48717900, 3959.10256348, 3966.41025579, 4001.02564047, 4040.38461497, 4032.17948670, 4038.58974318, 4029.74358926, 4009.99999952, 4032.43589695, 4014.48717900, 4032.82051234, 4122.94871767,10.0
4024.10256362, 4037.82051241, 3964.99999938, 3968.71794810, 4009.35897388, 4034.23076875, 4024.87179439, 4031.15384567, 4021.28205080, 3999.10256355, 4025.38461490, 4018.71794824, 4026.92307644, 4118.33333306,10.0
4016.41025593, 4029.10256362, 3957.43589681, 3962.05128143, 4003.33333278, 4019.48717900, 4011.15384567, 4025.12820465, 4016.28205080, 3998.58974304, 4013.33333285, 4004.48717900, 4014.48717900, 4125.38461511,10.0
3996.15384560, 4013.07692259, 3946.66666605, 3950.25640963, 3991.15384560, 4013.58974311, 4005.12820465, 4020.64102516, 4013.58974311, 3992.94871740, 4004.10256362, 3981.02564047, 4001.15384560, 4118.97435870,10.0
3993.07692252, 4008.58974311, 3951.53846092, 3951.02564040, 3994.10256355, 4016.15384567, 4007.17948670, 4026.02564054, 4019.61538413, 3990.51281996, 4004.87179439, 3980.25640970, 4002.43589688, 4100.38461504,10.0
4000.25640970, 4009.87179439, 3955.38461476, 3954.74358912, 4001.79487124, 4013.71794824, 4000.89743535, 4024.61538413, 4021.02564054, 4001.41025586, 4009.87179439, 3987.94871740, 4012.94871747, 4118.97435870,10.0
3998.33333278, 4012.05128157, 3949.35897374, 3954.61538399, 3999.61538406, 4014.10256362, 3998.46153791, 4016.92307644, 4021.28205080, 4012.05128157, 4012.05128157, 3983.71794817, 4018.84615336, 4145.25641005,10.0
4003.07692252, 4019.99999952, 3949.35897374, 3964.10256348, 4000.38461483, 4026.41025593, 4016.66666618, 4031.28205080, 4037.94871754, 4019.74358926, 4019.35897388, 3987.05128150, 4024.99999952, 4130.89743562,10.0
4011.02564054, 4023.71794824, 3947.69230707, 3978.71794817, 4004.74358926, 4027.30769183, 4021.53846106, 4039.99999959, 4040.38461497, 4023.07692259, 4021.66666618, 3999.99999945, 4031.15384567, 4114.99999973,10.0
4004.48717900, 4019.74358926, 3931.92307623, 3981.92307637, 3996.53846099, 4014.87179439, 4001.79487124, 4019.74358926, 4024.35897388, 4017.82051234, 4010.64102516, 3999.23076868, 4028.20512772, 4124.74358947,10.0
4001.53846099, 4025.51282003, 3926.66666598, 3988.58974304, 3990.76923022, 4018.46153798, 4002.43589688, 4011.02564054, 4024.99999952, 4017.43589695, 4010.64102516, 3995.25640970, 4027.17948670, 4125.38461511,10.0
4018.71794824, 4043.58974318, 3948.20512758, 4016.28205080, 4004.99999952, 4029.35897388, 4023.84615336, 4032.17948670, 4043.84615343, 4029.23076875, 4036.79487131, 4013.58974311, 4040.25640984, 4121.15384588,10.0
4033.71794824, 4056.02564061, 3971.15384553, 4042.05128164, 4010.76923029, 4022.05128157, 4023.07692259, 4045.38461497, 4048.71794830, 4033.20512772, 4059.87179446, 4033.97435849, 4050.12820472, 4123.07692280,10.0
4034.35897388, 4058.84615343, 3977.69230714, 4045.51282010, 4000.25640970, 4017.94871747, 4018.71794824, 4041.41025600, 4042.69230728, 4022.69230721, 4059.87179446, 4035.12820465, 4047.17948677, 4118.71794844,10.0
4043.33333292, 4064.99999959, 3985.12820458, 4047.17948677, 4006.28205080, 4031.15384567, 4037.05128164, 4047.82051241, 4046.28205087, 4023.71794824, 4061.28205087, 4035.76923029, 4048.20512779, 4121.92307665,10.0
4053.46153805, 4067.94871754, 3993.71794817, 4055.51282010, 4016.41025593, 4037.82051241, 4049.99999959, 4058.71794830, 4050.64102523, 4033.46153798, 4069.23076882, 4043.46153805, 4056.92307651, 4124.35897408,10.0
4044.74358933, 4059.61538420, 3986.92307637, 4052.56410215, 4006.28205080, 4035.12820465, 4043.97435856, 4058.84615343, 4050.51282010, 4027.05128157, 4059.10256369, 4040.12820472, 4057.56410215, 4121.79487152,10.0
4045.64102523, 4066.28205087, 3984.10256355, 4054.48717907, 4004.87179439, 4036.41025593, 4042.43589702, 4061.41025600, 4060.12820472, 4027.94871747, 4055.64102523, 4040.64102523, 4059.99999959, 4122.94871767,10.0
4064.35897395, 4087.82051248, 3991.66666611, 4069.61538420, 4026.53846106, 4047.69230728, 4054.48717907, 4070.89743555, 4075.25640991, 4048.58974318, 4069.87179453, 4054.61538420, 4069.48717907, 4119.35897408,10.0
4062.82051241, 4090.38461504, 3987.43589688, 4078.58974325, 4036.15384567, 4053.84615343, 4056.28205087, 4064.23076882, 4071.92307658, 4055.76923036, 4063.33333292, 4053.20512779, 4066.41025600, 4120.51282024,10.0
4050.89743548, 4083.58974325, 3982.56410201, 4084.10256376, 4033.07692259, 4047.69230728, 4044.87179446, 4056.28205087, 4068.46153805, 4056.79487138, 4049.74358933, 4043.20512779, 4062.30769189, 4125.38461511,10.0
4043.33333292, 4078.71794837, 3976.66666611, 4088.20512786, 4033.46153798, 4037.82051241, 4033.71794824, 4053.71794830, 4068.07692266, 4056.66666625, 4047.94871754, 4034.61538413, 4055.76923036, 4122.82051255,10.0
4026.15384567, 4064.74358933, 3960.51281989, 4087.69230735, 4025.12820465, 4030.64102516, 4023.84615336, 4039.61538420, 4053.07692266, 4039.74358933, 4036.41025593, 4018.33333285, 4037.17948677, 4121.15384588,10.0
4028.33333285, 4065.38461497, 3967.30769169, 4105.51282024, 4025.76923029, 4039.74358933, 4031.66666618, 4039.74358933, 4054.48717907, 4038.58974318, 4034.74358926, 4019.35897388, 4040.25640984, 4123.20512793,10.0
4051.28205087, 4083.84615350, 3992.17948663, 4136.28205108, 4044.48717907, 4055.89743548, 4051.02564061, 4059.35897395, 4076.28205094, 4061.28205087, 4056.15384574, 4039.35897395, 4062.56410215, 4123.71794844,10.0
4049.61538420, 4088.46153812, 3990.51281996, 4144.99999980, 4045.12820472, 4049.48717907, 4049.10256369, 4068.58974318, 4083.46153812, 4064.99999959, 4063.71794830, 4041.92307651, 4064.23076882, 4121.53846126,10.0
4037.94871754, 4078.46153812, 3977.56410201, 4142.17948697, 4026.66666618, 4036.02564054, 4038.84615343, 4067.56410215, 4079.74358940, 4057.30769189, 4057.30769189, 4032.94871747, 4056.66666625, 4122.17948691,10.0
4050.12820472, 4079.74358940, 3984.99999945, 4157.94871774, 4027.17948670, 4048.97435856, 4056.53846113, 4073.07692273, 4082.43589709, 4062.43589702, 4062.05128164, 4043.20512779, 4063.33333292, 4123.97435870,10.0
4063.84615343, 4090.38461504, 3991.41025586, 4177.82051269, 4039.99999959, 4062.94871754, 4073.07692273, 4074.74358940, 4084.74358940, 4060.89743548, 4063.71794830, 4054.23076882, 4064.74358933, 4118.84615357,10.0
4064.35897395, 4094.61538427, 3987.17948663, 4181.28205115, 4039.99999959, 4055.51282010, 4064.48717907, 4076.53846119, 4090.76923043, 4056.66666625, 4056.28205087, 4046.79487138, 4062.30769189, 4118.97435870,10.0
4054.23076882, 4089.99999966, 3979.48717894, 4179.87179474, 4035.64102516, 4049.23076882, 4053.33333292, 4072.69230735, 4088.33333299, 4050.51282010, 4048.71794830, 4032.17948670, 4061.02564061, 4126.92307665,10.0
4046.02564061, 4091.15384581, 3977.69230714, 4193.20512807, 4044.61538420, 4054.74358933, 4052.69230728, 4054.87179446, 4071.79487145, 4037.05128164, 4049.61538420, 4024.74358926, 4054.23076882, 4125.25640998,10.0
4052.56410215, 4095.89743555, 3984.35897381, 4206.53846147, 4052.82051241, 4056.15384574, 4052.30769189, 4043.33333292, 4064.35897395, 4034.74358926, 4055.76923036, 4026.02564054, 4047.94871754, 4121.02564075,10.0
4053.20512779, 4086.15384581, 3984.99999945, 4206.02564096, 4046.15384574, 4048.20512779, 4043.46153805, 4042.43589702, 4066.66666625, 4038.84615343, 4051.92307651, 4026.02564054, 4043.97435856, 4121.92307665,10.0
4048.33333292, 4085.51282017, 3988.20512765, 4217.30769224, 4047.94871754, 4051.02564061, 4043.33333292, 4050.64102523, 4075.25640991, 4044.61538420, 4055.76923036, 4032.56410208, 4050.51282010, 4122.82051255,10.0
4061.41025600, 4103.33333306, 4002.82051227, 4250.51282052, 4064.10256369, 4063.84615343, 4060.38461497, 4066.53846113, 4091.66666632, 4066.79487138, 4075.76923043, 4050.25640984, 4068.20512779, 4126.66666639,10.0
4078.07692273, 4110.25640998, 4012.43589695, 4276.15384623, 4071.53846119, 4070.76923043, 4078.84615350, 4078.46153812, 4105.76923050, 4093.20512786, 4089.99999966, 4064.48717907, 4080.89743555, 4126.92307665,10.0
4082.17948684, 4108.46153819, 4009.87179439, 4290.12820520, 4068.07692266, 4070.64102530, 4080.89743555, 4076.15384581, 4106.79487152, 4095.12820478, 4089.74358940, 4071.02564068, 4086.79487145, 4124.10256383,10.0
4089.35897402, 4114.35897408, 4011.28205080, 4310.38461553, 4066.79487138, 4070.51282017, 4079.87179453, 4088.58974325, 4116.28205101, 4098.84615350, 4091.41025607, 4078.33333299, 4096.66666632, 4124.10256383,10.0
4090.89743555, 4112.17948691, 4014.48717900, 4329.74358989, 4064.23076882, 4069.23076882, 4081.79487145, 4106.02564075, 4128.58974332, 4110.25640998, 4095.51282017, 4078.33333299, 4099.87179453, 4123.07692280,10.0
4076.79487145, 4098.71794837, 4008.71794824, 4340.76923098, 4058.07692266, 4066.28205087, 4073.46153812, 4087.82051248, 4113.84615357, 4096.02564068, 4086.02564068, 4065.51282010, 4083.33333299, 4124.74358947,10.0
4073.71794837, 4098.46153812, 4008.58974311, 4356.92307714, 4056.02564061, 4063.97435856, 4067.82051241, 4068.84615343, 4096.02564068, 4078.33333299, 4075.89743555, 4060.25640984, 4072.56410222, 4126.02564075,10.0
4082.30769196, 4104.74358947, 4017.17948670, 4374.35897464, 4059.48717907, 4067.56410215, 4079.10256376, 4081.41025607, 4103.07692280, 4078.97435863, 4074.99999966, 4063.71794830, 4079.61538427, 4122.94871767,10.0
4077.05128171, 4094.48717914, 4015.76923029, 4376.15384644, 4062.56410215, 4075.12820478, 4084.48717914, 4087.56410222, 4105.64102537, 4067.43589702, 4065.51282010, 4056.66666625, 4074.35897402, 4122.17948691,10.0
4063.58974318, 4079.48717914, 4005.76923029, 4376.15384644, 4061.41025600, 4071.15384581, 4071.92307658, 4067.56410215, 4087.05128171, 4046.02564061, 4047.56410215, 4045.89743548, 4057.17948677, 4123.97435870,10.0
4061.66666625, 4084.87179453, 4006.41025593, 4385.64102592, 4064.99999959, 4061.41025600, 4067.05128164, 4060.25640984, 4081.79487145, 4047.05128164, 4044.74358933, 4045.89743548, 4057.30769189, 4124.48717921,10.0
4064.87179446, 4096.41025607, 4010.51282003, 4388.33333362, 4075.64102530, 4063.07692266, 4071.02564068, 4069.99999966, 4097.05128171, 4059.87179446, 4052.69230728, 4046.41025600, 4064.61538420, 4121.53846126,10.0
4065.64102523, 4092.56410222, 4004.87179439, 4382.56410285, 4077.69230735, 4068.97435856, 4071.92307658, 4074.99999966, 4106.79487152, 4066.28205087, 4051.92307651, 4043.07692266, 4063.20512779, 4120.64102537,10.0
4070.12820478, 4090.76923043, 4006.15384567, 4388.97435926, 4074.99999966, 4068.71794830, 4074.10256376, 4076.02564068, 4106.41025614, 4080.38461504, 4058.84615343, 4054.10256369, 4072.69230735, 4122.82051255,10.0
4080.89743555, 4102.69230742, 4019.99999952, 4410.00000035, 4083.46153812, 4074.23076889, 4083.97435863, 4084.23076889, 4115.12820485, 4110.38461511, 4079.10256376, 4074.35897402, 4092.43589709, 4122.17948691,10.0
4094.99999966, 4115.38461511, 4029.87179439, 4428.46153881, 4098.58974325, 4096.41025607, 4109.87179460, 4114.35897408, 4148.07692287, 4136.28205108, 4095.38461504, 4083.84615350, 4104.74358947, 4124.99999973,10.0
4092.43589709, 4109.87179460, 4022.69230721, 4437.56410298, 4093.07692273, 4098.46153812, 4113.46153819, 4123.20512793, 4157.17948697, 4130.25640998, 4091.28205094, 4076.92307658, 4100.76923043, 4124.48717921,10.0
4073.07692273, 4087.05128171, 4009.61538413, 4442.30769273, 4067.43589702, 4064.74358933, 4074.35897402, 4082.30769196, 4118.46153819, 4106.79487152, 4075.64102530, 4067.30769189, 4084.74358940, 4121.53846126,10.0
4069.61538420, 4075.64102530, 4009.99999952, 4456.41025683, 4056.53846113, 4048.20512779, 4053.20512779, 4060.76923036, 4098.58974325, 4098.20512786, 4075.25640991, 4068.46153805, 4080.89743555, 4124.48717921,10.0
4072.69230735, 4076.92307658, 4014.99999952, 4474.10256459, 4063.97435856, 4064.87179446, 4070.64102530, 4079.61538427, 4113.07692280, 4094.87179453, 4074.87179453, 4066.02564061, 4079.23076889, 4124.10256383,10.0
4060.89743548, 4071.53846119, 4010.51282003, 4482.43589793, 4066.92307651, 4075.51282017, 4079.61538427, 4083.33333299, 4111.15384588, 4080.38461504, 4059.87179446, 4056.41025600, 4067.17948677, 4121.02564075,10.0
4065.38461497, 4072.05128171, 4017.43589695, 4495.38461587, 4071.02564068, 4071.66666632, 4076.66666632, 4079.10256376, 4106.15384588, 4080.76923043, 4066.28205087, 4066.92307651, 4075.51282017, 4120.38461511,10.0
4082.56410222, 4082.30769196, 4030.89743541, 4507.82051338, 4077.05128171, 4068.33333292, 4075.25640991, 4084.61538427, 4114.87179460, 4088.84615350, 4082.17948684, 4081.02564068, 4089.99999966, 4122.05128178,10.0
4076.92307658, 4081.66666632, 4023.58974311, 4504.87179543, 4079.61538427, 4078.58974325, 4084.23076889, 4083.20512786, 4114.48717921, 4077.17948684, 4071.66666632, 4071.66666632, 4077.56410222, 4122.94871767,10.0
4071.41025607, 4082.69230735, 4015.64102516, 4500.89743646, 4087.94871761, 4089.61538427, 4098.20512786, 4081.92307658, 4113.84615357, 4072.17948684, 4066.53846113, 4069.99999966, 4073.20512786, 4121.41025614,10.0
4088.07692273, 4094.48717914, 4025.64102516, 4502.17948774, 4098.07692273, 4084.74358940, 4095.76923043, 4092.94871761, 4128.20512793, 4093.84615350, 4082.94871761, 4090.76923043, 4093.20512786, 4121.53846126,10.0
4097.69230735, 4098.07692273, 4036.02564054, 4496.66666723, 4099.23076889, 4080.51282017, 4086.53846119, 4097.56410222, 4138.97435877, 4113.07692280, 4093.46153812, 4099.61538427, 4100.51282017, 4120.89743562,10.0
4090.89743555, 4098.07692273, 4035.89743541, 4483.84615434, 4102.17948684, 4085.76923043, 4087.30769196, 4090.25640991, 4135.89743569, 4110.64102537, 4094.74358940, 4089.87179453, 4094.23076889, 4119.74358947,10.0
4088.46153812, 4098.33333299, 4032.94871747, 4468.46153895, 4105.38461511, 4084.35897402, 4085.12820478, 4085.12820478, 4129.23076896, 4106.66666639, 4096.02564068, 4082.17948684, 4094.10256376, 4122.56410229,10.0
4092.69230735, 4092.43589709, 4037.05128164, 4448.58974401, 4102.69230742, 4080.89743555, 4083.33333299, 4089.23076889, 4130.76923050, 4114.35897408, 4096.66666632, 4083.58974325, 4098.20512786, 4123.20512793,10.0
4088.71794837, 4089.61538427, 4040.38461497, 4428.97435933, 4099.87179453, 4082.30769196, 4087.30769196, 4092.56410222, 4135.38461518, 4117.56410229, 4094.48717914, 4081.53846119, 4094.74358940, 4124.23076896,10.0
4075.51282017, 4086.28205094, 4030.89743541, 4406.41025676, 4094.74358940, 4073.84615350, 4080.51282017, 4086.66666632, 4131.53846126, 4110.89743562, 4086.41025607, 4070.89743555, 4084.74358940, 4124.35897408,10.0
4075.12820478, 4083.33333299, 4026.15384567, 4385.51282079, 4089.99999966, 4070.51282017, 4076.41025607, 4083.33333299, 4126.92307665, 4107.05128178, 4085.38461504, 4067.56410215, 4085.89743555, 4121.41025614,10.0
4091.92307658, 4094.35897402, 4039.87179446, 4373.58974387, 4094.35897402, 4086.28205094, 4091.15384581, 4086.53846119, 4127.82051255, 4111.41025614, 4098.07692273, 4080.25640991, 4099.48717914, 4123.20512793,10.0
4101.79487145, 4102.17948684, 4048.58974318, 4358.97435919, 4098.84615350, 4092.94871761, 4100.12820478, 4088.07692273, 4129.61538434, 4111.92307665, 4099.23076889, 4089.74358940, 4106.02564075, 4125.12820485,10.0
4108.46153819, 4100.25640991, 4054.35897395, 4348.58974380, 4102.69230742, 4090.76923043, 4098.97435863, 4095.38461504, 4138.71794851, 4115.76923050, 4098.20512786, 4097.94871761, 4110.76923050, 4125.12820485,10.0
4116.53846126, 4104.10256383, 4064.74358933, 4347.30769252, 4106.79487152, 4092.43589709, 4096.66666632, 4100.89743555, 4141.79487159, 4122.94871767, 4102.69230742, 4107.43589716, 4114.87179460, 4124.61538434,10.0
4114.23076896, 4102.82051255, 4062.82051241, 4336.53846175, 4101.41025607, 4089.23076889, 4091.15384581, 4090.76923043, 4126.41025614, 4109.74358947, 4093.84615350, 4103.33333306, 4103.58974332, 4122.05128178,10.0
4108.58974332, 4094.48717914, 4058.58974318, 4319.61538476, 4093.84615350, 4082.56410222, 4086.92307658, 4081.92307658, 4120.38461511, 4096.92307658, 4088.84615350, 4097.43589709, 4096.15384581, 4120.89743562,10.0
4115.64102537, 4101.15384581, 4072.30769196, 4322.43589758, 4102.30769196, 4090.12820478, 4094.61538427, 4092.43589709, 4138.33333313, 4116.28205101, 4102.94871767, 4109.48717921, 4109.23076896, 4120.64102537,10.0
4126.02564075, 4116.02564075, 4087.43589709, 4332.05128219, 4116.02564075, 4100.38461504, 4106.28205101, 4106.79487152, 4150.51282031, 4132.05128178, 4110.89743562, 4120.76923050, 4115.25640998, 4121.53846126,10.0
4126.79487152, 4120.25640998, 4088.46153812, 4328.07692322, 4121.66666639, 4098.46153812, 4109.61538434, 4108.33333306, 4146.79487159, 4126.79487152, 4107.56410229, 4119.35897408, 4106.92307665, 4125.25640998,10.0
4129.35897408, 4124.74358947, 4086.53846119, 4331.79487194, 4129.48717921, 4108.46153819, 4119.23076896, 4113.46153819, 4153.58974339, 4135.12820485, 4115.76923050, 4120.64102537, 4111.02564075, 4126.53846126,10.0
4130.76923050, 4126.41025614, 4084.23076889, 4343.33333355, 4133.07692280, 4118.97435870, 4128.07692280, 4120.89743562, 4161.53846133, 4145.51282031, 4118.97435870, 4117.69230742, 4119.61538434, 4126.28205101,10.0
4129.23076896, 4122.43589716, 4084.35897402, 4354.74358996, 4128.46153819, 4113.46153819, 4122.94871767, 4120.38461511, 4159.35897415, 4142.82051262, 4115.89743562, 4111.79487152, 4119.61538434, 4128.20512793,10.0
4130.89743562, 4120.38461511, 4084.61538427, 4370.00000028, 4127.56410229, 4109.87179460, 4117.82051255, 4116.92307665, 4155.76923056, 4144.10256390, 4123.46153819, 4114.87179460, 4121.02564075, 4128.20512793,10.0
4119.99999973, 4113.97435870, 4064.99999959, 4620.00000077, 4136.92307672, 4113.97435870, 4119.87179460, 4105.25640998, 4137.94871774, 4113.20512793, 4111.28205101, 4086.79487145, 4107.82051255, 4122.82051255,10.0
4094.87179453, 4088.97435863, 4035.76923029, 4620.51282128, 4117.82051255, 4096.66666632, 4099.35897402, 4090.12820478, 4124.87179460, 4096.02564068, 4085.76923043, 4060.51282010, 4087.56410222, 4123.33333306,10.0
4090.12820478, 4085.12820478, 4032.30769183, 4638.07692391, 4113.33333306, 4090.51282017, 4092.30769196, 4092.30769196, 4133.33333306, 4105.76923050, 4086.66666632, 4055.76923036, 4086.15384581, 4123.20512793,10.0
4099.35897402, 4095.64102530, 4052.56410215, 4668.84615475, 4124.99999973, 4094.99999966, 4099.48717914, 4096.79487145, 4148.84615364, 4128.97435870, 4111.15384588, 4078.20512786, 4108.20512793, 4124.23076896,10.0
4105.38461511, 4096.92307658, 4065.38461497, 4685.12820604, 4131.79487152, 4102.94871767, 4110.38461511, 4102.56410229, 4156.28205108, 4142.30769210, 4126.79487152, 4095.12820478, 4122.69230742, 4126.02564075,10.0
4111.28205101, 4099.23076889, 4065.89743548, 4692.05128296, 4131.02564075, 4104.99999973, 4114.23076896, 4111.28205101, 4159.10256390, 4146.02564082, 4128.71794844, 4102.17948684, 4121.79487152, 4124.99999973,10.0
4112.30769203, 4100.12820478, 4062.05128164, 4697.69230867, 4123.84615357, 4097.43589709, 4105.51282024, 4106.66666639, 4156.53846133, 4144.48717928, 4125.38461511, 4107.43589716, 4118.33333306, 4126.15384588,10.0
4110.89743562, 4094.35897402, 4064.48717907, 4694.23077021, 4114.74358947, 4094.48717914, 4101.02564068, 4096.02564068, 4151.28205108, 4139.10256390, 4121.66666639, 4106.66666639, 4117.94871767, 4126.79487152,10.0
4122.05128178, 4103.71794844, 4078.97435863, 4694.23077021, 4117.56410229, 4100.89743555, 4106.41025614, 4097.82051248, 4152.43589723, 4141.15384595, 4126.79487152, 4112.05128178, 4123.07692280, 4123.97435870,10.0
4134.99999973, 4120.64102537, 4085.89743555, 4701.92307790, 4126.15384588, 4107.05128178, 4111.53846126, 4101.79487145, 4149.61538441, 4140.12820492, 4128.97435870, 4121.66666639, 4122.82051255, 4126.41025614,10.0
4135.25640998, 4119.35897408, 4081.92307658, 4702.17948816, 4125.64102537, 4107.05128178, 4110.12820485, 4099.35897402, 4141.41025621, 4127.43589716, 4118.33333306, 4121.15384588, 4117.05128178, 4122.17948691,10.0
4136.66666646, 4116.41025614, 4084.99999966, 4698.46153944, 4125.89743562, 4106.92307665, 4113.33333306, 4102.69230742, 4143.71794851, 4122.43589716, 4112.69230742, 4116.41025614, 4115.51282024, 4116.79487152,10.0
4147.69230749, 4126.66666639, 4096.02564068, 4705.64102662, 4134.35897408, 4113.97435870, 4127.05128178, 4113.97435870, 4153.46153826, 4126.79487152, 4115.38461511, 4119.10256383, 4120.76923050, 4124.35897408,10.0
4147.94871774, 4127.05128178, 4095.89743555, 4713.58974457, 4138.58974339, 4113.71794844, 4127.94871767, 4113.71794844, 4150.25641005, 4118.33333306, 4106.41025614, 4114.10256383, 4118.46153819, 4125.12820485,10.0
4136.53846133, 4119.10256383, 4086.53846119, 4714.48718046, 4138.33333313, 4113.46153819, 4121.66666639, 4111.79487152, 4146.53846133, 4110.64102537, 4092.30769196, 4098.20512786, 4111.02564075, 4119.74358947,10.0
4127.94871767, 4114.48717921, 4078.07692273, 4715.64102662, 4132.56410229, 4113.71794844, 4119.23076896, 4117.30769203, 4151.92307672, 4116.28205101, 4088.97435863, 4085.38461504, 4107.94871767, 4120.64102537,10.0
4125.51282024, 4111.15384588, 4076.92307658, 4721.53846252, 4127.69230742, 4106.92307665, 4114.74358947, 4113.84615357, 4153.07692287, 4124.35897408, 4089.35897402, 4077.82051248, 4106.66666639, 4122.94871767,10.0
4125.51282024, 4112.82051255, 4081.92307658, 4729.74359079, 4132.82051255, 4101.28205094, 4105.51282024, 4106.79487152, 4156.66666646, 4135.12820485, 4092.82051248, 4079.35897402, 4111.79487152, 4123.84615357,10.0
4116.53846126, 4111.02564075, 4078.46153812, 4731.92307797, 4132.94871767, 4101.92307658, 4099.61538427, 4105.89743562, 4160.76923056, 4142.56410236, 4100.12820478, 4079.23076889, 4115.12820485, 4123.97435870,10.0
4101.41025607, 4096.53846119, 4061.79487138, 4730.12820617, 4121.15384588, 4104.74358947, 4101.28205094, 4099.99999966, 4151.41025621, 4136.02564082, 4102.05128171, 4066.02564061, 4108.97435870, 4123.33333306,10.0
4103.20512793, 4095.25640991, 4056.79487138, 4737.30769335, 4118.33333306, 4103.33333306, 4099.99999966, 4091.92307658, 4144.23076903, 4133.84615357, 4102.56410229, 4061.79487138, 4108.84615357, 4121.41025614,10.0
4131.15384588, 4123.58974332, 4082.82051248, 4765.76923188, 4139.23076903, 4111.79487152, 4109.87179460, 4107.56410229, 4161.02564082, 4153.97435877, 4121.15384588, 4085.38461504, 4128.20512793, 4123.20512793,10.0
4145.25641005, 4139.74358954, 4096.79487145, 4793.07692426, 4153.33333313, 4120.51282024, 4123.07692280, 4124.48717921, 4174.10256397, 4164.61538441, 4134.48717921, 4099.35897402, 4140.12820492, 4123.46153819,10.0
4122.30769203, 4122.30769203, 4069.10256369, 4791.28205240, 4133.58974332, 4104.10256383, 4109.23076896, 4107.30769203, 4151.41025621, 4139.48717928, 4115.89743562, 4076.92307658, 4121.53846126, 4119.48717921,10.0
4106.79487152, 4109.61538434, 4054.74358933, 4792.69230888, 4113.33333306, 4089.10256376, 4093.97435863, 4091.53846119, 4125.51282024, 4115.12820485, 4104.10256383, 4062.94871754, 4107.56410229, 4122.17948691,10.0
4126.66666639, 4121.53846126, 4081.02564068, 4822.17948836, 4126.28205101, 4102.17948684, 4111.66666639, 4106.28205101, 4129.74358947, 4123.46153819, 4121.41025614, 4083.58974325, 4121.28205101, 4124.10256383,10.0
4126.66666639, 4121.53846126, 4081.02564068, 4822.17948836, 4126.28205101, 4102.17948684, 4111.66666639, 4106.28205101, 4129.74358947, 4123.46153819, 4121.41025614, 4083.58974325, 4121.28205101, 4124.10256383,10.0
4147.17948697, 4136.79487159, 4104.48717921, 4848.84615510, 4148.07692287, 4118.71794844, 4130.38461511, 4120.76923050, 4144.99999980, 4136.28205108, 4137.56410236, 4106.66666639, 4135.38461518, 4121.66666639,10.0
4147.69230749, 4141.79487159, 4108.71794844, 4854.74359100, 4151.02564082, 4118.97435870, 4124.87179460, 4118.07692280, 4140.64102544, 4127.43589716, 4137.94871774, 4111.02564075, 4134.74358947, 4125.76923050,10.0
4151.15384595, 4146.02564082, 4115.76923050, 4859.87179620, 4154.87179467, 4121.53846126, 4126.79487152, 4120.12820485, 4136.02564082, 4118.97435870, 4137.43589723, 4115.25640998, 4136.41025621, 4127.05128178,10.0
4153.20512800, 4144.87179467, 4110.76923050, 4858.46153979, 4157.69230749, 4121.66666639, 4128.33333306, 4119.48717921, 4140.89743569, 4119.35897408, 4131.53846126, 4116.66666639, 4136.15384595, 4124.23076896,10.0
4139.23076903, 4137.05128185, 4090.12820478, 4843.33333459, 4147.56410236, 4112.56410229, 4115.64102537, 4110.64102537, 4138.33333313, 4116.28205101, 4111.79487152, 4101.66666632, 4126.28205101, 4127.56410229,10.0
4126.28205101, 4134.74358947, 4080.38461504, 4832.05128331, 4142.30769210, 4107.05128178, 4110.64102537, 4107.94871767, 4133.46153819, 4114.99999973, 4101.79487145, 4086.53846119, 4116.15384588, 4126.41025614,10.0
4123.33333306, 4131.53846126, 4074.10256376, 4821.79487298, 4141.28205108, 4103.58974332, 4106.79487152, 4101.02564068, 4128.71794844, 4114.35897408, 4106.41025614, 4080.38461504, 4110.64102537, 4122.56410229,10.0
4125.12820485, 4125.38461511, 4068.07692266, 4814.74359093, 4141.53846133, 4104.35897408, 4102.05128171, 4096.15384581, 4126.79487152, 4119.35897408, 4112.17948691, 4081.02564068, 4114.23076896, 4124.74358947,10.0
4134.99999973, 4135.25640998, 4079.35897402, 4815.51282170, 4151.28205108, 4115.76923050, 4112.82051255, 4108.07692280, 4137.82051262, 4138.58974339, 4122.94871767, 4089.99999966, 4129.48717921, 4126.66666639,10.0
4151.79487159, 4153.71794851, 4096.15384581, 4812.56410375, 4160.89743569, 4127.94871767, 4132.69230742, 4124.61538434, 4153.33333313, 4159.35897415, 4139.99999980, 4100.51282017, 4143.97435877, 4124.61538434,10.0
4157.94871774, 4153.84615364, 4098.46153812, 4799.74359093, 4158.46153826, 4127.43589716, 4137.05128185, 4127.69230742, 4159.48717928, 4169.10256397, 4145.64102544, 4103.97435870, 4149.61538441, 4122.82051255,10.0
4166.02564082, 4154.48717928, 4105.12820485, 4792.43589862, 4163.07692287, 4133.71794844, 4142.17948697, 4133.58974332, 4164.87179467, 4178.97435884, 4151.28205108, 4114.48717921, 4158.07692287, 4124.48717921,10.0
4178.84615371, 4166.28205108, 4111.79487152, 4788.71794983, 4173.97435884, 4147.43589723, 4155.89743569, 4146.53846133, 4174.23076910, 4185.25641012, 4161.92307672, 4126.53846126, 4165.38461518, 4125.25640998,10.0
4168.58974345, 4158.46153826, 4096.02564068, 4769.35897547, 4162.05128185, 4135.64102544, 4143.97435877, 4138.07692287, 4170.89743576, 4167.82051262, 4150.64102544, 4116.15384588, 4154.99999980, 4122.94871767,10.0
4155.12820492, 4147.05128185, 4087.94871761, 4753.07692412, 4152.56410236, 4119.10256383, 4126.41025614, 4126.02564075, 4163.97435877, 4152.56410236, 4139.61538441, 4105.76923050, 4146.66666646, 4125.38461511,10.0
4165.25641005, 4156.79487159, 4103.07692280, 4749.48718053, 4165.25641005, 4126.41025614, 4136.02564082, 4132.43589716, 4162.17948697, 4156.92307672, 4152.43589723, 4113.58974332, 4152.69230749, 4126.28205101,10.0
4171.92307679, 4161.02564082, 4108.71794844, 4737.43589848, 4171.41025628, 4136.53846133, 4150.89743569, 4144.61538441, 4162.82051262, 4153.71794851, 4155.38461518, 4115.64102537, 4149.87179467, 4123.58974332,10.0
4159.23076903, 4147.94871774, 4098.46153812, 4715.76923175, 4163.84615364, 4135.12820485, 4148.97435877, 4142.82051262, 4162.30769210, 4139.23076903, 4141.66666646, 4104.99999973, 4136.41025621, 4124.74358947,10.0
4153.20512800, 4141.53846133, 4091.92307658, 4700.51282149, 4166.15384595, 4134.87179460, 4146.41025621, 4135.38461518, 4158.71794851, 4137.82051262, 4141.41025621, 4102.05128171, 4135.12820485, 4122.94871767,10.0
4161.28205108, 4147.30769210, 4092.43589709, 4688.84615475, 4177.30769217, 4138.84615364, 4149.99999980, 4138.84615364, 4162.56410236, 4153.20512800, 4152.43589723, 4109.61538434, 4144.48717928, 4122.56410229,10.0
4164.35897415, 4153.97435877, 4094.87179453, 4672.17948809, 4181.66666653, 4144.74358954, 4147.82051262, 4145.89743569, 4172.17948704, 4164.87179467, 4155.76923056, 4117.56410229, 4150.38461518, 4126.79487152,10.0
4170.38461525, 4162.69230749, 4102.94871767, 4660.25641109, 4185.25641012, 4150.89743569, 4150.25641005, 4150.25641005, 4177.17948704, 4167.94871774, 4155.89743569, 4126.15384588, 4156.15384595, 4126.02564075,10.0
4177.82051269, 4166.53846133, 4108.20512793, 4643.71794956, 4186.41025628, 4147.05128185, 4151.28205108, 4147.05128185, 4171.41025628, 4164.87179467, 4156.28205108, 4130.51282024, 4157.17948697, 4124.23076896,10.0
4169.10256397, 4156.02564082, 4103.71794844, 4614.74359051, 4178.46153833, 4136.02564082, 4141.66666646, 4135.51282031, 4162.69230749, 4161.15384595, 4156.28205108, 4128.97435870, 4151.66666646, 4125.12820485,10.0
4169.10256397, 4156.02564082, 4103.71794844, 4614.74359051, 4178.46153833, 4136.02564082, 4141.66666646, 4135.51282031, 4162.69230749, 4161.15384595, 4156.28205108, 4128.97435870, 4151.66666646, 4125.12820485,10.0
4160.64102544, 4149.74358954, 4106.02564075, 4591.66666737, 4172.05128192, 4135.64102544, 4136.66666646, 4128.46153819, 4162.56410236, 4165.89743569, 4160.38461518, 4132.56410229, 4152.17948697, 4123.33333306,10.0
4167.30769210, 4152.94871774, 4120.51282024, 4578.33333403, 4173.46153833, 4137.43589723, 4133.84615357, 4128.33333306, 4163.07692287, 4172.05128192, 4163.20512800, 4140.38461518, 4158.71794851, 4120.64102537,10.0
4171.02564089, 4148.07692287, 4127.05128178, 4562.30769301, 4172.82051269, 4135.25640998, 4131.41025614, 4131.15384588, 4161.53846133, 4170.12820499, 4158.46153826, 4139.99999980, 4157.30769210, 4123.71794844,10.0
4165.76923056, 4139.74358954, 4118.33333306, 4542.17948781, 4169.48717935, 4136.66666646, 4137.82051262, 4136.66666646, 4161.53846133, 4160.38461518, 4154.23076903, 4130.64102537, 4146.92307672, 4122.94871767,10.0
4163.71794851, 4139.10256390, 4110.12820485, 4525.64102620, 4171.02564089, 4140.25641005, 4145.89743569, 4143.33333313, 4163.20512800, 4153.71794851, 4152.05128185, 4123.71794844, 4142.82051262, 4117.94871767,10.0
4158.20512800, 4135.25640998, 4101.02564068, 4508.97435953, 4174.23076910, 4140.89743569, 4147.56410236, 4145.51282031, 4164.23076903, 4149.61538441, 4141.28205108, 4114.87179460, 4141.02564082, 4124.10256383,10.0
4146.41025621, 4124.74358947, 4085.38461504, 4493.07692357, 4173.33333320, 4145.12820492, 4148.07692287, 4142.94871774, 4162.17948697, 4138.46153826, 4124.35897408, 4100.38461504, 4130.64102537, 4127.05128178,10.0
4146.02564082, 4127.82051255, 4083.84615350, 4492.05128254, 4175.89743576, 4151.92307672, 4151.66666646, 4141.15384595, 4162.17948697, 4134.10256383, 4122.69230742, 4100.89743555, 4129.10256383, 4123.71794844,10.0
4151.66666646, 4139.23076903, 4089.23076889, 4499.35897492, 4179.35897422, 4149.23076903, 4150.25641005, 4140.51282031, 4162.69230749, 4141.79487159, 4126.53846126, 4110.64102537, 4139.61538441, 4124.61538434,10.0
4138.20512800, 4129.74358947, 4076.28205094, 4494.61538511, 4170.51282038, 4136.41025621, 4132.56410229, 4125.76923050, 4151.79487159, 4136.02564082, 4109.61538434, 4096.92307658, 4132.82051255, 4122.05128178,10.0
4115.51282024, 4113.07692280, 4061.53846113, 4490.25641075, 4157.94871774, 4127.05128178, 4109.87179460, 4101.79487145, 4137.05128185, 4116.53846126, 4092.43589709, 4074.61538427, 4114.10256383, 4123.20512793,10.0
4115.12820485, 4118.20512793, 4064.99999959, 4503.20512876, 4156.02564082, 4122.05128178, 4102.43589709, 4097.30769196, 4138.46153826, 4122.17948691, 4103.33333306, 4079.87179453, 4116.66666639, 4127.43589716,10.0
4127.82051255, 4127.94871767, 4070.38461504, 4516.41025697, 4158.46153826, 4118.33333306, 4108.46153819, 4108.07692280, 4146.92307672, 4142.69230749, 4117.30769203, 4096.66666632, 4125.25640998, 4126.41025614,10.0
4136.53846133, 4131.79487152, 4081.41025607, 4526.66666723, 4167.43589723, 4133.97435870, 4128.97435870, 4121.28205101, 4157.30769210, 4155.51282031, 4122.69230742, 4108.33333306, 4133.33333306, 4125.25640998,10.0
4146.79487159, 4146.02564082, 4102.82051255, 4541.79487242, 4179.61538448, 4154.10256390, 4149.61538441, 4138.20512800, 4175.64102551, 4175.38461525, 4137.43589723, 4123.33333306, 4151.28205108, 4123.97435870,10.0
4150.51282031, 4153.20512800, 4107.17948691, 4545.12820576, 4175.38461525, 4143.84615364, 4142.69230749, 4140.12820492, 4180.64102551, 4187.05128192, 4145.38461518, 4128.33333306, 4155.76923056, 4122.82051255,10.0
4149.99999980, 4147.82051262, 4101.41025607, 4537.94871858, 4164.61538441, 4128.84615357, 4128.20512793, 4129.74358947, 4172.56410243, 4180.25641012, 4143.20512800, 4126.79487152, 4148.58974339, 4122.43589716,10.0
4158.97435877, 4155.25641005, 4107.30769203, 4537.69230832, 4169.87179474, 4133.07692280, 4132.94871767, 4137.94871774, 4177.69230756, 4179.23076910, 4147.69230749, 4132.69230742, 4154.99999980, 4123.46153819,10.0
4158.84615364, 4156.92307672, 4111.15384588, 4533.20512883, 4169.10256397, 4131.66666639, 4133.84615357, 4147.17948697, 4176.53846140, 4177.94871781, 4144.99999980, 4127.94871767, 4156.41025621, 4123.07692280,10.0
4149.23076903, 4143.71794851, 4113.33333306, 4525.89743646, 4157.43589723, 4126.79487152, 4129.10256383, 4141.15384595, 4162.82051262, 4165.76923056, 4137.94871774, 4115.89743562, 4147.56410236, 4120.89743562,10.0
4161.92307672, 4153.33333313, 4130.76923050, 4535.25641089, 4167.43589723, 4141.15384595, 4142.56410236, 4146.02564082, 4166.66666646, 4163.71794851, 4150.76923056, 4128.46153819, 4154.99999980, 4125.38461511,10.0
4181.66666653, 4171.28205115, 4145.12820492, 4546.15384678, 4185.25641012, 4154.48717928, 4156.79487159, 4158.97435877, 4181.41025628, 4172.56410243, 4165.38461518, 4146.02564082, 4165.64102544, 4128.71794844,10.0
4179.61538448, 4167.94871774, 4139.74358954, 4543.33333396, 4181.92307679, 4148.58974339, 4153.07692287, 4152.56410236, 4178.58974345, 4173.97435884, 4159.48717928, 4141.92307672, 4161.92307672, 4124.48717921,10.0
4168.58974345, 4160.64102544, 4130.76923050, 4536.92307755, 4175.89743576, 4141.28205108, 4146.79487159, 4134.99999973, 4164.35897415, 4171.02564089, 4147.69230749, 4132.82051255, 4157.30769210, 4125.89743562,10.0
4166.79487159, 4162.56410236, 4128.46153819, 4537.94871858, 4186.79487166, 4147.43589723, 4148.84615364, 4132.56410229, 4163.58974339, 4172.56410243, 4148.46153826, 4132.82051255, 4158.33333313, 4125.51282024,10.0
4165.76923056, 4162.56410236, 4123.46153819, 4539.48718012, 4190.64102551, 4152.05128185, 4150.51282031, 4139.87179467, 4169.23076910, 4174.48717935, 4153.71794851, 4127.30769203, 4156.28205108, 4121.53846126,10.0
4147.94871774, 4149.87179467, 4106.79487152, 4530.12820576, 4174.61538448, 4137.17948697, 4138.46153826, 4127.69230742, 4159.23076903, 4165.51282031, 4140.38461518, 4108.84615357, 4143.71794851, 4126.15384588,10.0
4128.71794844, 4130.76923050, 4093.33333299, 4523.97435953, 4166.92307672, 4128.07692280, 4128.33333306, 4114.74358947, 4149.74358954, 4152.69230749, 4122.82051255, 4094.74358940, 4132.94871767, 4127.69230742,10.0
4127.94871767, 4125.51282024, 4093.20512786, 4531.79487242, 4169.99999986, 4133.07692280, 4130.64102537, 4123.58974332, 4157.43589723, 4154.48717928, 4124.87179460, 4091.41025607, 4135.25640998, 4124.61538434,10.0
4138.20512800, 4138.46153826, 4103.97435870, 4544.10256473, 4174.10256397, 4134.61538434, 4133.20512793, 4133.58974332, 4166.53846133, 4168.07692287, 4137.17948697, 4097.82051248, 4144.10256390, 4126.15384588,10.0
4139.74358954, 4142.17948697, 4108.07692280, 4549.48718012, 4174.74358961, 4134.99999973, 4134.61538434, 4133.58974332, 4166.28205108, 4170.51282038, 4136.79487159, 4106.66666639, 4142.43589723, 4126.79487152,10.0
4129.48717921, 4130.64102537, 4093.33333299, 4547.30769294, 4164.74358954, 4132.94871767, 4133.71794844, 4131.02564075, 4160.76923056, 4151.92307672, 4120.25640998, 4100.76923043, 4131.02564075, 4125.64102537,10.0
4133.58974332, 4138.33333313, 4088.46153812, 4555.38461601, 4163.20512800, 4138.20512800, 4140.38461518, 4139.87179467, 4162.94871774, 4143.46153826, 4118.07692280, 4101.15384581, 4135.89743569, 4126.41025614,10.0
4152.30769210, 4160.25641005, 4100.64102530, 4574.87179557, 4176.53846140, 4153.58974339, 4156.92307672, 4152.17948697, 4169.74358961, 4155.25641005, 4134.87179460, 4121.15384588, 4151.15384595, 4127.17948691,10.0
4148.46153826, 4157.94871774, 4087.05128171, 4577.17948788, 4167.94871774, 4142.82051262, 4145.25641005, 4133.07692280, 4152.69230749, 4140.64102544, 4128.97435870, 4120.76923050, 4140.76923056, 4125.89743562,10.0
4128.84615357, 4139.99999980, 4053.97435856, 4568.33333403, 4144.87179467, 4114.87179460, 4118.20512793, 4104.74358947, 4133.46153819, 4110.51282024, 4101.66666632, 4099.48717914, 4121.53846126, 4122.05128178,10.0
4131.53846126, 4139.48717928, 4054.35897395, 4582.69230839, 4153.97435877, 4125.12820485, 4130.89743562, 4118.33333306, 4148.97435877, 4116.28205101, 4098.20512786, 4099.99999966, 4126.15384588, 4126.28205101,10.0
4134.23076896, 4143.46153826, 4067.82051241, 4602.82051359, 4172.30769217, 4147.43589723, 4150.51282031, 4136.92307672, 4163.84615364, 4133.07692280, 4111.66666639, 4104.61538434, 4129.61538434, 4127.43589716,10.0
4113.84615357, 4129.10256383, 4059.23076882, 4601.79487256, 4157.56410236, 4127.56410229, 4126.28205101, 4120.76923050, 4149.48717928, 4126.66666639, 4114.10256383, 4088.33333299, 4118.20512793, 4105.25640998,10.0
4107.30769203, 4121.02564075, 4063.46153805, 4609.35897513, 4144.74358954, 4110.64102537, 4108.33333306, 4115.38461511, 4145.64102544, 4128.58974332, 4116.66666639, 4085.25640991, 4120.51282024, 4110.38461511,10.0
4120.51282024, 4136.15384595, 4091.41025607, 4635.64102648, 4161.15384595, 4132.30769203, 4128.71794844, 4132.56410229, 4163.33333313, 4148.58974339, 4128.97435870, 4101.53846119, 4134.87179460, 4136.15384595,10.0
4128.71794844, 4148.33333313, 4108.33333306, 4650.00000084, 4171.41025628, 4145.51282031, 4142.69230749, 4143.33333313, 4175.76923063, 4159.99999980, 4140.12820492, 4110.25640998, 4144.35897415, 4129.10256383,10.0
4131.66666639, 4144.87179467, 4114.23076896, 4652.17948802, 4162.05128185, 4133.33333306, 4133.71794844, 4141.66666646, 4178.07692294, 4163.46153826, 4146.92307672, 4116.79487152, 4149.10256390, 4114.48717921,10.0
4135.51282031, 4143.20512800, 4126.53846126, 4658.20512904, 4157.94871774, 4131.28205101, 4130.51282024, 4136.41025621, 4174.87179474, 4163.33333313, 4148.33333313, 4128.33333306, 4150.76923056, 4127.17948691,10.0
4150.12820492, 4156.66666646, 4146.92307672, 4671.15384706, 4169.87179474, 4145.25641005, 4145.12820492, 4144.23076903, 4178.20512807, 4163.97435877, 4153.71794851, 4145.25641005, 4157.69230749, 4136.79487159,10.0
4161.92307672, 4168.33333320, 4166.15384595, 4683.97435988, 4173.07692294, 4142.30769210, 4148.58974339, 4145.38461518, 4179.99999986, 4160.38461518, 4163.07692287, 4160.89743569, 4161.92307672, 4121.66666639,10.0
4152.30769210, 4162.30769210, 4167.94871774, 4684.10256501, 4157.94871774, 4126.53846126, 4130.12820485, 4125.76923050, 4163.20512800, 4140.89743569, 4160.51282031, 4159.99999980, 4148.97435877, 4122.30769203,10.0
4150.12820492, 4159.61538441, 4167.56410236, 4679.10256501, 4155.76923056, 4127.43589716, 4127.30769203, 4122.30769203, 4153.58974339, 4132.30769203, 4154.10256390, 4156.79487159, 4145.76923056, 4129.61538434,10.0
4165.25641005, 4170.25641012, 4178.20512807, 4679.35897527, 4171.53846140, 4139.10256390, 4142.17948697, 4140.76923056, 4169.48717935, 4143.58974339, 4155.76923056, 4166.79487159, 4159.61538441, 4123.07692280,10.0
4171.92307679, 4179.74358961, 4182.05128192, 4676.15384706, 4177.82051269, 4139.99999980, 4140.51282031, 4139.23076903, 4173.71794858, 4145.89743569, 4159.61538441, 4175.12820499, 4161.79487159, 4125.12820485,10.0
4159.87179467, 4174.35897422, 4169.35897422, 4660.00000084, 4167.94871774, 4133.71794844, 4128.07692280, 4120.64102537, 4156.15384595, 4135.12820485, 4151.28205108, 4165.76923056, 4147.82051262, 4124.74358947,10.0
4150.76923056, 4167.17948697, 4158.71794851, 4642.94871879, 4163.97435877, 4136.41025621, 4132.05128178, 4128.71794844, 4163.84615364, 4139.35897415, 4136.53846133, 4152.30769210, 4144.74358954, 4124.74358947,10.0
4153.58974339, 4169.61538448, 4156.79487159, 4634.10256494, 4171.41025628, 4144.61538441, 4145.38461518, 4149.48717928, 4185.64102551, 4153.33333313, 4134.99999973, 4151.02564082, 4153.84615364, 4125.38461511,10.0
4147.82051262, 4166.28205108, 4146.79487159, 4620.51282128, 4166.15384595, 4137.43589723, 4138.20512800, 4137.56410236, 4177.05128192, 4148.33333313, 4136.41025621, 4144.99999980, 4147.43589723, 4117.94871767,10.0
4139.23076903, 4158.07692287, 4136.92307672, 4603.20512897, 4152.17948697, 4128.46153819, 4126.66666639, 4121.66666639, 4165.76923056, 4144.61538441, 4135.76923056, 4134.61538434, 4142.05128185, 4123.33333306,10.0
4150.38461518, 4164.74358954, 4145.38461518, 4601.02564179, 4160.76923056, 4144.35897415, 4142.82051262, 4140.25641005, 4184.10256397, 4165.64102544, 4147.56410236, 4143.20512800, 4160.64102544, 4125.51282024,10.0
4150.38461518, 4164.74358954, 4145.38461518, 4601.02564179, 4160.76923056, 4144.35897415, 4142.82051262, 4140.25641005, 4184.10256397, 4165.64102544, 4147.56410236, 4143.20512800, 4160.64102544, 4125.51282024,10.0
4163.46153826, 4172.94871781, 4155.25641005, 4599.23077000, 4176.41025628, 4152.94871774, 4153.71794851, 4153.84615364, 4197.69230756, 4180.25641012, 4158.97435877, 4156.79487159, 4168.46153833, 4114.35897408,10.0
4145.12820492, 4152.30769210, 4144.74358954, 4569.48718019, 4155.51282031, 4130.12820485, 4132.17948691, 4132.30769203, 4179.35897422, 4156.66666646, 4142.17948697, 4141.92307672, 4142.30769210, 4123.97435870,10.0
4130.51282024, 4134.23076896, 4145.64102544, 4542.82051345, 4137.94871774, 4122.82051255, 4119.87179460, 4120.38461511, 4163.20512800, 4136.53846133, 4129.48717921, 4124.74358947, 4128.71794844, 4122.94871767,10.0
4155.89743569, 4154.35897415, 4173.84615371, 4559.87179550, 4163.71794851, 4143.71794851, 4139.87179467, 4143.97435877, 4183.20512807, 4157.69230749, 4156.02564082, 4146.15384595, 4151.79487159, 4115.51282024,10.0
4183.71794858, 4182.17948704, 4198.71794858, 4587.05128275, 4190.51282038, 4157.43589723, 4161.53846133, 4164.87179467, 4212.56410250, 4185.38461525, 4188.84615371, 4176.92307679, 4173.71794858, 4130.89743562,10.0
4178.58974345, 4179.23076910, 4198.84615371, 4574.35897506, 4189.35897422, 4156.66666646, 4163.07692287, 4154.48717928, 4203.33333327, 4174.35897422, 4184.48717935, 4169.10256397, 4168.07692287, 4126.79487152,10.0
4151.28205108, 4156.41025621, 4173.71794858, 4532.56410319, 4173.33333320, 4148.07692287, 4146.92307672, 4135.12820485, 4175.25641012, 4140.64102544, 4149.74358954, 4137.17948697, 4144.23076903, 4118.84615357,10.0
4126.79487152, 4145.64102544, 4139.35897415, 4498.97435953, 4159.99999980, 4132.94871767, 4124.10256383, 4123.58974332, 4167.17948697, 4124.87179460, 4119.87179460, 4116.79487152, 4122.30769203, 4128.07692280,10.0
4112.56410229, 4142.30769210, 4114.87179460, 4478.07692357, 4150.25641005, 4125.64102537, 4110.12820485, 4107.82051255, 4165.51282031, 4118.71794844, 4103.07692280, 4106.66666639, 4112.56410229, 4124.74358947,10.0
4105.25640998, 4138.58974339, 4108.33333306, 4463.33333375, 4148.58974339, 4131.66666639, 4110.76923050, 4100.89743555, 4164.48717928, 4115.38461511, 4098.20512786, 4097.94871761, 4116.15384588, 4117.30769203,10.0
4096.41025607, 4135.76923056, 4102.17948684, 4448.58974401, 4151.02564082, 4130.38461511, 4111.15384588, 4108.46153819, 4170.76923063, 4115.89743562, 4099.48717914, 4090.25640991, 4114.99999973, 4131.79487152,10.0
4095.89743555, 4138.07692287, 4100.76923043, 4439.23076965, 4154.10256390, 4127.82051255, 4114.23076896, 4119.61538434, 4182.17948704, 4123.84615357, 4102.56410229, 4093.97435863, 4111.66666639, 4137.43589723,10.0
4107.17948691, 4144.48717928, 4117.30769203, 4438.33333375, 4155.76923056, 4133.84615357, 4121.53846126, 4124.74358947, 4188.97435884, 4133.46153819, 4108.71794844, 4103.71794844, 4121.02564075, 4116.79487152,10.0
4104.74358947, 4142.94871774, 4127.17948691, 4427.69230804, 4147.69230749, 4128.71794844, 4112.43589716, 4110.76923050, 4178.33333320, 4126.66666639, 4111.02564075, 4098.97435863, 4123.20512793, 4117.94871767,10.0
4099.23076889, 4141.66666646, 4128.58974332, 4411.92307727, 4146.15384595, 4117.05128178, 4101.92307658, 4105.25640998, 4174.10256397, 4125.38461511, 4119.74358947, 4095.51282017, 4120.76923050, 4131.53846126,10.0
4117.17948691, 4155.89743569, 4145.76923056, 4414.10256445, 4162.56410236, 4129.74358947, 4125.76923050, 4131.66666639, 4196.41025628, 4149.48717928, 4139.74358954, 4111.92307665, 4134.10256383, 4127.05128178,10.0
4137.82051262, 4172.82051269, 4165.89743569, 4421.28205163, 4175.25641012, 4149.10256390, 4148.58974339, 4143.84615364, 4203.97435891, 4159.10256390, 4149.35897415, 4126.28205101, 4148.84615364, 4118.20512793,10.0
4129.99999973, 4168.58974345, 4154.23076903, 4402.05128240, 4162.94871774, 4135.89743569, 4129.23076896, 4121.02564075, 4182.56410243, 4134.87179460, 4134.87179460, 4119.35897408, 4141.02564082, 4117.17948691,10.0
4121.66666639, 4162.30769210, 4136.02564082, 4379.74359003, 4152.69230749, 4123.46153819, 4116.02564075, 4114.74358947, 4178.71794858, 4124.61538434, 4119.99999973, 4115.51282024, 4131.15384588, 4131.66666639,10.0
4124.48717921, 4159.99999980, 4136.15384595, 4373.20512849, 4156.41025621, 4126.02564075, 4122.05128178, 4123.84615357, 4184.99999986, 4128.97435870, 4112.17948691, 4117.05128178, 4129.23076896, 4135.51282031,10.0
4116.28205101, 4148.71794851, 4134.23076896, 4362.69230790, 4152.43589723, 4121.92307665, 4116.41025614, 4117.82051255, 4177.05128192, 4117.56410229, 4105.25640998, 4108.20512793, 4121.28205101, 4126.53846126,10.0
4109.10256383, 4144.23076903, 4128.71794844, 4354.23076944, 4147.82051262, 4119.35897408, 4109.35897408, 4108.58974332, 4171.66666653, 4110.25640998, 4104.61538434, 4101.02564068, 4116.28205101, 4127.30769203,10.0
4113.71794844, 4149.87179467, 4130.25640998, 4359.48717970, 4153.58974339, 4126.28205101, 4116.66666639, 4113.97435870, 4178.20512807, 4121.79487152, 4104.99999973, 4104.48717921, 4119.35897408, 4126.41025614,10.0
4115.25640998, 4151.15384595, 4130.25640998, 4363.71794893, 4159.74358954, 4131.66666639, 4125.25640998, 4129.87179460, 4190.89743576, 4136.28205108, 4104.74358947, 4107.05128178, 4124.10256383, 4125.25640998,10.0
4115.89743562, 4153.07692287, 4126.15384588, 4361.53846175, 4162.43589723, 4133.46153819, 4131.02564075, 4136.92307672, 4200.51282038, 4143.97435877, 4106.79487152, 4104.23076896, 4128.84615357, 4128.46153819,10.0
4119.87179460, 4155.89743569, 4116.92307665, 4363.07692329, 4159.48717928, 4133.58974332, 4133.33333306, 4133.33333306, 4197.82051269, 4147.05128185, 4104.99999973, 4102.05128171, 4129.61538434, 4128.33333306,10.0
4103.84615357, 4139.35897415, 4094.10256376, 4357.43589765, 4140.38461518, 4116.02564075, 4113.33333306, 4118.71794844, 4182.05128192, 4132.30769203, 4085.25640991, 4091.28205094, 4113.97435870, 4124.74358947,10.0
4093.07692273, 4131.02564075, 4090.12820478, 4361.28205149, 4131.92307665, 4104.35897408, 4100.51282017, 4114.23076896, 4179.99999986, 4120.89743562, 4076.02564068, 4087.56410222, 4106.53846126, 4121.92307665,10.0
4112.43589716, 4149.35897415, 4118.07692280, 4386.28205156, 4149.87179467, 4119.35897408, 4115.51282024, 4124.61538434, 4193.07692294, 4133.58974332, 4096.02564068, 4104.35897408, 4123.46153819, 4127.30769203,10.0
4118.07692280, 4154.74358954, 4132.05128178, 4389.10256438, 4154.48717928, 4125.64102537, 4123.20512793, 4124.87179460, 4189.87179474, 4134.10256383, 4107.05128178, 4111.92307665, 4126.02564075, 4128.07692280,10.0
4100.38461504, 4138.71794851, 4124.87179460, 4370.12820541, 4141.79487159, 4111.41025614, 4112.69230742, 4113.71794844, 4172.17948704, 4112.43589716, 4095.64102530, 4102.30769196, 4109.61538434, 4123.71794844,10.0
4097.17948684, 4133.33333306, 4126.28205101, 4360.51282073, 4137.43589723, 4108.33333306, 4109.35897408, 4107.43589716, 4163.33333313, 4101.79487145, 4090.76923043, 4098.20512786, 4105.25640998, 4125.64102537,10.0
4102.17948684, 4134.35897408, 4128.71794844, 4346.66666688, 4136.15384595, 4113.84615357, 4112.56410229, 4110.38461511, 4162.30769210, 4101.41025607, 4094.87179453, 4103.33333306, 4111.02564075, 4123.84615357,10.0
4099.10256376, 4131.15384588, 4125.12820485, 4324.61538476, 4136.15384595, 4110.64102537, 4113.46153819, 4118.20512793, 4164.23076903, 4097.05128171, 4087.17948684, 4109.74358947, 4110.51282024, 4122.43589716,10.0
4097.17948684, 4134.61538434, 4122.94871767, 4305.38461553, 4138.84615364, 4109.48717921, 4113.58974332, 4116.66666639, 4163.20512800, 4093.33333299, 4074.10256376, 4113.07692280, 4104.61538434, 4124.74358947,10.0
4081.79487145, 4124.23076896, 4101.41025607, 4270.89743597, 4119.99999973, 4096.02564068, 4089.23076889, 4090.12820478, 4145.38461518, 4078.33333299, 4058.58974318, 4095.51282017, 4088.84615350, 4122.17948691,10.0
4067.05128164, 4108.97435870, 4078.84615350, 4235.76923077, 4104.10256383, 4084.87179453, 4074.23076889, 4082.56410222, 4137.94871774, 4065.12820472, 4047.43589702, 4076.41025607, 4077.05128171, 4121.15384588,10.0
4066.28205087, 4112.05128178, 4080.25640991, 4221.15384609, 4113.20512793, 4089.23076889, 4083.33333299, 4097.69230735, 4143.58974339, 4070.64102530, 4049.35897395, 4079.35897402, 4078.46153812, 4121.15384588,10.0
4057.94871754, 4110.12820485, 4080.38461504, 4202.05128199, 4109.87179460, 4081.66666632, 4074.35897402, 4087.69230735, 4136.79487159, 4072.43589709, 4050.76923036, 4077.30769196, 4077.05128171, 4122.43589716,10.0
4052.94871754, 4097.17948684, 4076.79487145, 4178.46153833, 4097.05128171, 4072.30769196, 4064.61538420, 4079.35897402, 4135.64102544, 4072.56410222, 4055.76923036, 4069.99999966, 4079.35897402, 4123.33333306,10.0
4061.79487138, 4098.07692273, 4083.58974325, 4173.46153833, 4100.89743555, 4077.43589709, 4073.97435863, 4091.79487145, 4145.64102544, 4080.76923043, 4068.58974318, 4074.23076889, 4087.43589709, 4124.10256383,10.0
4060.25640984, 4103.07692280, 4084.74358940, 4163.33333313, 4098.58974325, 4073.58974325, 4070.89743555, 4088.97435863, 4137.56410236, 4077.82051248, 4067.69230728, 4067.69230728, 4082.30769196, 4126.79487152,10.0
4046.79487138, 4092.30769196, 4074.87179453, 4133.46153819, 4087.43589709, 4062.94871754, 4058.97435856, 4073.84615350, 4119.99999973, 4064.23076882, 4050.89743548, 4049.99999959, 4070.25640991, 4124.61538434,10.0
4045.64102523, 4085.38461504, 4074.87179453, 4117.56410229, 4090.51282017, 4072.69230735, 4067.05128164, 4074.35897402, 4118.20512793, 4061.15384574, 4047.17948677, 4047.56410215, 4071.53846119, 4125.12820485,10.0
4048.58974318, 4085.76923043, 4077.94871761, 4110.76923050, 4090.89743555, 4080.51282017, 4074.74358940, 4076.92307658, 4119.87179460, 4059.99999959, 4052.30769189, 4051.02564061, 4074.61538427, 4127.05128178,10.0
4043.46153805, 4078.20512786, 4074.74358940, 4093.84615350, 4078.71794837, 4066.15384574, 4063.71794830, 4072.05128171, 4117.17948691, 4052.56410215, 4051.41025600, 4047.69230728, 4066.41025600, 4122.94871767,10.0
4045.25640984, 4079.23076889, 4085.25640991, 4089.74358940, 4079.87179453, 4057.05128164, 4054.87179446, 4068.84615343, 4115.38461511, 4054.48717907, 4056.66666625, 4051.28205087, 4064.99999959, 4121.79487152,10.0
4050.64102523, 4087.94871761, 4101.79487145, 4090.89743555, 4091.92307658, 4066.92307651, 4058.71794830, 4066.15384574, 4110.89743562, 4057.94871754, 4063.71794830, 4051.66666625, 4072.17948684, 4121.15384588,10.0
4047.43589702, 4084.99999966, 4102.17948684, 4075.64102530, 4092.43589709, 4076.53846119, 4065.51282010, 4065.64102523, 4106.66666639, 4052.05128164, 4061.53846113, 4042.94871754, 4071.92307658, 4124.48717921,10.0
4045.25640984, 4083.46153812, 4098.07692273, 4061.41025600, 4090.64102530, 4074.61538427, 4068.07692266, 4072.56410222, 4111.15384588, 4052.82051241, 4063.20512779, 4043.58974318, 4067.69230728, 4129.87179460,10.0
4052.94871754, 4095.64102530, 4102.56410229, 4057.69230728, 4102.17948684, 4080.25640991, 4073.97435863, 4082.05128171, 4116.92307665, 4062.82051241, 4069.99999966, 4052.05128164, 4070.51282017, 4124.99999973,10.0
4057.05128164, 4099.48717914, 4100.12820478, 4042.82051241, 4103.58974332, 4080.76923043, 4071.15384581, 4081.92307658, 4113.58974332, 4062.69230728, 4058.84615343, 4054.61538420, 4071.15384581, 4122.69230742,10.0
4061.41025600, 4099.48717914, 4097.56410222, 4028.46153798, 4101.41025607, 4076.28205094, 4070.64102530, 4083.33333299, 4116.79487152, 4067.43589702, 4051.79487138, 4061.66666625, 4077.69230735, 4126.41025614,10.0
4068.97435856, 4108.46153819, 4104.10256383, 4028.07692259, 4112.30769203, 4091.79487145, 4087.69230735, 4091.41025607, 4127.43589716, 4080.89743555, 4062.82051241, 4073.20512786, 4089.10256376, 4125.51282024,10.0
4054.87179446, 4095.76923043, 4088.84615350, 4012.17948670, 4102.05128171, 4084.87179453, 4076.15384581, 4078.71794837, 4116.15384588, 4071.02564068, 4058.07692266, 4062.69230728, 4078.20512786, 4121.66666639,10.0
4037.17948677, 4077.56410222, 4073.07692273, 3993.07692252, 4079.35897402, 4053.71794830, 4044.23076882, 4053.58974318, 4097.30769196, 4057.30769189, 4047.05128164, 4049.87179446, 4062.30769189, 4121.92307665,10.0
4044.87179446, 4089.74358940, 4092.17948684, 3999.48717894, 4080.76923043, 4053.84615343, 4043.58974318, 4051.41025600, 4096.41025607, 4063.58974318, 4058.07692266, 4062.05128164, 4065.12820472, 4124.99999973,10.0
4054.23076882, 4100.25640991, 4115.12820485, 4009.35897388, 4089.99999966, 4065.38461497, 4054.10256369, 4061.79487138, 4103.07692280, 4074.10256376, 4076.79487145, 4076.79487145, 4073.58974325, 4123.33333306,10.0
4051.02564061, 4089.35897402, 4117.17948691, 4006.02564054, 4083.84615350, 4055.12820472, 4051.53846113, 4064.74358933, 4103.71794844, 4078.33333299, 4084.87179453, 4075.76923043, 4078.97435863, 4124.61538434,10.0
4047.05128164, 4080.25640991, 4109.74358947, 3998.33333278, 4074.74358940, 4052.30769189, 4053.20512779, 4065.12820472, 4098.71794837, 4071.02564068, 4078.33333299, 4066.15384574, 4074.87179453, 4128.84615357,10.0
4046.92307651, 4079.35897402, 4105.25640998, 3994.87179432, 4075.89743555, 4060.64102523, 4058.33333292, 4065.64102523, 4098.07692273, 4062.17948677, 4064.87179446, 4060.89743548, 4064.74358933, 4125.64102537,10.0
4059.99999959, 4081.79487145, 4111.53846126, 4000.12820458, 4091.41025607, 4069.87179453, 4072.43589709, 4081.66666632, 4113.58974332, 4078.58974325, 4071.02564068, 4072.69230735, 4074.61538427, 4124.74358947,10.0
4070.89743555, 4086.92307658, 4112.43589716, 4001.79487124, 4103.84615357, 4082.30769196, 4089.87179453, 4100.38461504, 4125.76923050, 4096.66666632, 4083.58974325, 4085.89743555, 4091.15384581, 4128.07692280,10.0
4051.79487138, 4083.07692273, 4087.94871761, 3982.56410201, 4086.79487145, 4070.64102530, 4067.82051241, 4077.17948684, 4106.53846126, 4072.69230735, 4063.84615343, 4068.97435856, 4076.66666632, 4126.53846126,10.0
4039.87179446, 4082.43589709, 4072.17948684, 3970.64102502, 4075.25640991, 4054.74358933, 4045.76923036, 4051.02564061, 4089.10256376, 4051.41025600, 4038.84615343, 4050.25640984, 4062.82051241, 4128.58974332,10.0
4051.92307651, 4089.74358940, 4077.69230735, 3977.69230714, 4084.74358940, 4064.10256369, 4062.56410215, 4063.71794830, 4094.87179453, 4060.89743548, 4036.53846106, 4054.10256369, 4069.10256369, 4130.25640998,10.0
4044.74358933, 4080.89743555, 4068.84615343, 3971.79487124, 4077.17948684, 4060.51282010, 4058.97435856, 4066.28205087, 4088.58974325, 4054.35897395, 4031.79487131, 4050.89743548, 4063.20512779, 4121.53846126,10.0
4030.89743541, 4078.33333299, 4064.61538420, 3961.92307630, 4065.76923036, 4051.92307651, 4044.23076882, 4053.20512779, 4082.05128171, 4043.84615343, 4029.61538413, 4043.84615343, 4058.07692266, 4120.64102537,10.0
4044.87179446, 4098.71794837, 4085.51282017, 3975.89743535, 4080.64102530, 4067.30769189, 4063.33333292, 4066.28205087, 4097.56410222, 4062.17948677, 4052.69230728, 4058.84615343, 4073.97435863, 4127.69230742,10.0
4058.71794830, 4109.23076896, 4097.56410222, 3989.99999945, 4092.69230735, 4072.94871761, 4069.99999966, 4071.53846119, 4097.94871761, 4069.74358940, 4066.28205087, 4069.74358940, 4077.82051248, 4127.17948691,10.0
4059.61538420, 4110.51282024, 4099.87179453, 3988.33333278, 4087.94871761, 4064.74358933, 4057.17948677, 4057.82051241, 4084.87179453, 4061.15384574, 4059.10256369, 4064.61538420, 4069.87179453, 4122.56410229,10.0
4062.69230728, 4112.43589716, 4106.79487152, 3985.51281996, 4086.53846119, 4070.64102530, 4067.69230728, 4067.56410215, 4092.05128171, 4069.61538420, 4061.15384574, 4065.51282010, 4075.51282017, 4120.76923050,10.0
4052.69230728, 4099.61538427, 4099.10256376, 3978.58974304, 4079.48717914, 4067.17948677, 4067.69230728, 4073.46153812, 4090.76923043, 4067.94871754, 4057.30769189, 4058.33333292, 4072.30769196, 4122.56410229,10.0
4037.05128164, 4086.15384581, 4086.92307658, 3967.69230707, 4068.84615343, 4051.79487138, 4047.30769189, 4056.28205087, 4075.38461504, 4047.94871754, 4041.41025600, 4040.89743548, 4055.64102523, 4124.48717921,10.0
4033.58974311, 4082.94871761, 4084.74358940, 3959.10256348, 4064.35897395, 4049.61538420, 4045.76923036, 4053.46153805, 4073.58974325, 4039.23076882, 4031.15384567, 4036.79487131, 4050.38461497, 4123.97435870,10.0
4041.92307651, 4081.41025607, 4088.84615350, 3960.64102502, 4064.87179446, 4054.48717907, 4057.30769189, 4067.82051241, 4080.12820478, 4047.43589702, 4034.10256362, 4048.20512779, 4059.61538420, 4123.07692280,10.0
4048.46153805, 4081.79487145, 4096.02564068, 3966.66666605, 4068.97435856, 4053.84615343, 4055.64102523, 4067.69230728, 4079.99999966, 4057.94871754, 4042.30769189, 4056.15384574, 4065.89743548, 4122.82051255,10.0
4046.41025600, 4086.92307658, 4097.82051248, 3961.79487117, 4073.97435863, 4055.64102523, 4049.35897395, 4063.58974318, 4081.15384581, 4060.51282010, 4044.99999959, 4057.56410215, 4066.92307651, 4127.43589716,10.0
4053.33333292, 4095.38461504, 4096.41025607, 3958.46153784, 4081.92307658, 4066.79487138, 4062.17948677, 4077.17948684, 4089.61538427, 4063.33333292, 4046.92307651, 4064.61538420, 4074.35897402, 4127.17948691,10.0
4053.33333292, 4095.38461504, 4096.41025607, 3958.46153784, 4081.92307658, 4066.79487138, 4062.17948677, 4077.17948684, 4089.61538427, 4063.33333292, 4046.92307651, 4064.61538420, 4074.35897402, 4127.17948691,10.0
4063.07692266, 4100.25640991, 4098.33333299, 3962.82051220, 4084.48717914, 4072.69230735, 4073.97435863, 4077.56410222, 4090.76923043, 4067.43589702, 4046.92307651, 4067.30769189, 4078.33333299, 4122.43589716,10.0
4057.69230728, 4095.51282017, 4093.71794837, 3960.38461476, 4076.53846119, 4064.87179446, 4061.28205087, 4063.97435856, 4082.17948684, 4064.23076882, 4038.71794830, 4058.84615343, 4071.15384581, 4122.94871767,10.0
4042.82051241, 4085.51282017, 4080.38461504, 3950.38461476, 4065.51282010, 4051.66666625, 4045.12820472, 4057.05128164, 4071.41025607, 4052.56410215, 4024.10256362, 4050.12820472, 4062.94871754, 4122.17948691,10.0
4039.23076882, 4078.46153812, 4075.25640991, 3945.76923015, 4060.25640984, 4045.12820472, 4043.71794830, 4051.02564061, 4062.05128164, 4044.61538420, 4022.17948670, 4046.92307651, 4060.64102523, 4123.46153819,10.0
4050.51282010, 4078.33333299, 4082.43589709, 3949.74358912, 4063.46153805, 4047.30769189, 4045.25640984, 4049.74358933, 4063.33333292, 4048.07692266, 4037.56410215, 4050.51282010, 4064.99999959, 4123.71794844,10.0
4059.10256369, 4085.76923043, 4091.53846119, 3958.84615322, 4064.99999959, 4046.41025600, 4042.17948677, 4055.51282010, 4069.23076882, 4055.64102523, 4047.43589702, 4058.46153805, 4073.71794837, 4121.02564075,10.0
4064.74358933, 4091.79487145, 4103.20512793, 3965.89743528, 4067.17948677, 4046.92307651, 4045.51282010, 4057.56410215, 4072.05128171, 4062.82051241, 4050.25640984, 4066.41025600, 4081.53846119, 4123.84615357,10.0
4068.84615343, 4085.51282017, 4109.61538434, 3964.35897374, 4067.82051241, 4051.92307651, 4052.43589702, 4059.10256369, 4077.30769196, 4068.71794830, 4051.92307651, 4067.69230728, 4082.69230735, 4125.51282024,10.0
4063.07692266, 4072.17948684, 4102.69230742, 3961.53846092, 4056.28205087, 4050.51282010, 4051.15384574, 4061.53846113, 4079.74358940, 4066.53846113, 4048.20512779, 4060.25640984, 4075.38461504, 4125.25640998,10.0
4046.28205087, 4058.20512779, 4085.51282017, 3957.82051220, 4042.05128164, 4040.51282010, 4037.56410215, 4048.20512779, 4063.97435856, 4048.20512779, 4034.23076875, 4044.35897395, 4062.69230728, 4124.61538434,10.0
4045.25640984, 4059.23076882, 4079.74358940, 3957.69230707, 4051.28205087, 4043.97435856, 4035.25640977, 4044.23076882, 4060.25640984, 4043.97435856, 4030.76923029, 4040.51282010, 4062.17948677, 4124.35897408,10.0
4053.71794830, 4067.94871754, 4081.28205094, 3963.46153784, 4066.92307651, 4063.20512779, 4053.84615343, 4065.89743548, 4079.87179453, 4058.58974318, 4038.84615343, 4047.82051241, 4069.48717907, 4124.10256383,10.0
4031.92307644, 4056.28205087, 4059.74358933, 3956.53846092, 4053.58974318, 4059.87179446, 4048.84615343, 4061.79487138, 4076.02564068, 4046.92307651, 4024.10256362, 4031.92307644, 4053.46153805, 4122.69230742,10.0
4008.33333285, 4041.53846113, 4038.58974318, 3946.79487117, 4037.43589702, 4039.74358933, 4023.07692259, 4038.97435856, 4054.61538420, 4022.30769183, 4002.43589688, 4011.28205080, 4033.20512772, 4123.71794844,10.0
4022.82051234, 4050.64102523, 4051.53846113, 3961.02564040, 4050.89743548, 4044.10256369, 4028.20512772, 4045.64102523, 4056.41025600, 4029.10256362, 4011.28205080, 4020.76923029, 4044.99999959, 4122.56410229,10.0
4043.84615343, 4066.92307651, 4075.51282017, 3984.35897381, 4068.46153805, 4059.99999959, 4048.20512779, 4058.97435856, 4069.23076882, 4047.94871754, 4031.66666618, 4038.97435856, 4066.15384574, 4122.69230742,10.0
4039.74358933, 4069.23076882, 4078.97435863, 3988.84615329, 4065.76923036, 4055.38461497, 4043.97435856, 4051.02564061, 4067.94871754, 4047.43589702, 4029.99999952, 4040.64102523, 4065.89743548, 4125.76923050,10.0
4031.28205080, 4068.33333292, 4075.64102530, 3986.28205073, 4055.76923036, 4042.69230728, 4029.10256362, 4042.30769189, 4060.76923036, 4042.69230728, 4019.35897388, 4038.84615343, 4056.28205087, 4121.92307665,10.0
4044.61538420, 4078.33333299, 4086.79487145, 3997.30769176, 4059.87179446, 4045.76923036, 4034.87179439, 4050.12820472, 4068.58974318, 4048.84615343, 4024.99999952, 4048.33333292, 4063.84615343, 4121.28205101,10.0
4059.74358933, 4088.07692273, 4092.05128171, 4006.92307644, 4070.89743555, 4062.69230728, 4059.61538420, 4067.82051241, 4082.56410222, 4057.82051241, 4034.48717900, 4056.41025600, 4077.30769196, 4126.92307665,10.0
4056.41025600, 4086.92307658, 4080.38461504, 3996.79487124, 4068.58974318, 4071.02564068, 4066.41025600, 4075.38461504, 4085.64102530, 4059.74358933, 4027.69230721, 4053.07692266, 4073.84615350, 4127.82051255,10.0
4051.28205087, 4082.30769196, 4073.97435863, 3986.79487124, 4059.35897395, 4056.92307651, 4045.38461497, 4065.76923036, 4081.66666632, 4059.48717907, 4017.82051234, 4049.74358933, 4068.58974318, 4125.25640998,10.0
4050.12820472, 4076.79487145, 4076.53846119, 3983.07692252, 4057.30769189, 4039.48717907, 4028.46153798, 4052.17948677, 4074.48717914, 4056.28205087, 4018.33333285, 4052.30769189, 4067.17948677, 4123.97435870,10.0
4038.97435856, 4063.07692266, 4072.05128171, 3972.56410201, 4056.53846113, 4039.87179446, 4025.64102516, 4044.61538420, 4063.58974318, 4039.74358933, 4015.64102516, 4050.51282010, 4054.87179446, 4123.97435870,10.0
4029.48717900, 4053.33333292, 4069.48717907, 3967.43589681, 4052.05128164, 4041.92307651, 4019.87179439, 4042.94871754, 4062.43589702, 4034.74358926, 4011.66666618, 4047.05128164, 4047.17948677, 4123.97435870,10.0
4029.74358926, 4051.41025600, 4072.82051248, 3965.76923015, 4051.41025600, 4033.71794824, 4012.56410208, 4039.35897395, 4063.46153805, 4044.10256369, 4016.66666618, 4043.33333292, 4053.71794830, 4124.87179460,10.0
4027.69230721, 4045.25640984, 4066.02564061, 3952.17948656, 4053.07692266, 4036.53846106, 4020.51282003, 4033.58974311, 4054.61538420, 4039.10256369, 4017.82051234, 4033.84615336, 4053.07692266, 4126.28205101,10.0
4026.28205080, 4044.99999959, 4061.02564061, 3944.35897374, 4054.10256369, 4048.46153805, 4032.82051234, 4041.02564061, 4058.07692266, 4035.12820465, 4014.61538413, 4029.99999952, 4050.51282010, 4126.28205101,10.0
4035.76923029, 4059.48717907, 4070.25640991, 3952.17948656, 4059.74358933, 4049.10256369, 4035.89743541, 4055.51282010, 4071.15384581, 4053.33333292, 4021.41025593, 4038.58974318, 4061.15384574, 4126.53846126,10.0
4048.46153805, 4071.28205094, 4079.23076889, 3958.58974297, 4068.97435856, 4052.30769189, 4044.48717907, 4058.58974318, 4072.43589709, 4065.12820472, 4035.25640977, 4048.84615343, 4068.46153805, 4127.69230742,10.0
4055.89743548, 4072.30769196, 4080.89743555, 3961.41025579, 4075.76923043, 4065.51282010, 4059.48717907, 4063.97435856, 4077.82051248, 4064.87179446, 4042.82051241, 4057.43589702, 4074.23076889, 4125.89743562,10.0
4056.79487138, 4068.84615343, 4077.94871761, 3963.58974297, 4072.30769196, 4063.33333292, 4058.58974318, 4073.58974325, 4086.66666632, 4064.10256369, 4039.61538420, 4059.99999959, 4079.10256376, 4122.94871767,10.0
4049.87179446, 4064.48717907, 4072.17948684, 3957.94871733, 4060.25640984, 4045.76923036, 4039.87179446, 4062.30769189, 4073.71794837, 4051.66666625, 4032.56410208, 4051.92307651, 4066.92307651, 4124.10256383,10.0
4037.94871754, 4057.30769189, 4065.76923036, 3951.92307630, 4051.66666625, 4044.10256369, 4033.71794824, 4045.76923036, 4058.33333292, 4040.76923036, 4025.64102516, 4041.15384574, 4053.33333292, 4124.74358947,10.0
4027.17948670, 4047.82051241, 4059.61538420, 3950.76923015, 4047.56410215, 4046.28205087, 4032.82051234, 4041.15384574, 4059.10256369, 4041.53846113, 4015.64102516, 4032.56410208, 4050.25640984, 4125.25640998,10.0
4036.79487131, 4052.69230728, 4065.64102523, 3963.07692246, 4053.97435856, 4043.07692266, 4035.25640977, 4049.74358933, 4067.94871754, 4050.51282010, 4021.53846106, 4037.17948677, 4057.17948677, 4123.07692280,10.0
4054.10256369, 4069.74358940, 4078.84615350, 3983.84615329, 4067.30769189, 4050.25640984, 4047.69230728, 4066.53846113, 4078.46153812, 4067.82051241, 4043.07692266, 4054.74358933, 4071.15384581, 4123.20512793,10.0
4047.82051241, 4071.41025607, 4074.87179453, 3985.89743535, 4069.61538420, 4056.41025600, 4050.76923036, 4071.28205094, 4082.17948684, 4073.71794837, 4043.71794830, 4058.33333292, 4075.38461504, 4127.05128178,10.0
4042.17948677, 4070.64102530, 4065.76923036, 3985.12820458, 4076.92307658, 4064.23076882, 4057.05128164, 4069.87179453, 4082.82051248, 4069.10256369, 4032.43589695, 4051.53846113, 4070.89743555, 4122.43589716,10.0
4057.30769189, 4084.87179453, 4075.38461504, 4000.38461483, 4092.69230735, 4076.66666632, 4068.07692266, 4076.53846119, 4087.17948684, 4075.25640991, 4038.20512779, 4057.94871754, 4073.84615350, 4121.66666639,10.0
4061.02564061, 4087.30769196, 4082.43589709, 4006.02564054, 4085.76923043, 4068.20512779, 4054.87179446, 4069.87179453, 4082.94871761, 4076.53846119, 4041.28205087, 4067.43589702, 4075.76923043, 4125.38461511,10.0
4047.56410215, 4072.94871761, 4071.66666632, 3996.66666611, 4067.17948677, 4052.30769189, 4038.58974318, 4050.89743548, 4071.41025607, 4063.71794830, 4031.28205080, 4062.69230728, 4067.05128164, 4123.20512793,10.0
4044.74358933, 4069.23076882, 4066.92307651, 3998.20512765, 4065.38461497, 4054.23076882, 4042.56410215, 4046.41025600, 4063.58974318, 4060.12820472, 4029.74358926, 4058.20512779, 4066.79487138, 4121.28205101,10.0
4053.20512779, 4074.87179453, 4076.92307658, 4009.23076875, 4066.28205087, 4055.25640984, 4043.46153805, 4050.25640984, 4061.53846113, 4062.17948677, 4034.23076875, 4063.97435856, 4074.10256376, 4121.79487152,10.0
4067.56410215, 4083.97435863, 4094.48717914, 4019.61538413, 4068.46153805, 4053.84615343, 4046.02564061, 4055.51282010, 4068.58974318, 4067.05128164, 4040.89743548, 4078.07692273, 4078.07692273, 4124.87179460,10.0
4085.64102530, 4094.23076889, 4110.89743562, 4033.71794824, 4083.58974325, 4068.33333292, 4068.07692266, 4070.25640991, 4081.28205094, 4082.17948684, 4054.87179446, 4094.99999966, 4088.46153812, 4125.12820485,10.0
4081.41025607, 4086.53846119, 4107.69230742, 4034.35897388, 4087.69230735, 4075.64102530, 4072.56410222, 4074.48717914, 4078.20512786, 4081.66666632, 4050.89743548, 4094.23076889, 4091.15384581, 4124.74358947,10.0
4054.48717907, 4064.99999959, 4081.79487145, 4016.41025593, 4070.76923043, 4062.43589702, 4051.15384574, 4060.64102523, 4064.10256369, 4058.20512779, 4020.76923029, 4070.12820478, 4072.05128171, 4124.35897408,10.0
4043.07692266, 4058.58974318, 4064.99999959, 4012.69230721, 4062.17948677, 4055.51282010, 4041.92307651, 4057.94871754, 4066.66666625, 4053.20512779, 4010.64102516, 4053.46153805, 4061.02564061, 4120.12820485,10.0
4057.17948677, 4073.20512786, 4071.53846119, 4034.99999952, 4075.38461504, 4069.23076882, 4059.48717907, 4070.12820478, 4082.82051248, 4074.87179453, 4031.66666618, 4059.61538420, 4076.28205094, 4122.69230742,10.0
4063.97435856, 4081.02564068, 4074.61538427, 4055.25640984, 4086.15384581, 4080.12820478, 4074.61538427, 4078.20512786, 4091.66666632, 4087.43589709, 4041.41025600, 4065.25640984, 4084.61538427, 4127.05128178,10.0
4054.23076882, 4072.69230735, 4063.97435856, 4065.12820472, 4083.58974325, 4076.15384581, 4071.53846119, 4080.38461504, 4090.76923043, 4081.53846119, 4031.28205080, 4057.43589702, 4073.07692273, 4122.43589716,10.0
4047.05128164, 4066.53846113, 4054.48717907, 4074.74358940, 4079.10256376, 4073.58974325, 4066.02564061, 4076.92307658, 4085.64102530, 4078.20512786, 4027.94871747, 4047.30769189, 4069.48717907, 4122.17948691,10.0
4046.53846113, 4067.43589702, 4056.15384574, 4088.20512786, 4076.92307658, 4066.79487138, 4057.43589702, 4066.28205087, 4076.66666632, 4078.20512786, 4032.43589695, 4046.41025600, 4071.02564068, 4126.41025614,10.0
4057.30769189, 4074.61538427, 4071.92307658, 4109.74358947, 4080.12820478, 4054.87179446, 4048.46153805, 4058.97435856, 4074.48717914, 4075.89743555, 4044.48717907, 4063.71794830, 4072.94871761, 4125.38461511,10.0
4079.23076889, 4088.46153812, 4093.07692273, 4133.46153819, 4091.28205094, 4066.28205087, 4062.94871754, 4070.25640991, 4084.87179453, 4085.12820478, 4067.82051241, 4088.33333299, 4087.82051248, 4121.53846126,10.0
4088.71794837, 4095.25640991, 4102.05128171, 4144.74358954, 4096.79487145, 4082.43589709, 4079.48717914, 4080.89743555, 4088.07692273, 4092.56410222, 4080.38461504, 4095.89743555, 4096.15384581, 4122.43589716,10.0
4089.23076889, 4093.97435863, 4102.82051255, 4144.87179467, 4092.17948684, 4078.20512786, 4073.97435863, 4078.07692273, 4085.64102530, 4083.97435863, 4076.79487145, 4096.15384581, 4089.35897402, 4125.89743562,10.0
4098.20512786, 4100.12820478, 4108.20512793, 4145.89743569, 4093.71794837, 4076.53846119, 4071.28205094, 4076.28205094, 4088.07692273, 4080.12820478, 4074.10256376, 4104.99999973, 4088.20512786, 4125.76923050,10.0
4107.69230742, 4106.79487152, 4110.76923050, 4146.02564082, 4102.69230742, 4089.87179453, 4086.92307658, 4083.84615350, 4091.41025607, 4081.79487145, 4071.66666632, 4108.20512793, 4094.87179453, 4123.58974332,10.0
4108.46153819, 4106.28205101, 4109.61538434, 4143.20512800, 4108.33333306, 4101.41025607, 4101.66666632, 4101.15384581, 4101.79487145, 4082.43589709, 4069.48717907, 4107.94871767, 4100.51282017, 4120.38461511,10.0
4107.30769203, 4109.35897408, 4109.61538434, 4142.05128185, 4111.79487152, 4107.94871767, 4104.23076896, 4107.05128178, 4103.97435870, 4084.99999966, 4070.12820478, 4114.61538434, 4098.33333299, 4119.87179460,10.0
4099.61538427, 4107.82051255, 4101.53846119, 4136.28205108, 4108.46153819, 4098.58974325, 4089.35897402, 4086.92307658, 4084.23076889, 4076.41025607, 4061.28205087, 4104.48717921, 4083.71794837, 4123.97435870,10.0
4089.10256376, 4101.02564068, 4091.79487145, 4128.46153819, 4102.05128171, 4082.94871761, 4077.69230735, 4071.28205094, 4079.23076889, 4069.61538420, 4053.97435856, 4086.92307658, 4076.92307658, 4124.74358947,10.0
4084.48717914, 4100.89743555, 4092.94871761, 4123.07692280, 4098.97435863, 4082.43589709, 4081.02564068, 4077.69230735, 4090.25640991, 4080.25640991, 4059.23076882, 4088.46153812, 4085.12820478, 4124.10256383,10.0
4081.66666632, 4100.25640991, 4096.28205094, 4118.07692280, 4095.89743555, 4081.15384581, 4073.71794837, 4078.33333299, 4086.92307658, 4083.84615350, 4062.17948677, 4089.87179453, 4085.25640991, 4124.99999973,10.0
4088.58974325, 4102.17948684, 4104.10256383, 4120.38461511, 4096.66666632, 4076.15384581, 4066.53846113, 4076.92307658, 4090.76923043, 4089.23076889, 4073.84615350, 4094.87179453, 4087.94871761, 4123.71794844,10.0
4096.15384581, 4106.41025614, 4111.41025614, 4124.99999973, 4098.84615350, 4081.79487145, 4076.79487145, 4088.97435863, 4104.23076896, 4104.61538434, 4089.48717914, 4108.58974332, 4099.74358940, 4124.61538434,10.0
4088.33333299, 4098.07692273, 4103.97435870, 4116.15384588, 4093.20512786, 4086.41025607, 4082.56410222, 4091.66666632, 4102.05128171, 4103.97435870, 4085.89743555, 4105.51282024, 4099.35897402, 4124.48717921,10.0
4081.02564068, 4091.02564068, 4091.66666632, 4104.23076896, 4087.69230735, 4083.97435863, 4079.48717914, 4087.30769196, 4098.97435863, 4096.28205094, 4080.51282017, 4096.66666632, 4094.23076889, 4123.46153819,10.0
4088.71794837, 4102.69230742, 4093.33333299, 4106.92307665, 4093.46153812, 4086.28205094, 4085.25640991, 4088.97435863, 4099.48717914, 4100.64102530, 4086.92307658, 4104.87179460, 4098.84615350, 4127.30769203,10.0
4104.48717921, 4119.35897408, 4108.33333306, 4113.97435870, 4105.25640998, 4101.92307658, 4103.84615357, 4101.02564068, 4105.25640998, 4110.25640998, 4095.25640991, 4120.12820485, 4108.71794844, 4128.07692280,10.0
4111.15384588, 4119.99999973, 4113.84615357, 4105.51282024, 4106.41025614, 4106.02564075, 4109.35897408, 4112.94871767, 4116.28205101, 4110.76923050, 4100.38461504, 4123.07692280, 4113.46153819, 4123.07692280,10.0
4099.35897402, 4108.07692280, 4103.33333306, 4086.15384581, 4092.56410222, 4079.35897402, 4083.33333299, 4093.58974325, 4103.33333306, 4089.74358940, 4093.07692273, 4110.25640998, 4101.66666632, 4121.92307665,10.0
4091.66666632, 4105.12820485, 4106.79487152, 4083.58974325, 4091.15384581, 4065.51282010, 4064.23076882, 4070.89743555, 4085.89743555, 4077.17948684, 4089.99999966, 4101.02564068, 4090.64102530, 4125.25640998,10.0
4107.56410229, 4114.23076896, 4126.66666639, 4092.94871761, 4109.48717921, 4090.12820478, 4084.35897402, 4087.05128171, 4098.58974325, 4098.07692273, 4105.12820485, 4109.23076896, 4100.25640991, 4124.10256383,10.0
4114.87179460, 4116.66666639, 4131.15384588, 4086.15384581, 4113.46153819, 4099.87179453, 4097.69230735, 4100.12820478, 4108.07692280, 4109.61538434, 4113.71794844, 4112.56410229, 4107.94871767, 4119.74358947,10.0
4115.76923050, 4123.20512793, 4133.33333306, 4082.05128171, 4113.71794844, 4090.64102530, 4096.79487145, 4096.66666632, 4104.23076896, 4105.51282024, 4115.25640998, 4114.23076896, 4110.51282024, 4123.46153819,10.0
4134.35897408, 4137.43589723, 4145.64102544, 4091.66666632, 4129.35897408, 4102.30769196, 4110.38461511, 4108.33333306, 4112.17948691, 4113.58974332, 4118.97435870, 4126.66666639, 4118.71794844, 4126.41025614,10.0
4138.33333313, 4137.69230749, 4139.61538441, 4087.17948684, 4133.71794844, 4112.30769203, 4115.25640998, 4113.46153819, 4117.82051255, 4119.61538434, 4114.23076896, 4125.51282024, 4118.20512793, 4119.48717921,10.0
4124.99999973, 4129.87179460, 4129.10256383, 4077.94871761, 4127.56410229, 4106.66666639, 4108.84615357, 4105.38461511, 4114.23076896, 4121.53846126, 4112.43589716, 4117.94871767, 4115.51282024, 4119.10256383,10.0
4127.30769203, 4131.53846126, 4134.61538434, 4082.30769196, 4133.20512793, 4105.51282024, 4108.97435870, 4105.89743562, 4114.10256383, 4128.71794844, 4122.82051255, 4124.48717921, 4123.97435870, 4121.53846126,10.0
4137.43589723, 4135.64102544, 4137.69230749, 4083.20512786, 4141.53846133, 4112.05128178, 4114.61538434, 4111.79487152, 4118.33333306, 4133.20512793, 4131.15384588, 4129.87179460, 4129.61538434, 4120.38461511,10.0
4123.97435870, 4126.66666639, 4124.35897408, 4069.35897395, 4131.02564075, 4106.15384588, 4108.33333306, 4103.46153819, 4113.33333306, 4122.69230742, 4124.61538434, 4117.30769203, 4115.76923050, 4124.35897408,10.0
4101.02564068, 4110.64102537, 4105.51282024, 4053.33333292, 4111.02564075, 4087.17948684, 4089.48717914, 4084.99999966, 4094.23076889, 4100.64102530, 4103.20512793, 4096.92307658, 4094.99999966, 4124.23076896,10.0
4103.20512793, 4111.66666639, 4105.25640998, 4057.17948677, 4113.07692280, 4087.17948684, 4088.71794837, 4084.10256376, 4090.25640991, 4093.20512786, 4096.41025607, 4091.66666632, 4093.71794837, 4122.17948691,10.0
4112.17948691, 4120.38461511, 4118.58974332, 4071.28205094, 4124.48717921, 4101.15384581, 4101.15384581, 4096.41025607, 4101.92307658, 4100.76923043, 4112.56410229, 4097.56410222, 4105.89743562, 4123.71794844,10.0
4101.15384581, 4107.30769203, 4111.79487152, 4064.74358933, 4106.79487152, 4091.15384581, 4088.97435863, 4088.58974325, 4092.30769196, 4093.58974325, 4107.05128178, 4088.33333299, 4098.97435863, 4123.46153819,10.0
4091.41025607, 4093.46153812, 4094.23076889, 4056.79487138, 4088.07692273, 4076.79487145, 4074.35897402, 4075.76923043, 4078.84615350, 4079.99999966, 4087.43589709, 4077.56410222, 4084.23076889, 4121.92307665,10.0
4101.15384581, 4106.15384588, 4102.43589709, 4073.58974325, 4106.92307665, 4095.64102530, 4095.12820478, 4093.71794837, 4096.41025607, 4090.38461504, 4096.02564068, 4090.38461504, 4093.71794837, 4121.53846126,10.0
4101.66666632, 4113.07692280, 4109.10256383, 4086.15384581, 4118.33333306, 4103.71794844, 4104.10256383, 4106.28205101, 4109.99999973, 4105.38461511, 4106.53846126, 4097.43589709, 4102.17948684, 4120.89743562,10.0
4097.82051248, 4109.74358947, 4101.41025607, 4089.74358940, 4109.61538434, 4089.48717914, 4093.71794837, 4103.58974332, 4107.94871767, 4109.35897408, 4102.69230742, 4094.48717914, 4102.30769196, 4121.41025614,10.0
4106.53846126, 4111.53846126, 4105.76923050, 4097.05128171, 4112.94871767, 4094.99999966, 4100.89743555, 4105.51282024, 4112.43589716, 4112.82051255, 4106.28205101, 4098.58974325, 4107.94871767, 4124.10256383,10.0
4109.99999973, 4111.92307665, 4113.58974332, 4099.48717914, 4117.82051255, 4102.30769196, 4101.02564068, 4097.69230735, 4108.20512793, 4112.05128178, 4108.46153819, 4097.82051248, 4107.82051255, 4125.76923050,10.0
4106.28205101, 4109.61538434, 4112.82051255, 4104.35897408, 4113.58974332, 4089.99999966, 4084.74358940, 4087.30769196, 4098.71794837, 4104.99999973, 4103.20512793, 4093.97435863, 4102.43589709, 4122.43589716,10.0
4095.89743555, 4105.51282024, 4107.69230742, 4110.64102537, 4106.92307665, 4076.66666632, 4076.92307658, 4082.05128171, 4096.02564068, 4090.89743555, 4098.84615350, 4091.15384581, 4096.02564068, 4120.12820485,10.0
4089.48717914, 4104.61538434, 4109.10256383, 4113.71794844, 4107.43589716, 4084.87179453, 4088.07692273, 4082.69230735, 4096.53846119, 4091.41025607, 4103.58974332, 4088.58974325, 4097.43589709, 4121.41025614,10.0
4097.82051248, 4110.12820485, 4117.94871767, 4120.76923050, 4115.12820485, 4097.56410222, 4099.48717914, 4093.33333299, 4102.30769196, 4108.84615357, 4111.02564075, 4093.07692273, 4104.87179460, 4121.41025614,10.0
4112.30769203, 4114.99999973, 4126.02564075, 4131.79487152, 4120.12820485, 4099.35897402, 4105.76923050, 4109.87179460, 4112.30769203, 4115.51282024, 4112.17948691, 4103.46153819, 4110.89743562, 4122.82051255,10.0
4117.69230742, 4115.89743562, 4126.28205101, 4138.07692287, 4119.10256383, 4096.79487145, 4106.41025614, 4110.64102537, 4115.25640998, 4113.58974332, 4106.66666639, 4107.56410229, 4111.53846126, 4120.89743562,10.0
4117.17948691, 4118.20512793, 4123.84615357, 4140.51282031, 4119.61538434, 4095.51282017, 4100.38461504, 4096.79487145, 4103.46153819, 4114.99999973, 4103.71794844, 4105.25640998, 4111.66666639, 4119.87179460,10.0
4126.28205101, 4128.07692280, 4133.07692280, 4152.69230749, 4130.76923050, 4106.41025614, 4108.97435870, 4106.28205101, 4105.76923050, 4120.76923050, 4115.64102537, 4109.87179460, 4121.28205101, 4123.84615357,10.0
4133.71794844, 4129.23076896, 4138.97435877, 4162.30769210, 4137.94871774, 4113.97435870, 4116.53846126, 4120.25640998, 4122.94871767, 4127.30769203, 4124.35897408, 4113.07692280, 4125.38461511, 4123.46153819,10.0
4123.71794844, 4119.61538434, 4128.20512793, 4152.56410236, 4128.46153819, 4107.17948691, 4102.56410229, 4102.56410229, 4117.05128178, 4124.99999973, 4112.05128178, 4102.69230742, 4112.94871767, 4120.38461511,10.0
4116.02564075, 4115.89743562, 4121.66666639, 4145.25641005, 4122.94871767, 4097.56410222, 4092.17948684, 4086.92307658, 4098.46153812, 4117.69230742, 4103.46153819, 4096.53846119, 4107.05128178, 4121.02564075,10.0
4126.79487152, 4122.17948691, 4132.43589716, 4158.71794851, 4137.82051262, 4104.48717921, 4103.20512793, 4102.82051255, 4107.82051255, 4127.17948691, 4119.61538434, 4108.58974332, 4121.66666639, 4126.28205101,10.0
4122.56410229, 4119.99999973, 4129.61538434, 4160.38461518, 4140.12820492, 4112.82051255, 4104.87179460, 4106.41025614, 4116.79487152, 4134.35897408, 4124.74358947, 4108.71794844, 4122.69230742, 4126.28205101,10.0
4106.02564075, 4111.02564075, 4115.12820485, 4145.64102544, 4124.87179460, 4105.12820485, 4094.61538427, 4092.94871761, 4104.35897408, 4121.79487152, 4106.66666639, 4096.02564068, 4107.05128178, 4122.56410229,10.0
4114.35897408, 4114.10256383, 4120.12820485, 4144.87179467, 4125.25640998, 4103.20512793, 4101.66666632, 4102.69230742, 4106.02564075, 4122.05128178, 4101.41025607, 4101.28205094, 4108.71794844, 4124.61538434,10.0
4127.30769203, 4120.25640998, 4127.69230742, 4143.71794851, 4132.43589716, 4110.89743562, 4111.28205101, 4115.76923050, 4113.46153819, 4133.20512793, 4108.33333306, 4109.10256383, 4116.79487152, 4124.10256383,10.0
4127.17948691, 4122.56410229, 4125.51282024, 4133.07692280, 4134.74358947, 4116.41025614, 4115.64102537, 4115.76923050, 4112.17948691, 4134.10256383, 4114.99999973, 4105.64102537, 4122.30769203, 4122.05128178,10.0
4123.46153819, 4118.07692280, 4119.74358947, 4119.74358947, 4131.79487152, 4113.07692280, 4119.74358947, 4117.17948691, 4115.89743562, 4131.41025614, 4112.17948691, 4099.87179453, 4123.07692280, 4124.61538434,10.0
