AF3,F7,F3,FC5,T7,P7,O1,O2,P8,T8,FC6,F4,F8,AF4,Label
4128.58974332, 4118.46153819, 4141.92307672, 4112.30769203, 4106.92307665, 4120.51282024, 4116.02564075, 4119.61538434, 4124.23076896, 4150.76923056, 4180.89743576, 4159.23076903, 4151.28205108, 4125.38461511,10.0
4135.38461518, 4123.84615357, 4143.97435877, 4117.56410229, 4125.25640998, 4125.12820485, 4126.28205101, 4130.51282024, 4128.46153819, 4156.53846133, 4185.76923063, 4162.94871774, 4151.41025621, 4123.71794844,10.0
4129.23076896, 4112.94871767, 4128.46153819, 4112.43589716, 4128.58974332, 4124.35897408, 4132.43589716, 4139.61538441, 4128.46153819, 4147.30769210, 4175.64102551, 4150.89743569, 4144.87179467, 4124.48717921,10.0
4118.58974332, 4105.51282024, 4117.30769203, 4102.17948684, 4111.79487152, 4121.41025614, 4127.94871767, 4136.92307672, 4121.53846126, 4132.69230742, 4165.51282031, 4137.05128185, 4136.66666646, 4124.35897408,10.0
4115.38461511, 4100.89743555, 4112.82051255, 4090.89743555, 4101.15384581, 4108.07692280, 4107.56410229, 4120.76923050, 4107.56410229, 4123.07692280, 4157.17948697, 4130.38461511, 4126.92307665, 4121.53846126,10.0
4114.61538434, 4096.28205094, 4111.92307665, 4085.89743555, 4103.58974332, 4099.99999966, 4095.25640991, 4114.99999973, 4101.79487145, 4124.48717921, 4155.12820492, 4133.84615357, 4124.99999973, 4121.28205101,10.0
4113.97435870, 4102.82051255, 4121.53846126, 4093.07692273, 4106.41025614, 4111.02564075, 4106.41025614, 4126.92307665, 4113.46153819, 4136.02564082, 4167.82051262, 4145.51282031, 4134.99999973, 4123.20512793,10.0
4126.28205101, 4115.12820485, 4134.23076896, 4105.64102537, 4108.46153819, 4118.97435870, 4115.76923050, 4133.33333306, 4127.17948691, 4149.48717928, 4183.33333320, 4158.33333313, 4147.17948697, 4124.10256383,10.0
4141.41025621, 4120.64102537, 4139.87179467, 4111.15384588, 4110.38461511, 4113.97435870, 4112.17948691, 4136.28205108, 4129.61538434, 4157.05128185, 4183.71794858, 4165.76923056, 4151.79487159, 4123.84615357,10.0
4139.74358954, 4118.07692280, 4139.74358954, 4107.94871767, 4108.20512793, 4112.69230742, 4112.56410229, 4133.58974332, 4119.23076896, 4151.02564082, 4175.89743576, 4163.58974339, 4148.58974339, 4121.79487152,10.0
4132.69230742, 4116.66666639, 4136.28205108, 4103.33333306, 4107.05128178, 4119.74358947, 4119.99999973, 4120.51282024, 4107.30769203, 4138.84615364, 4175.76923063, 4157.17948697, 4144.23076903, 4123.84615357,10.0
4134.74358947, 4118.33333306, 4133.07692280, 4102.94871767, 4109.99999973, 4124.74358947, 4127.30769203, 4116.28205101, 4105.89743562, 4135.12820485, 4175.38461525, 4155.25641005, 4141.02564082, 4123.84615357,10.0
4130.64102537, 4114.23076896, 4127.43589716, 4104.10256383, 4111.15384588, 4121.92307665, 4130.12820485, 4122.94871767, 4104.23076896, 4132.56410229, 4163.46153826, 4149.48717928, 4134.99999973, 4117.30769203,10.0
4121.28205101, 4113.20512793, 4123.58974332, 4106.15384588, 4115.25640998, 4122.05128178, 4135.64102544, 4134.23076896, 4108.84615357, 4132.94871767, 4158.97435877, 4141.92307672, 4136.92307672, 4117.17948691,10.0
4126.15384588, 4124.48717921, 4127.94871767, 4113.46153819, 4126.41025614, 4131.28205101, 4145.89743569, 4145.25641005, 4124.99999973, 4142.05128185, 4170.76923063, 4148.46153826, 4147.69230749, 4121.28205101,10.0
4129.35897408, 4127.30769203, 4127.05128178, 4115.38461511, 4126.66666639, 4129.61538434, 4141.02564082, 4145.38461518, 4127.69230742, 4142.69230749, 4170.76923063, 4155.38461518, 4142.17948697, 4122.05128178,10.0
4121.92307665, 4115.38461511, 4121.02564075, 4106.41025614, 4116.92307665, 4119.23076896, 4126.53846126, 4129.61538434, 4111.79487152, 4133.20512793, 4157.30769210, 4148.71794851, 4130.38461511, 4119.99999973,10.0
4121.53846126, 4112.56410229, 4125.76923050, 4103.07692280, 4117.43589716, 4121.28205101, 4124.87179460, 4120.25640998, 4104.48717921, 4132.30769203, 4157.17948697, 4144.99999980, 4133.97435870, 4119.35897408,10.0
4125.76923050, 4115.76923050, 4133.07692280, 4106.79487152, 4117.30769203, 4120.89743562, 4121.53846126, 4123.46153819, 4107.82051255, 4136.92307672, 4161.41025621, 4150.89743569, 4136.28205108, 4120.64102537,10.0
4125.12820485, 4111.79487152, 4134.35897408, 4107.82051255, 4106.79487152, 4107.17948691, 4109.99999973, 4121.15384588, 4104.99999973, 4134.61538434, 4160.51282031, 4155.38461518, 4130.89743562, 4121.53846126,10.0
4129.87179460, 4116.02564075, 4143.20512800, 4113.97435870, 4106.66666639, 4105.12820485, 4113.71794844, 4122.82051255, 4109.74358947, 4138.33333313, 4167.56410236, 4161.92307672, 4139.61538441, 4122.17948691,10.0
4137.17948697, 4125.51282024, 4151.92307672, 4122.30769203, 4113.58974332, 4114.74358947, 4122.94871767, 4127.56410229, 4123.33333306, 4149.99999980, 4176.92307679, 4168.58974345, 4150.89743569, 4122.05128178,10.0
4133.84615357, 4119.74358947, 4145.25641005, 4115.76923050, 4107.82051255, 4114.23076896, 4113.97435870, 4121.41025614, 4121.79487152, 4148.07692287, 4175.12820499, 4166.28205108, 4144.99999980, 4122.94871767,10.0
4134.48717921, 4118.20512793, 4145.12820492, 4110.12820485, 4106.79487152, 4115.76923050, 4113.33333306, 4122.43589716, 4117.82051255, 4144.87179467, 4176.28205115, 4172.17948704, 4145.89743569, 4121.41025614,10.0
4144.74358954, 4131.79487152, 4161.66666646, 4119.74358947, 4123.20512793, 4126.79487152, 4133.97435870, 4139.74358954, 4129.23076896, 4154.99999980, 4181.15384602, 4188.71794858, 4154.61538441, 4119.48717921,10.0
4144.48717928, 4132.43589716, 4163.71794851, 4123.07692280, 4127.69230742, 4126.66666639, 4135.64102544, 4137.69230749, 4126.15384588, 4152.94871774, 4169.48717935, 4184.74358961, 4145.89743569, 4122.17948691,10.0
4129.35897408, 4117.43589716, 4141.41025621, 4111.53846126, 4113.46153819, 4114.35897408, 4116.53846126, 4117.69230742, 4105.12820485, 4133.84615357, 4152.82051262, 4161.02564082, 4132.17948691, 4122.43589716,10.0
4120.51282024, 4113.46153819, 4131.02564075, 4103.33333306, 4111.92307665, 4112.56410229, 4112.30769203, 4118.71794844, 4104.10256383, 4127.82051255, 4149.48717928, 4148.84615364, 4133.20512793, 4120.51282024,10.0
4121.02564075, 4115.89743562, 4136.15384595, 4104.48717921, 4118.07692280, 4120.89743562, 4119.35897408, 4123.58974332, 4108.20512793, 4128.46153819, 4147.05128185, 4147.69230749, 4133.33333306, 4121.41025614,10.0
4118.97435870, 4113.46153819, 4133.71794844, 4107.94871767, 4118.33333306, 4124.23076896, 4123.07692280, 4120.64102537, 4102.56410229, 4123.58974332, 4143.71794851, 4146.15384595, 4128.58974332, 4121.66666639,10.0
4117.94871767, 4116.28205101, 4129.61538434, 4110.76923050, 4122.56410229, 4126.92307665, 4128.97435870, 4127.05128178, 4111.79487152, 4130.76923050, 4150.89743569, 4149.23076903, 4133.33333306, 4120.38461511,10.0
4120.12820485, 4120.89743562, 4128.71794844, 4109.87179460, 4124.23076896, 4131.66666639, 4132.94871767, 4133.07692280, 4122.94871767, 4142.17948697, 4157.43589723, 4152.43589723, 4140.89743569, 4122.17948691,10.0
4112.69230742, 4112.30769203, 4113.20512793, 4099.74358940, 4111.79487152, 4124.87179460, 4121.28205101, 4123.33333306, 4111.02564075, 4133.46153819, 4142.69230749, 4140.76923056, 4133.84615357, 4122.69230742,10.0
4097.56410222, 4098.84615350, 4093.84615350, 4087.69230735, 4099.35897402, 4110.76923050, 4103.46153819, 4114.35897408, 4095.76923043, 4115.89743562, 4125.25640998, 4124.61538434, 4120.38461511, 4120.89743562,10.0
4102.05128171, 4100.38461504, 4097.82051248, 4082.43589709, 4107.82051255, 4117.05128178, 4111.28205101, 4127.43589716, 4112.56410229, 4126.53846126, 4136.41025621, 4127.69230742, 4126.02564075, 4121.53846126,10.0
4119.87179460, 4111.79487152, 4107.82051255, 4081.79487145, 4119.48717921, 4132.30769203, 4131.79487152, 4143.97435877, 4136.53846133, 4150.76923056, 4152.43589723, 4140.64102544, 4140.76923056, 4123.20512793,10.0
4122.69230742, 4115.38461511, 4108.71794844, 4091.28205094, 4118.07692280, 4128.71794844, 4129.48717921, 4142.56410236, 4131.53846126, 4147.17948697, 4142.05128185, 4143.84615364, 4140.51282031, 4124.74358947,10.0
4127.17948691, 4122.82051255, 4122.05128178, 4120.51282024, 4121.79487152, 4126.92307665, 4126.41025614, 4139.23076903, 4126.41025614, 4140.25641005, 4133.33333306, 4150.12820492, 4140.12820492, 4124.99999973,10.0
4143.58974339, 4142.17948697, 4143.07692287, 4148.71794851, 4136.79487159, 4136.79487159, 4142.82051262, 4144.35897415, 4135.51282031, 4150.38461518, 4137.17948697, 4163.71794851, 4145.38461518, 4120.64102537,10.0
4146.28205108, 4153.07692287, 4147.05128185, 4160.12820492, 4144.61538441, 4135.89743569, 4141.66666646, 4139.35897415, 4128.46153819, 4143.71794851, 4122.94871767, 4159.87179467, 4135.89743569, 4116.28205101,10.0
4132.94871767, 4147.05128185, 4136.79487159, 4167.94871774, 4134.10256383, 4121.66666639, 4114.74358947, 4118.20512793, 4100.89743555, 4116.02564075, 4094.61538427, 4142.82051262, 4117.69230742, 4119.87179460,10.0
4127.56410229, 4141.66666646, 4130.76923050, 4174.35897422, 4123.33333306, 4114.10256383, 4099.87179453, 4106.41025614, 4084.48717914, 4102.56410229, 4080.64102530, 4137.69230749, 4113.07692280, 4122.69230742,10.0
4124.10256383, 4143.07692287, 4126.15384588, 4170.12820499, 4124.10256383, 4114.35897408, 4105.76923050, 4104.87179460, 4079.48717914, 4101.66666632, 4073.58974325, 4132.82051255, 4111.92307665, 4119.74358947,10.0
4120.64102537, 4145.89743569, 4126.15384588, 4168.97435884, 4132.94871767, 4119.74358947, 4121.53846126, 4105.64102537, 4078.84615350, 4099.87179453, 4068.20512779, 4125.25640998, 4109.48717921, 4120.38461511,10.0
4124.23076896, 4148.58974339, 4130.76923050, 4172.94871781, 4139.61538441, 4124.99999973, 4130.38461511, 4112.56410229, 4087.05128171, 4102.30769196, 4072.43589709, 4126.92307665, 4114.87179460, 4122.05128178,10.0
4127.05128178, 4148.97435877, 4131.53846126, 4172.43589730, 4136.66666646, 4122.30769203, 4120.38461511, 4120.64102537, 4095.12820478, 4106.79487152, 4079.99999966, 4132.05128178, 4120.76923050, 4122.17948691,10.0
4130.38461511, 4149.74358954, 4135.25640998, 4174.35897422, 4137.56410236, 4124.10256383, 4117.69230742, 4123.07692280, 4097.94871761, 4111.66666639, 4085.38461504, 4134.48717921, 4122.56410229, 4124.10256383,10.0
4133.46153819, 4151.53846133, 4142.30769210, 4177.56410243, 4141.28205108, 4128.46153819, 4129.10256383, 4123.07692280, 4101.66666632, 4114.61538434, 4087.43589709, 4134.23076896, 4121.28205101, 4122.56410229,10.0
4127.30769203, 4145.12820492, 4137.94871774, 4168.58974345, 4133.58974332, 4122.94871767, 4127.94871767, 4123.84615357, 4105.51282024, 4108.58974332, 4083.33333299, 4126.28205101, 4116.53846126, 4121.66666639,10.0
4119.74358947, 4133.84615357, 4123.46153819, 4154.61538441, 4118.97435870, 4117.05128178, 4118.97435870, 4123.58974332, 4103.58974332, 4099.10256376, 4071.79487145, 4113.71794844, 4109.61538434, 4127.43589716,10.0
4118.84615357, 4129.10256383, 4112.94871767, 4149.61538441, 4114.99999973, 4116.15384588, 4115.64102537, 4117.69230742, 4098.71794837, 4096.15384581, 4061.79487138, 4108.58974332, 4104.99999973, 4126.66666639,10.0
4122.05128178, 4132.43589716, 4112.05128178, 4151.79487159, 4123.20512793, 4117.69230742, 4114.10256383, 4114.74358947, 4100.38461504, 4101.28205094, 4065.38461497, 4109.99999973, 4106.79487152, 4117.82051255,10.0
4119.61538434, 4131.92307665, 4108.84615357, 4149.35897415, 4125.64102537, 4119.10256383, 4114.61538434, 4112.43589716, 4100.25640991, 4102.56410229, 4067.69230728, 4106.53846126, 4106.66666639, 4118.33333306,10.0
4107.56410229, 4125.89743562, 4101.41025607, 4141.79487159, 4120.38461511, 4118.84615357, 4112.43589716, 4105.25640998, 4099.48717914, 4097.30769196, 4060.12820472, 4098.33333299, 4102.69230742, 4124.61538434,10.0
4102.56410229, 4127.94871767, 4103.71794844, 4144.48717928, 4122.30769203, 4122.43589716, 4114.23076896, 4116.79487152, 4113.97435870, 4101.15384581, 4062.82051241, 4101.41025607, 4103.58974332, 4124.87179460,10.0
4103.07692280, 4131.15384588, 4108.71794844, 4146.15384595, 4125.89743562, 4125.64102537, 4120.38461511, 4133.97435870, 4124.35897408, 4106.92307665, 4068.46153805, 4108.71794844, 4106.92307665, 4124.74358947,10.0
4099.23076889, 4128.84615357, 4106.28205101, 4140.12820492, 4122.94871767, 4124.10256383, 4120.51282024, 4128.46153819, 4118.84615357, 4107.30769203, 4067.43589702, 4107.30769203, 4109.10256383, 4125.12820485,10.0
4103.58974332, 4130.76923050, 4109.87179460, 4145.38461518, 4123.33333306, 4127.69230742, 4122.17948691, 4125.38461511, 4119.74358947, 4115.25640998, 4075.38461504, 4108.58974332, 4114.23076896, 4119.48717921,10.0
4112.56410229, 4132.05128178, 4116.66666639, 4149.87179467, 4125.25640998, 4131.15384588, 4131.15384588, 4139.74358954, 4131.53846126, 4122.94871767, 4083.97435863, 4112.17948691, 4115.12820485, 4116.53846126,10.0
4104.99999973, 4120.51282024, 4106.41025614, 4136.41025621, 4120.12820485, 4127.82051255, 4127.94871767, 4133.20512793, 4128.33333306, 4112.69230742, 4075.38461504, 4105.12820485, 4104.61538434, 4122.30769203,10.0
4093.58974325, 4110.38461511, 4093.71794837, 4123.58974332, 4117.69230742, 4122.43589716, 4111.66666639, 4109.35897408, 4105.12820485, 4097.05128171, 4066.02564061, 4093.58974325, 4095.64102530, 4123.84615357,10.0
4100.51282017, 4118.46153819, 4101.53846119, 4128.33333306, 4120.38461511, 4119.23076896, 4110.12820485, 4120.51282024, 4109.48717921, 4101.79487145, 4071.79487145, 4096.41025607, 4100.12820478, 4117.69230742,10.0
4114.48717921, 4131.79487152, 4114.23076896, 4137.05128185, 4126.79487152, 4125.38461511, 4125.25640998, 4148.07692287, 4138.84615364, 4115.89743562, 4073.33333299, 4105.38461511, 4106.41025614, 4116.28205101,10.0
4123.20512793, 4133.97435870, 4115.38461511, 4135.64102544, 4134.35897408, 4137.30769210, 4134.99999973, 4136.66666646, 4132.56410229, 4113.20512793, 4070.38461504, 4105.51282024, 4104.87179460, 4121.41025614,10.0
4122.56410229, 4124.35897408, 4111.92307665, 4128.07692280, 4129.99999973, 4132.56410229, 4121.66666639, 4102.05128171, 4098.58974325, 4101.66666632, 4076.53846119, 4103.33333306, 4104.74358947, 4124.74358947,10.0
4116.28205101, 4116.02564075, 4116.28205101, 4121.79487152, 4117.56410229, 4119.23076896, 4107.05128178, 4103.71794844, 4101.92307658, 4107.94871767, 4088.84615350, 4108.58974332, 4112.94871767, 4122.30769203,10.0
4117.69230742, 4114.48717921, 4122.56410229, 4116.79487152, 4113.46153819, 4118.58974332, 4114.48717921, 4123.07692280, 4125.64102537, 4123.71794844, 4104.35897408, 4115.76923050, 4121.15384588, 4117.82051255,10.0
4121.79487152, 4108.46153819, 4119.23076896, 4103.58974332, 4111.41025614, 4120.51282024, 4119.23076896, 4117.56410229, 4124.35897408, 4124.87179460, 4120.89743562, 4121.66666639, 4125.12820485, 4118.58974332,10.0
4121.79487152, 4103.71794844, 4118.20512793, 4090.89743555, 4105.38461511, 4119.74358947, 4114.48717921, 4114.74358947, 4121.02564075, 4126.28205101, 4140.51282031, 4129.35897408, 4134.61538434, 4124.48717921,10.0
4120.12820485, 4103.58974332, 4124.35897408, 4087.05128171, 4103.20512793, 4116.28205101, 4112.43589716, 4123.46153819, 4126.28205101, 4138.97435877, 4159.10256390, 4131.41025614, 4143.20512800, 4125.12820485,10.0
4120.76923050, 4100.89743555, 4125.51282024, 4080.51282017, 4101.92307658, 4111.79487152, 4111.79487152, 4128.20512793, 4132.43589716, 4146.15384595, 4169.10256397, 4128.97435870, 4143.58974339, 4121.92307665,10.0
4130.76923050, 4105.25640998, 4125.25640998, 4077.56410222, 4108.46153819, 4124.74358947, 4123.58974332, 4138.33333313, 4147.56410236, 4150.89743569, 4173.84615371, 4137.82051262, 4150.64102544, 4123.58974332,10.0
4146.66666646, 4120.25640998, 4132.69230742, 4085.64102530, 4122.69230742, 4144.35897415, 4144.87179467, 4144.48717928, 4156.66666646, 4163.33333313, 4179.99999986, 4149.61538441, 4159.48717928, 4124.74358947,10.0
4151.28205108, 4122.30769203, 4136.02564082, 4088.71794837, 4125.38461511, 4144.74358954, 4149.99999980, 4141.79487159, 4156.15384595, 4171.28205115, 4183.84615371, 4148.07692287, 4156.41025621, 4120.76923050,10.0
4139.48717928, 4108.33333306, 4123.97435870, 4075.12820478, 4114.74358947, 4132.30769203, 4134.10256383, 4139.48717928, 4153.20512800, 4159.48717928, 4173.33333320, 4135.51282031, 4146.02564082, 4120.38461511,10.0
4127.43589716, 4099.87179453, 4110.38461511, 4061.41025600, 4105.64102537, 4122.56410229, 4121.28205101, 4126.79487152, 4133.97435870, 4137.43589723, 4152.69230749, 4121.02564075, 4135.76923056, 4122.43589716,10.0
4129.99999973, 4102.43589709, 4109.74358947, 4065.12820472, 4109.61538434, 4124.99999973, 4129.35897408, 4121.15384588, 4116.79487152, 4133.20512793, 4144.35897415, 4116.66666639, 4132.82051255, 4119.87179460,10.0
4134.74358947, 4103.07692280, 4110.76923050, 4068.71794830, 4114.10256383, 4125.64102537, 4132.82051255, 4132.43589716, 4122.82051255, 4137.30769210, 4152.94871774, 4121.28205101, 4134.74358947, 4118.97435870,10.0
4124.35897408, 4098.58974325, 4104.74358947, 4059.74358933, 4107.30769203, 4109.87179460, 4108.20512793, 4120.25640998, 4119.61538434, 4128.46153819, 4153.97435877, 4118.07692280, 4129.35897408, 4124.23076896,10.0
4116.41025614, 4097.30769196, 4103.97435870, 4053.97435856, 4101.28205094, 4101.15384581, 4092.69230735, 4101.53846119, 4099.35897402, 4117.82051255, 4139.35897415, 4110.64102537, 4122.30769203, 4124.61538434,10.0
4128.84615357, 4101.92307658, 4112.82051255, 4060.12820472, 4106.02564075, 4113.58974332, 4113.46153819, 4120.89743562, 4104.99999973, 4120.89743562, 4134.10256383, 4113.97435870, 4126.02564075, 4117.17948691,10.0
4131.41025614, 4101.02564068, 4115.38461511, 4060.64102523, 4109.87179460, 4122.56410229, 4135.89743569, 4140.89743569, 4126.53846126, 4127.82051255, 4136.15384595, 4116.02564075, 4127.43589716, 4117.43589716,10.0
4113.20512793, 4092.94871761, 4109.74358947, 4050.12820472, 4102.30769196, 4119.23076896, 4135.89743569, 4131.41025614, 4120.25640998, 4124.48717921, 4127.05128178, 4102.94871767, 4116.15384588, 4120.76923050,10.0
4107.69230742, 4090.25640991, 4104.10256383, 4044.61538420, 4097.05128171, 4122.69230742, 4132.05128178, 4127.82051255, 4105.76923050, 4118.33333306, 4121.92307665, 4094.23076889, 4111.53846126, 4118.84615357,10.0
4116.41025614, 4095.25640991, 4102.94871767, 4049.61538420, 4105.38461511, 4132.69230742, 4142.94871774, 4141.02564082, 4113.46153819, 4122.05128178, 4130.12820485, 4101.15384581, 4119.23076896, 4118.58974332,10.0
4112.94871767, 4094.87179453, 4104.10256383, 4056.02564061, 4111.15384588, 4132.94871767, 4147.69230749, 4137.94871774, 4125.25640998, 4127.69230742, 4133.33333306, 4102.94871767, 4118.97435870, 4118.20512793,10.0
4099.10256376, 4084.48717914, 4093.84615350, 4047.82051241, 4099.35897402, 4120.25640998, 4127.56410229, 4120.38461511, 4123.97435870, 4124.48717921, 4125.76923050, 4095.38461504, 4112.05128178, 4119.35897408,10.0
4093.84615350, 4079.99999966, 4082.82051248, 4034.23076875, 4090.89743555, 4113.97435870, 4121.15384588, 4121.28205101, 4118.20512793, 4118.33333306, 4116.02564075, 4089.61538427, 4110.64102537, 4117.43589716,10.0
4090.51282017, 4083.71794837, 4081.66666632, 4032.17948670, 4093.20512786, 4112.82051255, 4124.10256383, 4124.48717921, 4105.51282024, 4111.41025614, 4108.07692280, 4082.56410222, 4108.71794844, 4117.05128178,10.0
4081.79487145, 4084.10256376, 4079.87179453, 4036.02564054, 4089.87179453, 4102.05128171, 4105.64102537, 4109.87179460, 4091.41025607, 4107.05128178, 4109.99999973, 4077.82051248, 4103.71794844, 4121.79487152,10.0
4080.89743555, 4083.33333299, 4076.66666632, 4038.20512779, 4089.61538427, 4099.10256376, 4094.48717914, 4108.33333306, 4099.74358940, 4111.79487152, 4117.43589716, 4078.84615350, 4103.84615357, 4116.92307665,10.0
4084.48717914, 4083.33333299, 4076.92307658, 4037.05128164, 4092.43589709, 4103.97435870, 4096.92307658, 4118.58974332, 4109.74358947, 4113.46153819, 4116.28205101, 4081.66666632, 4106.02564075, 4118.97435870,10.0
4079.99999966, 4083.07692273, 4081.15384581, 4040.76923036, 4084.87179453, 4097.43589709, 4086.79487145, 4107.69230742, 4099.35897402, 4105.51282024, 4114.23076896, 4087.82051248, 4101.15384581, 4123.71794844,10.0
4076.02564068, 4088.84615350, 4089.10256376, 4052.43589702, 4081.66666632, 4093.84615350, 4084.87179453, 4096.15384581, 4091.53846119, 4100.64102530, 4116.15384588, 4095.38461504, 4096.53846119, 4119.74358947,10.0
4086.15384581, 4096.41025607, 4097.56410222, 4060.76923036, 4085.76923043, 4099.23076889, 4100.12820478, 4105.76923050, 4096.02564068, 4104.99999973, 4118.33333306, 4099.99999966, 4101.92307658, 4123.58974332,10.0
4096.02564068, 4097.43589709, 4100.64102530, 4064.61538420, 4086.41025607, 4101.41025607, 4101.28205094, 4112.05128178, 4102.05128171, 4106.66666639, 4117.17948691, 4103.33333306, 4103.07692280, 4120.51282024,10.0
4098.33333299, 4098.58974325, 4103.20512793, 4067.69230728, 4089.48717914, 4101.66666632, 4099.48717914, 4115.64102537, 4103.84615357, 4108.33333306, 4115.89743562, 4108.71794844, 4100.12820478, 4118.97435870,10.0
4105.64102537, 4104.87179460, 4109.35897408, 4071.28205094, 4096.53846119, 4108.71794844, 4114.87179460, 4125.12820485, 4111.15384588, 4119.74358947, 4120.76923050, 4113.46153819, 4108.71794844, 4121.02564075,10.0
4109.61538434, 4103.71794844, 4108.33333306, 4071.53846119, 4094.10256376, 4115.12820485, 4125.64102537, 4126.53846126, 4119.23076896, 4127.17948691, 4120.76923050, 4109.74358947, 4112.56410229, 4115.25640998,10.0
4103.20512793, 4096.79487145, 4099.87179453, 4064.74358933, 4085.38461504, 4109.87179460, 4118.20512793, 4124.99999973, 4118.97435870, 4122.94871767, 4114.87179460, 4104.74358947, 4109.87179460, 4121.15384588,10.0
4096.79487145, 4097.94871761, 4097.69230735, 4064.99999959, 4080.76923043, 4095.25640991, 4102.05128171, 4117.69230742, 4112.94871767, 4119.10256383, 4117.56410229, 4102.94871767, 4113.97435870, 4120.38461511,10.0
4089.61538427, 4097.82051248, 4097.05128171, 4068.71794830, 4080.25640991, 4090.89743555, 4094.61538427, 4098.84615350, 4100.25640991, 4114.23076896, 4117.56410229, 4098.71794837, 4116.53846126, 4119.23076896,10.0
4080.64102530, 4089.48717914, 4089.48717914, 4063.71794830, 4076.66666632, 4090.89743555, 4085.51282017, 4081.15384581, 4083.33333299, 4102.05128171, 4098.97435863, 4091.53846119, 4109.35897408, 4126.15384588,10.0
4079.87179453, 4084.48717914, 4087.17948684, 4061.41025600, 4069.61538420, 4079.74358940, 4068.33333292, 4075.64102530, 4077.05128171, 4092.56410222, 4092.05128171, 4086.66666632, 4098.33333299, 4120.25640998,10.0
4080.38461504, 4082.17948684, 4091.66666632, 4064.61538420, 4069.61538420, 4078.46153812, 4066.66666625, 4083.33333299, 4084.99999966, 4091.41025607, 4106.79487152, 4087.17948684, 4099.35897402, 4119.87179460,10.0
4075.64102530, 4081.53846119, 4089.61538427, 4067.30769189, 4074.61538427, 4088.97435863, 4080.25640991, 4093.71794837, 4093.33333299, 4092.94871761, 4104.23076896, 4083.58974325, 4101.66666632, 4120.51282024,10.0
4072.43589709, 4086.02564068, 4082.94871761, 4068.71794830, 4073.58974325, 4089.48717914, 4081.79487145, 4095.76923043, 4093.58974325, 4092.05128171, 4088.33333299, 4078.84615350, 4095.76923043, 4117.82051255,10.0
4072.05128171, 4087.69230735, 4077.43589709, 4068.33333292, 4069.48717907, 4086.92307658, 4077.30769196, 4088.71794837, 4087.56410222, 4086.92307658, 4087.56410222, 4083.46153812, 4097.56410222, 4120.89743562,10.0
4078.33333299, 4092.05128171, 4084.10256376, 4075.89743555, 4079.23076889, 4096.66666632, 4091.41025607, 4089.74358940, 4092.69230735, 4092.69230735, 4098.58974325, 4092.17948684, 4106.66666639, 4116.92307665,10.0
4088.33333299, 4100.38461504, 4095.89743555, 4084.35897402, 4091.41025607, 4105.12820485, 4101.53846119, 4104.48717921, 4109.35897408, 4105.12820485, 4102.69230742, 4096.92307658, 4112.43589716, 4122.05128178,10.0
4087.94871761, 4100.89743555, 4093.58974325, 4082.82051248, 4084.74358940, 4100.51282017, 4091.02564068, 4107.05128178, 4107.05128178, 4102.17948684, 4097.56410222, 4096.41025607, 4111.53846126, 4129.99999973,10.0
4084.48717914, 4101.41025607, 4091.28205094, 4081.79487145, 4084.35897402, 4098.33333299, 4086.92307658, 4091.53846119, 4093.58974325, 4094.23076889, 4099.48717914, 4099.10256376, 4108.97435870, 4120.64102537,10.0
4076.02564068, 4094.87179453, 4089.23076889, 4081.41025607, 4088.33333299, 4089.61538427, 4075.64102530, 4073.20512786, 4083.46153812, 4084.99999966, 4097.69230735, 4095.51282017, 4101.92307658, 4115.12820485,10.0
4070.12820478, 4087.43589709, 4084.23076889, 4084.48717914, 4082.56410222, 4081.53846119, 4064.74358933, 4073.84615350, 4077.17948684, 4075.64102530, 4084.10256376, 4088.84615350, 4093.33333299, 4117.94871767,10.0
4080.64102530, 4096.66666632, 4091.79487145, 4095.51282017, 4083.07692273, 4091.66666632, 4080.25640991, 4091.66666632, 4079.23076889, 4078.33333299, 4083.97435863, 4096.41025607, 4095.51282017, 4122.17948691,10.0
4078.71794837, 4095.64102530, 4093.97435863, 4096.15384581, 4081.53846119, 4091.41025607, 4078.84615350, 4088.84615350, 4078.20512786, 4076.92307658, 4085.51282017, 4096.53846119, 4092.94871761, 4120.38461511,10.0
4059.87179446, 4078.33333299, 4079.48717914, 4086.15384581, 4067.94871754, 4076.15384581, 4056.28205087, 4074.10256376, 4076.02564068, 4064.99999959, 4069.61538420, 4080.25640991, 4078.71794837, 4117.69230742,10.0
4060.64102523, 4079.99999966, 4081.15384581, 4086.02564068, 4066.41025600, 4082.05128171, 4065.76923036, 4082.17948684, 4083.58974325, 4068.71794830, 4067.43589702, 4079.35897402, 4084.23076889, 4126.66666639,10.0
4070.38461504, 4091.53846119, 4091.02564068, 4090.12820478, 4073.46153812, 4093.84615350, 4080.51282017, 4092.56410222, 4088.20512786, 4081.66666632, 4082.94871761, 4085.89743555, 4098.58974325, 4124.35897408,10.0
4069.74358940, 4091.15384581, 4084.61538427, 4089.61538427, 4070.64102530, 4085.38461504, 4071.53846119, 4094.48717914, 4088.07692273, 4085.38461504, 4089.48717914, 4084.74358940, 4097.69230735, 4117.82051255,10.0
4076.53846119, 4095.76923043, 4089.35897402, 4099.23076889, 4075.89743555, 4087.30769196, 4077.17948684, 4100.89743555, 4097.17948684, 4091.53846119, 4089.99999966, 4094.35897402, 4099.87179453, 4122.30769203,10.0
4080.12820478, 4098.20512786, 4100.38461504, 4104.99999973, 4080.64102530, 4096.79487145, 4087.43589709, 4101.66666632, 4098.46153812, 4092.43589709, 4080.64102530, 4096.41025607, 4101.92307658, 4123.20512793,10.0
4067.56410215, 4085.89743555, 4092.05128171, 4094.23076889, 4071.79487145, 4089.10256376, 4078.71794837, 4096.41025607, 4088.97435863, 4080.25640991, 4070.89743555, 4082.82051248, 4094.74358940, 4122.69230742,10.0
4067.94871754, 4087.43589709, 4086.41025607, 4095.76923043, 4074.87179453, 4088.58974325, 4081.02564068, 4103.84615357, 4093.97435863, 4082.30769196, 4081.53846119, 4086.02564068, 4096.02564068, 4120.25640998,10.0
4071.41025607, 4099.35897402, 4086.02564068, 4102.94871767, 4082.82051248, 4096.02564068, 4087.30769196, 4106.53846126, 4098.46153812, 4091.92307658, 4090.51282017, 4092.94871761, 4102.56410229, 4117.56410229,10.0
4056.92307651, 4092.17948684, 4077.69230735, 4095.76923043, 4075.12820478, 4085.64102530, 4072.69230735, 4093.33333299, 4087.30769196, 4083.84615350, 4079.35897402, 4081.02564068, 4094.23076889, 4120.76923050,10.0
4044.61538420, 4075.89743555, 4070.38461504, 4089.61538427, 4061.66666625, 4067.43589702, 4050.25640984, 4081.28205094, 4074.10256376, 4067.30769189, 4065.51282010, 4064.99999959, 4080.38461504, 4120.89743562,10.0
4060.89743548, 4087.17948684, 4080.25640991, 4102.43589709, 4068.46153805, 4076.53846119, 4061.92307651, 4095.25640991, 4088.97435863, 4080.12820478, 4079.99999966, 4075.76923043, 4094.35897402, 4120.25640998,10.0
4060.89743548, 4087.17948684, 4080.25640991, 4102.43589709, 4068.46153805, 4076.53846119, 4061.92307651, 4095.25640991, 4088.97435863, 4080.12820478, 4079.99999966, 4075.76923043, 4094.35897402, 4120.25640998,10.0
4080.12820478, 4105.76923050, 4095.64102530, 4115.64102537, 4082.43589709, 4099.35897402, 4094.48717914, 4119.10256383, 4110.64102537, 4102.69230742, 4101.15384581, 4096.15384581, 4113.97435870, 4121.53846126,10.0
4060.38461497, 4086.41025607, 4083.84615350, 4103.33333306, 4069.48717907, 4086.66666632, 4080.12820478, 4099.10256376, 4086.53846119, 4081.15384581, 4079.99999966, 4079.87179453, 4094.74358940, 4125.12820485,10.0
4032.69230721, 4061.15384574, 4057.94871754, 4084.99999966, 4048.33333292, 4059.35897395, 4041.41025600, 4067.43589702, 4059.10256369, 4048.20512779, 4044.35897395, 4049.48717907, 4071.15384581, 4128.33333306,10.0
4036.41025593, 4067.17948677, 4051.28205087, 4083.84615350, 4049.48717907, 4059.10256369, 4041.15384574, 4075.12820478, 4066.28205087, 4051.41025600, 4045.51282010, 4047.94871754, 4074.74358940, 4122.82051255,10.0
4041.66666625, 4073.07692273, 4051.41025600, 4088.46153812, 4053.33333292, 4065.25640984, 4051.28205087, 4080.12820478, 4062.17948677, 4053.97435856, 4049.87179446, 4054.99999959, 4074.74358940, 4118.07692280,10.0
4035.12820465, 4070.51282017, 4047.69230728, 4090.64102530, 4050.25640984, 4061.92307651, 4050.38461497, 4069.35897395, 4048.20512779, 4042.82051241, 4039.10256369, 4049.10256369, 4069.87179453, 4117.30769203,10.0
4043.97435856, 4079.23076889, 4054.48717907, 4096.66666632, 4056.66666625, 4063.71794830, 4059.99999959, 4079.99999966, 4063.33333292, 4050.38461497, 4048.20512779, 4048.71794830, 4076.02564068, 4117.56410229,10.0
4053.33333292, 4081.79487145, 4064.74358933, 4098.97435863, 4057.94871754, 4066.15384574, 4063.84615343, 4098.33333299, 4078.97435863, 4060.25640984, 4056.92307651, 4054.61538420, 4076.66666632, 4121.15384588,10.0
4045.89743548, 4079.10256376, 4066.02564061, 4098.84615350, 4053.58974318, 4064.23076882, 4057.69230728, 4095.76923043, 4074.74358940, 4057.17948677, 4049.99999959, 4056.41025600, 4075.25640991, 4120.51282024,10.0
4041.66666625, 4081.41025607, 4059.23076882, 4099.35897402, 4060.51282010, 4067.17948677, 4063.58974318, 4091.28205094, 4073.33333299, 4058.84615343, 4051.28205087, 4056.41025600, 4080.64102530, 4120.76923050,10.0
4036.02564054, 4070.25640991, 4041.66666625, 4085.64102530, 4053.71794830, 4064.10256369, 4060.51282010, 4089.99999966, 4071.53846119, 4051.92307651, 4042.17948677, 4047.43589702, 4069.48717907, 4125.64102537,10.0
4025.89743541, 4058.46153805, 4031.02564054, 4070.51282017, 4033.97435849, 4057.30769189, 4048.33333292, 4079.87179453, 4058.20512779, 4033.20512772, 4017.05128157, 4037.82051241, 4050.64102523, 4123.97435870,10.0
4027.82051234, 4064.48717907, 4044.48717907, 4074.87179453, 4035.51282003, 4063.46153805, 4054.48717907, 4072.43589709, 4045.76923036, 4032.17948670, 4017.30769183, 4042.17948677, 4056.66666625, 4117.94871767,10.0
4037.94871754, 4073.20512786, 4061.41025600, 4085.12820478, 4048.20512779, 4070.89743555, 4062.05128164, 4074.61538427, 4047.43589702, 4047.82051241, 4038.97435856, 4052.69230728, 4070.64102530, 4117.69230742,10.0
4041.15384574, 4073.84615350, 4063.84615343, 4084.10256376, 4043.97435856, 4066.41025600, 4054.99999959, 4076.92307658, 4060.64102523, 4055.12820472, 4043.46153805, 4058.71794830, 4070.12820478, 4121.15384588,10.0
4046.02564061, 4076.66666632, 4069.87179453, 4087.43589709, 4040.76923036, 4062.82051241, 4059.61538420, 4086.79487145, 4077.05128171, 4062.17948677, 4045.51282010, 4068.07692266, 4074.10256376, 4122.56410229,10.0
4051.15384574, 4080.64102530, 4080.12820478, 4094.61538427, 4049.23076882, 4067.56410215, 4069.35897395, 4095.38461504, 4078.46153812, 4066.02564061, 4054.61538420, 4072.94871761, 4079.35897402, 4117.82051255,10.0
4048.84615343, 4079.23076889, 4081.79487145, 4094.48717914, 4054.74358933, 4071.79487145, 4064.10256369, 4083.97435863, 4068.33333292, 4062.17948677, 4057.69230728, 4068.71794830, 4075.76923043, 4117.17948691,10.0
4048.20512779, 4078.97435863, 4079.23076889, 4094.99999966, 4049.99999959, 4067.82051241, 4054.23076882, 4072.94871761, 4071.28205094, 4063.84615343, 4058.07692266, 4069.35897395, 4074.99999966, 4121.28205101,10.0
4048.84615343, 4078.07692273, 4077.17948684, 4092.56410222, 4045.89743548, 4061.15384574, 4052.94871754, 4080.64102530, 4073.46153812, 4061.15384574, 4055.89743548, 4071.15384581, 4073.07692273, 4119.99999973,10.0
4053.33333292, 4079.10256376, 4081.28205094, 4092.94871761, 4053.97435856, 4062.69230728, 4061.53846113, 4087.05128171, 4062.69230728, 4055.12820472, 4056.02564061, 4071.79487145, 4072.05128171, 4120.38461511,10.0
4058.46153805, 4083.71794837, 4085.76923043, 4101.66666632, 4060.38461497, 4066.28205087, 4064.61538420, 4080.12820478, 4056.28205087, 4054.74358933, 4059.10256369, 4070.25640991, 4074.61538427, 4122.69230742,10.0
4049.48717907, 4079.35897402, 4074.10256376, 4097.43589709, 4049.74358933, 4055.76923036, 4047.69230728, 4066.53846113, 4054.48717907, 4048.84615343, 4051.53846113, 4059.23076882, 4067.69230728, 4121.02564075,10.0
4046.28205087, 4074.48717914, 4064.23076882, 4087.56410222, 4043.84615343, 4049.10256369, 4039.10256369, 4059.35897395, 4050.38461497, 4044.48717907, 4049.35897395, 4055.51282010, 4063.20512779, 4120.76923050,10.0
4061.66666625, 4081.41025607, 4076.79487145, 4096.02564068, 4056.53846113, 4067.82051241, 4062.56410215, 4074.61538427, 4060.76923036, 4059.35897395, 4066.79487138, 4069.74358940, 4075.12820478, 4120.64102537,10.0
4062.69230728, 4082.94871761, 4080.89743555, 4099.23076889, 4062.56410215, 4078.33333299, 4078.20512786, 4089.74358940, 4069.35897395, 4066.66666625, 4069.61538420, 4068.97435856, 4076.15384581, 4117.30769203,10.0
4045.89743548, 4072.82051248, 4066.92307651, 4082.69230735, 4052.94871754, 4062.56410215, 4064.99999959, 4085.76923043, 4063.07692266, 4051.66666625, 4051.66666625, 4051.66666625, 4061.79487138, 4118.33333306,10.0
4044.48717907, 4072.82051248, 4068.58974318, 4078.20512786, 4051.66666625, 4059.23076882, 4061.15384574, 4089.10256376, 4071.02564068, 4050.89743548, 4048.07692266, 4055.51282010, 4063.20512779, 4121.92307665,10.0
4054.61538420, 4082.56410222, 4082.43589709, 4090.25640991, 4062.17948677, 4075.76923043, 4074.35897402, 4096.66666632, 4082.43589709, 4064.48717907, 4058.33333292, 4072.82051248, 4074.23076889, 4120.25640998,10.0
4049.23076882, 4078.84615350, 4076.15384581, 4087.82051248, 4062.17948677, 4077.43589709, 4071.92307658, 4084.35897402, 4068.07692266, 4062.94871754, 4056.41025600, 4070.64102530, 4071.92307658, 4119.35897408,10.0
4034.10256362, 4067.56410215, 4060.76923036, 4073.46153812, 4047.56410215, 4061.28205087, 4052.94871754, 4069.48717907, 4056.79487138, 4052.30769189, 4045.38461497, 4055.12820472, 4063.97435856, 4121.15384588,10.0
4035.76923029, 4070.25640991, 4059.99999959, 4073.97435863, 4046.28205087, 4060.64102523, 4051.79487138, 4074.87179453, 4067.17948677, 4052.43589702, 4044.61538420, 4051.28205087, 4066.92307651, 4119.35897408,10.0
4047.43589702, 4078.46153812, 4063.46153805, 4083.58974325, 4059.74358933, 4072.56410222, 4067.43589702, 4087.05128171, 4076.66666632, 4061.92307651, 4047.69230728, 4055.51282010, 4070.12820478, 4116.79487152,10.0
4052.94871754, 4082.17948684, 4066.15384574, 4088.46153812, 4066.15384574, 4076.02564068, 4072.69230735, 4093.71794837, 4082.17948684, 4070.38461504, 4049.87179446, 4057.05128164, 4069.10256369, 4119.48717921,10.0
4061.79487138, 4092.30769196, 4076.92307658, 4098.20512786, 4069.87179453, 4081.15384581, 4074.87179453, 4100.25640991, 4093.58974325, 4081.79487145, 4063.97435856, 4065.38461497, 4077.82051248, 4121.53846126,10.0
4069.99999966, 4098.71794837, 4087.05128171, 4105.89743562, 4076.66666632, 4089.48717914, 4083.33333299, 4102.82051255, 4095.89743555, 4086.15384581, 4073.97435863, 4073.71794837, 4084.87179453, 4119.99999973,10.0
4067.05128164, 4093.07692273, 4090.12820478, 4104.10256383, 4078.33333299, 4088.46153812, 4082.30769196, 4100.76923043, 4089.61538427, 4083.46153812, 4069.23076882, 4072.69230735, 4080.38461504, 4120.12820485,10.0
4075.12820478, 4101.15384581, 4100.12820478, 4112.82051255, 4084.23076889, 4092.30769196, 4086.79487145, 4107.43589716, 4097.43589709, 4089.99999966, 4084.35897402, 4081.79487145, 4085.51282017, 4120.64102537,10.0
4088.71794837, 4110.38461511, 4107.56410229, 4121.92307665, 4092.69230735, 4103.20512793, 4099.74358940, 4116.66666639, 4108.84615357, 4096.92307658, 4103.97435870, 4093.46153812, 4094.23076889, 4119.87179460,10.0
4086.66666632, 4096.92307658, 4104.74358947, 4116.66666639, 4087.69230735, 4097.82051248, 4096.53846119, 4114.61538434, 4106.53846126, 4095.38461504, 4092.56410222, 4084.87179453, 4091.28205094, 4119.74358947,10.0
4091.92307658, 4094.74358940, 4111.15384588, 4119.99999973, 4084.87179453, 4092.56410222, 4089.61538427, 4107.94871767, 4104.48717921, 4099.48717914, 4089.74358940, 4085.38461504, 4092.56410222, 4120.12820485,10.0
4106.28205101, 4109.61538434, 4115.38461511, 4131.02564075, 4093.33333299, 4104.23076896, 4097.69230735, 4107.05128178, 4108.20512793, 4108.20512793, 4107.94871767, 4099.48717914, 4099.48717914, 4119.99999973,10.0
4105.51282024, 4106.92307665, 4102.43589709, 4128.20512793, 4094.23076889, 4105.38461511, 4101.15384581, 4107.82051255, 4108.46153819, 4106.15384588, 4105.51282024, 4092.43589709, 4095.38461504, 4119.61538434,10.0
4099.48717914, 4096.92307658, 4094.61538427, 4119.48717921, 4089.48717914, 4094.10256376, 4091.41025607, 4107.05128178, 4105.76923050, 4097.82051248, 4089.10256376, 4080.38461504, 4089.35897402, 4119.23076896,10.0
4102.30769196, 4100.25640991, 4102.94871767, 4117.69230742, 4089.61538427, 4094.48717914, 4088.97435863, 4102.17948684, 4107.82051255, 4096.02564068, 4087.17948684, 4086.41025607, 4090.38461504, 4119.35897408,10.0
4110.89743562, 4110.12820485, 4109.48717921, 4122.30769203, 4096.15384581, 4103.71794844, 4103.20512793, 4112.69230742, 4118.84615357, 4107.69230742, 4102.05128171, 4097.30769196, 4097.94871761, 4121.15384588,10.0
4124.74358947, 4116.66666639, 4114.74358947, 4130.38461511, 4105.38461511, 4109.99999973, 4116.53846126, 4136.79487159, 4129.74358947, 4123.20512793, 4115.38461511, 4110.38461511, 4109.99999973, 4123.07692280,10.0
4133.84615357, 4116.79487152, 4123.46153819, 4134.10256383, 4108.97435870, 4107.69230742, 4114.10256383, 4143.07692287, 4128.33333306, 4124.23076896, 4111.02564075, 4120.12820485, 4110.76923050, 4121.53846126,10.0
4126.15384588, 4112.43589716, 4120.51282024, 4130.64102537, 4103.97435870, 4103.84615357, 4108.84615357, 4139.10256390, 4122.43589716, 4116.02564075, 4101.66666632, 4113.84615357, 4102.56410229, 4121.15384588,10.0
4118.20512793, 4109.23076896, 4112.82051255, 4127.94871767, 4100.51282017, 4104.99999973, 4105.76923050, 4134.74358947, 4113.33333306, 4108.84615357, 4103.84615357, 4106.92307665, 4100.64102530, 4123.84615357,10.0
4126.15384588, 4112.69230742, 4122.17948691, 4131.92307665, 4103.46153819, 4106.53846126, 4100.12820478, 4128.58974332, 4107.17948691, 4105.76923050, 4111.53846126, 4112.30769203, 4102.05128171, 4124.10256383,10.0
4137.94871774, 4120.25640998, 4136.02564082, 4140.64102544, 4106.79487152, 4107.94871767, 4104.87179460, 4128.07692280, 4118.97435870, 4109.99999973, 4113.58974332, 4117.43589716, 4104.10256383, 4122.30769203,10.0
4136.66666646, 4119.61538434, 4128.71794844, 4140.25641005, 4106.02564075, 4107.43589716, 4107.69230742, 4124.74358947, 4125.12820485, 4112.43589716, 4109.99999973, 4111.79487152, 4105.64102537, 4122.17948691,10.0
4125.25640998, 4112.30769203, 4112.05128178, 4131.02564075, 4102.30769196, 4102.69230742, 4094.87179453, 4113.07692280, 4111.79487152, 4107.69230742, 4105.51282024, 4102.05128171, 4101.15384581, 4123.07692280,10.0
4122.43589716, 4112.94871767, 4112.94871767, 4132.30769203, 4104.10256383, 4101.41025607, 4090.64102530, 4111.79487152, 4110.89743562, 4107.43589716, 4106.41025614, 4100.89743555, 4097.56410222, 4122.56410229,10.0
4125.12820485, 4116.15384588, 4117.43589716, 4139.48717928, 4106.28205101, 4102.94871767, 4095.38461504, 4110.76923050, 4116.79487152, 4110.89743562, 4104.48717921, 4101.15384581, 4097.82051248, 4121.28205101,10.0
4125.64102537, 4118.33333306, 4117.43589716, 4143.07692287, 4105.64102537, 4102.69230742, 4096.92307658, 4099.61538427, 4109.48717921, 4113.97435870, 4106.28205101, 4102.69230742, 4101.53846119, 4120.38461511,10.0
4132.94871767, 4126.92307665, 4130.64102537, 4152.17948697, 4109.10256383, 4107.30769203, 4104.99999973, 4107.43589716, 4119.10256383, 4121.28205101, 4125.38461511, 4117.30769203, 4112.94871767, 4121.28205101,10.0
4140.25641005, 4130.25640998, 4143.20512800, 4158.46153826, 4111.02564075, 4108.46153819, 4110.89743562, 4119.35897408, 4138.20512800, 4127.17948691, 4133.71794844, 4127.82051255, 4118.33333306, 4121.15384588,10.0
4134.35897408, 4121.28205101, 4133.58974332, 4152.94871774, 4102.43589709, 4098.46153812, 4105.51282024, 4113.46153819, 4128.84615357, 4121.28205101, 4122.30769203, 4116.92307665, 4108.58974332, 4121.53846126,10.0
4121.66666639, 4110.64102537, 4118.97435870, 4143.07692287, 4091.41025607, 4091.53846119, 4094.87179453, 4104.87179460, 4109.35897408, 4108.46153819, 4108.71794844, 4102.69230742, 4097.94871761, 4122.30769203,10.0
4115.76923050, 4107.94871767, 4117.43589716, 4138.71794851, 4089.74358940, 4092.17948684, 4090.89743555, 4101.15384581, 4108.97435870, 4102.82051255, 4101.66666632, 4099.99999966, 4096.02564068, 4119.61538434,10.0
4118.84615357, 4113.84615357, 4123.46153819, 4141.66666646, 4092.43589709, 4098.20512786, 4102.30769196, 4113.07692280, 4125.51282024, 4113.33333306, 4108.20512793, 4103.58974332, 4101.15384581, 4118.20512793,10.0
4122.30769203, 4116.53846126, 4124.10256383, 4142.94871774, 4093.97435863, 4102.56410229, 4112.05128178, 4127.56410229, 4138.97435877, 4123.71794844, 4116.02564075, 4104.61538434, 4105.76923050, 4120.64102537,10.0
4117.56410229, 4111.28205101, 4114.99999973, 4136.28205108, 4092.56410222, 4099.74358940, 4102.82051255, 4114.48717921, 4125.25640998, 4112.69230742, 4104.10256383, 4097.69230735, 4102.17948684, 4123.20512793,10.0
4110.38461511, 4109.48717921, 4107.30769203, 4128.07692280, 4090.12820478, 4093.71794837, 4092.69230735, 4090.51282017, 4103.46153819, 4094.48717914, 4088.07692273, 4088.97435863, 4094.10256376, 4121.28205101,10.0
4108.97435870, 4111.92307665, 4105.51282024, 4125.64102537, 4087.94871761, 4087.43589709, 4089.23076889, 4087.94871761, 4101.53846119, 4087.94871761, 4088.33333299, 4084.99999966, 4087.30769196, 4118.97435870,10.0
4114.74358947, 4113.07692280, 4108.07692280, 4132.56410229, 4090.64102530, 4087.94871761, 4086.92307658, 4099.23076889, 4105.89743562, 4092.30769196, 4093.58974325, 4089.61538427, 4090.76923043, 4119.10256383,10.0
4128.97435870, 4117.82051255, 4122.82051255, 4143.33333313, 4099.35897402, 4100.89743555, 4099.23076889, 4114.61538434, 4112.82051255, 4106.41025614, 4105.38461511, 4105.51282024, 4107.94871767, 4119.87179460,10.0
4149.48717928, 4130.25640998, 4148.46153826, 4153.84615364, 4113.46153819, 4112.30769203, 4120.12820485, 4132.30769203, 4135.76923056, 4130.25640998, 4130.12820485, 4129.61538434, 4124.61538434, 4120.25640998,10.0
4160.38461518, 4140.89743569, 4161.41025621, 4160.76923056, 4121.79487152, 4110.25640998, 4122.30769203, 4132.56410229, 4145.76923056, 4142.17948697, 4143.33333313, 4147.17948697, 4128.84615357, 4120.12820485,10.0
4148.33333313, 4135.64102544, 4151.02564082, 4156.15384595, 4111.28205101, 4104.10256383, 4107.69230742, 4116.41025614, 4128.33333306, 4127.30769203, 4129.23076896, 4143.07692287, 4119.48717921, 4121.66666639,10.0
4130.38461511, 4125.38461511, 4135.12820485, 4146.41025621, 4100.76923043, 4102.30769196, 4098.58974325, 4104.10256383, 4119.35897408, 4114.35897408, 4115.64102537, 4127.05128178, 4109.48717921, 4123.20512793,10.0
4126.66666639, 4124.23076896, 4129.87179460, 4145.38461518, 4107.05128178, 4103.33333306, 4097.56410222, 4097.17948684, 4125.76923050, 4119.61538434, 4119.74358947, 4122.05128178, 4107.94871767, 4121.28205101,10.0
4129.35897408, 4123.46153819, 4131.15384588, 4148.20512800, 4107.94871767, 4099.23076889, 4088.58974325, 4092.56410222, 4120.89743562, 4120.12820485, 4118.71794844, 4123.33333306, 4107.82051255, 4121.02564075,10.0
4122.82051255, 4117.69230742, 4126.28205101, 4144.48717928, 4099.48717914, 4091.28205094, 4080.76923043, 4090.89743555, 4109.23076896, 4108.84615357, 4112.05128178, 4117.05128178, 4105.25640998, 4121.92307665,10.0
4116.02564075, 4113.71794844, 4118.33333306, 4141.79487159, 4099.61538427, 4091.79487145, 4086.15384581, 4088.46153812, 4105.38461511, 4103.20512793, 4112.17948691, 4113.58974332, 4106.28205101, 4122.05128178,10.0
4115.38461511, 4114.23076896, 4112.69230742, 4140.25641005, 4103.58974332, 4094.99999966, 4087.69230735, 4085.89743555, 4105.64102537, 4106.02564075, 4110.51282024, 4117.43589716, 4110.38461511, 4123.20512793,10.0
4116.28205101, 4118.07692280, 4108.20512793, 4136.41025621, 4103.71794844, 4098.20512786, 4087.56410222, 4094.87179453, 4109.61538434, 4111.79487152, 4109.99999973, 4117.94871767, 4111.79487152, 4121.02564075,10.0
4117.94871767, 4122.05128178, 4108.71794844, 4137.69230749, 4101.28205094, 4101.66666632, 4093.84615350, 4102.69230742, 4112.69230742, 4111.92307665, 4113.58974332, 4113.20512793, 4111.15384588, 4118.07692280,10.0
4115.64102537, 4121.79487152, 4110.89743562, 4141.66666646, 4100.25640991, 4096.92307658, 4094.74358940, 4092.43589709, 4105.51282024, 4104.74358947, 4104.23076896, 4106.53846126, 4104.48717921, 4117.69230742,10.0
4116.53846126, 4122.17948691, 4108.58974332, 4144.35897415, 4105.38461511, 4091.53846119, 4093.97435863, 4086.41025607, 4102.94871767, 4105.89743562, 4098.46153812, 4106.79487152, 4104.23076896, 4119.10256383,10.0
4123.07692280, 4122.56410229, 4108.58974332, 4144.23076903, 4104.35897408, 4093.20512786, 4097.82051248, 4101.66666632, 4111.41025614, 4114.35897408, 4115.25640998, 4115.25640998, 4114.23076896, 4122.30769203,10.0
4120.38461511, 4116.15384588, 4114.99999973, 4138.84615364, 4092.05128171, 4092.94871761, 4099.74358940, 4111.02564075, 4113.71794844, 4117.30769203, 4121.41025614, 4116.41025614, 4112.94871767, 4120.25640998,10.0
4116.28205101, 4112.56410229, 4120.89743562, 4137.69230749, 4089.61538427, 4091.79487145, 4102.17948684, 4106.41025614, 4113.71794844, 4118.46153819, 4112.69230742, 4112.82051255, 4106.53846126, 4116.02564075,10.0
4125.25640998, 4118.97435870, 4124.23076896, 4143.97435877, 4100.89743555, 4095.64102530, 4104.74358947, 4109.61538434, 4121.28205101, 4122.56410229, 4113.71794844, 4117.05128178, 4111.92307665, 4117.94871767,10.0
4131.28205101, 4124.48717921, 4127.05128178, 4146.41025621, 4103.71794844, 4098.07692273, 4097.82051248, 4111.92307665, 4124.99999973, 4129.23076896, 4121.41025614, 4122.30769203, 4120.76923050, 4120.76923050,10.0
4126.28205101, 4124.10256383, 4131.41025614, 4144.87179467, 4105.89743562, 4101.15384581, 4102.69230742, 4113.58974332, 4130.76923050, 4140.25641005, 4128.07692280, 4127.43589716, 4125.89743562, 4121.53846126,10.0
4119.48717921, 4116.53846126, 4122.82051255, 4140.38461518, 4108.97435870, 4102.17948684, 4112.43589716, 4114.99999973, 4129.35897408, 4135.25640998, 4124.74358947, 4123.20512793, 4120.12820485, 4122.94871767,10.0
4109.87179460, 4110.38461511, 4101.79487145, 4132.56410229, 4101.53846119, 4093.97435863, 4098.71794837, 4101.79487145, 4107.82051255, 4111.15384588, 4105.64102537, 4101.53846119, 4101.53846119, 4123.33333306,10.0
4103.84615357, 4114.10256383, 4094.48717914, 4129.10256383, 4097.30769196, 4093.46153812, 4088.97435863, 4092.69230735, 4098.33333299, 4100.76923043, 4093.20512786, 4087.94871761, 4092.56410222, 4122.82051255,10.0
4111.28205101, 4121.02564075, 4106.92307665, 4136.79487159, 4106.66666639, 4105.76923050, 4105.38461511, 4108.84615357, 4114.99999973, 4109.99999973, 4104.23076896, 4097.30769196, 4102.05128171, 4119.23076896,10.0
4112.17948691, 4119.23076896, 4112.05128178, 4141.92307672, 4109.23076896, 4104.10256383, 4108.07692280, 4113.84615357, 4114.35897408, 4109.74358947, 4112.17948691, 4103.46153819, 4104.48717921, 4119.23076896,10.0
4103.07692280, 4114.35897408, 4105.76923050, 4138.07692287, 4100.12820478, 4090.89743555, 4088.46153812, 4095.76923043, 4101.53846119, 4104.87179460, 4109.48717921, 4102.82051255, 4102.30769196, 4126.79487152,10.0
4108.46153819, 4117.30769203, 4112.94871767, 4141.53846133, 4103.58974332, 4094.99999966, 4089.99999966, 4097.05128171, 4114.48717921, 4119.87179460, 4115.51282024, 4116.66666639, 4114.99999973, 4124.74358947,10.0
4118.07692280, 4118.71794844, 4121.92307665, 4144.74358954, 4106.66666639, 4102.94871767, 4105.12820485, 4112.30769203, 4122.69230742, 4126.92307665, 4123.84615357, 4127.43589716, 4120.51282024, 4115.64102537,10.0
4109.74358947, 4111.53846126, 4113.07692280, 4132.56410229, 4091.79487145, 4092.94871761, 4099.87179453, 4107.82051255, 4108.33333306, 4109.99999973, 4118.07692280, 4117.56410229, 4106.28205101, 4115.51282024,10.0
4099.10256376, 4106.15384588, 4105.89743562, 4122.56410229, 4083.97435863, 4085.38461504, 4089.10256376, 4094.10256376, 4100.25640991, 4100.25640991, 4109.23076896, 4105.76923050, 4098.58974325, 4121.79487152,10.0
4105.64102537, 4111.02564075, 4111.92307665, 4129.35897408, 4091.02564068, 4092.17948684, 4092.82051248, 4094.74358940, 4105.76923050, 4110.51282024, 4112.69230742, 4108.07692280, 4108.46153819, 4125.64102537,10.0
4113.46153819, 4114.74358947, 4114.61538434, 4130.76923050, 4095.12820478, 4097.56410222, 4101.28205094, 4107.17948691, 4111.53846126, 4119.10256383, 4117.43589716, 4116.41025614, 4118.20512793, 4121.66666639,10.0
4110.51282024, 4108.33333306, 4108.33333306, 4120.38461511, 4092.17948684, 4096.66666632, 4101.92307658, 4111.79487152, 4112.43589716, 4115.89743562, 4111.28205101, 4115.89743562, 4114.74358947, 4118.20512793,10.0
4107.17948691, 4107.69230742, 4108.33333306, 4117.05128178, 4097.17948684, 4098.97435863, 4102.43589709, 4105.25640998, 4109.35897408, 4110.25640998, 4101.79487145, 4109.99999973, 4106.79487152, 4118.33333306,10.0
4107.43589716, 4114.99999973, 4113.46153819, 4120.76923050, 4105.64102537, 4104.61538434, 4105.51282024, 4102.82051255, 4106.79487152, 4106.66666639, 4100.64102530, 4107.94871767, 4103.84615357, 4117.05128178,10.0
4111.02564075, 4119.99999973, 4121.53846126, 4124.35897408, 4109.99999973, 4109.87179460, 4111.79487152, 4114.61538434, 4112.43589716, 4113.97435870, 4105.64102537, 4112.94871767, 4111.92307665, 4118.97435870,10.0
4113.58974332, 4118.58974332, 4123.33333306, 4123.46153819, 4109.23076896, 4108.58974332, 4112.56410229, 4115.89743562, 4113.07692280, 4119.61538434, 4105.25640998, 4114.61538434, 4118.07692280, 4123.58974332,10.0
4110.12820485, 4113.97435870, 4110.38461511, 4118.46153819, 4101.79487145, 4101.79487145, 4100.89743555, 4102.05128171, 4107.30769203, 4113.07692280, 4099.61538427, 4107.94871767, 4109.35897408, 4123.71794844,10.0
4104.87179460, 4109.74358947, 4099.99999966, 4115.89743562, 4095.51282017, 4094.35897402, 4091.66666632, 4098.20512786, 4103.84615357, 4106.28205101, 4099.10256376, 4104.87179460, 4102.56410229, 4120.38461511,10.0
4099.10256376, 4101.66666632, 4096.15384581, 4112.05128178, 4087.94871761, 4083.46153812, 4080.76923043, 4094.48717914, 4090.76923043, 4096.28205094, 4099.35897402, 4101.02564068, 4098.97435863, 4117.30769203,10.0
4094.48717914, 4098.97435863, 4091.92307658, 4109.87179460, 4083.33333299, 4076.92307658, 4073.97435863, 4082.69230735, 4081.28205094, 4088.71794837, 4093.33333299, 4094.61538427, 4096.53846119, 4116.28205101,10.0
4099.99999966, 4107.69230742, 4095.89743555, 4118.20512793, 4090.25640991, 4084.99999966, 4086.92307658, 4092.30769196, 4095.89743555, 4098.46153812, 4099.10256376, 4100.89743555, 4105.51282024, 4120.64102537,10.0
4107.17948691, 4110.76923050, 4104.74358947, 4121.92307665, 4096.28205094, 4094.74358940, 4103.33333306, 4113.33333306, 4111.92307665, 4115.25640998, 4111.53846126, 4114.87179460, 4119.23076896, 4124.74358947,10.0
4102.82051255, 4101.92307658, 4106.66666639, 4114.48717921, 4092.05128171, 4092.82051248, 4106.41025614, 4110.64102537, 4110.38461511, 4117.30769203, 4111.79487152, 4118.46153819, 4118.07692280, 4120.12820485,10.0
4094.87179453, 4100.64102530, 4106.02564075, 4113.84615357, 4091.66666632, 4093.33333299, 4107.43589716, 4102.82051255, 4108.58974332, 4111.15384588, 4105.89743562, 4114.23076896, 4107.69230742, 4122.17948691,10.0
4089.48717914, 4103.33333306, 4102.82051255, 4112.30769203, 4095.12820478, 4095.38461504, 4102.69230742, 4100.89743555, 4103.07692280, 4100.51282017, 4095.64102530, 4101.92307658, 4101.02564068, 4128.33333306,10.0
4085.51282017, 4096.66666632, 4094.48717914, 4104.74358947, 4089.74358940, 4092.05128171, 4090.25640991, 4092.94871761, 4091.02564068, 4087.56410222, 4087.56410222, 4087.43589709, 4094.99999966, 4122.43589716,10.0
4086.92307658, 4098.33333299, 4091.79487145, 4106.28205101, 4091.66666632, 4092.17948684, 4090.25640991, 4089.61538427, 4093.07692273, 4087.56410222, 4088.20512786, 4088.84615350, 4093.58974325, 4118.97435870,10.0
4085.64102530, 4100.76923043, 4084.10256376, 4106.41025614, 4095.89743555, 4085.76923043, 4087.69230735, 4093.58974325, 4094.74358940, 4086.28205094, 4080.12820478, 4085.38461504, 4090.64102530, 4123.46153819,10.0
4076.92307658, 4087.56410222, 4064.48717907, 4094.74358940, 4083.33333299, 4078.58974325, 4073.84615350, 4091.53846119, 4080.12820478, 4072.94871761, 4062.82051241, 4067.17948677, 4083.84615350, 4123.20512793,10.0
4076.02564068, 4082.30769196, 4062.56410215, 4090.12820478, 4075.38461504, 4084.48717914, 4072.17948684, 4079.87179453, 4074.23076889, 4067.30769189, 4061.28205087, 4068.07692266, 4082.94871761, 4120.51282024,10.0
4085.64102530, 4095.51282017, 4079.74358940, 4099.74358940, 4086.02564068, 4088.46153812, 4077.05128171, 4076.79487145, 4088.20512786, 4077.43589709, 4073.71794837, 4087.56410222, 4087.30769196, 4121.79487152,10.0
4086.79487145, 4098.97435863, 4082.82051248, 4102.56410229, 4084.87179453, 4076.79487145, 4072.43589709, 4083.46153812, 4095.38461504, 4081.02564068, 4076.79487145, 4089.87179453, 4089.87179453, 4121.28205101,10.0
4080.25640991, 4089.35897402, 4077.05128171, 4095.38461504, 4069.35897395, 4068.20512779, 4066.41025600, 4083.33333299, 4087.30769196, 4078.58974325, 4075.76923043, 4078.46153812, 4088.46153812, 4114.87179460,10.0
4087.17948684, 4095.76923043, 4090.76923043, 4099.61538427, 4077.94871761, 4077.05128171, 4077.17948684, 4090.89743555, 4096.66666632, 4093.46153812, 4087.05128171, 4084.10256376, 4095.89743555, 4117.30769203,10.0
4098.07692273, 4106.41025614, 4102.30769196, 4108.33333306, 4093.46153812, 4085.89743555, 4092.69230735, 4103.20512793, 4111.15384588, 4107.69230742, 4095.89743555, 4097.30769196, 4104.23076896, 4123.84615357,10.0
4088.33333299, 4096.66666632, 4084.35897402, 4098.20512786, 4083.84615350, 4081.92307658, 4093.58974325, 4097.17948684, 4099.10256376, 4095.64102530, 4081.92307658, 4087.43589709, 4096.02564068, 4121.15384588,10.0
4072.69230735, 4085.51282017, 4067.43589702, 4085.89743555, 4074.10256376, 4073.97435863, 4085.51282017, 4088.58974325, 4086.02564068, 4081.92307658, 4069.23076882, 4071.02564068, 4086.92307658, 4118.07692280,10.0
4073.46153812, 4088.58974325, 4071.79487145, 4087.94871761, 4078.07692273, 4075.64102530, 4081.92307658, 4091.79487145, 4091.15384581, 4086.79487145, 4079.35897402, 4077.43589709, 4092.30769196, 4119.99999973,10.0
4076.02564068, 4091.41025607, 4075.38461504, 4087.43589709, 4076.79487145, 4078.20512786, 4082.69230735, 4090.51282017, 4094.10256376, 4088.97435863, 4084.48717914, 4084.99999966, 4096.41025607, 4122.17948691,10.0
4073.33333299, 4091.66666632, 4072.43589709, 4086.66666632, 4077.05128171, 4076.28205094, 4084.61538427, 4088.20512786, 4093.20512786, 4085.12820478, 4075.51282017, 4080.64102530, 4091.28205094, 4122.82051255,10.0
4077.94871761, 4094.99999966, 4073.20512786, 4094.10256376, 4087.82051248, 4079.74358940, 4088.84615350, 4092.56410222, 4094.74358940, 4086.92307658, 4071.28205094, 4082.05128171, 4091.79487145, 4121.02564075,10.0
4087.30769196, 4099.10256376, 4079.61538427, 4097.43589709, 4092.30769196, 4082.43589709, 4088.46153812, 4091.53846119, 4096.28205094, 4088.84615350, 4075.51282017, 4088.84615350, 4096.53846119, 4119.35897408,10.0
4089.10256376, 4101.92307658, 4083.46153812, 4095.51282017, 4089.99999966, 4081.79487145, 4081.53846119, 4089.61538427, 4102.69230742, 4090.51282017, 4082.69230735, 4089.10256376, 4098.33333299, 4119.99999973,10.0
4085.76923043, 4100.89743555, 4081.28205094, 4092.82051248, 4089.74358940, 4085.38461504, 4079.61538427, 4094.35897402, 4107.94871767, 4091.79487145, 4085.64102530, 4089.61538427, 4098.71794837, 4122.30769203,10.0
4085.89743555, 4097.82051248, 4083.33333299, 4091.92307658, 4091.28205094, 4086.66666632, 4087.94871761, 4096.79487145, 4103.46153819, 4091.92307658, 4084.48717914, 4097.56410222, 4101.28205094, 4123.20512793,10.0
4087.17948684, 4102.05128171, 4091.92307658, 4094.99999966, 4092.30769196, 4084.35897402, 4097.05128171, 4100.64102530, 4106.02564075, 4098.58974325, 4089.48717914, 4102.94871767, 4107.82051255, 4119.23076896,10.0
4086.02564068, 4105.12820485, 4086.79487145, 4092.43589709, 4089.74358940, 4085.25640991, 4095.76923043, 4104.10256383, 4111.66666639, 4102.69230742, 4093.84615350, 4098.58974325, 4107.56410229, 4119.35897408,10.0
4083.07692273, 4099.10256376, 4071.15384581, 4087.69230735, 4086.15384581, 4085.38461504, 4089.35897402, 4103.84615357, 4109.10256383, 4094.74358940, 4086.66666632, 4090.51282017, 4100.51282017, 4124.61538434,10.0
4081.28205094, 4095.89743555, 4070.76923043, 4091.02564068, 4089.10256376, 4082.56410222, 4087.69230735, 4104.87179460, 4108.07692280, 4091.28205094, 4083.71794837, 4091.41025607, 4100.64102530, 4123.97435870,10.0
4083.97435863, 4101.15384581, 4078.84615350, 4095.64102530, 4097.56410222, 4089.48717914, 4093.97435863, 4103.97435870, 4110.25640998, 4095.89743555, 4092.69230735, 4098.20512786, 4108.20512793, 4122.56410229,10.0
4092.69230735, 4107.56410229, 4083.58974325, 4098.07692273, 4107.05128178, 4103.97435870, 4108.84615357, 4109.74358947, 4116.53846126, 4103.46153819, 4104.23076896, 4105.89743562, 4113.84615357, 4121.15384588,10.0
4109.35897408, 4115.76923050, 4097.05128171, 4108.84615357, 4118.33333306, 4112.43589716, 4123.97435870, 4127.30769203, 4135.89743569, 4119.48717921, 4119.48717921, 4116.15384588, 4120.51282024, 4119.23076896,10.0
4122.05128178, 4124.61538434, 4110.38461511, 4115.12820485, 4124.23076896, 4113.33333306, 4127.82051255, 4132.56410229, 4150.38461518, 4131.28205101, 4131.41025614, 4126.15384588, 4129.74358947, 4120.51282024,10.0
4118.33333306, 4126.15384588, 4109.23076896, 4111.02564075, 4122.43589716, 4114.35897408, 4120.76923050, 4121.28205101, 4143.58974339, 4126.92307665, 4125.76923050, 4127.56410229, 4129.87179460, 4119.10256383,10.0
4123.84615357, 4131.15384588, 4114.74358947, 4118.97435870, 4123.84615357, 4120.89743562, 4120.25640998, 4124.23076896, 4144.23076903, 4130.12820485, 4124.23076896, 4131.28205101, 4131.79487152, 4118.84615357,10.0
4145.89743569, 4138.20512800, 4129.87179460, 4132.05128178, 4131.92307665, 4126.66666639, 4129.87179460, 4132.94871767, 4154.74358954, 4142.05128185, 4142.69230749, 4144.74358954, 4140.12820492, 4121.15384588,10.0
4150.76923056, 4133.20512793, 4132.05128178, 4131.79487152, 4136.15384595, 4123.84615357, 4129.10256383, 4116.15384588, 4145.64102544, 4135.12820485, 4149.48717928, 4147.05128185, 4140.38461518, 4120.51282024,10.0
4145.51282031, 4133.97435870, 4131.92307665, 4131.66666639, 4134.48717921, 4116.79487152, 4121.15384588, 4101.41025607, 4134.61538434, 4124.23076896, 4142.30769210, 4141.66666646, 4137.94871774, 4118.58974332,10.0
4151.02564082, 4140.25641005, 4138.33333313, 4135.89743569, 4128.58974332, 4109.87179460, 4118.46153819, 4112.17948691, 4138.97435877, 4129.99999973, 4141.66666646, 4144.10256390, 4138.58974339, 4119.10256383,10.0
4156.28205108, 4137.94871774, 4141.02564082, 4137.56410236, 4123.97435870, 4107.94871767, 4119.23076896, 4124.61538434, 4147.30769210, 4139.48717928, 4145.38461518, 4144.99999980, 4137.69230749, 4119.23076896,10.0
4152.94871774, 4131.66666639, 4139.87179467, 4138.20512800, 4124.23076896, 4111.79487152, 4122.94871767, 4126.92307665, 4153.46153826, 4139.23076903, 4147.56410236, 4140.64102544, 4135.64102544, 4119.61538434,10.0
4150.64102544, 4130.12820485, 4135.38461518, 4136.41025621, 4123.71794844, 4115.76923050, 4127.43589716, 4123.71794844, 4150.76923056, 4133.33333306, 4144.99999980, 4137.17948697, 4136.02564082, 4120.76923050,10.0
4153.07692287, 4134.99999973, 4136.92307672, 4133.33333306, 4126.28205101, 4118.84615357, 4129.99999973, 4124.35897408, 4145.25641005, 4133.33333306, 4143.07692287, 4137.56410236, 4138.84615364, 4118.97435870,10.0
4162.30769210, 4148.46153826, 4151.02564082, 4141.79487159, 4138.97435877, 4126.53846126, 4141.79487159, 4140.51282031, 4156.28205108, 4145.25641005, 4154.99999980, 4143.97435877, 4145.64102544, 4117.94871767,10.0
4168.58974345, 4154.10256390, 4152.94871774, 4149.35897415, 4144.35897415, 4127.69230742, 4150.89743569, 4149.23076903, 4164.74358954, 4152.30769210, 4162.05128185, 4150.89743569, 4148.07692287, 4121.66666639,10.0
4158.20512800, 4139.99999980, 4135.38461518, 4139.10256390, 4132.43589716, 4118.07692280, 4134.35897408, 4129.23076896, 4149.23076903, 4140.64102544, 4145.51282031, 4141.53846133, 4140.89743569, 4122.82051255,10.0
4153.97435877, 4134.74358947, 4131.28205101, 4131.92307665, 4128.07692280, 4116.28205101, 4121.15384588, 4112.17948691, 4141.28205108, 4133.07692280, 4140.64102544, 4129.99999973, 4139.87179467, 4120.25640998,10.0
4166.92307672, 4148.33333313, 4149.87179467, 4142.94871774, 4142.17948697, 4125.38461511, 4129.23076896, 4120.51282024, 4152.69230749, 4143.33333313, 4158.97435877, 4141.66666646, 4148.71794851, 4118.33333306,10.0
4176.66666653, 4152.94871774, 4159.48717928, 4151.41025621, 4149.23076903, 4127.30769203, 4131.28205101, 4125.89743562, 4152.05128185, 4146.66666646, 4163.20512800, 4153.33333313, 4152.69230749, 4118.20512793,10.0
4175.38461525, 4146.92307672, 4153.71794851, 4149.35897415, 4144.10256390, 4125.12820485, 4128.97435870, 4118.71794844, 4142.82051262, 4140.12820492, 4155.51282031, 4151.79487159, 4153.46153826, 4119.61538434,10.0
4174.10256397, 4146.15384595, 4153.71794851, 4149.74358954, 4141.92307672, 4126.79487152, 4134.87179460, 4118.20512793, 4145.51282031, 4145.25641005, 4157.69230749, 4155.64102544, 4154.87179467, 4121.02564075,10.0
4178.20512807, 4149.10256390, 4163.46153826, 4151.41025621, 4143.20512800, 4125.76923050, 4136.79487159, 4131.41025614, 4156.79487159, 4154.23076903, 4165.38461518, 4162.82051262, 4152.94871774, 4121.02564075,10.0
4178.33333320, 4143.97435877, 4164.61538441, 4143.33333313, 4139.99999980, 4123.07692280, 4134.23076896, 4137.82051262, 4155.38461518, 4149.87179467, 4165.25641005, 4157.17948697, 4149.35897415, 4121.66666639,10.0
4171.15384602, 4138.84615364, 4157.05128185, 4132.82051255, 4136.02564082, 4122.94871767, 4136.41025621, 4125.89743562, 4142.30769210, 4138.07692287, 4155.38461518, 4147.05128185, 4144.35897415, 4121.66666639,10.0
4163.58974339, 4142.05128185, 4157.69230749, 4132.17948691, 4136.53846133, 4124.99999973, 4143.71794851, 4128.97435870, 4145.89743569, 4137.94871774, 4148.07692287, 4147.17948697, 4141.28205108, 4120.38461511,10.0
4162.69230749, 4143.07692287, 4160.64102544, 4135.25640998, 4139.61538441, 4126.66666639, 4147.30769210, 4144.74358954, 4155.64102544, 4143.46153826, 4143.07692287, 4145.51282031, 4140.89743569, 4122.05128178,10.0
4162.43589723, 4137.56410236, 4153.07692287, 4130.25640998, 4136.53846133, 4122.82051255, 4135.89743569, 4131.15384588, 4136.15384595, 4131.02564075, 4134.61538434, 4136.28205108, 4134.99999973, 4123.33333306,10.0
4162.30769210, 4140.51282031, 4151.79487159, 4126.92307665, 4134.23076896, 4121.28205101, 4127.17948691, 4113.97435870, 4115.51282024, 4118.20512793, 4136.02564082, 4134.10256383, 4132.82051255, 4119.48717921,10.0
4171.28205115, 4152.05128185, 4166.53846133, 4135.38461518, 4146.41025621, 4133.84615357, 4140.76923056, 4133.20512793, 4138.20512800, 4132.17948691, 4150.38461518, 4146.15384595, 4145.76923056, 4118.33333306,10.0
4174.23076910, 4152.05128185, 4171.41025628, 4139.35897415, 4152.94871774, 4142.05128185, 4149.23076903, 4145.51282031, 4157.82051262, 4146.92307672, 4155.76923056, 4154.10256390, 4151.15384595, 4121.41025614,10.0
4169.48717935, 4145.38461518, 4158.84615364, 4132.82051255, 4141.02564082, 4133.46153819, 4139.10256390, 4126.92307665, 4141.92307672, 4140.12820492, 4148.84615364, 4147.17948697, 4141.15384595, 4123.46153819,10.0
4164.35897415, 4144.87179467, 4151.41025621, 4128.07692280, 4131.41025614, 4123.71794844, 4128.71794844, 4118.20512793, 4132.30769203, 4134.61538434, 4146.41025621, 4139.61538441, 4136.53846133, 4121.41025614,10.0
4155.51282031, 4139.10256390, 4149.87179467, 4126.79487152, 4127.94871767, 4116.41025614, 4123.07692280, 4123.46153819, 4135.89743569, 4137.17948697, 4144.48717928, 4136.41025621, 4136.92307672, 4119.48717921,10.0
4146.41025621, 4129.74358947, 4149.61538441, 4124.10256383, 4121.28205101, 4110.89743562, 4119.87179460, 4124.35897408, 4136.79487159, 4137.17948697, 4136.28205108, 4131.15384588, 4135.76923056, 4120.25640998,10.0
4147.56410236, 4132.30769203, 4152.43589723, 4123.07692280, 4119.35897408, 4113.58974332, 4121.15384588, 4122.30769203, 4137.69230749, 4139.10256390, 4136.28205108, 4129.61538434, 4137.69230749, 4122.94871767,10.0
4157.94871774, 4142.69230749, 4156.02564082, 4130.64102537, 4126.28205101, 4120.25640998, 4126.28205101, 4126.92307665, 4143.84615364, 4148.07692287, 4148.20512800, 4139.74358954, 4147.56410236, 4126.15384588,10.0
4162.43589723, 4145.64102544, 4155.89743569, 4134.99999973, 4128.58974332, 4123.84615357, 4137.56410236, 4145.51282031, 4156.02564082, 4158.97435877, 4157.17948697, 4147.05128185, 4155.64102544, 4122.43589716,10.0
4154.99999980, 4136.92307672, 4148.46153826, 4126.53846126, 4125.25640998, 4122.30769203, 4143.84615364, 4158.20512800, 4164.48717928, 4160.64102544, 4154.48717928, 4139.61538441, 4151.41025621, 4118.33333306,10.0
4144.74358954, 4125.12820485, 4131.02564075, 4114.35897408, 4122.56410229, 4116.02564075, 4136.79487159, 4146.92307672, 4152.94871774, 4146.79487159, 4144.23076903, 4128.07692280, 4141.15384595, 4120.64102537,10.0
4141.53846133, 4120.76923050, 4123.07692280, 4110.12820485, 4120.51282024, 4114.23076896, 4132.17948691, 4132.43589716, 4135.64102544, 4134.99999973, 4135.51282031, 4125.38461511, 4134.99999973, 4122.17948691,10.0
4144.99999980, 4126.15384588, 4130.12820485, 4114.48717921, 4120.38461511, 4117.69230742, 4134.87179460, 4135.25640998, 4136.79487159, 4138.97435877, 4138.33333313, 4132.30769203, 4137.94871774, 4121.28205101,10.0
4147.30769210, 4132.94871767, 4132.05128178, 4120.76923050, 4123.84615357, 4116.66666639, 4131.28205101, 4137.94871774, 4138.84615364, 4145.76923056, 4149.10256390, 4138.71794851, 4145.89743569, 4120.89743562,10.0
4141.41025621, 4127.17948691, 4126.53846126, 4118.58974332, 4121.66666639, 4110.89743562, 4115.38461511, 4120.25640998, 4122.43589716, 4136.79487159, 4142.69230749, 4132.30769203, 4143.33333313, 4119.99999973,10.0
4131.79487152, 4119.23076896, 4123.33333306, 4109.48717921, 4112.82051255, 4107.94871767, 4101.53846119, 4104.23076896, 4107.30769203, 4120.64102537, 4124.99999973, 4121.02564075, 4129.61538434, 4119.99999973,10.0
4132.69230742, 4122.56410229, 4125.12820485, 4110.38461511, 4114.87179460, 4107.43589716, 4102.69230742, 4110.25640998, 4109.87179460, 4120.25640998, 4124.10256383, 4124.74358947, 4126.79487152, 4120.89743562,10.0
4135.51282031, 4124.87179460, 4131.15384588, 4117.56410229, 4122.17948691, 4105.25640998, 4102.82051255, 4115.64102537, 4111.92307665, 4126.41025614, 4129.74358947, 4133.71794844, 4136.79487159, 4121.41025614,10.0
4129.99999973, 4123.71794844, 4132.69230742, 4116.41025614, 4120.25640998, 4102.56410229, 4094.87179453, 4104.48717921, 4103.84615357, 4120.89743562, 4128.46153819, 4131.41025614, 4137.94871774, 4121.41025614,10.0
4126.66666639, 4124.74358947, 4129.35897408, 4113.46153819, 4117.05128178, 4102.05128171, 4095.38461504, 4106.53846126, 4106.66666639, 4118.46153819, 4127.56410229, 4126.79487152, 4133.46153819, 4118.33333306,10.0
4127.82051255, 4122.56410229, 4129.61538434, 4114.10256383, 4116.41025614, 4108.33333306, 4112.43589716, 4127.82051255, 4123.46153819, 4127.30769203, 4128.58974332, 4126.53846126, 4137.94871774, 4114.99999973,10.0
4121.28205101, 4118.58974332, 4125.76923050, 4111.66666639, 4111.66666639, 4112.17948691, 4119.87179460, 4129.35897408, 4124.87179460, 4129.61538434, 4120.89743562, 4122.30769203, 4138.97435877, 4119.74358947,10.0
4113.97435870, 4119.10256383, 4114.87179460, 4108.58974332, 4105.51282024, 4107.43589716, 4109.35897408, 4116.53846126, 4112.94871767, 4123.46153819, 4111.53846126, 4117.17948691, 4127.17948691, 4126.02564075,10.0
4118.07692280, 4120.64102537, 4116.92307665, 4109.48717921, 4105.89743562, 4107.56410229, 4113.07692280, 4122.82051255, 4119.48717921, 4123.71794844, 4114.23076896, 4120.89743562, 4125.25640998, 4118.71794844,10.0
4125.89743562, 4120.64102537, 4124.48717921, 4108.84615357, 4112.82051255, 4111.92307665, 4125.51282024, 4129.35897408, 4123.84615357, 4126.41025614, 4116.66666639, 4124.10256383, 4134.74358947, 4115.89743562,10.0
4126.92307665, 4125.51282024, 4121.02564075, 4109.48717921, 4121.15384588, 4109.87179460, 4116.79487152, 4120.76923050, 4112.05128178, 4126.28205101, 4115.38461511, 4122.82051255, 4133.97435870, 4127.56410229,10.0
4130.12820485, 4134.23076896, 4122.05128178, 4114.35897408, 4125.38461511, 4111.79487152, 4108.07692280, 4120.76923050, 4115.89743562, 4128.71794844, 4121.92307665, 4124.35897408, 4129.35897408, 4124.74358947,10.0
4134.74358947, 4138.20512800, 4129.99999973, 4115.89743562, 4127.94871767, 4118.71794844, 4117.17948691, 4125.38461511, 4128.07692280, 4129.35897408, 4129.10256383, 4127.30769203, 4133.33333306, 4116.92307665,10.0
4127.56410229, 4130.12820485, 4126.79487152, 4113.20512793, 4130.25640998, 4116.15384588, 4115.64102537, 4116.02564075, 4116.41025614, 4123.07692280, 4121.53846126, 4124.23076896, 4131.41025614, 4120.89743562,10.0
4116.15384588, 4116.53846126, 4117.30769203, 4108.84615357, 4122.43589716, 4106.41025614, 4097.69230735, 4107.43589716, 4102.94871767, 4117.30769203, 4110.89743562, 4114.74358947, 4120.89743562, 4121.41025614,10.0
4112.05128178, 4110.12820485, 4113.58974332, 4102.05128171, 4106.15384588, 4099.74358940, 4091.79487145, 4106.41025614, 4106.66666639, 4117.17948691, 4110.76923050, 4109.35897408, 4119.61538434, 4117.69230742,10.0
4113.20512793, 4110.51282024, 4113.84615357, 4098.33333299, 4102.17948684, 4100.64102530, 4100.76923043, 4108.46153819, 4106.92307665, 4118.58974332, 4113.58974332, 4113.58974332, 4127.94871767, 4118.20512793,10.0
4111.92307665, 4113.07692280, 4114.23076896, 4102.30769196, 4106.92307665, 4106.66666639, 4108.46153819, 4116.92307665, 4107.30769203, 4123.07692280, 4116.92307665, 4121.53846126, 4137.30769210, 4121.02564075,10.0
4109.87179460, 4113.20512793, 4110.38461511, 4103.07692280, 4099.48717914, 4105.89743562, 4107.94871767, 4123.84615357, 4114.99999973, 4130.25640998, 4118.58974332, 4122.30769203, 4141.02564082, 4120.51282024,10.0
4112.94871767, 4112.56410229, 4107.05128178, 4099.23076889, 4093.71794837, 4101.66666632, 4111.02564075, 4132.05128178, 4121.66666639, 4136.53846133, 4115.89743562, 4120.89743562, 4137.56410236, 4118.84615357,10.0
4116.66666639, 4114.35897408, 4109.87179460, 4096.28205094, 4096.53846119, 4104.99999973, 4118.07692280, 4139.87179467, 4124.10256383, 4138.58974339, 4113.33333306, 4123.20512793, 4133.97435870, 4118.84615357,10.0
4112.82051255, 4112.82051255, 4109.74358947, 4094.74358940, 4091.66666632, 4105.25640998, 4115.51282024, 4130.64102537, 4122.17948691, 4133.97435870, 4109.74358947, 4120.89743562, 4132.30769203, 4118.46153819,10.0
4114.61538434, 4113.97435870, 4109.23076896, 4101.79487145, 4091.92307658, 4102.43589709, 4112.17948691, 4118.20512793, 4116.66666639, 4130.51282024, 4107.17948691, 4119.48717921, 4131.79487152, 4118.84615357,10.0
4125.64102537, 4122.30769203, 4113.07692280, 4112.17948691, 4108.46153819, 4108.84615357, 4114.74358947, 4119.99999973, 4109.48717921, 4128.58974332, 4107.56410229, 4121.92307665, 4131.66666639, 4120.76923050,10.0
4125.64102537, 4124.23076896, 4110.25640998, 4107.69230742, 4116.53846126, 4112.05128178, 4111.15384588, 4118.71794844, 4103.46153819, 4122.82051255, 4103.58974332, 4118.20512793, 4128.58974332, 4120.64102537,10.0
4123.71794844, 4124.99999973, 4112.69230742, 4106.79487152, 4118.07692280, 4107.69230742, 4109.23076896, 4116.02564075, 4106.79487152, 4122.56410229, 4101.15384581, 4120.76923050, 4129.23076896, 4119.87179460,10.0
4132.69230742, 4132.56410229, 4127.43589716, 4117.17948691, 4125.25640998, 4106.92307665, 4108.84615357, 4115.38461511, 4111.41025614, 4126.66666639, 4105.38461511, 4133.84615357, 4134.87179460, 4121.53846126,10.0
4127.05128178, 4128.20512793, 4125.25640998, 4111.79487152, 4119.35897408, 4103.97435870, 4097.17948684, 4098.84615350, 4099.99999966, 4120.38461511, 4104.23076896, 4130.64102537, 4130.25640998, 4119.99999973,10.0
4110.25640998, 4114.87179460, 4110.76923050, 4096.79487145, 4105.12820485, 4098.84615350, 4087.82051248, 4090.25640991, 4094.10256376, 4116.02564075, 4100.12820478, 4119.48717921, 4124.48717921, 4117.30769203,10.0
4106.53846126, 4114.74358947, 4109.10256383, 4097.43589709, 4105.12820485, 4100.89743555, 4098.97435863, 4102.82051255, 4103.33333306, 4122.69230742, 4104.61538434, 4121.53846126, 4127.30769203, 4120.89743562,10.0
4108.84615357, 4119.74358947, 4112.43589716, 4103.58974332, 4106.79487152, 4107.94871767, 4114.48717921, 4109.87179460, 4111.41025614, 4126.79487152, 4111.41025614, 4124.23076896, 4127.30769203, 4121.79487152,10.0
4108.97435870, 4118.07692280, 4115.38461511, 4103.33333306, 4100.12820478, 4108.33333306, 4118.33333306, 4109.61538434, 4119.61538434, 4132.82051255, 4114.74358947, 4128.07692280, 4129.48717921, 4120.51282024,10.0
4113.07692280, 4115.76923050, 4121.15384588, 4103.97435870, 4098.20512786, 4103.07692280, 4112.69230742, 4112.17948691, 4122.43589716, 4136.79487159, 4117.05128178, 4132.05128178, 4132.05128178, 4122.94871767,10.0
4113.97435870, 4116.92307665, 4117.30769203, 4105.89743562, 4100.38461504, 4103.58974332, 4105.51282024, 4108.46153819, 4109.23076896, 4127.56410229, 4112.17948691, 4124.10256383, 4125.64102537, 4121.15384588,10.0
4109.99999973, 4122.30769203, 4109.23076896, 4104.61538434, 4102.94871767, 4106.53846126, 4103.71794844, 4102.05128171, 4099.10256376, 4119.99999973, 4101.41025607, 4117.30769203, 4122.82051255, 4118.46153819,10.0
4118.46153819, 4128.97435870, 4117.82051255, 4108.33333306, 4112.05128178, 4105.76923050, 4112.94871767, 4116.41025614, 4116.15384588, 4127.17948691, 4105.25640998, 4130.76923050, 4134.87179460, 4121.02564075,10.0
4129.87179460, 4127.43589716, 4124.23076896, 4114.87179460, 4117.30769203, 4107.56410229, 4121.15384588, 4125.76923050, 4126.66666639, 4132.05128178, 4118.33333306, 4142.69230749, 4142.30769210, 4122.43589716,10.0
4120.12820485, 4120.38461511, 4112.05128178, 4111.66666639, 4115.12820485, 4111.28205101, 4111.28205101, 4103.20512793, 4102.94871767, 4119.10256383, 4110.76923050, 4132.05128178, 4132.30769203, 4121.53846126,10.0
4107.69230742, 4120.25640998, 4107.56410229, 4106.53846126, 4118.07692280, 4108.46153819, 4099.87179453, 4086.66666632, 4085.89743555, 4107.43589716, 4093.33333299, 4121.53846126, 4126.15384588, 4120.89743562,10.0
4119.23076896, 4128.20512793, 4119.99999973, 4116.66666639, 4124.48717921, 4110.12820485, 4107.43589716, 4103.46153819, 4108.71794844, 4123.46153819, 4100.51282017, 4131.79487152, 4134.61538434, 4118.58974332,10.0
4132.69230742, 4130.89743562, 4123.58974332, 4124.35897408, 4124.35897408, 4117.30769203, 4115.25640998, 4118.58974332, 4127.94871767, 4142.30769210, 4114.61538434, 4145.12820492, 4143.71794851, 4120.76923050,10.0
4118.46153819, 4122.69230742, 4110.25640998, 4112.43589716, 4120.25640998, 4111.28205101, 4106.15384588, 4099.35897402, 4102.17948684, 4126.28205101, 4102.69230742, 4133.07692280, 4136.53846133, 4126.53846126,10.0
4102.94871767, 4118.20512793, 4104.23076896, 4103.33333306, 4118.07692280, 4103.58974332, 4102.05128171, 4083.46153812, 4081.15384581, 4109.35897408, 4088.20512786, 4117.82051255, 4126.02564075, 4124.10256383,10.0
4109.99999973, 4122.69230742, 4109.87179460, 4111.28205101, 4118.20512793, 4109.99999973, 4113.84615357, 4097.94871761, 4094.99999966, 4118.97435870, 4095.38461504, 4123.46153819, 4128.84615357, 4122.69230742,10.0
4116.92307665, 4126.02564075, 4111.28205101, 4112.56410229, 4118.71794844, 4116.28205101, 4123.46153819, 4113.33333306, 4108.07692280, 4124.48717921, 4103.33333306, 4125.89743562, 4132.43589716, 4124.10256383,10.0
4115.76923050, 4126.41025614, 4111.92307665, 4106.41025614, 4118.07692280, 4112.94871767, 4122.69230742, 4109.99999973, 4112.17948691, 4121.66666639, 4100.89743555, 4120.25640998, 4132.05128178, 4122.56410229,10.0
4120.38461511, 4126.92307665, 4121.02564075, 4110.51282024, 4119.61538434, 4107.69230742, 4115.12820485, 4103.84615357, 4117.56410229, 4123.97435870, 4098.33333299, 4121.92307665, 4132.43589716, 4121.28205101,10.0
4122.82051255, 4128.84615357, 4128.07692280, 4117.17948691, 4122.94871767, 4107.69230742, 4116.66666639, 4116.92307665, 4123.07692280, 4125.89743562, 4096.92307658, 4125.25640998, 4131.79487152, 4119.35897408,10.0
4111.28205101, 4127.17948691, 4120.25640998, 4109.10256383, 4118.46153819, 4109.10256383, 4122.56410229, 4125.76923050, 4118.33333306, 4120.12820485, 4090.12820478, 4118.84615357, 4125.89743562, 4119.61538434,10.0
4099.23076889, 4119.35897408, 4109.10256383, 4098.84615350, 4110.89743562, 4108.46153819, 4116.92307665, 4112.17948691, 4110.38461511, 4110.89743562, 4083.07692273, 4110.25640998, 4118.58974332, 4121.41025614,10.0
4099.48717914, 4114.74358947, 4108.97435870, 4104.87179460, 4112.30769203, 4109.23076896, 4110.64102537, 4103.46153819, 4105.25640998, 4108.20512793, 4084.35897402, 4110.51282024, 4117.69230742, 4119.10256383,10.0
4099.10256376, 4113.58974332, 4110.25640998, 4109.48717921, 4113.07692280, 4105.64102537, 4102.05128171, 4108.20512793, 4098.33333299, 4105.38461511, 4081.28205094, 4111.66666639, 4115.12820485, 4117.69230742,10.0
4095.76923043, 4112.05128178, 4105.25640998, 4104.74358947, 4107.94871767, 4100.89743555, 4089.87179453, 4111.66666639, 4098.58974325, 4105.38461511, 4079.99999966, 4107.30769203, 4114.35897408, 4120.25640998,10.0
4096.15384581, 4109.87179460, 4102.30769196, 4106.02564075, 4108.84615357, 4103.33333306, 4091.79487145, 4109.23076896, 4105.89743562, 4114.74358947, 4091.79487145, 4106.41025614, 4120.25640998, 4120.76923050,10.0
4094.23076889, 4107.17948691, 4105.64102537, 4108.84615357, 4110.76923050, 4105.12820485, 4099.74358940, 4109.35897408, 4107.56410229, 4119.23076896, 4096.02564068, 4111.41025614, 4121.41025614, 4119.35897408,10.0
4097.17948684, 4107.30769203, 4109.48717921, 4106.79487152, 4105.76923050, 4103.46153819, 4098.71794837, 4113.46153819, 4108.20512793, 4114.61538434, 4090.89743555, 4113.58974332, 4117.94871767, 4123.20512793,10.0
4109.99999973, 4114.35897408, 4111.66666639, 4109.23076896, 4105.25640998, 4108.33333306, 4105.25640998, 4117.56410229, 4117.56410229, 4118.97435870, 4092.82051248, 4113.20512793, 4121.79487152, 4126.79487152,10.0
4112.17948691, 4118.20512793, 4108.20512793, 4113.58974332, 4113.58974332, 4113.71794844, 4118.71794844, 4120.12820485, 4124.99999973, 4125.64102537, 4095.76923043, 4111.28205101, 4124.23076896, 4121.28205101,10.0
4100.76923043, 4115.64102537, 4099.10256376, 4110.25640998, 4119.10256383, 4110.64102537, 4117.82051255, 4117.30769203, 4123.71794844, 4118.07692280, 4091.79487145, 4106.02564075, 4116.41025614, 4116.02564075,10.0
4097.82051248, 4119.23076896, 4096.92307658, 4110.25640998, 4120.12820485, 4110.76923050, 4116.15384588, 4118.97435870, 4122.82051255, 4113.07692280, 4089.23076889, 4107.17948691, 4115.12820485, 4116.92307665,10.0
4109.35897408, 4126.41025614, 4102.94871767, 4118.58974332, 4123.84615357, 4116.66666639, 4124.74358947, 4126.53846126, 4124.35897408, 4116.41025614, 4087.69230735, 4115.38461511, 4121.92307665, 4119.10256383,10.0
4126.02564075, 4132.82051255, 4110.12820485, 4127.43589716, 4135.64102544, 4124.61538434, 4136.92307672, 4142.69230749, 4143.84615364, 4125.64102537, 4093.84615350, 4124.35897408, 4128.33333306, 4118.97435870,10.0
4128.97435870, 4133.84615357, 4110.76923050, 4130.64102537, 4144.35897415, 4129.48717921, 4138.71794851, 4146.41025621, 4154.10256390, 4132.05128178, 4104.35897408, 4128.07692280, 4130.25640998, 4120.12820485,10.0
4113.33333306, 4127.43589716, 4104.74358947, 4129.35897408, 4136.15384595, 4120.89743562, 4121.79487152, 4120.38461511, 4126.53846126, 4120.51282024, 4098.58974325, 4123.46153819, 4122.56410229, 4122.30769203,10.0
4111.53846126, 4128.46153819, 4109.23076896, 4134.48717921, 4133.20512793, 4120.51282024, 4117.94871767, 4110.12820485, 4115.76923050, 4116.92307665, 4096.41025607, 4125.51282024, 4121.79487152, 4121.79487152,10.0
4132.56410229, 4139.10256390, 4127.05128178, 4146.66666646, 4150.38461518, 4136.79487159, 4133.07692280, 4126.53846126, 4143.58974339, 4136.66666646, 4116.66666639, 4140.89743569, 4134.99999973, 4121.28205101,10.0
4136.02564082, 4137.56410236, 4129.35897408, 4149.48717928, 4150.25641005, 4130.38461511, 4125.64102537, 4124.23076896, 4146.15384595, 4142.56410236, 4130.38461511, 4146.66666646, 4138.97435877, 4123.71794844,10.0
4128.97435870, 4128.46153819, 4120.51282024, 4142.05128185, 4135.51282031, 4114.74358947, 4117.30769203, 4116.28205101, 4131.02564075, 4136.15384595, 4130.38461511, 4141.92307672, 4137.69230749, 4123.71794844,10.0
4128.97435870, 4128.46153819, 4120.51282024, 4142.05128185, 4135.51282031, 4114.74358947, 4117.30769203, 4116.28205101, 4131.02564075, 4136.15384595, 4130.38461511, 4141.92307672, 4137.69230749, 4123.71794844,10.0
4140.64102544, 4136.53846133, 4127.56410229, 4144.61538441, 4143.07692287, 4129.87179460, 4138.71794851, 4132.17948691, 4144.74358954, 4146.66666646, 4134.61538434, 4144.74358954, 4144.48717928, 4122.56410229,10.0
4152.69230749, 4146.79487159, 4137.94871774, 4156.15384595, 4156.79487159, 4139.74358954, 4145.38461518, 4141.15384595, 4155.89743569, 4150.64102544, 4135.64102544, 4150.25641005, 4145.12820492, 4122.56410229,10.0
4156.15384595, 4144.35897415, 4140.25641005, 4162.56410236, 4152.69230749, 4127.05128178, 4132.82051255, 4134.10256383, 4148.46153826, 4143.20512800, 4134.48717921, 4152.43589723, 4141.15384595, 4118.20512793,10.0
4159.48717928, 4142.82051262, 4141.79487159, 4161.53846133, 4151.15384595, 4130.38461511, 4141.28205108, 4136.53846133, 4150.25641005, 4150.64102544, 4138.84615364, 4152.82051262, 4145.89743569, 4115.64102537,10.0
4163.84615364, 4149.48717928, 4141.66666646, 4160.89743569, 4156.41025621, 4142.56410236, 4152.94871774, 4145.51282031, 4157.94871774, 4158.97435877, 4142.82051262, 4152.17948697, 4150.51282031, 4119.23076896,10.0
4166.02564082, 4153.07692287, 4145.51282031, 4162.56410236, 4154.99999980, 4139.87179467, 4147.94871774, 4144.99999980, 4159.48717928, 4155.76923056, 4145.64102544, 4156.79487159, 4148.84615364, 4119.74358947,10.0
4165.76923056, 4149.61538441, 4151.53846133, 4162.17948697, 4152.30769210, 4136.92307672, 4146.15384595, 4139.87179467, 4155.12820492, 4151.79487159, 4147.43589723, 4159.99999980, 4148.07692287, 4123.46153819,10.0
4171.28205115, 4154.35897415, 4156.92307672, 4166.02564082, 4155.38461518, 4140.25641005, 4153.20512800, 4147.56410236, 4153.46153826, 4153.71794851, 4149.48717928, 4162.94871774, 4152.05128185, 4127.05128178,10.0
4184.10256397, 4164.61538441, 4166.92307672, 4175.12820499, 4160.51282031, 4142.56410236, 4155.12820492, 4152.69230749, 4156.53846133, 4155.25641005, 4152.82051262, 4172.56410243, 4155.38461518, 4118.71794844,10.0
4185.38461525, 4159.74358954, 4169.23076910, 4173.71794858, 4155.89743569, 4143.84615364, 4144.61538441, 4134.23076896, 4150.89743569, 4147.94871774, 4146.15384595, 4173.33333320, 4149.99999980, 4116.53846126,10.0
4166.02564082, 4142.43589723, 4150.76923056, 4157.94871774, 4138.58974339, 4134.99999973, 4126.28205101, 4119.61538434, 4134.61538434, 4133.46153819, 4127.30769203, 4155.89743569, 4137.94871774, 4124.23076896,10.0
4157.94871774, 4137.94871774, 4137.82051262, 4151.79487159, 4134.61538434, 4122.94871767, 4123.46153819, 4135.12820485, 4138.46153826, 4133.20512793, 4128.58974332, 4147.30769210, 4137.17948697, 4122.69230742,10.0
4166.02564082, 4145.76923056, 4142.82051262, 4159.87179467, 4149.99999980, 4130.51282024, 4141.15384595, 4143.97435877, 4154.23076903, 4147.17948697, 4145.64102544, 4154.23076903, 4144.87179467, 4118.07692280,10.0
4165.51282031, 4149.48717928, 4143.20512800, 4162.30769210, 4159.61538441, 4146.15384595, 4151.15384595, 4133.97435870, 4155.25641005, 4151.28205108, 4141.79487159, 4152.94871774, 4143.84615364, 4121.02564075,10.0
4158.71794851, 4147.69230749, 4136.92307672, 4157.30769210, 4154.74358954, 4142.30769210, 4140.38461518, 4131.66666639, 4146.79487159, 4141.41025621, 4125.76923050, 4143.71794851, 4136.02564082, 4121.41025614,10.0
4158.97435877, 4145.38461518, 4138.58974339, 4156.66666646, 4151.41025621, 4133.33333306, 4134.99999973, 4138.07692287, 4148.20512800, 4134.87179460, 4123.46153819, 4145.89743569, 4135.38461518, 4119.23076896,10.0
4165.51282031, 4149.74358954, 4148.71794851, 4164.35897415, 4157.56410236, 4140.12820492, 4145.38461518, 4144.61538441, 4159.23076903, 4143.84615364, 4134.10256383, 4157.30769210, 4146.15384595, 4122.05128178,10.0
4157.30769210, 4147.56410236, 4145.64102544, 4159.48717928, 4152.43589723, 4139.99999980, 4139.35897415, 4131.79487152, 4144.48717928, 4140.12820492, 4128.33333306, 4149.74358954, 4138.71794851, 4120.89743562,10.0
4146.92307672, 4139.74358954, 4133.20512793, 4147.69230749, 4135.64102544, 4130.12820485, 4124.61538434, 4117.69230742, 4119.99999973, 4120.12820485, 4115.76923050, 4133.71794844, 4120.64102537, 4122.56410229,10.0
4157.69230749, 4144.35897415, 4139.74358954, 4153.33333313, 4139.23076903, 4134.61538434, 4134.99999973, 4130.38461511, 4130.89743562, 4126.41025614, 4127.56410229, 4140.12820492, 4132.69230742, 4126.28205101,10.0
4167.17948697, 4148.58974339, 4151.41025621, 4158.20512800, 4153.58974339, 4141.41025621, 4146.15384595, 4142.56410236, 4148.20512800, 4145.38461518, 4143.33333313, 4151.79487159, 4150.64102544, 4121.92307665,10.0
4162.56410236, 4145.89743569, 4152.43589723, 4154.74358954, 4151.66666646, 4136.79487159, 4136.66666646, 4136.66666646, 4140.76923056, 4146.28205108, 4142.05128185, 4152.05128185, 4145.12820492, 4120.38461511,10.0
4154.23076903, 4145.64102544, 4150.12820492, 4154.99999980, 4141.02564082, 4130.51282024, 4126.66666639, 4130.76923050, 4134.74358947, 4138.46153826, 4135.38461518, 4146.66666646, 4137.17948697, 4124.35897408,10.0
4149.23076903, 4141.28205108, 4148.20512800, 4151.53846133, 4136.02564082, 4130.38461511, 4124.10256383, 4127.05128178, 4135.12820485, 4134.23076896, 4132.94871767, 4139.48717928, 4138.33333313, 4121.41025614,10.0
4153.97435877, 4138.07692287, 4151.79487159, 4150.64102544, 4139.99999980, 4136.41025621, 4133.84615357, 4129.99999973, 4137.69230749, 4140.76923056, 4137.56410236, 4139.99999980, 4141.41025621, 4116.28205101,10.0
4167.43589723, 4149.48717928, 4159.87179467, 4163.97435877, 4153.84615364, 4144.10256390, 4154.61538441, 4150.76923056, 4158.71794851, 4159.35897415, 4149.35897415, 4151.02564082, 4152.43589723, 4118.84615357,10.0
4165.38461518, 4154.10256390, 4153.33333313, 4166.15384595, 4155.89743569, 4141.53846133, 4153.46153826, 4155.89743569, 4166.15384595, 4161.15384595, 4148.84615364, 4151.41025621, 4156.79487159, 4122.30769203,10.0
4151.15384595, 4144.10256390, 4137.43589723, 4150.64102544, 4139.61538441, 4132.56410229, 4132.30769203, 4140.89743569, 4149.10256390, 4146.02564082, 4138.97435877, 4137.17948697, 4145.76923056, 4122.94871767,10.0
4154.23076903, 4141.15384595, 4138.71794851, 4149.61538441, 4137.69230749, 4131.41025614, 4128.84615357, 4137.17948697, 4146.79487159, 4148.33333313, 4144.74358954, 4135.51282031, 4143.84615364, 4124.35897408,10.0
4163.46153826, 4148.33333313, 4151.92307672, 4158.20512800, 4151.02564082, 4138.58974339, 4140.76923056, 4139.87179467, 4156.28205108, 4157.56410236, 4157.56410236, 4148.58974339, 4151.53846133, 4126.79487152,10.0
4166.79487159, 4156.41025621, 4159.48717928, 4162.43589723, 4158.20512800, 4146.15384595, 4149.99999980, 4150.38461518, 4160.25641005, 4159.35897415, 4162.82051262, 4156.92307672, 4157.05128185, 4124.74358947,10.0
4165.64102544, 4153.97435877, 4153.07692287, 4162.17948697, 4154.61538441, 4144.99999980, 4145.76923056, 4151.15384595, 4154.87179467, 4155.51282031, 4156.66666646, 4150.51282031, 4152.94871774, 4118.84615357,10.0
4159.48717928, 4142.94871774, 4138.07692287, 4154.74358954, 4148.07692287, 4139.23076903, 4132.30769203, 4125.12820485, 4139.35897415, 4143.71794851, 4142.82051262, 4139.35897415, 4141.92307672, 4118.84615357,10.0
4156.53846133, 4141.28205108, 4135.12820485, 4147.69230749, 4149.61538441, 4136.66666646, 4130.38461511, 4110.64102537, 4131.79487152, 4140.64102544, 4141.53846133, 4141.28205108, 4141.79487159, 4121.53846126,10.0
4159.99999980, 4147.05128185, 4145.64102544, 4151.28205108, 4149.10256390, 4136.66666646, 4139.35897415, 4124.61538434, 4145.89743569, 4152.56410236, 4154.10256390, 4149.99999980, 4153.58974339, 4125.25640998,10.0
4162.94871774, 4145.64102544, 4149.99999980, 4157.69230749, 4142.43589723, 4137.56410236, 4137.05128185, 4129.23076896, 4152.17948697, 4157.05128185, 4157.56410236, 4151.79487159, 4159.10256390, 4126.02564075,10.0
4159.61538441, 4141.53846133, 4144.35897415, 4156.28205108, 4142.56410236, 4134.10256383, 4129.48717921, 4124.74358947, 4141.66666646, 4151.53846133, 4151.28205108, 4151.28205108, 4156.15384595, 4122.30769203,10.0
4154.87179467, 4144.99999980, 4141.79487159, 4155.12820492, 4150.12820492, 4128.46153819, 4132.69230742, 4133.84615357, 4143.97435877, 4151.41025621, 4149.99999980, 4153.71794851, 4155.38461518, 4123.46153819,10.0
4152.43589723, 4149.35897415, 4141.92307672, 4157.56410236, 4152.05128185, 4130.12820485, 4138.33333313, 4140.76923056, 4151.15384595, 4154.35897415, 4153.58974339, 4151.53846133, 4156.02564082, 4123.84615357,10.0
4149.74358954, 4145.25641005, 4138.20512800, 4156.28205108, 4147.43589723, 4133.07692280, 4136.79487159, 4138.84615364, 4144.35897415, 4151.28205108, 4153.33333313, 4143.20512800, 4156.41025621, 4120.76923050,10.0
4148.46153826, 4138.97435877, 4134.10256383, 4148.84615364, 4142.56410236, 4132.94871767, 4131.41025614, 4140.38461518, 4139.74358954, 4144.35897415, 4146.66666646, 4138.84615364, 4153.20512800, 4122.05128178,10.0
4147.05128185, 4139.99999980, 4132.56410229, 4143.07692287, 4136.92307672, 4130.51282024, 4130.51282024, 4141.41025621, 4143.20512800, 4138.33333313, 4140.38461518, 4136.41025621, 4146.02564082, 4124.48717921,10.0
4147.56410236, 4144.74358954, 4133.20512793, 4145.51282031, 4138.07692287, 4129.99999973, 4134.10256383, 4138.97435877, 4141.41025621, 4137.94871774, 4142.17948697, 4138.58974339, 4144.23076903, 4121.15384588,10.0
4149.35897415, 4143.20512800, 4132.43589716, 4148.58974339, 4140.64102544, 4132.43589716, 4131.15384588, 4136.28205108, 4136.79487159, 4137.69230749, 4145.64102544, 4141.15384595, 4146.66666646, 4118.07692280,10.0
4151.28205108, 4139.35897415, 4133.07692280, 4148.58974339, 4138.33333313, 4130.89743562, 4127.05128178, 4137.30769210, 4137.94871774, 4135.89743569, 4142.05128185, 4141.15384595, 4147.05128185, 4119.74358947,10.0
4154.35897415, 4144.48717928, 4140.38461518, 4149.74358954, 4139.61538441, 4130.38461511, 4136.79487159, 4142.43589723, 4147.05128185, 4143.46153826, 4142.05128185, 4147.82051262, 4149.74358954, 4119.61538434,10.0
4152.56410236, 4145.76923056, 4135.89743569, 4149.48717928, 4139.74358954, 4138.20512800, 4146.66666646, 4143.97435877, 4154.99999980, 4149.48717928, 4146.92307672, 4148.97435877, 4152.30769210, 4119.10256383,10.0
4145.64102544, 4136.28205108, 4119.35897408, 4144.74358954, 4133.33333306, 4137.82051262, 4137.43589723, 4139.74358954, 4146.92307672, 4141.66666646, 4143.46153826, 4134.74358947, 4148.84615364, 4119.10256383,10.0
4143.71794851, 4133.20512793, 4114.87179460, 4139.61538441, 4131.02564075, 4124.99999973, 4125.38461511, 4136.66666646, 4139.61538441, 4136.02564082, 4140.25641005, 4124.87179460, 4146.15384595, 4118.84615357,10.0
4141.53846133, 4136.15384595, 4117.94871767, 4138.33333313, 4135.64102544, 4122.82051255, 4127.30769203, 4127.17948691, 4137.30769210, 4133.07692280, 4141.41025621, 4123.97435870, 4140.51282031, 4123.20512793,10.0
4133.46153819, 4131.92307665, 4115.25640998, 4139.10256390, 4135.12820485, 4128.07692280, 4128.33333306, 4113.97435870, 4123.97435870, 4124.99999973, 4139.10256390, 4123.84615357, 4133.58974332, 4124.61538434,10.0
4134.61538434, 4133.46153819, 4119.87179460, 4141.79487159, 4135.38461518, 4127.17948691, 4125.64102537, 4121.79487152, 4121.15384588, 4127.56410229, 4141.02564082, 4129.23076896, 4142.05128185, 4119.99999973,10.0
4150.51282031, 4146.41025621, 4134.87179460, 4151.28205108, 4145.64102544, 4136.02564082, 4134.48717921, 4137.82051262, 4138.07692287, 4141.92307672, 4155.76923056, 4143.84615364, 4155.38461518, 4121.15384588,10.0
4157.30769210, 4147.94871774, 4138.07692287, 4156.15384595, 4148.46153826, 4141.66666646, 4139.87179467, 4133.71794844, 4142.94871774, 4143.71794851, 4165.51282031, 4150.25641005, 4153.71794851, 4124.23076896,10.0
4152.82051262, 4143.58974339, 4134.74358947, 4150.12820492, 4140.76923056, 4131.15384588, 4131.53846126, 4125.51282024, 4138.33333313, 4137.94871774, 4158.20512800, 4145.12820492, 4147.69230749, 4121.15384588,10.0
4153.71794851, 4147.17948697, 4138.84615364, 4147.82051262, 4139.61538441, 4124.48717921, 4127.17948691, 4126.53846126, 4139.23076903, 4138.84615364, 4146.66666646, 4139.87179467, 4148.46153826, 4120.89743562,10.0
4152.56410236, 4145.38461518, 4140.76923056, 4148.58974339, 4139.10256390, 4126.41025614, 4126.53846126, 4122.82051255, 4135.25640998, 4138.33333313, 4141.66666646, 4136.66666646, 4145.25641005, 4125.38461511,10.0
4144.48717928, 4136.79487159, 4135.76923056, 4142.69230749, 4129.87179460, 4123.71794844, 4120.51282024, 4118.33333306, 4130.38461511, 4133.07692280, 4141.02564082, 4134.87179460, 4141.79487159, 4127.56410229,10.0
4142.69230749, 4137.43589723, 4135.12820485, 4139.87179467, 4126.92307665, 4121.53846126, 4118.33333306, 4122.30769203, 4135.38461518, 4132.43589716, 4138.97435877, 4135.51282031, 4144.35897415, 4121.66666639,10.0
4151.66666646, 4145.89743569, 4142.05128185, 4147.30769210, 4137.30769210, 4131.53846126, 4127.69230742, 4125.51282024, 4140.76923056, 4139.87179467, 4141.66666646, 4141.41025621, 4149.74358954, 4117.43589716,10.0
4152.82051262, 4147.56410236, 4144.61538441, 4147.69230749, 4144.61538441, 4144.48717928, 4132.17948691, 4125.25640998, 4140.89743569, 4143.58974339, 4146.15384595, 4143.58974339, 4152.94871774, 4120.51282024,10.0
4137.82051262, 4142.43589723, 4137.94871774, 4141.92307672, 4139.74358954, 4138.97435877, 4119.10256383, 4121.41025614, 4135.25640998, 4138.84615364, 4141.02564082, 4135.12820485, 4148.07692287, 4120.38461511,10.0
4134.61538434, 4143.58974339, 4134.48717921, 4146.92307672, 4137.69230749, 4127.82051255, 4113.33333306, 4121.66666639, 4136.02564082, 4140.12820492, 4139.23076903, 4133.71794844, 4146.79487159, 4118.20512793,10.0
4134.61538434, 4143.58974339, 4134.48717921, 4146.92307672, 4137.69230749, 4127.82051255, 4113.33333306, 4121.66666639, 4136.02564082, 4140.12820492, 4139.23076903, 4133.71794844, 4146.79487159, 4118.20512793,10.0
4146.28205108, 4149.23076903, 4139.87179467, 4151.28205108, 4144.48717928, 4133.46153819, 4127.82051255, 4127.94871767, 4145.51282031, 4144.35897415, 4140.12820492, 4139.99999980, 4150.38461518, 4120.76923050,10.0
4141.92307672, 4145.64102544, 4137.56410236, 4144.48717928, 4143.71794851, 4136.02564082, 4130.76923050, 4121.53846126, 4139.35897415, 4133.97435870, 4128.58974332, 4134.99999973, 4140.51282031, 4124.74358947,10.0
4120.38461511, 4136.02564082, 4119.35897408, 4137.82051262, 4133.84615357, 4126.28205101, 4119.35897408, 4107.69230742, 4119.99999973, 4116.28205101, 4117.56410229, 4117.17948691, 4124.99999973, 4122.94871767,10.0
4105.76923050, 4127.43589716, 4100.51282017, 4130.89743562, 4126.15384588, 4120.12820485, 4113.20512793, 4103.97435870, 4112.05128178, 4106.53846126, 4113.33333306, 4102.56410229, 4119.35897408, 4119.23076896,10.0
4099.87179453, 4120.12820485, 4098.58974325, 4123.33333306, 4122.82051255, 4116.92307665, 4108.71794844, 4108.46153819, 4117.94871767, 4105.38461511, 4104.74358947, 4096.02564068, 4118.58974332, 4118.46153819,10.0
4106.15384588, 4122.30769203, 4112.94871767, 4133.58974332, 4124.61538434, 4117.69230742, 4109.61538434, 4110.64102537, 4129.99999973, 4115.25640998, 4109.87179460, 4102.69230742, 4125.25640998, 4118.58974332,10.0
4124.10256383, 4131.02564075, 4129.48717921, 4150.38461518, 4127.56410229, 4118.46153819, 4111.28205101, 4111.02564075, 4137.82051262, 4127.56410229, 4133.46153819, 4119.87179460, 4138.71794851, 4120.76923050,10.0
4124.23076896, 4129.10256383, 4129.10256383, 4145.12820492, 4121.41025614, 4111.79487152, 4107.30769203, 4111.15384588, 4133.07692280, 4124.61538434, 4135.64102544, 4123.84615357, 4137.94871774, 4124.87179460,10.0
4108.07692280, 4120.25640998, 4114.87179460, 4134.10256383, 4111.41025614, 4109.48717921, 4108.20512793, 4107.17948691, 4120.51282024, 4112.82051255, 4119.99999973, 4114.23076896, 4126.79487152, 4122.05128178,10.0
4102.43589709, 4116.02564075, 4109.99999973, 4135.64102544, 4107.43589716, 4111.28205101, 4103.71794844, 4100.51282017, 4113.58974332, 4108.33333306, 4121.79487152, 4110.51282024, 4124.99999973, 4118.58974332,10.0
4104.99999973, 4114.10256383, 4110.64102537, 4136.28205108, 4104.23076896, 4100.25640991, 4083.97435863, 4089.99999966, 4110.64102537, 4106.92307665, 4126.92307665, 4113.97435870, 4128.97435870, 4123.58974332,10.0
4109.35897408, 4116.79487152, 4112.94871767, 4137.56410236, 4107.56410229, 4097.69230735, 4081.41025607, 4083.84615350, 4110.25640998, 4107.56410229, 4123.58974332, 4118.07692280, 4131.79487152, 4125.51282024,10.0
4113.97435870, 4120.38461511, 4118.33333306, 4143.46153826, 4112.43589716, 4109.61538434, 4096.79487145, 4087.69230735, 4108.07692280, 4109.99999973, 4122.43589716, 4119.99999973, 4129.87179460, 4122.94871767,10.0
4112.30769203, 4120.51282024, 4115.12820485, 4140.89743569, 4108.07692280, 4106.92307665, 4095.51282017, 4089.61538427, 4101.53846119, 4106.41025614, 4119.74358947, 4115.64102537, 4122.05128178, 4122.30769203,10.0
4112.82051255, 4124.48717921, 4110.25640998, 4139.10256390, 4112.56410229, 4103.71794844, 4094.61538427, 4096.02564068, 4110.76923050, 4106.53846126, 4121.92307665, 4113.58974332, 4123.97435870, 4124.35897408,10.0
4115.64102537, 4127.43589716, 4113.84615357, 4142.94871774, 4121.92307665, 4111.15384588, 4101.92307658, 4105.89743562, 4124.74358947, 4114.10256383, 4127.56410229, 4115.89743562, 4131.53846126, 4124.99999973,10.0
4105.25640998, 4121.66666639, 4111.66666639, 4138.33333313, 4112.69230742, 4108.71794844, 4099.35897402, 4098.97435863, 4115.64102537, 4112.30769203, 4117.56410229, 4106.53846126, 4123.33333306, 4122.56410229,10.0
4094.61538427, 4114.10256383, 4102.69230742, 4132.30769203, 4100.38461504, 4102.30769196, 4097.94871761, 4084.61538427, 4100.25640991, 4102.05128171, 4104.61538434, 4099.74358940, 4116.15384588, 4122.43589716,10.0
4104.48717921, 4113.71794844, 4106.92307665, 4140.51282031, 4106.66666639, 4104.61538434, 4105.64102537, 4096.66666632, 4110.64102537, 4108.46153819, 4113.20512793, 4111.66666639, 4124.99999973, 4122.30769203,10.0
4111.92307665, 4116.79487152, 4114.23076896, 4149.10256390, 4112.05128178, 4108.33333306, 4107.56410229, 4112.69230742, 4126.28205101, 4117.82051255, 4118.97435870, 4118.84615357, 4129.35897408, 4121.79487152,10.0
4105.38461511, 4120.12820485, 4111.28205101, 4148.07692287, 4106.79487152, 4109.48717921, 4106.28205101, 4100.76923043, 4121.02564075, 4111.92307665, 4109.10256383, 4117.43589716, 4125.38461511, 4120.51282024,10.0
4104.87179460, 4119.74358947, 4110.25640998, 4146.15384595, 4110.51282024, 4107.17948691, 4108.20512793, 4093.71794837, 4117.17948691, 4111.15384588, 4113.97435870, 4123.84615357, 4128.07692280, 4117.30769203,10.0
4107.69230742, 4116.53846126, 4112.43589716, 4144.99999980, 4116.28205101, 4104.87179460, 4104.61538434, 4105.25640998, 4123.84615357, 4116.28205101, 4125.64102537, 4126.15384588, 4131.92307665, 4118.46153819,10.0
4107.56410229, 4120.38461511, 4117.17948691, 4147.56410236, 4117.30769203, 4113.71794844, 4105.51282024, 4109.74358947, 4123.84615357, 4114.87179460, 4124.87179460, 4121.15384588, 4130.12820485, 4124.61538434,10.0
4116.92307665, 4129.48717921, 4128.84615357, 4152.94871774, 4127.05128178, 4124.35897408, 4114.48717921, 4103.33333306, 4117.43589716, 4113.71794844, 4129.35897408, 4129.35897408, 4131.79487152, 4124.74358947,10.0
4136.53846133, 4136.41025621, 4139.10256390, 4159.87179467, 4142.17948697, 4125.38461511, 4121.66666639, 4107.69230742, 4125.51282024, 4122.69230742, 4141.28205108, 4140.25641005, 4141.28205108, 4118.97435870,10.0
4145.76923056, 4141.02564082, 4135.51282031, 4164.10256390, 4141.92307672, 4130.12820485, 4126.79487152, 4119.23076896, 4138.84615364, 4130.25640998, 4140.89743569, 4137.17948697, 4147.82051262, 4117.69230742,10.0
4142.43589723, 4141.79487159, 4126.02564075, 4162.17948697, 4136.41025621, 4139.74358954, 4133.07692280, 4118.84615357, 4136.92307672, 4128.46153819, 4136.53846133, 4132.17948691, 4143.84615364, 4121.15384588,10.0
4140.89743569, 4138.20512800, 4127.82051255, 4162.56410236, 4141.15384595, 4139.87179467, 4139.61538441, 4120.89743562, 4139.61538441, 4130.25640998, 4142.69230749, 4138.07692287, 4142.43589723, 4125.51282024,10.0
4145.51282031, 4135.89743569, 4136.92307672, 4163.20512800, 4140.51282031, 4136.28205108, 4138.97435877, 4131.92307665, 4152.43589723, 4141.02564082, 4149.48717928, 4148.07692287, 4153.71794851, 4122.94871767,10.0
4157.69230749, 4143.07692287, 4146.92307672, 4164.74358954, 4140.76923056, 4138.46153826, 4136.15384595, 4133.07692280, 4158.33333313, 4153.58974339, 4162.17948697, 4159.10256390, 4166.79487159, 4117.05128178,10.0
4166.15384595, 4150.51282031, 4154.61538441, 4169.35897422, 4150.76923056, 4146.02564082, 4144.87179467, 4129.35897408, 4160.38461518, 4154.48717928, 4174.23076910, 4164.99999980, 4168.33333320, 4117.05128178,10.0
4168.46153833, 4150.12820492, 4158.84615364, 4174.23076910, 4154.74358954, 4149.35897415, 4156.92307672, 4142.69230749, 4167.56410236, 4154.10256390, 4174.23076910, 4163.07692287, 4165.51282031, 4119.99999973,10.0
4179.10256397, 4152.56410236, 4168.46153833, 4176.66666653, 4155.89743569, 4144.87179467, 4161.02564082, 4158.33333313, 4175.89743576, 4162.43589723, 4178.20512807, 4169.10256397, 4167.05128185, 4121.53846126,10.0
4183.58974345, 4152.69230749, 4169.48717935, 4172.69230756, 4158.46153826, 4142.56410236, 4158.33333313, 4149.74358954, 4173.46153833, 4159.48717928, 4177.17948704, 4172.56410243, 4163.97435877, 4121.28205101,10.0
4170.51282038, 4142.30769210, 4155.25641005, 4163.46153826, 4149.10256390, 4139.23076903, 4142.17948697, 4124.23076896, 4152.17948697, 4137.94871774, 4157.56410236, 4156.15384595, 4150.25641005, 4120.38461511,10.0
4169.61538448, 4141.79487159, 4151.92307672, 4162.17948697, 4143.20512800, 4134.87179460, 4125.38461511, 4114.23076896, 4139.10256390, 4129.61538434, 4152.30769210, 4149.87179467, 4143.07692287, 4120.64102537,10.0
4185.38461525, 4153.84615364, 4162.56410236, 4172.30769217, 4152.94871774, 4136.92307672, 4130.12820485, 4125.64102537, 4155.25641005, 4146.02564082, 4167.17948697, 4165.12820492, 4150.64102544, 4124.23076896,10.0
4187.05128192, 4156.02564082, 4163.58974339, 4177.30769217, 4157.05128185, 4142.69230749, 4141.92307672, 4128.58974332, 4164.10256390, 4154.23076903, 4168.71794858, 4168.46153833, 4152.94871774, 4122.82051255,10.0
4180.25641012, 4150.38461518, 4156.53846133, 4173.97435884, 4152.56410236, 4143.71794851, 4140.12820492, 4120.51282024, 4152.05128185, 4147.94871774, 4164.10256390, 4160.89743569, 4148.20512800, 4119.10256383,10.0
4187.30769217, 4154.35897415, 4160.38461518, 4176.41025628, 4156.02564082, 4142.30769210, 4136.53846133, 4127.43589716, 4156.02564082, 4150.25641005, 4172.56410243, 4168.46153833, 4153.07692287, 4121.79487152,10.0
4194.10256397, 4161.02564082, 4169.61538448, 4178.97435884, 4160.51282031, 4147.05128185, 4147.05128185, 4142.94871774, 4171.66666653, 4161.28205108, 4175.64102551, 4175.38461525, 4159.61538441, 4123.33333306,10.0
4184.61538448, 4158.20512800, 4170.12820499, 4175.12820499, 4154.99999980, 4147.56410236, 4154.74358954, 4142.56410236, 4169.35897422, 4164.99999980, 4166.66666646, 4168.84615371, 4155.25641005, 4120.76923050,10.0
4184.61538448, 4158.20512800, 4170.12820499, 4175.12820499, 4154.99999980, 4147.56410236, 4154.74358954, 4142.56410236, 4169.35897422, 4164.99999980, 4166.66666646, 4168.84615371, 4155.25641005, 4120.76923050,10.0
4175.38461525, 4152.30769210, 4163.71794851, 4170.76923063, 4149.99999980, 4141.41025621, 4145.38461518, 4139.48717928, 4166.66666646, 4161.28205108, 4163.97435877, 4163.33333313, 4151.66666646, 4119.87179460,10.0
4173.33333320, 4149.35897415, 4160.64102544, 4170.89743576, 4152.82051262, 4139.35897415, 4141.79487159, 4145.51282031, 4171.41025628, 4157.94871774, 4165.64102544, 4159.10256390, 4151.79487159, 4121.28205101,10.0
4169.35897422, 4148.84615364, 4164.23076903, 4174.35897422, 4156.28205108, 4141.79487159, 4150.64102544, 4145.51282031, 4162.17948697, 4155.38461518, 4161.02564082, 4156.28205108, 4150.89743569, 4121.79487152,10.0
4167.17948697, 4148.46153826, 4166.28205108, 4176.02564089, 4152.17948697, 4139.35897415, 4146.79487159, 4137.43589723, 4151.15384595, 4151.41025621, 4159.99999980, 4159.74358954, 4148.07692287, 4117.94871767,10.0
4172.94871781, 4152.17948697, 4163.46153826, 4176.92307679, 4152.17948697, 4139.35897415, 4142.82051262, 4137.17948697, 4163.46153826, 4151.79487159, 4165.76923056, 4162.17948697, 4146.02564082, 4118.71794844,10.0
4176.41025628, 4156.66666646, 4158.20512800, 4179.10256397, 4154.10256390, 4145.25641005, 4151.92307672, 4143.71794851, 4175.12820499, 4155.76923056, 4167.43589723, 4160.38461518, 4148.46153826, 4124.48717921,10.0
4171.28205115, 4151.02564082, 4152.17948697, 4175.76923063, 4147.30769210, 4140.64102544, 4146.28205108, 4138.58974339, 4159.99999980, 4152.05128185, 4161.53846133, 4156.02564082, 4148.20512800, 4120.51282024,10.0
4170.25641012, 4145.25641005, 4151.66666646, 4171.02564089, 4142.17948697, 4134.87179460, 4133.58974332, 4131.28205101, 4148.20512800, 4147.43589723, 4159.48717928, 4153.07692287, 4145.89743569, 4113.97435870,10.0
4176.53846140, 4151.02564082, 4160.12820492, 4173.58974345, 4144.23076903, 4138.84615364, 4142.69230749, 4137.94871774, 4162.30769210, 4152.17948697, 4170.25641012, 4158.97435877, 4151.79487159, 4118.20512793,10.0
4179.61538448, 4156.92307672, 4169.10256397, 4177.69230756, 4144.23076903, 4139.87179467, 4148.58974339, 4142.30769210, 4173.46153833, 4158.20512800, 4182.56410243, 4169.23076910, 4161.28205108, 4123.46153819,10.0
4177.17948704, 4153.07692287, 4166.02564082, 4174.99999986, 4139.10256390, 4134.48717921, 4135.64102544, 4134.35897408, 4160.38461518, 4155.64102544, 4179.10256397, 4168.07692287, 4157.94871774, 4122.69230742,10.0
4170.38461525, 4147.56410236, 4155.12820492, 4169.99999986, 4141.02564082, 4135.25640998, 4135.76923056, 4132.69230742, 4150.89743569, 4151.53846133, 4167.94871774, 4157.69230749, 4146.41025621, 4117.56410229,10.0
4166.28205108, 4148.97435877, 4152.82051262, 4170.89743576, 4147.17948697, 4141.66666646, 4150.51282031, 4142.17948697, 4165.25641005, 4154.35897415, 4172.05128192, 4158.71794851, 4144.87179467, 4117.69230742,10.0
4164.99999980, 4148.07692287, 4154.61538441, 4173.20512807, 4143.07692287, 4139.99999980, 4148.46153826, 4139.87179467, 4168.71794858, 4154.48717928, 4182.56410243, 4166.28205108, 4152.30769210, 4126.15384588,10.0
4166.28205108, 4145.51282031, 4159.23076903, 4174.99999986, 4141.15384595, 4138.20512800, 4143.97435877, 4135.64102544, 4161.66666646, 4152.05128185, 4186.15384602, 4170.51282038, 4159.87179467, 4125.64102537,10.0
4162.69230749, 4143.20512800, 4162.43589723, 4175.64102551, 4145.64102544, 4135.38461518, 4141.41025621, 4138.07692287, 4164.87179467, 4152.82051262, 4182.56410243, 4170.12820499, 4156.28205108, 4116.41025614,10.0
4153.33333313, 4141.15384595, 4157.30769210, 4174.23076910, 4140.89743569, 4127.69230742, 4129.48717921, 4139.48717928, 4172.56410243, 4156.02564082, 4177.17948704, 4164.99999980, 4148.33333313, 4118.58974332,10.0
4149.99999980, 4141.28205108, 4152.05128185, 4172.94871781, 4137.05128185, 4130.25640998, 4128.33333306, 4138.33333313, 4168.97435884, 4153.71794851, 4177.17948704, 4159.74358954, 4147.43589723, 4124.61538434,10.0
4146.15384595, 4136.02564082, 4142.94871774, 4168.20512807, 4139.87179467, 4137.94871774, 4132.56410229, 4131.66666639, 4153.58974339, 4145.38461518, 4172.05128192, 4152.43589723, 4144.99999980, 4121.28205101,10.0
4148.97435877, 4135.76923056, 4134.61538434, 4167.30769210, 4137.30769210, 4138.33333313, 4131.92307665, 4136.53846133, 4154.74358954, 4144.87179467, 4166.15384595, 4150.51282031, 4146.41025621, 4120.51282024,10.0
4164.23076903, 4149.48717928, 4143.97435877, 4176.28205115, 4142.43589723, 4138.84615364, 4138.46153826, 4150.76923056, 4170.76923063, 4155.25641005, 4173.71794858, 4161.02564082, 4158.71794851, 4124.87179460,10.0
4169.35897422, 4153.97435877, 4155.25641005, 4180.76923063, 4154.35897415, 4140.51282031, 4145.64102544, 4149.99999980, 4169.35897422, 4156.66666646, 4174.99999986, 4165.12820492, 4157.30769210, 4122.17948691,10.0
4162.43589723, 4147.30769210, 4155.38461518, 4177.30769217, 4154.23076903, 4139.87179467, 4146.02564082, 4143.58974339, 4158.84615364, 4149.23076903, 4161.53846133, 4156.79487159, 4143.20512800, 4119.10256383,10.0
4166.41025621, 4152.43589723, 4156.15384595, 4177.56410243, 4151.79487159, 4140.89743569, 4146.28205108, 4150.25641005, 4163.07692287, 4151.28205108, 4161.15384595, 4155.89743569, 4148.97435877, 4122.82051255,10.0
4176.92307679, 4161.53846133, 4161.28205108, 4181.41025628, 4157.05128185, 4140.76923056, 4149.23076903, 4161.92307672, 4174.23076910, 4159.23076903, 4175.89743576, 4165.38461518, 4167.05128185, 4123.07692280,10.0
4171.28205115, 4156.66666646, 4165.25641005, 4181.15384602, 4155.38461518, 4140.12820492, 4149.35897415, 4157.94871774, 4174.10256397, 4159.61538441, 4178.71794858, 4168.97435884, 4164.99999980, 4120.12820485,10.0
4161.92307672, 4152.05128185, 4163.97435877, 4181.15384602, 4149.74358954, 4143.07692287, 4144.23076903, 4139.48717928, 4162.05128185, 4152.94871774, 4168.58974345, 4163.97435877, 4150.76923056, 4119.23076896,10.0
4163.71794851, 4155.64102544, 4160.64102544, 4184.23076910, 4150.51282031, 4141.02564082, 4136.79487159, 4140.51282031, 4158.46153826, 4152.30769210, 4167.43589723, 4160.51282031, 4151.79487159, 4119.74358947,10.0
4162.56410236, 4153.84615364, 4157.82051262, 4182.05128192, 4143.84615364, 4131.79487152, 4131.41025614, 4154.61538441, 4167.05128185, 4154.35897415, 4172.43589730, 4159.35897415, 4159.35897415, 4123.46153819,10.0
4149.35897415, 4141.66666646, 4149.99999980, 4170.76923063, 4128.97435870, 4126.79487152, 4123.84615357, 4138.84615364, 4154.74358954, 4144.48717928, 4163.84615364, 4149.10256390, 4151.79487159, 4123.07692280,10.0
4145.89743569, 4137.69230749, 4142.43589723, 4161.02564082, 4128.84615357, 4131.15384588, 4122.94871767, 4120.12820485, 4134.23076896, 4135.25640998, 4151.41025621, 4139.99999980, 4143.46153826, 4117.56410229,10.0
4152.94871774, 4146.41025621, 4142.69230749, 4160.89743569, 4140.38461518, 4138.46153826, 4132.94871767, 4134.74358947, 4142.82051262, 4138.84615364, 4153.84615364, 4144.87179467, 4148.07692287, 4118.33333306,10.0
4150.89743569, 4147.82051262, 4143.71794851, 4165.64102544, 4134.35897408, 4138.46153826, 4131.28205101, 4144.23076903, 4152.30769210, 4144.35897415, 4161.79487159, 4147.94871774, 4150.25641005, 4121.15384588,10.0
4152.82051262, 4148.33333313, 4146.92307672, 4174.23076910, 4131.28205101, 4138.07692287, 4131.66666639, 4140.89743569, 4149.74358954, 4150.89743569, 4167.17948697, 4147.17948697, 4150.89743569, 4119.61538434,10.0
4158.33333313, 4155.89743569, 4152.69230749, 4178.20512807, 4150.89743569, 4141.66666646, 4143.71794851, 4143.58974339, 4154.61538441, 4156.92307672, 4167.69230749, 4149.61538441, 4153.58974339, 4120.12820485,10.0
4153.33333313, 4152.30769210, 4145.25641005, 4171.66666653, 4153.71794851, 4140.89743569, 4141.15384595, 4139.35897415, 4154.35897415, 4149.99999980, 4159.48717928, 4147.30769210, 4149.99999980, 4122.30769203,10.0
4149.23076903, 4143.71794851, 4135.76923056, 4167.30769210, 4142.94871774, 4139.10256390, 4137.05128185, 4137.69230749, 4151.28205108, 4142.69230749, 4152.94871774, 4142.17948697, 4149.23076903, 4118.33333306,10.0
4149.87179467, 4143.84615364, 4136.02564082, 4165.64102544, 4143.97435877, 4141.66666646, 4147.69230749, 4143.84615364, 4151.66666646, 4143.46153826, 4150.89743569, 4139.10256390, 4147.30769210, 4117.30769203,10.0
4148.71794851, 4144.23076903, 4136.28205108, 4164.61538441, 4139.23076903, 4142.43589723, 4151.15384595, 4141.15384595, 4151.02564082, 4142.94871774, 4143.07692287, 4138.46153826, 4142.43589723, 4124.74358947,10.0
4139.74358954, 4134.35897408, 4129.87179460, 4158.71794851, 4123.20512793, 4131.79487152, 4133.33333306, 4126.28205101, 4142.94871774, 4137.94871774, 4135.76923056, 4132.56410229, 4140.51282031, 4125.76923050,10.0
4127.17948691, 4124.35897408, 4125.25640998, 4149.99999980, 4120.38461511, 4120.89743562, 4122.94871767, 4118.71794844, 4136.15384595, 4134.23076896, 4137.56410236, 4127.43589716, 4139.74358954, 4120.64102537,10.0
4128.58974332, 4125.89743562, 4130.64102537, 4148.84615364, 4127.43589716, 4122.82051255, 4132.05128178, 4134.99999973, 4147.82051262, 4139.48717928, 4144.87179467, 4134.87179460, 4143.84615364, 4119.35897408,10.0
4137.69230749, 4128.71794844, 4131.41025614, 4147.05128185, 4126.02564075, 4124.87179460, 4131.92307665, 4141.53846133, 4155.12820492, 4143.58974339, 4143.20512800, 4137.30769210, 4145.51282031, 4121.02564075,10.0
4136.53846133, 4126.66666639, 4122.05128178, 4143.46153826, 4119.74358947, 4121.79487152, 4118.84615357, 4116.41025614, 4134.61538434, 4133.46153819, 4130.64102537, 4128.71794844, 4135.25640998, 4125.89743562,10.0
4132.30769203, 4125.76923050, 4117.30769203, 4142.94871774, 4116.79487152, 4120.64102537, 4114.61538434, 4105.25640998, 4117.56410229, 4121.66666639, 4127.05128178, 4125.89743562, 4126.92307665, 4124.87179460,10.0
4125.64102537, 4122.43589716, 4115.51282024, 4138.20512800, 4117.69230742, 4119.10256383, 4116.15384588, 4120.25640998, 4120.12820485, 4120.64102537, 4130.12820485, 4123.07692280, 4126.15384588, 4120.12820485,10.0
4117.56410229, 4121.53846126, 4111.92307665, 4137.56410236, 4121.02564075, 4120.89743562, 4118.46153819, 4124.87179460, 4122.30769203, 4121.41025614, 4129.74358947, 4117.56410229, 4125.64102537, 4120.76923050,10.0
4123.71794844, 4125.38461511, 4113.20512793, 4146.28205108, 4123.46153819, 4127.69230742, 4125.76923050, 4121.41025614, 4129.10256383, 4123.84615357, 4131.79487152, 4122.56410229, 4124.61538434, 4120.12820485,10.0
4131.28205101, 4124.99999973, 4114.61538434, 4147.56410236, 4126.41025614, 4126.15384588, 4122.30769203, 4120.89743562, 4135.25640998, 4126.53846126, 4136.28205108, 4127.43589716, 4125.12820485, 4118.46153819,10.0
4123.33333306, 4122.05128178, 4108.58974332, 4140.64102544, 4122.69230742, 4120.12820485, 4110.89743562, 4116.02564075, 4123.20512793, 4122.05128178, 4133.20512793, 4119.87179460, 4126.02564075, 4120.12820485,10.0
4119.10256383, 4126.66666639, 4111.79487152, 4145.12820492, 4123.97435870, 4129.23076896, 4120.76923050, 4114.99999973, 4124.10256383, 4124.99999973, 4131.66666639, 4119.10256383, 4133.33333306, 4121.28205101,10.0
4134.48717921, 4139.10256390, 4124.48717921, 4153.97435877, 4129.35897408, 4132.43589716, 4127.82051255, 4137.17948697, 4130.76923050, 4124.74358947, 4145.51282031, 4129.99999973, 4127.94871767, 4121.28205101,10.0
4131.79487152, 4138.07692287, 4124.61538434, 4151.92307672, 4139.99999980, 4135.64102544, 4125.64102537, 4118.33333306, 4119.48717921, 4117.94871767, 4139.35897415, 4124.10256383, 4121.66666639, 4122.43589716,10.0
4117.82051255, 4124.35897408, 4111.79487152, 4139.48717928, 4123.84615357, 4123.84615357, 4113.71794844, 4098.58974325, 4099.74358940, 4101.66666632, 4123.07692280, 4110.89743562, 4112.69230742, 4122.94871767,10.0
4118.97435870, 4122.94871767, 4109.23076896, 4138.07692287, 4111.92307665, 4121.02564075, 4106.53846126, 4099.48717914, 4100.64102530, 4101.92307658, 4115.38461511, 4111.28205101, 4110.12820485, 4124.74358947,10.0
4138.33333313, 4137.05128185, 4125.64102537, 4153.33333313, 4134.35897408, 4132.69230742, 4123.84615357, 4125.25640998, 4123.46153819, 4120.25640998, 4129.61538434, 4129.35897408, 4119.61538434, 4121.79487152,10.0
4144.10256390, 4136.53846133, 4135.76923056, 4162.17948697, 4142.56410236, 4139.74358954, 4142.69230749, 4140.64102544, 4133.97435870, 4127.82051255, 4139.74358954, 4139.99999980, 4128.84615357, 4121.28205101,10.0
4131.79487152, 4126.41025614, 4123.84615357, 4152.17948697, 4123.58974332, 4132.43589716, 4132.05128178, 4126.53846126, 4122.82051255, 4122.30769203, 4132.82051255, 4131.53846126, 4126.79487152, 4122.69230742,10.0
4124.23076896, 4123.71794844, 4110.25640998, 4140.64102544, 4120.89743562, 4124.48717921, 4118.58974332, 4120.76923050, 4126.02564075, 4123.58974332, 4130.51282024, 4122.43589716, 4124.35897408, 4122.94871767,10.0
4125.12820485, 4121.15384588, 4107.94871767, 4140.25641005, 4125.38461511, 4123.46153819, 4131.53846126, 4130.51282024, 4136.53846133, 4128.33333306, 4133.84615357, 4124.74358947, 4126.92307665, 4121.53846126,10.0
4120.76923050, 4115.38461511, 4104.48717921, 4140.64102544, 4117.69230742, 4124.23076896, 4135.12820485, 4128.46153819, 4126.53846126, 4126.41025614, 4129.61538434, 4124.87179460, 4126.02564075, 4120.12820485,10.0
4115.38461511, 4116.92307665, 4103.33333306, 4138.58974339, 4119.87179460, 4124.87179460, 4118.71794844, 4122.69230742, 4123.46153819, 4128.07692280, 4125.51282024, 4119.74358947, 4121.15384588, 4121.92307665,10.0
4116.15384588, 4120.76923050, 4105.25640998, 4139.99999980, 4128.20512793, 4126.53846126, 4115.25640998, 4119.61538434, 4134.74358947, 4131.41025614, 4126.66666639, 4116.15384588, 4118.20512793, 4120.25640998,10.0
4115.12820485, 4121.53846126, 4100.12820478, 4143.20512800, 4127.43589716, 4126.53846126, 4120.25640998, 4109.23076896, 4128.20512793, 4124.74358947, 4124.35897408, 4111.41025614, 4114.99999973, 4118.71794844,10.0
4111.66666639, 4124.48717921, 4095.51282017, 4143.20512800, 4124.23076896, 4126.28205101, 4119.35897408, 4106.92307665, 4118.97435870, 4120.51282024, 4125.25640998, 4109.61538434, 4112.94871767, 4122.69230742,10.0
4104.23076896, 4118.46153819, 4092.82051248, 4135.12820485, 4111.79487152, 4127.05128178, 4114.61538434, 4111.41025614, 4121.66666639, 4119.74358947, 4123.07692280, 4105.76923050, 4108.58974332, 4123.97435870,10.0
4093.33333299, 4106.28205101, 4085.89743555, 4124.99999973, 4105.64102537, 4123.84615357, 4111.66666639, 4110.89743562, 4114.99999973, 4110.12820485, 4108.97435870, 4095.89743555, 4099.99999966, 4120.38461511,10.0
4092.82051248, 4107.17948691, 4084.10256376, 4126.53846126, 4119.23076896, 4119.99999973, 4113.84615357, 4110.51282024, 4111.28205101, 4108.58974332, 4103.33333306, 4097.30769196, 4101.15384581, 4120.51282024,10.0
4101.79487145, 4113.46153819, 4093.58974325, 4134.48717921, 4119.35897408, 4119.99999973, 4116.53846126, 4107.56410229, 4119.10256383, 4120.76923050, 4111.92307665, 4109.87179460, 4111.28205101, 4125.38461511,10.0
4107.94871767, 4110.51282024, 4099.74358940, 4136.41025621, 4111.15384588, 4124.35897408, 4124.10256383, 4116.92307665, 4126.79487152, 4125.38461511, 4116.66666639, 4113.71794844, 4114.23076896, 4123.58974332,10.0
4102.43589709, 4104.23076896, 4096.02564068, 4132.82051255, 4115.38461511, 4122.69230742, 4124.48717921, 4127.56410229, 4126.92307665, 4116.79487152, 4111.02564075, 4106.41025614, 4106.79487152, 4119.48717921,10.0
4090.12820478, 4100.12820478, 4088.33333299, 4125.51282024, 4109.74358947, 4110.12820485, 4108.71794844, 4110.64102537, 4114.99999973, 4106.02564075, 4105.76923050, 4096.79487145, 4100.89743555, 4123.33333306,10.0
