AF3,F7,F3,FC5,T7,P7,O1,O2,P8,T8,FC6,F4,F8,AF4,Label
4100.76923043, 4101.79487145, 4090.89743555, 4094.99999966, 4101.28205094, 4117.43589716, 4106.92307665, 4103.33333306, 4087.30769196, 4100.89743555, 4096.53846119, 4088.84615350, 4104.48717921, 4133.97435870,10.0
4101.28205094, 4097.94871761, 4087.94871761, 4086.02564068, 4105.89743562, 4116.66666639, 4121.53846126, 4107.56410229, 4086.92307658, 4096.66666632, 4088.46153812, 4084.23076889, 4097.30769196, 4130.38461511,10.0
4096.53846119, 4099.48717914, 4080.76923043, 4079.99999966, 4108.97435870, 4104.99999973, 4121.53846126, 4118.97435870, 4095.64102530, 4099.35897402, 4082.43589709, 4077.82051248, 4094.35897402, 4127.17948691,10.0
4097.05128171, 4100.38461504, 4081.41025607, 4082.94871761, 4102.56410229, 4101.28205094, 4101.66666632, 4112.43589716, 4095.64102530, 4103.97435870, 4092.69230735, 4079.99999966, 4103.33333306, 4131.28205101,10.0
4106.02564075, 4102.94871767, 4095.64102530, 4086.66666632, 4107.82051255, 4113.20512793, 4101.15384581, 4105.76923050, 4091.92307658, 4108.84615357, 4100.89743555, 4089.99999966, 4109.48717921, 4134.61538434,10.0
4114.23076896, 4112.05128178, 4104.48717921, 4090.76923043, 4118.58974332, 4119.23076896, 4114.74358947, 4110.89743562, 4097.56410222, 4111.92307665, 4102.30769196, 4095.25640991, 4107.05128178, 4132.43589716,10.0
4115.38461511, 4118.20512793, 4100.89743555, 4094.35897402, 4117.30769203, 4116.53846126, 4114.10256383, 4111.28205101, 4101.92307658, 4108.33333306, 4103.58974332, 4091.41025607, 4105.51282024, 4131.02564075,10.0
4118.07692280, 4120.89743562, 4102.17948684, 4091.02564068, 4118.71794844, 4123.07692280, 4118.84615357, 4117.69230742, 4105.38461511, 4111.53846126, 4106.53846126, 4095.38461504, 4109.48717921, 4132.43589716,10.0
4118.46153819, 4118.97435870, 4103.58974332, 4081.28205094, 4120.76923050, 4122.94871767, 4123.33333306, 4119.87179460, 4106.28205101, 4117.30769203, 4104.48717921, 4097.69230735, 4112.56410229, 4132.17948691,10.0
4109.23076896, 4107.82051255, 4091.41025607, 4075.64102530, 4112.17948691, 4109.10256383, 4106.41025614, 4103.58974332, 4094.99999966, 4107.69230742, 4094.35897402, 4085.12820478, 4106.79487152, 4131.53846126,10.0
4107.30769203, 4106.41025614, 4086.66666632, 4079.10256376, 4119.23076896, 4110.38461511, 4106.66666639, 4106.66666639, 4097.43589709, 4105.25640998, 4092.82051248, 4083.46153812, 4105.12820485, 4136.41025621,10.0
4108.07692280, 4107.17948691, 4091.53846119, 4077.82051248, 4120.12820485, 4118.58974332, 4121.66666639, 4117.69230742, 4103.20512793, 4111.28205101, 4094.87179453, 4088.71794837, 4105.64102537, 4135.64102544,10.0
4097.17948684, 4096.53846119, 4082.69230735, 4064.35897395, 4089.74358940, 4112.43589716, 4111.66666639, 4098.97435863, 4082.43589709, 4098.07692273, 4083.84615350, 4078.71794837, 4095.25640991, 4128.71794844,10.0
4085.51282017, 4090.89743555, 4070.64102530, 4054.99999959, 4082.56410222, 4103.20512793, 4093.20512786, 4088.71794837, 4066.92307651, 4080.76923043, 4069.10256369, 4066.53846113, 4084.74358940, 4128.46153819,10.0
4087.82051248, 4098.33333299, 4074.74358940, 4061.02564061, 4108.33333306, 4101.41025607, 4092.82051248, 4108.97435870, 4087.30769196, 4090.89743555, 4073.97435863, 4070.64102530, 4089.74358940, 4132.30769203,10.0
4098.46153812, 4111.41025614, 4088.33333299, 4072.82051248, 4115.76923050, 4107.30769203, 4102.82051255, 4117.82051255, 4105.38461511, 4108.84615357, 4090.76923043, 4082.05128171, 4101.79487145, 4133.97435870,10.0
4109.48717921, 4124.48717921, 4102.17948684, 4080.76923043, 4117.05128178, 4118.46153819, 4115.12820485, 4115.12820485, 4103.33333306, 4112.69230742, 4098.20512786, 4092.82051248, 4107.69230742, 4131.02564075,10.0
4110.89743562, 4123.20512793, 4103.84615357, 4077.43589709, 4125.51282024, 4112.30769203, 4116.79487152, 4113.97435870, 4096.66666632, 4107.69230742, 4093.46153812, 4093.84615350, 4103.07692280, 4129.74358947,10.0
4101.92307658, 4109.99999973, 4089.61538427, 4064.10256369, 4114.48717921, 4097.05128171, 4107.94871767, 4105.51282024, 4086.28205094, 4100.51282017, 4083.97435863, 4082.30769196, 4092.94871761, 4133.97435870,10.0
4101.28205094, 4113.33333306, 4086.02564068, 4061.79487138, 4106.53846126, 4113.58974332, 4118.58974332, 4108.07692280, 4087.30769196, 4102.43589709, 4086.02564068, 4081.79487145, 4097.69230735, 4132.43589716,10.0
4104.23076896, 4122.94871767, 4091.92307658, 4071.53846119, 4115.12820485, 4128.71794844, 4131.79487152, 4115.64102537, 4096.02564068, 4104.74358947, 4092.30769196, 4091.66666632, 4108.71794844, 4127.56410229,10.0
4106.53846126, 4121.15384588, 4087.17948684, 4073.20512786, 4119.99999973, 4110.38461511, 4125.76923050, 4114.48717921, 4096.66666632, 4104.48717921, 4091.53846119, 4093.07692273, 4107.17948691, 4129.10256383,10.0
4109.23076896, 4116.66666639, 4082.30769196, 4067.94871754, 4116.79487152, 4099.61538427, 4115.51282024, 4108.33333306, 4088.58974325, 4101.28205094, 4086.28205094, 4088.46153812, 4102.43589709, 4132.82051255,10.0
4103.84615357, 4114.48717921, 4086.15384581, 4066.79487138, 4109.10256383, 4109.48717921, 4111.79487152, 4107.17948691, 4082.05128171, 4096.15384581, 4083.46153812, 4090.38461504, 4105.12820485, 4132.69230742,10.0
4102.82051255, 4118.07692280, 4088.46153812, 4071.15384581, 4106.92307665, 4110.38461511, 4115.38461511, 4114.61538434, 4091.02564068, 4103.33333306, 4092.05128171, 4097.17948684, 4110.51282024, 4132.05128178,10.0
4103.07692280, 4113.46153819, 4082.43589709, 4067.56410215, 4109.10256383, 4099.23076889, 4111.92307665, 4111.15384588, 4094.48717914, 4107.82051255, 4095.12820478, 4089.35897402, 4104.87179460, 4134.74358947,10.0
4090.76923043, 4098.84615350, 4072.69230735, 4056.28205087, 4105.89743562, 4094.99999966, 4098.97435863, 4103.07692280, 4087.69230735, 4102.05128171, 4086.66666632, 4073.97435863, 4097.94871761, 4132.69230742,10.0
4082.94871761, 4098.07692273, 4069.99999966, 4056.41025600, 4097.43589709, 4096.41025607, 4092.30769196, 4106.02564075, 4091.79487145, 4101.28205094, 4083.20512786, 4071.66666632, 4099.87179453, 4126.79487152,10.0
4093.20512786, 4106.28205101, 4076.02564068, 4061.92307651, 4096.28205094, 4092.94871761, 4091.79487145, 4103.33333306, 4090.51282017, 4099.99999966, 4084.23076889, 4074.23076889, 4098.71794837, 4128.33333306,10.0
4095.25640991, 4100.89743555, 4073.71794837, 4057.94871754, 4095.64102530, 4086.28205094, 4091.66666632, 4095.89743555, 4071.02564068, 4088.20512786, 4076.15384581, 4069.87179453, 4090.76923043, 4131.41025614,10.0
4087.94871761, 4097.43589709, 4070.89743555, 4058.33333292, 4096.41025607, 4089.35897402, 4098.33333299, 4103.33333306, 4068.07692266, 4085.12820478, 4073.07692273, 4070.12820478, 4090.76923043, 4131.92307665,10.0
4093.46153812, 4109.48717921, 4080.64102530, 4069.99999966, 4108.33333306, 4103.46153819, 4117.05128178, 4115.38461511, 4087.30769196, 4096.02564068, 4082.30769196, 4076.92307658, 4097.94871761, 4132.69230742,10.0
4098.58974325, 4111.92307665, 4083.20512786, 4072.43589709, 4109.74358947, 4113.20512793, 4129.48717921, 4115.38461511, 4092.43589709, 4101.02564068, 4084.35897402, 4078.33333299, 4097.17948684, 4130.38461511,10.0
4090.25640991, 4094.99999966, 4065.64102523, 4060.38461497, 4094.61538427, 4111.53846126, 4116.02564075, 4104.87179460, 4079.48717914, 4089.23076889, 4073.20512786, 4066.79487138, 4087.17948684, 4131.15384588,10.0
4080.51282017, 4084.99999966, 4050.38461497, 4052.43589702, 4096.15384581, 4105.12820485, 4097.17948684, 4093.58974325, 4070.38461504, 4073.58974325, 4061.53846113, 4053.97435856, 4077.56410222, 4136.92307672,10.0
4078.46153812, 4089.48717914, 4048.33333292, 4052.82051241, 4114.74358947, 4099.87179453, 4097.56410222, 4093.46153812, 4073.20512786, 4073.84615350, 4059.35897395, 4053.20512779, 4077.05128171, 4135.51282031,10.0
4079.10256376, 4089.74358940, 4049.87179446, 4057.05128164, 4107.56410229, 4096.66666632, 4098.07692273, 4101.02564068, 4081.66666632, 4082.30769196, 4065.12820472, 4057.43589702, 4084.48717914, 4128.97435870,10.0
4076.28205094, 4087.94871761, 4052.30769189, 4062.05128164, 4089.99999966, 4098.84615350, 4090.76923043, 4101.28205094, 4086.41025607, 4084.48717914, 4070.89743555, 4058.71794830, 4088.58974325, 4129.23076896,10.0
4068.58974318, 4085.76923043, 4048.46153805, 4058.71794830, 4091.28205094, 4097.05128171, 4085.76923043, 4092.94871761, 4087.17948684, 4084.10256376, 4067.43589702, 4055.38461497, 4082.30769196, 4134.23076896,10.0
4057.43589702, 4073.84615350, 4038.20512779, 4047.69230728, 4085.51282017, 4085.25640991, 4074.48717914, 4087.43589709, 4085.25640991, 4080.51282017, 4059.48717907, 4049.48717907, 4074.10256376, 4134.74358947,10.0
4057.82051241, 4069.99999966, 4040.12820472, 4048.46153805, 4076.15384581, 4084.61538427, 4070.51282017, 4089.10256376, 4084.99999966, 4081.79487145, 4064.61538420, 4052.43589702, 4078.20512786, 4132.43589716,10.0
4069.48717907, 4082.82051248, 4053.20512779, 4061.66666625, 4086.02564068, 4096.79487145, 4087.05128171, 4093.84615350, 4090.38461504, 4094.61538427, 4075.12820478, 4062.17948677, 4090.51282017, 4132.17948691,10.0
4068.84615343, 4089.74358940, 4055.76923036, 4065.51282010, 4093.84615350, 4095.89743555, 4092.94871761, 4095.25640991, 4098.71794837, 4105.76923050, 4077.43589709, 4061.41025600, 4094.23076889, 4131.02564075,10.0
4064.61538420, 4089.48717914, 4054.10256369, 4063.20512779, 4084.87179453, 4090.89743555, 4090.89743555, 4100.12820478, 4099.87179453, 4105.38461511, 4080.64102530, 4063.46153805, 4092.69230735, 4132.30769203,10.0
4076.28205094, 4093.97435863, 4064.74358933, 4070.25640991, 4085.51282017, 4098.20512786, 4098.33333299, 4103.46153819, 4088.46153812, 4098.20512786, 4087.05128171, 4076.79487145, 4094.74358940, 4136.79487159,10.0
4087.69230735, 4098.58974325, 4072.69230735, 4076.79487145, 4099.61538427, 4095.38461504, 4093.58974325, 4099.48717914, 4085.25640991, 4097.69230735, 4081.66666632, 4079.48717914, 4094.48717914, 4134.35897408,10.0
4081.53846119, 4096.92307658, 4067.94871754, 4072.17948684, 4092.82051248, 4081.66666632, 4076.53846119, 4102.82051255, 4089.99999966, 4101.79487145, 4074.61538427, 4069.10256369, 4092.69230735, 4129.74358947,10.0
4072.05128171, 4087.17948684, 4061.15384574, 4062.56410215, 4068.71794830, 4079.23076889, 4072.94871761, 4106.66666639, 4079.10256376, 4094.10256376, 4083.71794837, 4064.23076882, 4093.84615350, 4132.05128178,10.0
4084.87179453, 4090.89743555, 4071.28205094, 4068.58974318, 4078.58974325, 4097.05128171, 4097.56410222, 4108.97435870, 4075.51282017, 4094.48717914, 4108.20512793, 4079.74358940, 4106.41025614, 4134.87179460,10.0
4100.89743555, 4107.17948691, 4088.71794837, 4082.17948684, 4111.79487152, 4108.58974332, 4118.07692280, 4111.53846126, 4088.46153812, 4114.23076896, 4135.25640998, 4102.43589709, 4121.15384588, 4135.12820485,10.0
4079.87179453, 4091.41025607, 4076.15384581, 4065.51282010, 4098.71794837, 4087.43589709, 4088.46153812, 4098.46153812, 4080.12820478, 4110.12820485, 4133.07692280, 4094.74358940, 4111.15384588, 4133.07692280,10.0
4043.97435856, 4054.74358933, 4040.89743548, 4028.20512772, 4058.46153805, 4066.66666625, 4053.20512779, 4082.30769196, 4058.58974318, 4079.10256376, 4101.66666632, 4061.66666625, 4086.28205094, 4129.87179460,10.0
4047.82051241, 4052.05128164, 4035.51282003, 4018.71794824, 4060.38461497, 4079.23076889, 4073.71794837, 4090.89743555, 4063.46153805, 4081.15384581, 4093.46153812, 4055.64102523, 4087.94871761, 4132.05128178,10.0
4076.79487145, 4075.25640991, 4064.87179446, 4041.28205087, 4086.53846119, 4093.07692273, 4097.69230735, 4107.17948691, 4086.41025607, 4112.69230742, 4124.48717921, 4080.51282017, 4113.84615357, 4135.38461518,10.0
4084.74358940, 4087.82051248, 4079.23076889, 4053.71794830, 4091.28205094, 4087.05128171, 4093.71794837, 4106.02564075, 4093.20512786, 4124.74358947, 4142.69230749, 4092.56410222, 4123.20512793, 4133.46153819,10.0
4078.84615350, 4086.28205094, 4068.84615343, 4046.41025600, 4084.87179453, 4086.92307658, 4102.69230742, 4102.69230742, 4086.92307658, 4121.28205101, 4132.05128178, 4087.82051248, 4116.41025614, 4132.05128178,10.0
4075.12820478, 4077.94871761, 4060.64102523, 4041.53846113, 4075.51282017, 4092.30769196, 4108.46153819, 4104.48717921, 4087.17948684, 4115.64102537, 4120.89743562, 4081.79487145, 4111.28205101, 4131.66666639,10.0
4073.58974325, 4071.02564068, 4058.33333292, 4043.84615343, 4069.10256369, 4097.69230735, 4106.15384588, 4107.56410229, 4089.74358940, 4105.64102537, 4113.07692280, 4076.41025607, 4106.53846126, 4132.30769203,10.0
4072.94871761, 4075.89743555, 4057.30769189, 4045.51282010, 4083.07692273, 4103.33333306, 4113.58974332, 4104.87179460, 4083.58974325, 4105.51282024, 4110.12820485, 4074.10256376, 4104.87179460, 4132.05128178,10.0
4073.20512786, 4083.20512786, 4057.94871754, 4043.33333292, 4092.69230735, 4096.41025607, 4107.17948691, 4103.33333306, 4090.25640991, 4122.30769203, 4117.69230742, 4078.58974325, 4109.74358947, 4131.92307665,10.0
4076.66666632, 4079.61538427, 4055.76923036, 4042.56410215, 4078.33333299, 4090.12820478, 4093.84615350, 4115.25640998, 4111.28205101, 4125.89743562, 4119.23076896, 4078.07692273, 4112.56410229, 4134.23076896,10.0
4072.94871761, 4070.51282017, 4045.12820472, 4039.35897395, 4063.46153805, 4095.12820478, 4098.07692273, 4115.38461511, 4095.12820478, 4094.99999966, 4097.05128171, 4062.94871754, 4097.56410222, 4131.66666639,10.0
4051.92307651, 4060.25640984, 4026.28205080, 4027.69230721, 4063.84615343, 4091.28205094, 4092.43589709, 4090.64102530, 4053.07692266, 4062.69230728, 4069.48717907, 4043.20512779, 4074.87179453, 4129.99999973,10.0
4031.15384567, 4053.33333292, 4010.76923029, 4020.12820465, 4067.05128164, 4082.43589709, 4077.82051248, 4078.58974325, 4049.87179446, 4060.38461497, 4057.30769189, 4030.12820465, 4067.56410215, 4131.41025614,10.0
4037.56410215, 4059.61538420, 4014.61538413, 4027.17948670, 4066.28205087, 4093.20512786, 4092.43589709, 4097.30769196, 4080.64102530, 4075.51282017, 4059.61538420, 4032.56410208, 4077.43589709, 4133.20512793,10.0
4061.28205087, 4076.15384581, 4036.41025593, 4043.84615343, 4076.66666632, 4110.89743562, 4117.94871767, 4114.74358947, 4097.43589709, 4091.15384581, 4072.43589709, 4052.30769189, 4091.66666632, 4131.66666639,10.0
4070.76923043, 4085.51282017, 4045.25640984, 4051.92307651, 4090.51282017, 4110.89743562, 4121.79487152, 4115.51282024, 4096.02564068, 4101.79487145, 4083.07692273, 4060.76923036, 4093.33333299, 4127.17948691,10.0
4063.71794830, 4081.41025607, 4034.23076875, 4044.87179446, 4088.71794837, 4096.15384581, 4102.82051255, 4103.84615357, 4091.92307658, 4098.33333299, 4080.25640991, 4048.71794830, 4087.17948684, 4131.79487152,10.0
4064.61538420, 4081.92307658, 4040.64102523, 4046.15384574, 4083.46153812, 4091.79487145, 4100.76923043, 4103.07692280, 4090.38461504, 4092.17948684, 4084.48717914, 4054.23076882, 4094.74358940, 4134.35897408,10.0
4079.74358940, 4090.89743555, 4061.92307651, 4062.56410215, 4088.07692273, 4099.35897402, 4123.07692280, 4126.28205101, 4103.07692280, 4104.48717921, 4102.43589709, 4078.58974325, 4110.12820485, 4130.12820485,10.0
4076.02564068, 4086.41025607, 4055.64102523, 4058.33333292, 4078.58974325, 4091.02564068, 4111.02564075, 4118.71794844, 4102.30769196, 4104.48717921, 4093.07692273, 4073.20512786, 4102.17948684, 4129.35897408,10.0
4051.41025600, 4068.97435856, 4030.38461490, 4036.41025593, 4056.66666625, 4074.35897402, 4071.28205094, 4081.28205094, 4073.58974325, 4076.79487145, 4059.99999959, 4045.51282010, 4076.53846119, 4130.12820485,10.0
4042.43589702, 4062.30769189, 4024.35897388, 4031.02564054, 4051.28205087, 4072.69230735, 4067.56410215, 4079.61538427, 4063.07692266, 4063.84615343, 4049.99999959, 4042.05128164, 4067.56410215, 4131.66666639,10.0
4051.53846113, 4069.35897395, 4033.33333285, 4042.05128164, 4060.12820472, 4086.41025607, 4096.92307658, 4102.82051255, 4081.41025607, 4078.84615350, 4062.05128164, 4053.20512779, 4079.61538427, 4131.02564075,10.0
4063.33333292, 4080.51282017, 4041.28205087, 4054.35897395, 4075.76923043, 4103.58974332, 4113.58974332, 4108.33333306, 4094.99999966, 4095.89743555, 4074.99999966, 4062.56410215, 4092.30769196, 4131.53846126,10.0
4068.46153805, 4088.07692273, 4050.12820472, 4062.43589702, 4084.10256376, 4105.12820485, 4104.35897408, 4106.92307665, 4096.79487145, 4099.74358940, 4085.76923043, 4073.84615350, 4093.97435863, 4136.79487159,10.0
4065.76923036, 4086.66666632, 4056.66666625, 4066.53846113, 4077.43589709, 4092.30769196, 4091.02564068, 4109.10256383, 4097.82051248, 4095.76923043, 4088.84615350, 4076.02564068, 4088.20512786, 4132.82051255,10.0
4076.41025607, 4096.92307658, 4069.87179453, 4081.41025607, 4085.51282017, 4099.99999966, 4108.97435870, 4117.17948691, 4104.48717921, 4103.20512793, 4089.87179453, 4077.30769196, 4094.87179453, 4128.71794844,10.0
4106.66666639, 4122.94871767, 4096.92307658, 4107.43589716, 4112.69230742, 4126.41025614, 4143.20512800, 4134.23076896, 4123.71794844, 4128.58974332, 4114.35897408, 4102.17948684, 4116.92307665, 4133.71794844,10.0
4121.92307665, 4129.61538434, 4110.64102537, 4115.64102537, 4118.46153819, 4129.99999973, 4139.74358954, 4128.46153819, 4128.97435870, 4138.33333313, 4137.69230749, 4122.94871767, 4124.23076896, 4131.66666639,10.0
4110.12820485, 4112.94871767, 4099.35897402, 4102.69230742, 4103.33333306, 4117.30769203, 4125.12820485, 4116.02564075, 4113.33333306, 4117.82051255, 4126.41025614, 4111.02564075, 4111.41025614, 4130.12820485,10.0
4102.43589709, 4108.20512793, 4091.53846119, 4098.84615350, 4102.30769196, 4116.41025614, 4132.56410229, 4125.51282024, 4111.92307665, 4107.17948691, 4109.99999973, 4095.25640991, 4103.97435870, 4133.20512793,10.0
4100.51282017, 4111.15384588, 4092.17948684, 4101.66666632, 4101.92307658, 4107.43589716, 4112.69230742, 4113.07692280, 4104.35897408, 4105.89743562, 4103.46153819, 4088.84615350, 4100.76923043, 4136.53846133,10.0
4077.56410222, 4091.53846119, 4071.28205094, 4086.41025607, 4078.58974325, 4075.51282017, 4062.56410215, 4076.41025607, 4070.89743555, 4081.28205094, 4080.76923043, 4068.46153805, 4081.15384581, 4136.15384595,10.0
4054.35897395, 4070.51282017, 4041.02564061, 4068.07692266, 4060.25640984, 4060.89743548, 4050.38461497, 4069.35897395, 4054.74358933, 4056.66666625, 4050.64102523, 4040.76923036, 4058.20512779, 4127.30769203,10.0
4056.15384574, 4073.71794837, 4030.76923029, 4064.74358933, 4070.12820478, 4081.53846119, 4077.17948684, 4088.33333299, 4071.66666632, 4062.43589702, 4046.28205087, 4028.97435849, 4058.58974318, 4126.66666639,10.0
4062.56410215, 4082.94871761, 4033.58974311, 4067.56410215, 4080.51282017, 4096.53846119, 4091.66666632, 4095.38461504, 4087.17948684, 4075.76923043, 4053.33333292, 4031.41025593, 4071.79487145, 4131.79487152,10.0
4068.20512779, 4089.99999966, 4042.69230728, 4076.79487145, 4083.07692273, 4095.64102530, 4099.99999966, 4101.79487145, 4099.48717914, 4082.69230735, 4061.79487138, 4041.79487138, 4079.87179453, 4131.66666639,10.0
4077.69230735, 4093.20512786, 4057.43589702, 4083.33333299, 4090.89743555, 4096.15384581, 4109.74358947, 4110.89743562, 4105.89743562, 4087.05128171, 4072.82051248, 4054.74358933, 4083.20512786, 4132.30769203,10.0
4088.58974325, 4097.05128171, 4071.92307658, 4088.71794837, 4094.74358940, 4103.46153819, 4109.35897408, 4107.94871767, 4101.41025607, 4087.05128171, 4074.48717914, 4064.23076882, 4084.10256376, 4131.66666639,10.0
4102.56410229, 4109.74358947, 4080.12820478, 4100.64102530, 4099.87179453, 4117.56410229, 4124.35897408, 4119.35897408, 4119.99999973, 4099.10256376, 4080.12820478, 4073.97435863, 4092.94871761, 4129.74358947,10.0
4107.82051255, 4122.17948691, 4081.79487145, 4110.25640998, 4119.87179460, 4132.94871767, 4153.20512800, 4137.56410236, 4143.84615364, 4118.07692280, 4094.61538427, 4080.38461504, 4104.35897408, 4128.46153819,10.0
4092.17948684, 4116.53846126, 4074.48717914, 4106.66666639, 4116.79487152, 4123.07692280, 4134.61538434, 4119.10256383, 4127.43589716, 4113.97435870, 4092.17948684, 4072.43589709, 4097.69230735, 4130.12820485,10.0
4076.02564068, 4098.84615350, 4063.84615343, 4090.89743555, 4083.07692273, 4092.17948684, 4081.28205094, 4086.79487145, 4096.15384581, 4095.25640991, 4074.87179453, 4063.71794830, 4084.48717914, 4134.61538434,10.0
4082.82051248, 4098.46153812, 4069.23076882, 4086.28205094, 4080.76923043, 4081.66666632, 4070.25640991, 4088.84615350, 4093.07692273, 4089.61538427, 4076.92307658, 4074.61538427, 4085.51282017, 4133.97435870,10.0
4088.07692273, 4108.33333306, 4081.28205094, 4098.71794837, 4105.12820485, 4085.89743555, 4079.10256376, 4094.10256376, 4095.76923043, 4092.94871761, 4087.05128171, 4086.15384581, 4088.46153812, 4134.10256383,10.0
4074.48717914, 4102.69230742, 4076.41025607, 4105.51282024, 4098.97435863, 4077.30769196, 4060.25640984, 4074.23076889, 4082.56410222, 4089.10256376, 4080.64102530, 4076.92307658, 4083.97435863, 4132.56410229,10.0
4063.84615343, 4091.02564068, 4060.25640984, 4099.48717914, 4079.74358940, 4073.07692273, 4055.64102523, 4071.92307658, 4081.66666632, 4087.17948684, 4076.79487145, 4061.66666625, 4081.41025607, 4129.48717921,10.0
4058.20512779, 4086.15384581, 4045.64102523, 4087.69230735, 4076.53846119, 4078.71794837, 4065.76923036, 4086.15384581, 4086.92307658, 4086.28205094, 4075.12820478, 4052.69230728, 4078.58974325, 4134.87179460,10.0
4049.23076882, 4077.30769196, 4031.79487131, 4075.12820478, 4069.35897395, 4078.84615350, 4064.35897395, 4074.23076889, 4071.92307658, 4073.33333299, 4062.17948677, 4039.87179446, 4069.99999966, 4135.89743569,10.0
4048.58974318, 4068.07692266, 4027.05128157, 4069.23076882, 4068.97435856, 4084.48717914, 4082.82051248, 4075.38461504, 4072.30769196, 4066.15384574, 4054.10256369, 4029.99999952, 4067.30769189, 4130.89743562,10.0
4053.46153805, 4068.97435856, 4029.35897388, 4069.48717907, 4076.28205094, 4088.07692273, 4099.74358940, 4106.02564075, 4101.66666632, 4072.56410222, 4054.61538420, 4028.84615336, 4066.15384574, 4133.07692280,10.0
4042.94871754, 4062.56410215, 4020.38461490, 4060.64102523, 4059.48717907, 4074.87179453, 4072.43589709, 4092.56410222, 4092.94871761, 4058.33333292, 4041.02564061, 4016.02564054, 4052.30769189, 4135.76923056,10.0
4033.97435849, 4057.30769189, 4011.92307644, 4054.99999959, 4050.12820472, 4074.87179453, 4055.25640984, 4056.15384574, 4060.64102523, 4037.69230728, 4026.41025593, 4000.25640970, 4045.89743548, 4133.84615357,10.0
4045.64102523, 4070.89743555, 4014.87179439, 4067.30769189, 4072.94871761, 4091.28205094, 4078.33333299, 4075.25640991, 4076.79487145, 4051.41025600, 4028.71794824, 4003.58974304, 4056.53846113, 4132.43589716,10.0
4051.28205087, 4080.89743555, 4013.71794824, 4074.74358940, 4081.02564068, 4094.99999966, 4089.48717914, 4101.92307658, 4099.99999966, 4067.69230728, 4031.15384567, 4006.79487131, 4058.20512779, 4131.79487152,10.0
4037.43589702, 4071.41025607, 4005.12820465, 4064.61538420, 4063.20512779, 4091.92307658, 4079.10256376, 4089.87179453, 4086.92307658, 4058.20512779, 4025.64102516, 3992.94871740, 4047.30769189, 4128.46153819,10.0
4023.71794824, 4059.10256369, 4000.25640970, 4053.84615343, 4059.87179446, 4091.92307658, 4075.12820478, 4081.02564068, 4079.74358940, 4050.51282010, 4016.79487131, 3979.74358919, 4041.53846113, 4128.58974332,10.0
4025.25640977, 4060.89743548, 4004.99999952, 4057.05128164, 4073.71794837, 4088.84615350, 4082.82051248, 4089.74358940, 4086.02564068, 4057.05128164, 4018.20512772, 3987.43589688, 4051.41025600, 4133.58974332,10.0
4039.35897395, 4070.51282017, 4022.17948670, 4066.28205087, 4075.64102530, 4089.23076889, 4087.17948684, 4091.66666632, 4082.69230735, 4065.12820472, 4028.58974311, 4010.76923029, 4064.48717907, 4133.97435870,10.0
4057.30769189, 4081.28205094, 4044.23076882, 4078.33333299, 4079.35897402, 4095.76923043, 4088.07692273, 4094.48717914, 4082.56410222, 4069.10256369, 4034.35897388, 4030.12820465, 4068.33333292, 4133.33333306,10.0
4065.38461497, 4088.71794837, 4053.46153805, 4087.17948684, 4091.41025607, 4096.02564068, 4091.41025607, 4092.30769196, 4079.35897402, 4067.82051241, 4039.23076882, 4038.71794830, 4069.74358940, 4133.58974332,10.0
4067.69230728, 4093.07692273, 4057.82051241, 4090.89743555, 4084.74358940, 4091.66666632, 4090.89743555, 4077.56410222, 4067.17948677, 4066.15384574, 4048.84615343, 4044.10256369, 4075.51282017, 4130.76923050,10.0
4078.20512786, 4101.53846119, 4069.10256369, 4101.66666632, 4075.89743555, 4095.89743555, 4088.97435863, 4082.43589709, 4075.51282017, 4081.92307658, 4064.61538420, 4055.64102523, 4086.66666632, 4131.15384588,10.0
4081.15384581, 4100.64102530, 4068.07692266, 4108.71794844, 4085.89743555, 4094.87179453, 4078.71794837, 4090.89743555, 4086.92307658, 4097.30769196, 4073.71794837, 4063.20512779, 4090.89743555, 4131.53846126,10.0
4067.82051241, 4086.53846119, 4049.35897395, 4094.87179453, 4086.15384581, 4077.56410222, 4063.71794830, 4075.64102530, 4071.41025607, 4088.58974325, 4066.92307651, 4054.23076882, 4080.89743555, 4131.28205101,10.0
4057.05128164, 4078.84615350, 4040.25640984, 4074.99999966, 4067.94871754, 4069.23076882, 4061.66666625, 4068.33333292, 4058.71794830, 4076.41025607, 4055.76923036, 4043.71794830, 4073.71794837, 4133.46153819,10.0
4051.53846113, 4075.51282017, 4036.66666618, 4071.66666632, 4057.17948677, 4079.61538427, 4067.43589702, 4078.84615350, 4064.61538420, 4076.02564068, 4047.94871754, 4036.41025593, 4071.41025607, 4131.41025614,10.0
4043.07692266, 4070.12820478, 4023.97435849, 4075.12820478, 4060.51282010, 4088.46153812, 4069.74358940, 4078.20512786, 4066.15384574, 4072.30769196, 4041.53846113, 4025.51282003, 4062.69230728, 4127.43589716,10.0
4041.02564061, 4077.30769196, 4019.74358926, 4079.87179453, 4064.87179446, 4089.87179453, 4074.35897402, 4076.15384581, 4068.97435856, 4069.87179453, 4041.79487138, 4021.28205080, 4058.97435856, 4129.10256383,10.0
4052.17948677, 4091.53846119, 4030.12820465, 4092.82051248, 4071.79487145, 4100.12820478, 4091.53846119, 4092.94871761, 4087.82051248, 4083.97435863, 4055.38461497, 4031.92307644, 4073.97435863, 4129.35897408,10.0
4059.61538420, 4088.58974325, 4035.38461490, 4094.48717914, 4079.48717914, 4106.53846126, 4095.64102530, 4095.64102530, 4088.20512786, 4086.79487145, 4060.89743548, 4036.28205080, 4080.12820478, 4127.17948691,10.0
4057.69230728, 4083.58974325, 4035.51282003, 4091.28205094, 4086.28205094, 4097.56410222, 4083.46153812, 4083.97435863, 4071.41025607, 4074.23076889, 4053.71794830, 4032.94871747, 4070.38461504, 4129.74358947,10.0
4064.10256369, 4095.38461504, 4045.89743548, 4103.33333306, 4093.58974325, 4102.82051255, 4091.28205094, 4090.64102530, 4079.23076889, 4077.69230735, 4054.10256369, 4043.97435856, 4074.99999966, 4133.71794844,10.0
4072.69230735, 4103.58974332, 4055.51282010, 4110.76923050, 4094.61538427, 4117.69230742, 4109.10256383, 4094.74358940, 4090.64102530, 4084.61538427, 4062.17948677, 4056.53846113, 4086.92307658, 4130.64102537,10.0
4078.58974325, 4101.53846119, 4062.56410215, 4105.76923050, 4090.51282017, 4107.17948691, 4090.12820478, 4086.28205094, 4090.76923043, 4086.92307658, 4073.20512786, 4065.89743548, 4090.51282017, 4128.20512793,10.0
4077.69230735, 4096.92307658, 4067.17948677, 4102.94871767, 4077.94871761, 4078.71794837, 4047.05128164, 4072.05128171, 4083.97435863, 4087.69230735, 4079.99999966, 4075.25640991, 4087.69230735, 4131.41025614,10.0
4068.84615343, 4091.28205094, 4061.41025600, 4101.15384581, 4068.07692266, 4078.58974325, 4050.89743548, 4058.97435856, 4067.05128164, 4081.02564068, 4074.99999966, 4072.05128171, 4080.64102530, 4131.79487152,10.0
4071.28205094, 4094.48717914, 4060.51282010, 4101.79487145, 4082.30769196, 4100.64102530, 4088.58974325, 4069.35897395, 4066.79487138, 4082.17948684, 4072.17948684, 4070.12820478, 4082.05128171, 4132.43589716,10.0
4077.69230735, 4100.64102530, 4065.76923036, 4107.56410229, 4091.41025607, 4097.56410222, 4084.10256376, 4084.74358940, 4084.10256376, 4095.38461504, 4079.48717914, 4074.10256376, 4090.76923043, 4131.79487152,10.0
4065.25640984, 4094.99999966, 4057.43589702, 4101.92307658, 4073.84615350, 4081.02564068, 4055.76923036, 4070.25640991, 4072.69230735, 4093.58974325, 4077.82051248, 4062.17948677, 4086.28205094, 4125.89743562,10.0
4052.94871754, 4085.89743555, 4044.87179446, 4089.87179453, 4067.43589702, 4082.56410222, 4059.99999959, 4055.76923036, 4051.15384574, 4078.46153812, 4062.05128164, 4044.74358933, 4072.30769196, 4130.25640998,10.0
4068.07692266, 4095.76923043, 4055.64102523, 4098.84615350, 4091.53846119, 4097.17948684, 4085.12820478, 4074.61538427, 4066.15384574, 4080.12820478, 4062.82051241, 4053.33333292, 4076.02564068, 4136.53846133,10.0
4083.84615350, 4118.07692280, 4074.23076889, 4117.17948691, 4106.92307665, 4106.28205101, 4100.25640991, 4089.99999966, 4083.07692273, 4090.51282017, 4075.38461504, 4069.48717907, 4086.15384581, 4130.38461511,10.0
4078.84615350, 4121.41025614, 4072.69230735, 4117.94871767, 4096.53846119, 4101.66666632, 4092.69230735, 4078.33333299, 4073.71794837, 4089.35897402, 4070.76923043, 4062.82051241, 4079.99999966, 4125.89743562,10.0
4076.41025607, 4111.15384588, 4068.84615343, 4115.76923050, 4089.99999966, 4093.20512786, 4078.84615350, 4069.87179453, 4066.92307651, 4080.76923043, 4062.82051241, 4053.07692266, 4075.51282017, 4131.53846126,10.0
4084.61538427, 4113.84615357, 4074.61538427, 4122.69230742, 4094.99999966, 4100.38461504, 4090.51282017, 4075.76923043, 4073.71794837, 4079.99999966, 4068.97435856, 4059.74358933, 4082.69230735, 4131.15384588,10.0
4084.23076889, 4114.35897408, 4070.64102530, 4119.10256383, 4089.35897402, 4105.89743562, 4096.15384581, 4076.28205094, 4077.43589709, 4084.10256376, 4071.02564068, 4063.20512779, 4083.71794837, 4126.92307665,10.0
4067.43589702, 4093.84615350, 4053.97435856, 4097.69230735, 4070.38461504, 4081.53846119, 4059.99999959, 4059.48717907, 4065.25640984, 4073.07692273, 4055.25640984, 4047.17948677, 4070.25640991, 4131.92307665,10.0
4060.38461497, 4084.87179453, 4049.48717907, 4089.23076889, 4066.66666625, 4068.07692266, 4047.17948677, 4056.41025600, 4061.41025600, 4062.69230728, 4048.20512779, 4037.69230728, 4063.58974318, 4133.58974332,10.0
4073.97435863, 4104.10256383, 4065.25640984, 4103.33333306, 4079.61538427, 4092.56410222, 4082.56410222, 4082.30769196, 4086.02564068, 4079.23076889, 4066.15384574, 4053.33333292, 4077.56410222, 4128.20512793,10.0
4079.61538427, 4107.17948691, 4070.76923043, 4103.20512793, 4079.74358940, 4104.74358947, 4097.69230735, 4091.15384581, 4096.02564068, 4092.94871761, 4075.64102530, 4066.66666625, 4083.84615350, 4128.84615357,10.0
4068.46153805, 4085.64102530, 4059.35897395, 4085.12820478, 4061.79487138, 4086.28205094, 4085.25640991, 4075.25640991, 4076.66666632, 4078.58974325, 4058.84615343, 4058.33333292, 4072.69230735, 4131.79487152,10.0
4069.74358940, 4086.79487145, 4064.87179446, 4089.23076889, 4052.56410215, 4084.35897402, 4091.41025607, 4077.69230735, 4069.10256369, 4070.76923043, 4050.89743548, 4055.12820472, 4071.41025607, 4130.76923050,10.0
4085.76923043, 4110.51282024, 4088.71794837, 4108.33333306, 4073.33333299, 4103.71794844, 4107.94871767, 4096.66666632, 4077.30769196, 4085.12820478, 4067.94871754, 4072.69230735, 4082.05128171, 4131.02564075,10.0
4091.02564068, 4116.15384588, 4093.84615350, 4111.79487152, 4102.69230742, 4109.48717921, 4106.66666639, 4094.61538427, 4075.25640991, 4088.33333299, 4073.84615350, 4079.35897402, 4081.53846119, 4131.66666639,10.0
4081.53846119, 4104.10256383, 4078.46153812, 4104.74358947, 4099.35897402, 4094.10256376, 4084.61538427, 4071.53846119, 4062.82051241, 4072.94871761, 4063.97435856, 4064.87179446, 4073.07692273, 4132.56410229,10.0
4079.23076889, 4105.25640998, 4081.15384581, 4110.89743562, 4083.07692273, 4083.07692273, 4076.53846119, 4064.99999959, 4062.69230728, 4072.94871761, 4069.10256369, 4067.17948677, 4077.43589709, 4131.15384588,10.0
4085.25640991, 4111.66666639, 4091.15384581, 4118.20512793, 4082.69230735, 4081.53846119, 4075.76923043, 4064.23076882, 4063.71794830, 4083.20512786, 4076.66666632, 4080.89743555, 4083.20512786, 4128.58974332,10.0
4083.84615350, 4105.64102537, 4082.17948684, 4114.35897408, 4083.46153812, 4074.61538427, 4056.66666625, 4050.51282010, 4052.05128164, 4079.87179453, 4069.35897395, 4076.28205094, 4082.43589709, 4129.99999973,10.0
4081.79487145, 4105.76923050, 4076.79487145, 4115.51282024, 4085.25640991, 4071.41025607, 4056.79487138, 4050.51282010, 4052.30769189, 4081.79487145, 4071.41025607, 4074.23076889, 4088.46153812, 4132.30769203,10.0
4076.53846119, 4106.41025614, 4076.53846119, 4113.71794844, 4079.48717914, 4078.58974325, 4076.02564068, 4068.20512779, 4066.92307651, 4087.05128171, 4074.87179453, 4074.87179453, 4087.43589709, 4134.61538434,10.0
4060.51282010, 4091.66666632, 4064.99999959, 4095.25640991, 4057.30769189, 4078.33333299, 4072.69230735, 4069.35897395, 4065.25640984, 4075.89743555, 4055.89743548, 4057.94871754, 4070.76923043, 4134.10256383,10.0
4056.02564061, 4083.58974325, 4059.48717907, 4088.20512786, 4052.05128164, 4073.97435863, 4066.79487138, 4064.48717907, 4058.84615343, 4068.58974318, 4044.74358933, 4050.89743548, 4065.25640984, 4133.07692280,10.0
4073.07692273, 4095.25640991, 4073.84615350, 4102.69230742, 4070.38461504, 4084.87179453, 4086.41025607, 4081.15384581, 4079.10256376, 4087.05128171, 4064.74358933, 4071.02564068, 4081.15384581, 4132.94871767,10.0
4084.61538427, 4104.61538434, 4084.99999966, 4106.79487152, 4081.15384581, 4095.76923043, 4097.82051248, 4091.41025607, 4093.71794837, 4100.51282017, 4078.58974325, 4081.53846119, 4090.51282017, 4131.28205101,10.0
4086.53846119, 4109.61538434, 4086.66666632, 4104.87179460, 4083.20512786, 4096.92307658, 4102.43589709, 4088.46153812, 4082.43589709, 4096.41025607, 4070.89743555, 4074.99999966, 4087.69230735, 4134.10256383,10.0
4094.99999966, 4118.97435870, 4093.84615350, 4118.20512793, 4094.23076889, 4105.76923050, 4123.84615357, 4099.48717914, 4089.87179453, 4101.92307658, 4074.10256376, 4083.71794837, 4093.71794837, 4134.35897408,10.0
4093.46153812, 4116.92307665, 4096.02564068, 4121.02564075, 4093.07692273, 4102.56410229, 4116.28205101, 4101.79487145, 4104.23076896, 4106.28205101, 4082.17948684, 4093.20512786, 4096.15384581, 4131.53846126,10.0
4075.76923043, 4105.64102537, 4082.69230735, 4106.79487152, 4072.94871761, 4079.23076889, 4075.38461504, 4072.43589709, 4076.15384581, 4083.84615350, 4067.69230728, 4078.20512786, 4079.35897402, 4131.92307665,10.0
4071.15384581, 4107.69230742, 4076.66666632, 4108.33333306, 4072.82051248, 4070.38461504, 4064.23076882, 4054.99999959, 4050.76923036, 4069.23076882, 4058.46153805, 4069.35897395, 4071.79487145, 4129.87179460,10.0
4086.53846119, 4119.74358947, 4092.17948684, 4126.92307665, 4094.48717914, 4079.74358940, 4077.69230735, 4064.87179446, 4072.56410222, 4089.10256376, 4077.17948684, 4088.58974325, 4088.84615350, 4130.64102537,10.0
4089.87179453, 4122.56410229, 4101.28205094, 4130.25640998, 4100.76923043, 4079.23076889, 4070.76923043, 4070.38461504, 4086.41025607, 4102.43589709, 4089.23076889, 4096.92307658, 4098.07692273, 4134.87179460,10.0
4081.79487145, 4119.23076896, 4094.48717914, 4122.56410229, 4093.20512786, 4082.94871761, 4071.15384581, 4073.07692273, 4082.05128171, 4097.43589709, 4086.15384581, 4085.51282017, 4094.35897402, 4133.58974332,10.0
4082.56410222, 4120.25640998, 4090.64102530, 4123.71794844, 4086.79487145, 4097.94871761, 4092.56410222, 4080.25640991, 4092.82051248, 4099.74358940, 4088.46153812, 4085.89743555, 4097.17948684, 4132.17948691,10.0
4088.58974325, 4122.56410229, 4097.82051248, 4130.76923050, 4091.66666632, 4103.58974332, 4103.97435870, 4083.46153812, 4102.82051255, 4101.41025607, 4093.58974325, 4096.02564068, 4099.99999966, 4133.71794844,10.0
4104.99999973, 4131.02564075, 4114.74358947, 4139.74358954, 4113.71794844, 4104.87179460, 4110.64102537, 4093.46153812, 4108.71794844, 4104.48717921, 4102.56410229, 4106.02564075, 4103.71794844, 4131.92307665,10.0
4125.64102537, 4142.17948697, 4127.56410229, 4145.38461518, 4127.82051255, 4117.43589716, 4131.66666639, 4108.20512793, 4119.61538434, 4114.87179460, 4114.35897408, 4120.25640998, 4112.94871767, 4132.17948691,10.0
4126.15384588, 4141.53846133, 4128.46153819, 4143.58974339, 4119.61538434, 4130.76923050, 4148.97435877, 4111.15384588, 4121.41025614, 4116.28205101, 4113.58974332, 4125.38461511, 4111.53846126, 4136.79487159,10.0
4113.84615357, 4132.82051255, 4125.89743562, 4139.35897415, 4117.17948691, 4124.99999973, 4137.94871774, 4107.30769203, 4113.71794844, 4108.07692280, 4101.53846119, 4112.30769203, 4102.69230742, 4134.74358947,10.0
4116.28205101, 4131.02564075, 4126.92307665, 4138.46153826, 4127.30769203, 4112.43589716, 4118.07692280, 4102.94871767, 4111.02564075, 4110.12820485, 4105.12820485, 4109.48717921, 4103.46153819, 4128.84615357,10.0
4125.12820485, 4133.71794844, 4126.28205101, 4138.33333313, 4125.38461511, 4111.66666639, 4113.07692280, 4099.10256376, 4109.99999973, 4117.82051255, 4116.79487152, 4121.53846126, 4109.99999973, 4130.12820485,10.0
4126.02564075, 4133.46153819, 4123.33333306, 4137.17948697, 4118.84615357, 4110.25640998, 4114.23076896, 4098.84615350, 4107.94871767, 4118.58974332, 4118.97435870, 4123.20512793, 4113.58974332, 4135.51282031,10.0
4122.69230742, 4133.58974332, 4121.28205101, 4138.46153826, 4116.41025614, 4099.99999966, 4107.17948691, 4093.97435863, 4103.84615357, 4115.38461511, 4117.17948691, 4118.33333306, 4112.30769203, 4133.07692280,10.0
4119.10256383, 4135.64102544, 4122.30769203, 4139.48717928, 4112.30769203, 4097.69230735, 4106.02564075, 4091.15384581, 4100.25640991, 4115.64102537, 4118.58974332, 4121.92307665, 4110.25640998, 4128.20512793,10.0
4119.87179460, 4136.92307672, 4124.10256383, 4139.10256390, 4109.23076896, 4104.23076896, 4113.58974332, 4095.51282017, 4104.48717921, 4122.05128178, 4124.99999973, 4127.30769203, 4116.79487152, 4131.28205101,10.0
4120.76923050, 4131.02564075, 4121.53846126, 4137.94871774, 4111.15384588, 4100.12820478, 4109.74358947, 4095.12820478, 4102.30769196, 4119.61538434, 4126.79487152, 4128.84615357, 4123.33333306, 4133.84615357,10.0
4123.58974332, 4128.97435870, 4129.99999973, 4139.10256390, 4120.12820485, 4103.20512793, 4114.10256383, 4098.58974325, 4100.76923043, 4114.87179460, 4124.10256383, 4137.94871774, 4122.43589716, 4131.41025614,10.0
4132.17948691, 4137.82051262, 4146.92307672, 4143.58974339, 4121.53846126, 4123.97435870, 4139.35897415, 4116.41025614, 4116.79487152, 4127.82051255, 4129.35897408, 4148.84615364, 4123.84615357, 4128.84615357,10.0
4133.84615357, 4134.35897408, 4146.79487159, 4142.94871774, 4111.28205101, 4122.05128178, 4132.94871767, 4110.89743562, 4118.58974332, 4125.64102537, 4128.71794844, 4142.82051262, 4120.25640998, 4129.99999973,10.0
4124.48717921, 4119.87179460, 4133.58974332, 4135.12820485, 4106.02564075, 4091.28205094, 4090.25640991, 4077.05128171, 4090.76923043, 4097.69230735, 4112.69230742, 4129.35897408, 4105.76923050, 4132.05128178,10.0
4113.46153819, 4108.20512793, 4120.38461511, 4120.89743562, 4091.79487145, 4074.74358940, 4071.92307658, 4061.79487138, 4069.48717907, 4080.38461504, 4096.02564068, 4117.56410229, 4091.28205094, 4130.89743562,10.0
4106.66666639, 4100.89743555, 4109.61538434, 4108.71794844, 4072.69230735, 4084.48717914, 4085.89743555, 4076.28205094, 4073.84615350, 4083.07692273, 4088.84615350, 4105.76923050, 4088.97435863, 4129.87179460,10.0
4106.28205101, 4104.10256383, 4107.94871767, 4111.15384588, 4081.53846119, 4096.79487145, 4099.74358940, 4093.58974325, 4091.79487145, 4092.69230735, 4091.41025607, 4106.79487152, 4097.05128171, 4133.20512793,10.0
4111.02564075, 4112.05128178, 4109.87179460, 4114.74358947, 4098.84615350, 4099.48717914, 4106.28205101, 4098.84615350, 4104.48717921, 4105.25640998, 4101.41025607, 4114.61538434, 4104.23076896, 4135.38461518,10.0
4111.02564075, 4110.51282024, 4109.87179460, 4109.99999973, 4093.84615350, 4096.79487145, 4100.64102530, 4094.10256376, 4099.23076889, 4110.89743562, 4106.02564075, 4113.84615357, 4104.99999973, 4129.99999973,10.0
4111.02564075, 4112.94871767, 4112.43589716, 4114.99999973, 4093.33333299, 4094.48717914, 4094.23076889, 4090.51282017, 4093.46153812, 4108.71794844, 4104.23076896, 4110.25640998, 4105.89743562, 4129.61538434,10.0
4118.20512793, 4126.66666639, 4117.69230742, 4126.02564075, 4104.61538434, 4098.46153812, 4106.41025614, 4095.38461504, 4101.41025607, 4112.82051255, 4107.56410229, 4112.43589716, 4108.46153819, 4135.89743569,10.0
4119.23076896, 4131.02564075, 4120.12820485, 4125.89743562, 4103.58974332, 4109.48717921, 4117.94871767, 4101.53846119, 4107.82051255, 4118.07692280, 4113.46153819, 4116.02564075, 4109.35897408, 4133.07692280,10.0
4111.41025614, 4126.02564075, 4117.17948691, 4124.87179460, 4102.17948684, 4109.23076896, 4106.02564075, 4091.92307658, 4097.17948684, 4111.15384588, 4112.43589716, 4113.84615357, 4108.33333306, 4128.07692280,10.0
4105.89743562, 4119.99999973, 4108.46153819, 4127.05128178, 4105.76923050, 4089.23076889, 4087.05128171, 4074.10256376, 4080.51282017, 4100.64102530, 4102.30769196, 4106.02564075, 4101.53846119, 4128.07692280,10.0
4102.82051255, 4113.97435870, 4103.84615357, 4124.10256383, 4098.07692273, 4081.66666632, 4086.79487145, 4074.10256376, 4080.64102530, 4096.79487145, 4091.28205094, 4102.43589709, 4091.66666632, 4129.10256383,10.0
4098.07692273, 4114.10256383, 4106.66666639, 4122.94871767, 4088.33333299, 4089.74358940, 4092.56410222, 4082.43589709, 4083.20512786, 4090.51282017, 4085.25640991, 4101.41025607, 4088.20512786, 4132.30769203,10.0
4095.64102530, 4115.76923050, 4105.89743562, 4123.97435870, 4086.02564068, 4087.56410222, 4084.48717914, 4074.48717914, 4069.99999966, 4078.84615350, 4084.99999966, 4095.51282017, 4088.20512786, 4132.17948691,10.0
4099.23076889, 4113.84615357, 4105.89743562, 4123.84615357, 4087.56410222, 4089.10256376, 4085.12820478, 4072.43589709, 4069.35897395, 4081.41025607, 4093.84615350, 4102.17948684, 4091.15384581, 4131.15384588,10.0
4103.33333306, 4110.64102537, 4105.89743562, 4121.53846126, 4087.82051248, 4103.97435870, 4101.66666632, 4087.56410222, 4084.99999966, 4092.69230735, 4098.58974325, 4110.38461511, 4096.79487145, 4133.33333306,10.0
4109.61538434, 4113.20512793, 4108.84615357, 4119.74358947, 4090.64102530, 4103.84615357, 4107.43589716, 4093.84615350, 4089.48717914, 4099.23076889, 4099.35897402, 4104.48717921, 4103.84615357, 4132.69230742,10.0
4117.56410229, 4119.87179460, 4118.46153819, 4124.74358947, 4094.10256376, 4089.23076889, 4099.87179453, 4091.41025607, 4093.33333299, 4111.41025614, 4110.12820485, 4111.28205101, 4111.28205101, 4129.61538434,10.0
4102.94871767, 4113.33333306, 4103.58974332, 4114.48717921, 4095.12820478, 4096.53846119, 4097.17948684, 4080.89743555, 4077.43589709, 4109.23076896, 4109.48717921, 4108.84615357, 4099.10256376, 4129.74358947,10.0
4094.61538427, 4102.43589709, 4099.87179453, 4112.82051255, 4083.33333299, 4087.69230735, 4078.84615350, 4074.74358940, 4073.07692273, 4101.92307658, 4105.38461511, 4106.02564075, 4096.53846119, 4132.05128178,10.0
4097.30769196, 4108.46153819, 4107.05128178, 4109.99999973, 4093.20512786, 4086.53846119, 4087.69230735, 4083.84615350, 4081.66666632, 4101.41025607, 4109.74358947, 4106.92307665, 4103.20512793, 4133.20512793,10.0
4097.05128171, 4110.51282024, 4108.20512793, 4108.46153819, 4099.23076889, 4084.35897402, 4092.69230735, 4086.15384581, 4084.99999966, 4103.33333306, 4107.82051255, 4104.48717921, 4100.51282017, 4133.07692280,10.0
4095.76923043, 4107.17948691, 4108.33333306, 4108.46153819, 4093.07692273, 4092.17948684, 4093.58974325, 4081.15384581, 4080.12820478, 4098.58974325, 4103.33333306, 4107.17948691, 4095.89743555, 4133.07692280,10.0
4105.38461511, 4116.66666639, 4117.94871767, 4117.56410229, 4093.97435863, 4104.35897408, 4099.23076889, 4085.64102530, 4086.28205094, 4100.38461504, 4115.12820485, 4120.12820485, 4106.66666639, 4131.79487152,10.0
4115.38461511, 4124.35897408, 4122.17948691, 4126.66666639, 4100.38461504, 4103.20512793, 4101.66666632, 4093.58974325, 4097.05128171, 4108.20512793, 4125.12820485, 4124.23076896, 4112.69230742, 4134.10256383,10.0
4115.64102537, 4118.97435870, 4119.10256383, 4120.51282024, 4105.25640998, 4100.76923043, 4109.99999973, 4096.92307658, 4099.48717914, 4108.33333306, 4118.58974332, 4121.28205101, 4104.48717921, 4134.10256383,10.0
4118.33333306, 4123.71794844, 4127.30769203, 4119.87179460, 4110.89743562, 4107.56410229, 4117.17948691, 4096.02564068, 4097.82051248, 4107.82051255, 4117.56410229, 4129.23076896, 4104.87179460, 4130.12820485,10.0
4117.43589716, 4129.87179460, 4135.89743569, 4131.15384588, 4108.97435870, 4100.51282017, 4097.69230735, 4082.69230735, 4093.97435863, 4109.99999973, 4122.05128178, 4136.53846133, 4109.35897408, 4133.84615357,10.0
4102.56410229, 4115.38461511, 4126.15384588, 4125.25640998, 4089.10256376, 4076.15384581, 4070.64102530, 4069.10256369, 4084.74358940, 4101.41025607, 4112.05128178, 4128.84615357, 4099.61538427, 4135.76923056,10.0
4094.74358940, 4106.66666639, 4115.76923050, 4113.07692280, 4080.12820478, 4068.97435856, 4070.38461504, 4071.41025607, 4076.92307658, 4091.79487145, 4102.82051255, 4120.89743562, 4093.33333299, 4131.53846126,10.0
4103.33333306, 4114.61538434, 4120.51282024, 4117.94871767, 4090.89743555, 4089.23076889, 4087.69230735, 4077.82051248, 4078.58974325, 4095.89743555, 4106.92307665, 4122.30769203, 4101.15384581, 4130.76923050,10.0
4107.94871767, 4118.07692280, 4124.10256383, 4126.53846126, 4091.41025607, 4100.64102530, 4097.17948684, 4079.23076889, 4085.89743555, 4101.92307658, 4114.61538434, 4124.74358947, 4107.05128178, 4133.46153819,10.0
4098.33333299, 4112.05128178, 4115.89743562, 4122.82051255, 4089.87179453, 4084.87179453, 4086.28205094, 4076.92307658, 4087.05128171, 4100.76923043, 4116.92307665, 4122.82051255, 4102.43589709, 4133.71794844,10.0
4093.20512786, 4111.92307665, 4115.51282024, 4123.84615357, 4107.94871767, 4087.05128171, 4088.07692273, 4081.92307658, 4089.99999966, 4105.38461511, 4118.20512793, 4122.82051255, 4102.05128171, 4130.51282024,10.0
4102.82051255, 4119.10256383, 4123.84615357, 4131.15384588, 4116.53846126, 4111.66666639, 4113.71794844, 4100.12820478, 4102.05128171, 4114.74358947, 4121.79487152, 4126.15384588, 4110.76923050, 4130.51282024,10.0
4102.94871767, 4114.48717921, 4113.84615357, 4121.15384588, 4096.02564068, 4105.38461511, 4107.17948691, 4095.25640991, 4093.84615350, 4100.76923043, 4110.64102537, 4116.28205101, 4105.89743562, 4133.97435870,10.0
4092.94871761, 4107.43589716, 4099.10256376, 4109.23076896, 4087.69230735, 4091.41025607, 4089.35897402, 4070.25640991, 4074.10256376, 4082.56410222, 4094.48717914, 4103.33333306, 4095.89743555, 4135.38461518,10.0
4104.23076896, 4119.74358947, 4114.61538434, 4120.89743562, 4107.17948691, 4110.25640998, 4114.74358947, 4085.89743555, 4090.89743555, 4098.84615350, 4108.46153819, 4115.76923050, 4108.33333306, 4134.74358947,10.0
4122.82051255, 4131.41025614, 4135.12820485, 4134.87179460, 4114.74358947, 4112.56410229, 4121.79487152, 4106.92307665, 4115.64102537, 4122.94871767, 4133.58974332, 4137.69230749, 4125.25640998, 4131.92307665,10.0
4117.05128178, 4118.84615357, 4128.58974332, 4124.61538434, 4095.51282017, 4080.76923043, 4082.82051248, 4079.10256376, 4098.33333299, 4112.56410229, 4127.05128178, 4137.82051262, 4120.12820485, 4132.17948691,10.0
4110.64102537, 4108.58974332, 4119.99999973, 4115.51282024, 4082.94871761, 4075.25640991, 4072.94871761, 4064.23076882, 4080.12820478, 4099.74358940, 4112.94871767, 4124.48717921, 4112.82051255, 4134.35897408,10.0
4115.76923050, 4113.46153819, 4123.07692280, 4121.28205101, 4094.48717914, 4097.43589709, 4097.56410222, 4091.28205094, 4097.69230735, 4115.89743562, 4122.43589716, 4122.05128178, 4118.07692280, 4131.53846126,10.0
4111.41025614, 4111.41025614, 4116.79487152, 4117.05128178, 4098.46153812, 4098.84615350, 4102.94871767, 4101.53846119, 4112.05128178, 4125.38461511, 4126.15384588, 4123.20512793, 4118.20512793, 4129.87179460,10.0
4107.17948691, 4107.69230742, 4110.38461511, 4111.92307665, 4091.41025607, 4088.97435863, 4101.15384581, 4092.43589709, 4102.94871767, 4114.87179460, 4112.94871767, 4121.79487152, 4110.25640998, 4134.74358947,10.0
4109.48717921, 4111.28205101, 4114.23076896, 4117.17948691, 4096.15384581, 4093.33333299, 4104.23076896, 4094.23076889, 4091.79487145, 4110.25640998, 4109.61538434, 4124.74358947, 4105.89743562, 4136.02564082,10.0
4108.71794844, 4117.17948691, 4116.53846126, 4121.41025614, 4099.61538427, 4104.48717921, 4104.10256383, 4094.61538427, 4090.12820478, 4111.79487152, 4115.89743562, 4126.79487152, 4105.89743562, 4132.56410229,10.0
4112.82051255, 4126.15384588, 4118.20512793, 4128.58974332, 4105.89743562, 4111.28205101, 4111.92307665, 4095.89743555, 4097.05128171, 4110.51282024, 4115.38461511, 4125.38461511, 4104.99999973, 4133.07692280,10.0
4113.33333306, 4129.87179460, 4118.46153819, 4137.17948697, 4116.02564075, 4107.17948691, 4112.43589716, 4097.17948684, 4096.79487145, 4103.33333306, 4106.28205101, 4119.99999973, 4100.38461504, 4134.99999973,10.0
4101.28205094, 4118.84615357, 4107.69230742, 4127.82051255, 4099.35897402, 4101.79487145, 4104.99999973, 4092.69230735, 4088.71794837, 4095.25640991, 4093.07692273, 4111.79487152, 4092.82051248, 4131.15384588,10.0
4099.87179453, 4108.33333306, 4103.97435870, 4115.12820485, 4079.48717914, 4102.05128171, 4099.99999966, 4088.97435863, 4085.76923043, 4093.33333299, 4093.07692273, 4112.05128178, 4092.05128171, 4128.71794844,10.0
4112.94871767, 4114.99999973, 4117.56410229, 4124.35897408, 4097.05128171, 4095.64102530, 4089.35897402, 4088.84615350, 4088.20512786, 4098.07692273, 4110.12820485, 4123.33333306, 4100.89743555, 4133.07692280,10.0
4116.92307665, 4125.89743562, 4126.92307665, 4132.94871767, 4118.58974332, 4087.69230735, 4081.28205094, 4091.41025607, 4093.46153812, 4105.64102537, 4123.84615357, 4129.61538434, 4107.43589716, 4132.56410229,10.0
4105.51282024, 4118.84615357, 4116.41025614, 4120.76923050, 4109.61538434, 4092.05128171, 4089.48717914, 4087.82051248, 4093.46153812, 4108.46153819, 4119.35897408, 4117.43589716, 4106.79487152, 4128.20512793,10.0
4094.23076889, 4100.64102530, 4099.87179453, 4107.94871767, 4092.05128171, 4094.99999966, 4093.97435863, 4076.79487145, 4082.82051248, 4098.71794837, 4108.58974332, 4105.51282024, 4103.07692280, 4129.10256383,10.0
4103.97435870, 4106.53846126, 4105.51282024, 4114.48717921, 4091.92307658, 4091.53846119, 4090.25640991, 4077.69230735, 4080.76923043, 4094.48717914, 4113.07692280, 4117.17948691, 4104.99999973, 4130.76923050,10.0
4128.46153819, 4132.43589716, 4133.58974332, 4134.99999973, 4106.53846126, 4103.20512793, 4110.12820485, 4101.41025607, 4103.97435870, 4117.30769203, 4136.66666646, 4143.84615364, 4121.15384588, 4130.25640998,10.0
4129.99999973, 4135.64102544, 4140.76923056, 4139.87179467, 4114.10256383, 4112.82051255, 4121.15384588, 4111.15384588, 4119.74358947, 4134.10256383, 4149.23076903, 4148.84615364, 4130.51282024, 4129.23076896,10.0
4112.82051255, 4120.25640998, 4120.12820485, 4127.43589716, 4107.56410229, 4104.87179460, 4109.74358947, 4098.33333299, 4107.30769203, 4124.48717921, 4136.66666646, 4131.41025614, 4120.76923050, 4130.25640998,10.0
4117.56410229, 4128.71794844, 4119.87179460, 4126.92307665, 4118.33333306, 4116.02564075, 4129.23076896, 4109.99999973, 4111.15384588, 4123.46153819, 4134.61538434, 4133.33333306, 4121.53846126, 4131.53846126,10.0
4132.82051255, 4145.38461518, 4139.74358954, 4140.64102544, 4135.38461518, 4130.64102537, 4145.51282031, 4121.53846126, 4125.38461511, 4134.61538434, 4146.79487159, 4148.07692287, 4132.69230742, 4131.79487152,10.0
4122.94871767, 4134.99999973, 4131.92307665, 4140.51282031, 4111.15384588, 4104.99999973, 4106.92307665, 4094.99999966, 4109.99999973, 4127.56410229, 4140.51282031, 4139.74358954, 4126.15384588, 4128.97435870,10.0
4106.15384588, 4119.48717921, 4106.02564075, 4125.76923050, 4082.69230735, 4079.10256376, 4074.99999966, 4073.07692273, 4086.79487145, 4110.89743562, 4123.84615357, 4122.82051255, 4113.97435870, 4128.07692280,10.0
4105.89743562, 4121.28205101, 4100.25640991, 4119.99999973, 4094.61538427, 4099.10256376, 4096.28205094, 4086.66666632, 4092.30769196, 4109.74358947, 4117.30769203, 4119.61538434, 4114.61538434, 4131.66666639,10.0
4107.56410229, 4122.56410229, 4107.05128178, 4122.30769203, 4113.46153819, 4116.66666639, 4112.30769203, 4095.89743555, 4100.89743555, 4109.87179460, 4115.12820485, 4120.12820485, 4116.02564075, 4130.38461511,10.0
4120.12820485, 4132.56410229, 4124.48717921, 4139.48717928, 4124.99999973, 4115.76923050, 4115.25640998, 4102.82051255, 4112.43589716, 4121.41025614, 4129.61538434, 4137.30769210, 4127.56410229, 4128.07692280,10.0
4145.64102544, 4154.35897415, 4149.87179467, 4156.53846133, 4138.46153826, 4127.94871767, 4129.48717921, 4120.25640998, 4136.15384595, 4146.41025621, 4154.74358954, 4165.64102544, 4144.10256390, 4132.94871767,10.0
4142.69230749, 4151.28205108, 4144.99999980, 4145.38461518, 4137.94871774, 4131.92307665, 4131.28205101, 4117.43589716, 4135.76923056, 4144.87179467, 4149.23076903, 4161.15384595, 4138.46153826, 4135.38461518,10.0
4127.30769203, 4137.05128185, 4131.92307665, 4136.41025621, 4134.23076896, 4123.58974332, 4129.48717921, 4113.71794844, 4125.51282024, 4134.61538434, 4140.64102544, 4148.46153826, 4135.38461518, 4131.92307665,10.0
4145.76923056, 4156.66666646, 4155.51282031, 4153.33333313, 4151.28205108, 4140.76923056, 4152.17948697, 4127.17948691, 4135.89743569, 4150.64102544, 4163.46153826, 4171.41025628, 4153.46153826, 4130.38461511,10.0
4169.35897422, 4178.71794858, 4177.05128192, 4168.20512807, 4162.43589723, 4159.74358954, 4170.25641012, 4134.61538434, 4147.05128185, 4160.89743569, 4178.07692294, 4190.51282038, 4159.74358954, 4130.89743562,10.0
4164.35897415, 4170.25641012, 4171.28205115, 4164.87179467, 4159.61538441, 4145.38461518, 4152.69230749, 4128.84615357, 4136.41025621, 4149.35897415, 4166.02564082, 4179.48717935, 4154.87179467, 4133.20512793,10.0
4151.28205108, 4158.46153826, 4164.61538441, 4157.94871774, 4153.33333313, 4128.20512793, 4131.79487152, 4119.48717921, 4122.94871767, 4145.25641005, 4157.43589723, 4167.30769210, 4157.05128185, 4132.56410229,10.0
4151.28205108, 4158.46153826, 4164.61538441, 4157.94871774, 4153.33333313, 4128.20512793, 4131.79487152, 4119.48717921, 4122.94871767, 4145.25641005, 4157.43589723, 4167.30769210, 4157.05128185, 4132.56410229,10.0
4150.12820492, 4157.17948697, 4161.79487159, 4154.10256390, 4146.53846133, 4133.71794844, 4139.99999980, 4117.82051255, 4127.43589716, 4151.92307672, 4161.15384595, 4165.12820492, 4157.30769210, 4129.48717921,10.0
4158.71794851, 4158.07692287, 4163.07692287, 4158.33333313, 4150.25641005, 4141.92307672, 4153.33333313, 4125.64102537, 4138.07692287, 4156.53846133, 4165.51282031, 4170.25641012, 4157.30769210, 4132.69230742,10.0
4156.53846133, 4158.07692287, 4165.12820492, 4162.56410236, 4146.79487159, 4134.74358947, 4141.53846133, 4126.41025614, 4136.15384595, 4153.71794851, 4162.05128185, 4173.71794858, 4158.58974339, 4133.84615357,10.0
4146.66666646, 4153.46153826, 4158.46153826, 4154.99999980, 4126.66666639, 4125.76923050, 4125.12820485, 4116.53846126, 4126.41025614, 4142.30769210, 4150.89743569, 4163.71794851, 4151.66666646, 4131.15384588,10.0
4146.15384595, 4148.20512800, 4150.76923056, 4151.41025621, 4125.38461511, 4127.05128178, 4125.89743562, 4111.53846126, 4122.43589716, 4135.76923056, 4141.15384595, 4152.05128185, 4144.99999980, 4131.53846126,10.0
4152.17948697, 4151.53846133, 4154.48717928, 4161.53846133, 4153.07692287, 4128.58974332, 4132.82051255, 4115.38461511, 4123.71794844, 4141.92307672, 4144.35897415, 4152.69230749, 4145.89743569, 4131.66666639,10.0
4156.66666646, 4158.97435877, 4160.38461518, 4169.99999986, 4168.84615371, 4129.35897408, 4137.43589723, 4125.51282024, 4132.05128178, 4151.92307672, 4158.97435877, 4161.28205108, 4150.38461518, 4128.33333306,10.0
4152.56410236, 4156.28205108, 4156.41025621, 4161.79487159, 4153.46153826, 4133.33333306, 4133.58974332, 4121.02564075, 4130.51282024, 4147.82051262, 4160.89743569, 4160.89743569, 4150.76923056, 4127.05128178,10.0
4149.61538441, 4151.66666646, 4153.46153826, 4152.30769210, 4139.99999980, 4137.56410236, 4132.30769203, 4110.12820485, 4120.38461511, 4138.58974339, 4148.20512800, 4155.12820492, 4149.61538441, 4133.84615357,10.0
4157.56410236, 4156.28205108, 4159.61538441, 4156.28205108, 4151.41025621, 4133.20512793, 4138.46153826, 4116.53846126, 4122.56410229, 4145.64102544, 4152.94871774, 4158.84615364, 4153.71794851, 4138.07692287,10.0
4155.51282031, 4156.79487159, 4158.07692287, 4157.94871774, 4157.56410236, 4125.38461511, 4132.69230742, 4112.56410229, 4118.07692280, 4147.05128185, 4161.41025621, 4158.20512800, 4151.15384595, 4132.69230742,10.0
4138.46153826, 4146.41025621, 4139.87179467, 4150.12820492, 4139.74358954, 4125.76923050, 4117.69230742, 4098.33333299, 4107.43589716, 4132.17948691, 4149.87179467, 4143.97435877, 4139.99999980, 4129.87179460,10.0
4136.53846133, 4142.30769210, 4136.53846133, 4150.89743569, 4135.38461518, 4131.66666639, 4121.79487152, 4111.02564075, 4118.07692280, 4134.74358947, 4145.76923056, 4141.15384595, 4142.82051262, 4134.35897408,10.0
4143.84615364, 4147.30769210, 4152.43589723, 4157.05128185, 4141.02564082, 4131.15384588, 4130.51282024, 4122.82051255, 4128.58974332, 4143.46153826, 4155.12820492, 4153.46153826, 4151.92307672, 4135.64102544,10.0
4140.51282031, 4148.84615364, 4154.87179467, 4154.87179467, 4134.48717921, 4123.84615357, 4130.38461511, 4114.23076896, 4120.38461511, 4133.33333306, 4153.58974339, 4154.35897415, 4147.05128185, 4131.53846126,10.0
4147.56410236, 4153.33333313, 4151.66666646, 4158.97435877, 4144.35897415, 4125.64102537, 4141.28205108, 4124.87179460, 4122.30769203, 4133.71794844, 4151.53846133, 4151.02564082, 4144.23076903, 4133.20512793,10.0
4162.82051262, 4160.25641005, 4159.99999980, 4169.74358961, 4162.30769210, 4135.64102544, 4143.71794851, 4135.76923056, 4129.48717921, 4150.76923056, 4161.79487159, 4160.38461518, 4152.30769210, 4138.71794851,10.0
4152.05128185, 4149.74358954, 4155.76923056, 4158.84615364, 4141.15384595, 4134.87179460, 4125.38461511, 4117.30769203, 4117.30769203, 4145.12820492, 4158.58974339, 4159.74358954, 4148.46153826, 4134.10256383,10.0
4130.89743562, 4136.53846133, 4140.89743569, 4142.69230749, 4115.64102537, 4127.30769203, 4123.97435870, 4105.89743562, 4108.07692280, 4126.79487152, 4143.71794851, 4145.25641005, 4137.43589723, 4128.58974332,10.0
4135.12820485, 4143.97435877, 4146.92307672, 4151.15384595, 4133.71794844, 4129.35897408, 4133.84615357, 4111.53846126, 4112.82051255, 4132.94871767, 4149.99999980, 4147.94871774, 4142.17948697, 4131.92307665,10.0
4143.46153826, 4150.51282031, 4153.33333313, 4156.41025621, 4152.69230749, 4129.74358947, 4122.94871767, 4107.69230742, 4114.99999973, 4141.02564082, 4158.71794851, 4156.53846133, 4148.58974339, 4134.10256383,10.0
4127.69230742, 4136.92307672, 4135.89743569, 4140.51282031, 4137.43589723, 4116.15384588, 4106.79487152, 4097.17948684, 4105.89743562, 4128.07692280, 4142.82051262, 4144.35897415, 4137.56410236, 4132.56410229,10.0
4111.53846126, 4126.79487152, 4126.15384588, 4132.56410229, 4119.74358947, 4103.84615357, 4102.56410229, 4092.17948684, 4094.35897402, 4115.38461511, 4129.35897408, 4132.43589716, 4124.48717921, 4132.56410229,10.0
4122.69230742, 4134.74358947, 4143.20512800, 4141.28205108, 4124.61538434, 4112.56410229, 4107.69230742, 4096.15384581, 4097.30769196, 4121.79487152, 4143.20512800, 4143.97435877, 4131.53846126, 4134.35897408,10.0
4141.92307672, 4150.25641005, 4165.51282031, 4157.30769210, 4142.05128185, 4133.20512793, 4128.20512793, 4111.28205101, 4118.07692280, 4141.41025621, 4167.05128185, 4169.48717935, 4153.07692287, 4134.61538434,10.0
4146.02564082, 4156.15384595, 4173.20512807, 4170.12820499, 4146.41025621, 4137.17948697, 4138.58974339, 4117.05128178, 4133.58974332, 4152.94871774, 4176.92307679, 4181.79487166, 4159.23076903, 4127.69230742,10.0
4146.28205108, 4151.02564082, 4166.79487159, 4166.02564082, 4134.23076896, 4126.15384588, 4128.71794844, 4106.79487152, 4123.20512793, 4139.23076903, 4168.07692287, 4174.23076910, 4146.41025621, 4127.43589716,10.0
4158.33333313, 4154.74358954, 4171.41025628, 4160.38461518, 4137.69230749, 4130.25640998, 4137.69230749, 4112.30769203, 4113.71794844, 4130.12820485, 4163.84615364, 4178.71794858, 4147.82051262, 4134.61538434,10.0
4174.61538448, 4168.58974345, 4192.69230756, 4171.92307679, 4159.35897415, 4148.07692287, 4165.64102544, 4138.33333313, 4131.66666639, 4150.25641005, 4176.02564089, 4203.20512814, 4165.64102544, 4131.41025614,10.0
4174.10256397, 4163.84615364, 4189.61538448, 4171.28205115, 4156.28205108, 4145.12820492, 4162.17948697, 4140.89743569, 4142.69230749, 4156.28205108, 4174.35897422, 4199.61538448, 4163.46153826, 4127.56410229,10.0
4162.17948697, 4150.38461518, 4169.10256397, 4153.07692287, 4136.53846133, 4129.10256383, 4136.28205108, 4126.92307665, 4137.17948697, 4146.92307672, 4158.97435877, 4172.43589730, 4151.41025621, 4131.28205101,10.0
4164.61538441, 4160.25641005, 4169.87179474, 4154.35897415, 4145.25641005, 4131.79487152, 4136.15384595, 4131.53846126, 4141.92307672, 4158.97435877, 4162.17948697, 4170.89743576, 4157.94871774, 4134.23076896,10.0
4170.25641012, 4169.10256397, 4172.17948704, 4163.20512800, 4164.87179467, 4138.20512800, 4144.35897415, 4130.25640998, 4140.25641005, 4162.56410236, 4168.07692287, 4175.76923063, 4157.30769210, 4132.94871767,10.0
4147.43589723, 4151.02564082, 4151.28205108, 4148.33333313, 4143.07692287, 4129.48717921, 4130.12820485, 4105.76923050, 4110.12820485, 4133.71794844, 4149.35897415, 4157.43589723, 4135.51282031, 4128.97435870,10.0
4122.56410229, 4138.20512800, 4134.35897408, 4134.35897408, 4111.28205101, 4120.76923050, 4115.51282024, 4092.17948684, 4088.84615350, 4113.97435870, 4132.17948691, 4140.51282031, 4122.43589716, 4128.97435870,10.0
4122.56410229, 4138.20512800, 4134.35897408, 4134.35897408, 4111.28205101, 4120.76923050, 4115.51282024, 4092.17948684, 4088.84615350, 4113.97435870, 4132.17948691, 4140.51282031, 4122.43589716, 4128.97435870,10.0
4125.12820485, 4143.84615364, 4136.66666646, 4139.48717928, 4123.58974332, 4115.89743562, 4112.82051255, 4099.99999966, 4097.30769196, 4119.10256383, 4136.66666646, 4138.71794851, 4123.84615357, 4131.53846126,10.0
4126.28205101, 4140.38461518, 4138.33333313, 4139.48717928, 4142.69230749, 4107.30769203, 4107.69230742, 4103.58974332, 4104.74358947, 4118.71794844, 4139.99999980, 4137.43589723, 4122.05128178, 4129.74358947,10.0
4119.48717921, 4131.28205101, 4142.05128185, 4134.23076896, 4132.05128178, 4114.10256383, 4124.74358947, 4106.15384588, 4104.35897408, 4113.97435870, 4136.66666646, 4140.64102544, 4121.53846126, 4128.20512793,10.0
4130.51282024, 4138.84615364, 4154.61538441, 4140.64102544, 4125.64102537, 4134.35897408, 4158.71794851, 4118.97435870, 4113.71794844, 4125.51282024, 4147.05128185, 4152.69230749, 4133.33333306, 4130.38461511,10.0
4141.92307672, 4138.84615364, 4155.64102544, 4143.97435877, 4126.28205101, 4129.10256383, 4152.82051262, 4129.23076896, 4130.76923050, 4141.28205108, 4159.35897415, 4159.35897415, 4143.33333313, 4129.10256383,10.0
4139.10256390, 4124.48717921, 4148.46153826, 4135.12820485, 4114.23076896, 4118.71794844, 4134.87179460, 4130.76923050, 4135.25640998, 4142.94871774, 4158.46153826, 4162.94871774, 4142.43589723, 4128.20512793,10.0
4144.99999980, 4131.02564075, 4151.53846133, 4134.10256383, 4117.56410229, 4129.35897408, 4147.05128185, 4122.69230742, 4124.48717921, 4136.53846133, 4156.02564082, 4166.02564082, 4139.35897415, 4131.92307665,10.0
4152.43589723, 4148.07692287, 4150.12820492, 4140.76923056, 4138.71794851, 4130.89743562, 4147.30769210, 4117.05128178, 4120.38461511, 4139.35897415, 4152.30769210, 4159.87179467, 4137.43589723, 4133.07692280,10.0
4143.33333313, 4145.64102544, 4137.69230749, 4139.87179467, 4142.82051262, 4120.89743562, 4125.89743562, 4121.15384588, 4129.10256383, 4145.76923056, 4143.97435877, 4152.43589723, 4136.41025621, 4131.53846126,10.0
4134.10256383, 4137.43589723, 4136.02564082, 4136.28205108, 4137.82051262, 4124.10256383, 4125.12820485, 4120.64102537, 4128.84615357, 4139.35897415, 4140.25641005, 4153.84615364, 4134.61538434, 4130.64102537,10.0
4135.64102544, 4140.89743569, 4141.28205108, 4138.84615364, 4133.58974332, 4123.58974332, 4130.25640998, 4109.23076896, 4119.99999973, 4129.23076896, 4141.28205108, 4154.87179467, 4129.74358947, 4130.12820485,10.0
4137.56410236, 4143.20512800, 4140.64102544, 4138.33333313, 4129.61538434, 4112.69230742, 4119.87179460, 4102.43589709, 4117.30769203, 4130.89743562, 4138.33333313, 4152.17948697, 4123.71794844, 4130.51282024,10.0
4134.99999973, 4141.66666646, 4143.71794851, 4135.12820485, 4133.33333306, 4119.87179460, 4123.46153819, 4104.74358947, 4120.25640998, 4129.35897408, 4133.20512793, 4151.66666646, 4123.07692280, 4130.12820485,10.0
4140.12820492, 4148.33333313, 4152.82051262, 4145.25641005, 4141.15384595, 4134.61538434, 4136.41025621, 4108.58974332, 4120.64102537, 4130.64102537, 4141.15384595, 4160.25641005, 4133.07692280, 4126.28205101,10.0
4152.05128185, 4152.82051262, 4159.61538441, 4152.30769210, 4139.74358954, 4123.46153819, 4132.69230742, 4112.17948691, 4121.41025614, 4143.97435877, 4157.94871774, 4170.76923063, 4144.87179467, 4129.35897408,10.0
4157.94871774, 4153.71794851, 4166.66666646, 4145.12820492, 4127.17948691, 4119.99999973, 4138.46153826, 4119.74358947, 4131.66666639, 4147.94871774, 4164.35897415, 4174.99999986, 4152.17948697, 4135.89743569,10.0
4156.53846133, 4156.15384595, 4170.38461525, 4142.82051262, 4121.41025614, 4138.33333313, 4160.25641005, 4127.43589716, 4143.07692287, 4145.64102544, 4165.38461518, 4178.58974345, 4156.02564082, 4133.84615357,10.0
4151.02564082, 4153.84615364, 4162.43589723, 4146.15384595, 4130.12820485, 4138.84615364, 4156.02564082, 4129.87179460, 4143.97435877, 4151.53846133, 4166.92307672, 4174.61538448, 4153.46153826, 4131.53846126,10.0
4138.84615364, 4143.20512800, 4149.35897415, 4139.99999980, 4136.02564082, 4119.35897408, 4129.23076896, 4122.94871767, 4133.20512793, 4146.02564082, 4154.87179467, 4158.20512800, 4140.76923056, 4131.15384588,10.0
4129.23076896, 4136.02564082, 4140.38461518, 4133.33333306, 4130.64102537, 4113.71794844, 4120.76923050, 4114.61538434, 4120.51282024, 4130.12820485, 4139.74358954, 4146.79487159, 4127.05128178, 4131.02564075,10.0
4134.23076896, 4141.02564082, 4140.38461518, 4137.69230749, 4128.07692280, 4124.48717921, 4128.07692280, 4110.89743562, 4118.97435870, 4130.38461511, 4142.30769210, 4151.79487159, 4125.12820485, 4131.53846126,10.0
4136.79487159, 4143.71794851, 4139.99999980, 4136.79487159, 4135.76923056, 4126.92307665, 4125.89743562, 4109.74358947, 4124.48717921, 4136.41025621, 4145.76923056, 4152.69230749, 4129.74358947, 4130.64102537,10.0
4128.33333306, 4138.33333313, 4134.61538434, 4128.07692280, 4135.64102544, 4125.64102537, 4125.64102537, 4112.43589716, 4123.84615357, 4131.02564075, 4139.61538441, 4144.35897415, 4129.48717921, 4132.43589716,10.0
4119.74358947, 4128.58974332, 4130.76923050, 4121.92307665, 4120.64102537, 4123.97435870, 4121.41025614, 4105.76923050, 4111.28205101, 4122.82051255, 4133.84615357, 4137.17948697, 4122.56410229, 4133.20512793,10.0
4119.61538434, 4123.97435870, 4130.64102537, 4122.69230742, 4115.38461511, 4121.79487152, 4114.87179460, 4102.05128171, 4110.38461511, 4123.20512793, 4132.56410229, 4136.53846133, 4121.92307665, 4130.89743562,10.0
4127.05128178, 4127.82051255, 4132.30769203, 4129.61538434, 4118.46153819, 4123.07692280, 4127.56410229, 4119.74358947, 4128.07692280, 4132.94871767, 4135.64102544, 4144.23076903, 4129.35897408, 4130.89743562,10.0
4129.10256383, 4130.76923050, 4134.87179460, 4135.51282031, 4112.69230742, 4125.76923050, 4139.87179467, 4127.17948691, 4139.23076903, 4138.20512800, 4140.89743569, 4148.46153826, 4131.15384588, 4131.66666639,10.0
4131.28205101, 4139.99999980, 4142.43589723, 4143.33333313, 4120.12820485, 4142.69230749, 4146.92307672, 4122.17948691, 4142.30769210, 4143.07692287, 4150.12820492, 4153.71794851, 4132.94871767, 4133.46153819,10.0
4132.30769203, 4145.12820492, 4141.02564082, 4146.53846133, 4145.51282031, 4144.99999980, 4146.79487159, 4119.87179460, 4141.53846133, 4148.58974339, 4151.28205108, 4155.89743569, 4135.25640998, 4128.97435870,10.0
4118.20512793, 4130.38461511, 4122.05128178, 4135.25640998, 4140.76923056, 4118.84615357, 4121.02564075, 4106.66666639, 4124.10256383, 4134.23076896, 4131.15384588, 4137.69230749, 4122.69230742, 4125.25640998,10.0
4104.23076896, 4113.46153819, 4106.92307665, 4118.97435870, 4113.97435870, 4102.56410229, 4098.33333299, 4096.02564068, 4109.23076896, 4108.97435870, 4112.82051255, 4120.25640998, 4107.56410229, 4132.56410229,10.0
4113.07692280, 4120.76923050, 4113.84615357, 4118.58974332, 4115.25640998, 4113.46153819, 4113.33333306, 4107.43589716, 4120.38461511, 4109.10256383, 4120.89743562, 4134.35897408, 4112.82051255, 4136.02564082,10.0
4125.64102537, 4137.56410236, 4127.69230742, 4131.79487152, 4129.35897408, 4124.99999973, 4131.79487152, 4112.43589716, 4125.38461511, 4125.12820485, 4131.41025614, 4153.33333313, 4123.84615357, 4131.02564075,10.0
4126.41025614, 4142.56410236, 4132.69230742, 4139.10256390, 4133.84615357, 4126.53846126, 4127.69230742, 4106.28205101, 4119.23076896, 4129.87179460, 4133.71794844, 4152.43589723, 4127.17948691, 4131.15384588,10.0
4141.28205108, 4146.41025621, 4145.76923056, 4142.43589723, 4138.20512800, 4132.82051255, 4139.23076903, 4118.58974332, 4132.94871767, 4139.10256390, 4146.92307672, 4161.53846133, 4137.05128185, 4132.43589716,10.0
4157.05128185, 4149.10256390, 4157.17948697, 4143.97435877, 4136.41025621, 4132.43589716, 4149.74358954, 4129.87179460, 4146.66666646, 4149.48717928, 4157.82051262, 4175.38461525, 4145.76923056, 4126.28205101,10.0
4152.43589723, 4149.61538441, 4152.05128185, 4145.51282031, 4134.61538434, 4128.20512793, 4139.87179467, 4118.07692280, 4134.61538434, 4142.17948697, 4151.41025621, 4169.61538448, 4137.43589723, 4128.20512793,10.0
4152.69230749, 4156.92307672, 4153.71794851, 4151.41025621, 4146.02564082, 4136.79487159, 4149.48717928, 4120.51282024, 4135.12820485, 4141.41025621, 4150.76923056, 4168.58974345, 4136.79487159, 4137.56410236,10.0
4153.07692287, 4153.46153826, 4157.82051262, 4148.97435877, 4147.17948697, 4136.79487159, 4157.69230749, 4139.35897415, 4154.35897415, 4151.53846133, 4156.15384595, 4171.79487166, 4146.66666646, 4134.99999973,10.0
4136.28205108, 4136.02564082, 4144.48717928, 4132.17948691, 4130.38461511, 4125.76923050, 4139.61538441, 4127.94871767, 4144.35897415, 4141.79487159, 4148.33333313, 4159.10256390, 4136.28205108, 4128.33333306,10.0
4128.20512793, 4132.30769203, 4134.23076896, 4123.20512793, 4128.71794844, 4128.33333306, 4134.74358947, 4100.89743555, 4115.51282024, 4126.41025614, 4135.38461518, 4150.25641005, 4119.23076896, 4131.53846126,10.0
4140.89743569, 4146.02564082, 4143.33333313, 4135.25640998, 4139.23076903, 4137.69230749, 4148.20512800, 4112.56410229, 4118.07692280, 4134.10256383, 4138.71794851, 4157.05128185, 4123.84615357, 4137.43589723,10.0
4142.56410236, 4147.94871774, 4146.28205108, 4143.84615364, 4133.71794844, 4127.43589716, 4140.51282031, 4132.69230742, 4138.20512800, 4140.64102544, 4150.76923056, 4158.58974339, 4134.48717921, 4135.76923056,10.0
4130.12820485, 4135.12820485, 4137.05128185, 4132.69230742, 4123.20512793, 4117.17948691, 4121.66666639, 4114.10256383, 4132.94871767, 4132.56410229, 4144.48717928, 4151.66666646, 4130.12820485, 4131.53846126,10.0
4128.33333306, 4130.51282024, 4134.74358947, 4126.66666639, 4122.43589716, 4126.66666639, 4127.94871767, 4106.02564075, 4125.76923050, 4130.64102537, 4131.79487152, 4151.53846133, 4124.99999973, 4130.89743562,10.0
4134.99999973, 4137.69230749, 4139.23076903, 4135.76923056, 4127.56410229, 4130.76923050, 4140.51282031, 4126.41025614, 4137.82051262, 4135.25640998, 4134.35897408, 4152.82051262, 4127.17948691, 4132.69230742,10.0
4141.02564082, 4145.25641005, 4145.51282031, 4142.05128185, 4140.25641005, 4126.02564075, 4136.66666646, 4123.20512793, 4137.17948697, 4137.94871774, 4140.76923056, 4153.84615364, 4130.25640998, 4132.30769203,10.0
4145.89743569, 4147.94871774, 4151.53846133, 4143.46153826, 4147.56410236, 4128.71794844, 4128.58974332, 4106.28205101, 4127.82051255, 4142.05128185, 4146.28205108, 4159.99999980, 4136.28205108, 4129.99999973,10.0
4153.58974339, 4158.20512800, 4159.48717928, 4151.28205108, 4150.12820492, 4143.07692287, 4147.17948697, 4119.61538434, 4139.74358954, 4152.17948697, 4162.17948697, 4174.48717935, 4147.30769210, 4131.02564075,10.0
4159.74358954, 4173.07692294, 4171.41025628, 4161.92307672, 4167.43589723, 4155.51282031, 4173.97435884, 4138.07692287, 4155.89743569, 4161.66666646, 4178.33333320, 4189.23076910, 4154.48717928, 4133.07692280,10.0
4153.46153826, 4167.56410236, 4170.89743576, 4158.07692287, 4171.41025628, 4147.69230749, 4159.87179467, 4126.15384588, 4142.82051262, 4156.92307672, 4171.66666653, 4181.41025628, 4148.97435877, 4132.82051255,10.0
4143.97435877, 4152.69230749, 4154.99999980, 4143.84615364, 4148.07692287, 4132.17948691, 4135.89743569, 4116.66666639, 4129.61538434, 4144.23076903, 4157.56410236, 4164.48717928, 4139.35897415, 4132.43589716,10.0
4146.53846133, 4152.94871774, 4148.97435877, 4137.82051262, 4143.84615364, 4131.53846126, 4140.51282031, 4125.38461511, 4141.66666646, 4144.35897415, 4154.23076903, 4164.23076903, 4138.46153826, 4132.56410229,10.0
4156.28205108, 4160.12820492, 4164.61538441, 4143.84615364, 4159.23076903, 4138.84615364, 4151.28205108, 4131.79487152, 4156.15384595, 4158.46153826, 4160.89743569, 4172.69230756, 4146.15384595, 4131.28205101,10.0
4155.25641005, 4154.61538441, 4168.46153833, 4145.25641005, 4147.30769210, 4138.33333313, 4152.17948697, 4134.23076896, 4156.79487159, 4159.61538441, 4163.84615364, 4171.53846140, 4145.38461518, 4129.23076896,10.0
4147.56410236, 4145.38461518, 4153.84615364, 4135.25640998, 4132.05128178, 4141.28205108, 4156.79487159, 4137.43589723, 4152.56410236, 4146.28205108, 4150.89743569, 4166.15384595, 4134.99999973, 4129.87179460,10.0
4154.74358954, 4151.66666646, 4157.43589723, 4138.07692287, 4151.41025621, 4150.25641005, 4166.15384595, 4141.28205108, 4161.15384595, 4149.74358954, 4149.10256390, 4171.02564089, 4139.10256390, 4132.05128178,10.0
4167.94871774, 4163.97435877, 4173.33333320, 4149.87179467, 4170.64102551, 4148.71794851, 4165.38461518, 4144.61538441, 4173.20512807, 4163.58974339, 4166.41025621, 4178.46153833, 4150.38461518, 4131.66666639,10.0
4170.89743576, 4166.53846133, 4171.66666653, 4152.43589723, 4170.64102551, 4150.76923056, 4171.15384602, 4147.43589723, 4170.38461525, 4164.61538441, 4171.92307679, 4183.58974345, 4148.71794851, 4130.25640998,10.0
4176.02564089, 4167.94871774, 4172.69230756, 4157.82051262, 4172.69230756, 4164.61538441, 4180.51282038, 4152.43589723, 4168.46153833, 4170.12820499, 4169.10256397, 4189.10256397, 4148.58974339, 4129.23076896,10.0
4183.33333320, 4174.61538448, 4189.87179474, 4168.07692287, 4176.79487166, 4161.02564082, 4167.43589723, 4158.58974339, 4179.87179474, 4185.89743576, 4178.58974345, 4193.33333320, 4157.43589723, 4131.53846126,10.0
4176.02564089, 4174.10256397, 4188.84615371, 4163.33333313, 4169.10256397, 4139.35897415, 4143.58974339, 4142.43589723, 4171.02564089, 4176.28205115, 4182.17948704, 4190.76923063, 4152.30769210, 4134.10256383,10.0
4162.69230749, 4163.46153826, 4171.02564089, 4152.05128185, 4159.48717928, 4130.51282024, 4134.87179460, 4115.38461511, 4144.23076903, 4153.20512800, 4172.56410243, 4181.53846140, 4142.56410236, 4130.25640998,10.0
4161.02564082, 4157.56410236, 4166.79487159, 4151.79487159, 4154.35897415, 4138.46153826, 4136.79487159, 4115.76923050, 4141.79487159, 4150.76923056, 4167.69230749, 4173.20512807, 4144.48717928, 4128.97435870,10.0
4162.56410236, 4158.46153826, 4169.74358961, 4149.61538441, 4153.71794851, 4141.15384595, 4137.30769210, 4128.97435870, 4154.74358954, 4156.53846133, 4162.05128185, 4169.10256397, 4142.43589723, 4130.76923050,10.0
4161.02564082, 4156.53846133, 4165.76923056, 4142.56410236, 4154.74358954, 4136.79487159, 4143.97435877, 4132.94871767, 4161.92307672, 4160.25641005, 4159.74358954, 4171.92307679, 4138.46153826, 4130.89743562,10.0
4156.28205108, 4149.10256390, 4159.10256390, 4140.64102544, 4147.43589723, 4139.61538441, 4151.66666646, 4137.56410236, 4163.97435877, 4163.20512800, 4163.97435877, 4168.20512807, 4141.92307672, 4131.79487152,10.0
4146.15384595, 4143.46153826, 4152.43589723, 4136.53846133, 4144.48717928, 4140.89743569, 4150.76923056, 4147.56410236, 4161.15384595, 4160.64102544, 4157.05128185, 4154.10256390, 4141.15384595, 4134.48717921,10.0
4146.41025621, 4146.28205108, 4151.79487159, 4137.43589723, 4159.74358954, 4145.51282031, 4158.20512800, 4146.79487159, 4157.43589723, 4159.23076903, 4155.51282031, 4155.89743569, 4137.17948697, 4132.30769203,10.0
4160.12820492, 4157.94871774, 4159.10256390, 4151.02564082, 4179.61538448, 4156.79487159, 4178.97435884, 4147.82051262, 4163.46153826, 4165.89743569, 4169.61538448, 4172.30769217, 4141.66666646, 4124.99999973,10.0
4168.20512807, 4166.66666646, 4163.46153826, 4157.05128185, 4181.53846140, 4154.87179467, 4185.38461525, 4164.87179467, 4178.46153833, 4171.79487166, 4170.76923063, 4175.38461525, 4146.53846133, 4126.66666639,10.0
4152.69230749, 4151.53846133, 4151.66666646, 4144.61538441, 4154.87179467, 4134.23076896, 4144.61538441, 4148.07692287, 4166.66666646, 4158.58974339, 4150.25641005, 4157.30769210, 4134.87179460, 4132.94871767,10.0
4129.35897408, 4131.41025614, 4135.51282031, 4135.25640998, 4129.48717921, 4121.41025614, 4104.23076896, 4107.82051255, 4130.89743562, 4136.28205108, 4137.82051262, 4143.71794851, 4117.17948691, 4128.71794844,10.0
4128.84615357, 4140.64102544, 4138.07692287, 4141.53846133, 4139.48717928, 4130.38461511, 4113.20512793, 4111.15384588, 4122.17948691, 4133.20512793, 4144.74358954, 4150.89743569, 4117.69230742, 4126.53846126,10.0
4138.33333313, 4152.30769210, 4143.58974339, 4143.46153826, 4154.23076903, 4134.23076896, 4127.30769203, 4127.17948691, 4137.43589723, 4140.76923056, 4148.71794851, 4157.82051262, 4126.28205101, 4131.66666639,10.0
4138.07692287, 4143.07692287, 4136.92307672, 4135.64102544, 4149.61538441, 4128.07692280, 4119.10256383, 4114.23076896, 4134.35897408, 4134.99999973, 4142.69230749, 4149.10256390, 4122.56410229, 4132.82051255,10.0
4142.43589723, 4145.25641005, 4142.43589723, 4139.10256390, 4147.82051262, 4132.30769203, 4125.64102537, 4118.58974332, 4136.02564082, 4138.20512800, 4145.89743569, 4152.17948697, 4123.97435870, 4130.25640998,10.0
4147.17948697, 4155.89743569, 4155.76923056, 4146.15384595, 4145.12820492, 4141.92307672, 4145.12820492, 4145.25641005, 4157.30769210, 4154.48717928, 4156.15384595, 4167.30769210, 4135.12820485, 4127.56410229,10.0
4143.84615364, 4146.79487159, 4153.46153826, 4138.58974339, 4143.71794851, 4141.92307672, 4149.61538441, 4144.99999980, 4158.84615364, 4154.10256390, 4158.58974339, 4164.10256390, 4138.33333313, 4128.46153819,10.0
4156.28205108, 4145.51282031, 4157.94871774, 4140.64102544, 4161.66666646, 4142.30769210, 4157.05128185, 4143.20512800, 4155.51282031, 4156.79487159, 4165.76923056, 4163.71794851, 4140.89743569, 4133.33333306,10.0
4173.20512807, 4159.99999980, 4176.41025628, 4157.69230749, 4171.41025628, 4149.99999980, 4169.35897422, 4159.74358954, 4171.41025628, 4171.79487166, 4178.07692294, 4178.84615371, 4144.35897415, 4131.92307665,10.0
4163.84615364, 4153.58974339, 4169.87179474, 4154.48717928, 4150.64102544, 4144.61538441, 4156.66666646, 4161.28205108, 4171.28205115, 4166.53846133, 4171.79487166, 4177.43589730, 4138.07692287, 4128.46153819,10.0
4151.66666646, 4137.43589723, 4154.35897415, 4142.05128185, 4138.71794851, 4136.66666646, 4139.23076903, 4147.30769210, 4151.92307672, 4153.71794851, 4157.30769210, 4164.10256390, 4133.58974332, 4131.41025614,10.0
4161.79487159, 4146.53846133, 4164.74358954, 4151.53846133, 4154.87179467, 4144.74358954, 4147.69230749, 4140.25641005, 4142.56410236, 4159.10256390, 4159.23076903, 4168.84615371, 4136.02564082, 4134.61538434,10.0
4166.53846133, 4157.69230749, 4174.61538448, 4159.87179467, 4158.46153826, 4146.53846133, 4149.87179467, 4134.87179460, 4131.53846126, 4158.58974339, 4166.28205108, 4177.56410243, 4132.82051255, 4132.17948691,10.0
4158.20512800, 4151.28205108, 4169.99999986, 4152.69230749, 4149.48717928, 4136.41025621, 4130.76923050, 4129.35897408, 4128.20512793, 4148.20512800, 4167.69230749, 4177.05128192, 4132.43589716, 4130.76923050,10.0
4162.94871774, 4151.53846133, 4173.20512807, 4152.94871774, 4153.84615364, 4136.79487159, 4131.28205101, 4138.84615364, 4152.69230749, 4158.71794851, 4172.94871781, 4183.07692294, 4143.97435877, 4132.82051255,10.0
4171.02564089, 4159.23076903, 4177.94871781, 4157.30769210, 4158.58974339, 4145.76923056, 4151.92307672, 4144.61538441, 4161.79487159, 4173.46153833, 4178.71794858, 4188.71794858, 4151.41025621, 4132.82051255,10.0
4163.20512800, 4156.02564082, 4172.94871781, 4152.17948697, 4156.41025621, 4146.28205108, 4156.79487159, 4133.07692280, 4146.28205108, 4168.71794858, 4173.84615371, 4179.87179474, 4145.76923056, 4131.02564075,10.0
4155.51282031, 4150.51282031, 4168.33333320, 4145.25641005, 4163.20512800, 4140.76923056, 4153.46153826, 4133.33333306, 4144.87179467, 4159.87179467, 4166.79487159, 4168.97435884, 4141.92307672, 4129.61538434,10.0
4157.43589723, 4151.41025621, 4169.48717935, 4142.82051262, 4164.48717928, 4137.69230749, 4149.48717928, 4144.74358954, 4155.89743569, 4158.46153826, 4170.25641012, 4169.10256397, 4147.05128185, 4130.89743562,10.0
4158.71794851, 4152.94871774, 4173.46153833, 4142.82051262, 4153.07692287, 4136.02564082, 4142.69230749, 4146.66666646, 4163.58974339, 4163.20512800, 4177.05128192, 4173.71794858, 4151.28205108, 4135.51282031,10.0
4152.30769210, 4147.69230749, 4168.97435884, 4141.79487159, 4147.82051262, 4130.64102537, 4142.69230749, 4145.76923056, 4165.64102544, 4170.51282038, 4173.58974345, 4172.30769217, 4148.46153826, 4134.23076896,10.0
4140.89743569, 4137.43589723, 4153.46153826, 4136.41025621, 4141.02564082, 4122.43589716, 4138.07692287, 4138.07692287, 4152.05128185, 4160.89743569, 4156.28205108, 4160.76923056, 4136.66666646, 4131.15384588,10.0
4143.07692287, 4137.05128185, 4153.71794851, 4136.53846133, 4136.41025621, 4127.82051255, 4131.92307665, 4128.97435870, 4141.15384595, 4147.43589723, 4148.84615364, 4156.79487159, 4129.48717921, 4135.89743569,10.0
4154.48717928, 4144.87179467, 4167.17948697, 4143.58974339, 4144.74358954, 4140.38461518, 4143.58974339, 4139.99999980, 4153.07692287, 4153.84615364, 4157.17948697, 4166.15384595, 4134.87179460, 4135.76923056,10.0
4150.12820492, 4144.74358954, 4162.56410236, 4144.61538441, 4150.12820492, 4138.84615364, 4159.99999980, 4152.56410236, 4158.07692287, 4158.33333313, 4156.92307672, 4166.15384595, 4133.58974332, 4130.89743562,10.0
4136.79487159, 4134.35897408, 4143.84615364, 4139.87179467, 4136.79487159, 4127.43589716, 4144.48717928, 4138.33333313, 4147.82051262, 4146.28205108, 4147.05128185, 4153.97435877, 4126.15384588, 4131.28205101,10.0
4134.23076896, 4128.97435870, 4135.38461518, 4135.76923056, 4123.58974332, 4125.76923050, 4119.61538434, 4117.94871767, 4140.51282031, 4137.82051262, 4143.58974339, 4151.15384595, 4127.43589716, 4133.33333306,10.0
4141.41025621, 4136.92307672, 4144.74358954, 4140.89743569, 4138.07692287, 4137.17948697, 4136.28205108, 4129.10256383, 4146.53846133, 4138.84615364, 4148.33333313, 4161.15384595, 4134.23076896, 4132.69230742,10.0
4146.15384595, 4147.82051262, 4158.33333313, 4152.43589723, 4157.05128185, 4136.02564082, 4152.43589723, 4146.53846133, 4159.23076903, 4143.71794851, 4155.12820492, 4169.35897422, 4137.94871774, 4131.02564075,10.0
4145.64102544, 4148.84615364, 4159.74358954, 4152.94871774, 4154.23076903, 4122.94871767, 4131.79487152, 4136.02564082, 4153.20512800, 4148.58974339, 4158.07692287, 4169.23076910, 4138.20512800, 4135.51282031,10.0
4140.64102544, 4140.64102544, 4151.66666646, 4140.89743569, 4145.64102544, 4122.82051255, 4116.53846126, 4119.23076896, 4133.33333306, 4142.94871774, 4151.41025621, 4159.87179467, 4133.20512793, 4137.30769210,10.0
4136.53846133, 4136.53846133, 4146.53846133, 4137.17948697, 4145.12820492, 4126.66666639, 4128.20512793, 4121.92307665, 4130.64102537, 4137.43589723, 4145.25641005, 4150.76923056, 4128.07692280, 4131.53846126,10.0
4136.79487159, 4134.99999973, 4143.07692287, 4140.25641005, 4142.43589723, 4119.61538434, 4137.56410236, 4133.33333306, 4145.25641005, 4141.92307672, 4145.76923056, 4152.56410236, 4129.61538434, 4132.43589716,10.0
4137.94871774, 4132.30769203, 4141.92307672, 4133.20512793, 4137.56410236, 4119.48717921, 4135.38461518, 4137.05128185, 4152.30769210, 4143.58974339, 4141.02564082, 4156.66666646, 4130.64102537, 4135.51282031,10.0
4133.97435870, 4130.89743562, 4141.28205108, 4123.58974332, 4123.97435870, 4132.69230742, 4136.53846133, 4132.82051255, 4146.02564082, 4137.17948697, 4131.66666639, 4147.43589723, 4122.82051255, 4134.10256383,10.0
4124.61538434, 4130.64102537, 4134.35897408, 4123.33333306, 4114.87179460, 4130.76923050, 4131.66666639, 4123.33333306, 4135.76923056, 4126.66666639, 4128.58974332, 4133.58974332, 4113.58974332, 4133.84615357,10.0
4128.84615357, 4140.64102544, 4137.30769210, 4133.20512793, 4139.35897415, 4123.58974332, 4133.20512793, 4124.35897408, 4137.30769210, 4127.69230742, 4139.10256390, 4141.66666646, 4123.84615357, 4133.33333306,10.0
4143.58974339, 4155.25641005, 4154.87179467, 4145.12820492, 4161.41025621, 4135.38461518, 4146.28205108, 4140.25641005, 4152.82051262, 4138.71794851, 4151.66666646, 4162.82051262, 4142.94871774, 4131.66666639,10.0
4140.89743569, 4152.56410236, 4156.02564082, 4142.30769210, 4146.41025621, 4136.92307672, 4140.64102544, 4139.35897415, 4150.76923056, 4133.46153819, 4143.46153826, 4159.87179467, 4135.51282031, 4130.12820485,10.0
4128.33333306, 4142.43589723, 4142.82051262, 4132.17948691, 4132.17948691, 4121.53846126, 4125.38461511, 4120.12820485, 4131.41025614, 4118.46153819, 4125.64102537, 4138.07692287, 4117.17948691, 4128.71794844,10.0
4135.25640998, 4152.17948697, 4149.48717928, 4140.76923056, 4148.71794851, 4128.71794844, 4134.23076896, 4119.87179460, 4134.35897408, 4127.05128178, 4129.35897408, 4137.94871774, 4125.12820485, 4131.53846126,10.0
4143.07692287, 4160.51282031, 4161.28205108, 4153.07692287, 4163.71794851, 4142.94871774, 4144.10256390, 4130.12820485, 4147.30769210, 4140.38461518, 4143.97435877, 4151.92307672, 4138.33333313, 4133.58974332,10.0
4127.94871767, 4149.48717928, 4153.46153826, 4144.74358954, 4147.56410236, 4127.69230742, 4129.99999973, 4119.35897408, 4132.05128178, 4130.64102537, 4142.43589723, 4147.05128185, 4131.15384588, 4128.97435870,10.0
4115.51282024, 4137.94871774, 4143.84615364, 4133.97435870, 4124.48717921, 4110.12820485, 4121.53846126, 4105.89743562, 4113.46153819, 4118.46153819, 4132.82051255, 4134.48717921, 4122.56410229, 4130.51282024,10.0
4118.20512793, 4129.48717921, 4138.58974339, 4131.15384588, 4121.02564075, 4111.28205101, 4119.48717921, 4108.97435870, 4121.15384588, 4116.92307665, 4127.94871767, 4134.10256383, 4119.74358947, 4136.53846133,10.0
4124.10256383, 4132.05128178, 4142.56410236, 4133.46153819, 4132.94871767, 4117.94871767, 4114.61538434, 4118.20512793, 4135.25640998, 4127.56410229, 4135.89743569, 4141.66666646, 4123.07692280, 4133.97435870,10.0
4133.33333306, 4148.07692287, 4156.53846133, 4143.46153826, 4145.76923056, 4127.69230742, 4128.46153819, 4129.87179460, 4145.51282031, 4143.97435877, 4156.15384595, 4153.46153826, 4132.69230742, 4128.07692280,10.0
4142.43589723, 4152.56410236, 4163.20512800, 4151.66666646, 4149.99999980, 4124.10256383, 4132.69230742, 4132.17948691, 4148.71794851, 4147.69230749, 4166.92307672, 4164.87179467, 4140.12820492, 4127.82051255,10.0
4146.92307672, 4149.23076903, 4162.43589723, 4152.05128185, 4147.69230749, 4122.82051255, 4137.82051262, 4138.46153826, 4150.25641005, 4148.46153826, 4168.20512807, 4171.28205115, 4143.33333313, 4129.61538434,10.0
4150.12820492, 4153.71794851, 4162.69230749, 4150.76923056, 4140.89743569, 4147.56410236, 4168.84615371, 4160.38461518, 4167.56410236, 4157.56410236, 4173.97435884, 4174.10256397, 4145.12820492, 4131.41025614,10.0
4143.58974339, 4148.84615364, 4148.58974339, 4143.07692287, 4138.07692287, 4148.84615364, 4164.23076903, 4154.61538441, 4169.35897422, 4155.25641005, 4166.28205108, 4161.66666646, 4140.12820492, 4130.38461511,10.0
4130.64102537, 4138.84615364, 4130.76923050, 4135.25640998, 4139.10256390, 4122.43589716, 4127.30769203, 4131.28205101, 4149.48717928, 4147.69230749, 4149.10256390, 4145.12820492, 4132.82051255, 4126.92307665,10.0
4132.94871767, 4148.58974339, 4136.66666646, 4140.12820492, 4136.92307672, 4123.84615357, 4130.38461511, 4140.25641005, 4154.99999980, 4160.76923056, 4156.53846133, 4150.12820492, 4138.84615364, 4130.25640998,10.0
4138.07692287, 4156.15384595, 4143.84615364, 4142.94871774, 4142.30769210, 4143.33333313, 4144.87179467, 4150.38461518, 4170.64102551, 4169.74358961, 4167.43589723, 4157.56410236, 4146.79487159, 4135.38461518,10.0
4135.89743569, 4152.05128185, 4140.64102544, 4141.28205108, 4159.48717928, 4148.84615364, 4144.23076903, 4139.99999980, 4166.79487159, 4164.74358954, 4162.82051262, 4156.28205108, 4146.28205108, 4130.51282024,10.0
4139.61538441, 4154.48717928, 4141.79487159, 4143.84615364, 4160.38461518, 4149.35897415, 4152.43589723, 4139.61538441, 4163.07692287, 4162.05128185, 4160.38461518, 4154.87179467, 4144.99999980, 4127.94871767,10.0
4137.05128185, 4152.82051262, 4139.99999980, 4141.53846133, 4139.99999980, 4143.97435877, 4142.56410236, 4137.43589723, 4161.15384595, 4155.25641005, 4155.64102544, 4147.30769210, 4139.35897415, 4132.17948691,10.0
4123.71794844, 4139.61538441, 4129.10256383, 4132.82051255, 4136.66666646, 4129.87179460, 4117.30769203, 4125.76923050, 4152.17948697, 4142.94871774, 4142.30769210, 4133.20512793, 4128.46153819, 4131.15384588,10.0
4109.74358947, 4125.12820485, 4111.66666639, 4120.25640998, 4129.87179460, 4126.41025614, 4121.53846126, 4125.38461511, 4145.12820492, 4131.15384588, 4134.23076896, 4123.07692280, 4121.53846126, 4129.10256383,10.0
4100.25640991, 4117.82051255, 4097.69230735, 4110.25640998, 4106.66666639, 4129.10256383, 4131.02564075, 4124.87179460, 4136.53846133, 4119.74358947, 4130.12820485, 4117.05128178, 4121.15384588, 4132.43589716,10.0
4108.58974332, 4125.89743562, 4098.71794837, 4116.02564075, 4115.25640998, 4125.12820485, 4124.48717921, 4123.84615357, 4134.61538434, 4118.20512793, 4127.17948691, 4117.05128178, 4120.76923050, 4135.38461518,10.0
4129.48717921, 4141.66666646, 4112.82051255, 4130.12820485, 4134.48717921, 4123.46153819, 4126.66666639, 4132.17948691, 4150.64102544, 4131.02564075, 4137.69230749, 4128.71794844, 4124.35897408, 4131.28205101,10.0
4137.82051262, 4147.56410236, 4126.28205101, 4136.66666646, 4132.05128178, 4141.66666646, 4154.23076903, 4145.64102544, 4164.74358954, 4144.74358954, 4154.10256390, 4142.43589723, 4135.89743569, 4128.58974332,10.0
4141.02564082, 4150.51282031, 4135.12820485, 4140.38461518, 4137.56410236, 4159.61538441, 4177.94871781, 4155.12820492, 4168.46153833, 4152.17948697, 4164.61538441, 4150.64102544, 4147.17948697, 4132.56410229,10.0
4141.02564082, 4150.51282031, 4135.12820485, 4140.38461518, 4137.56410236, 4159.61538441, 4177.94871781, 4155.12820492, 4168.46153833, 4152.17948697, 4164.61538441, 4150.64102544, 4147.17948697, 4132.56410229,10.0
4151.53846133, 4161.92307672, 4143.07692287, 4145.76923056, 4163.33333313, 4152.17948697, 4168.33333320, 4152.94871774, 4170.12820499, 4163.46153826, 4174.61538448, 4158.07692287, 4152.69230749, 4131.41025614,10.0
4151.02564082, 4162.94871774, 4142.56410236, 4142.05128185, 4167.17948697, 4142.69230749, 4144.99999980, 4143.58974339, 4169.87179474, 4167.94871774, 4173.20512807, 4159.87179467, 4148.84615364, 4128.58974332,10.0
4143.07692287, 4153.07692287, 4139.10256390, 4134.87179460, 4153.07692287, 4152.30769210, 4146.02564082, 4140.89743569, 4162.69230749, 4160.51282031, 4159.74358954, 4154.35897415, 4141.15384595, 4129.99999973,10.0
4151.02564082, 4158.71794851, 4148.20512800, 4144.23076903, 4163.46153826, 4162.69230749, 4160.89743569, 4149.23076903, 4160.25641005, 4160.12820492, 4159.61538441, 4158.58974339, 4143.71794851, 4132.05128178,10.0
4173.71794858, 4178.33333320, 4169.48717935, 4165.51282031, 4180.76923063, 4162.05128185, 4166.66666646, 4160.12820492, 4171.92307679, 4174.48717935, 4179.87179474, 4183.84615371, 4160.51282031, 4130.12820485,10.0
4189.99999986, 4184.10256397, 4184.10256397, 4173.71794858, 4176.15384602, 4159.10256390, 4169.87179474, 4163.71794851, 4180.38461525, 4189.23076910, 4195.64102551, 4204.99999993, 4172.56410243, 4125.38461511,10.0
4187.05128192, 4173.33333320, 4178.46153833, 4164.35897415, 4169.74358961, 4154.99999980, 4171.15384602, 4154.10256390, 4171.28205115, 4183.20512807, 4189.87179474, 4199.23076910, 4166.53846133, 4129.87179460,10.0
4183.46153833, 4171.53846140, 4171.15384602, 4162.94871774, 4179.87179474, 4157.43589723, 4172.30769217, 4149.61538441, 4161.41025621, 4166.92307672, 4180.64102551, 4190.64102551, 4158.97435877, 4135.51282031,10.0
4183.71794858, 4174.74358961, 4172.56410243, 4167.30769210, 4176.02564089, 4156.79487159, 4167.56410236, 4152.69230749, 4156.15384595, 4156.02564082, 4172.94871781, 4184.10256397, 4153.20512800, 4131.92307665,10.0
4178.84615371, 4170.76923063, 4167.56410236, 4162.05128185, 4163.46153826, 4157.17948697, 4173.20512807, 4156.02564082, 4158.84615364, 4154.35897415, 4168.20512807, 4172.56410243, 4146.53846133, 4128.58974332,10.0
4170.25641012, 4163.33333313, 4154.35897415, 4152.05128185, 4163.58974339, 4170.51282038, 4191.53846140, 4158.07692287, 4167.17948697, 4155.64102544, 4169.23076910, 4161.66666646, 4145.38461518, 4130.12820485,10.0
4165.25641005, 4154.23076903, 4148.07692287, 4142.69230749, 4159.87179467, 4169.23076910, 4181.15384602, 4153.71794851, 4168.46153833, 4156.92307672, 4168.84615371, 4156.02564082, 4147.05128185, 4132.30769203,10.0
4171.41025628, 4155.12820492, 4154.10256390, 4139.23076903, 4157.43589723, 4154.74358954, 4160.64102544, 4156.92307672, 4174.48717935, 4170.38461525, 4173.07692294, 4163.97435877, 4151.66666646, 4132.30769203,10.0
4171.53846140, 4157.94871774, 4155.25641005, 4139.35897415, 4151.79487159, 4148.46153826, 4154.10256390, 4158.07692287, 4181.15384602, 4180.25641012, 4177.82051269, 4170.64102551, 4154.35897415, 4131.15384588,10.0
4158.71794851, 4148.84615364, 4147.05128185, 4136.92307672, 4141.53846133, 4148.46153826, 4148.33333313, 4148.58974339, 4173.58974345, 4175.89743576, 4173.97435884, 4161.79487159, 4151.41025621, 4132.69230742,10.0
4147.05128185, 4138.58974339, 4137.05128185, 4132.69230742, 4147.56410236, 4141.53846133, 4135.76923056, 4140.51282031, 4160.25641005, 4167.94871774, 4163.20512800, 4151.53846133, 4146.28205108, 4132.94871767,10.0
4143.84615364, 4136.79487159, 4131.66666639, 4134.23076896, 4158.84615364, 4136.53846133, 4132.56410229, 4136.28205108, 4152.82051262, 4163.84615364, 4160.25641005, 4151.53846133, 4143.97435877, 4130.25640998,10.0
4148.84615364, 4145.12820492, 4142.69230749, 4140.76923056, 4164.74358954, 4142.05128185, 4144.48717928, 4140.76923056, 4158.97435877, 4168.97435884, 4167.43589723, 4155.76923056, 4147.43589723, 4128.46153819,10.0
4154.23076903, 4154.87179467, 4155.89743569, 4143.33333313, 4168.46153833, 4151.41025621, 4155.12820492, 4151.28205108, 4168.97435884, 4176.79487166, 4168.84615371, 4159.10256390, 4152.43589723, 4130.12820485,10.0
4149.74358954, 4150.12820492, 4146.92307672, 4140.12820492, 4160.25641005, 4155.64102544, 4158.20512800, 4151.28205108, 4161.66666646, 4171.41025628, 4156.02564082, 4155.51282031, 4148.33333313, 4135.51282031,10.0
4143.84615364, 4138.20512800, 4138.33333313, 4134.23076896, 4147.05128185, 4146.53846133, 4152.82051262, 4141.92307672, 4148.33333313, 4154.35897415, 4145.25641005, 4147.56410236, 4135.64102544, 4132.43589716,10.0
4155.76923056, 4145.76923056, 4154.10256390, 4137.82051262, 4156.79487159, 4142.94871774, 4148.71794851, 4145.76923056, 4154.74358954, 4152.43589723, 4152.43589723, 4159.74358954, 4138.46153826, 4127.30769203,10.0
4163.84615364, 4153.46153826, 4164.74358954, 4145.25641005, 4158.71794851, 4153.97435877, 4156.53846133, 4153.46153826, 4157.94871774, 4153.71794851, 4150.12820492, 4175.25641012, 4144.87179467, 4132.69230742,10.0
4153.46153826, 4140.38461518, 4155.38461518, 4141.15384595, 4136.92307672, 4154.87179467, 4162.05128185, 4145.12820492, 4142.43589723, 4139.74358954, 4138.20512800, 4167.17948697, 4130.25640998, 4133.97435870,10.0
4148.20512800, 4131.66666639, 4152.94871774, 4131.02564075, 4135.25640998, 4137.82051262, 4146.41025621, 4133.84615357, 4135.25640998, 4130.64102537, 4139.99999980, 4155.64102544, 4119.87179460, 4128.46153819,10.0
4152.05128185, 4134.10256383, 4158.07692287, 4129.35897408, 4149.99999980, 4125.25640998, 4125.12820485, 4129.23076896, 4135.25640998, 4132.82051255, 4143.84615364, 4158.58974339, 4128.07692280, 4129.48717921,10.0
4148.33333313, 4133.46153819, 4149.74358954, 4129.87179460, 4142.94871774, 4127.30769203, 4120.64102537, 4125.64102537, 4128.20512793, 4131.02564075, 4136.41025621, 4156.92307672, 4128.71794844, 4131.79487152,10.0
4139.74358954, 4131.66666639, 4138.97435877, 4126.15384588, 4129.10256383, 4133.97435870, 4122.43589716, 4123.97435870, 4128.46153819, 4130.25640998, 4131.79487152, 4146.92307672, 4118.58974332, 4129.87179460,10.0
4134.74358947, 4131.15384588, 4134.74358947, 4125.89743562, 4135.89743569, 4137.43589723, 4124.23076896, 4125.64102537, 4134.23076896, 4134.35897408, 4137.56410236, 4141.92307672, 4116.79487152, 4131.41025614,10.0
4131.66666639, 4131.02564075, 4132.56410229, 4126.28205101, 4140.51282031, 4135.25640998, 4131.15384588, 4129.23076896, 4135.25640998, 4134.99999973, 4143.07692287, 4140.25641005, 4120.89743562, 4134.87179460,10.0
4131.02564075, 4134.61538434, 4133.58974332, 4126.53846126, 4132.56410229, 4136.15384595, 4138.97435877, 4135.64102544, 4144.48717928, 4138.84615364, 4144.61538441, 4144.48717928, 4126.41025614, 4134.87179460,10.0
4133.07692280, 4136.66666646, 4137.17948697, 4131.02564075, 4140.25641005, 4141.92307672, 4148.84615364, 4142.94871774, 4156.28205108, 4151.41025621, 4144.61538441, 4148.46153826, 4132.17948691, 4131.28205101,10.0
4140.12820492, 4137.30769210, 4142.05128185, 4138.07692287, 4156.92307672, 4141.79487159, 4156.41025621, 4148.07692287, 4158.58974339, 4160.76923056, 4151.28205108, 4149.35897415, 4137.17948697, 4128.58974332,10.0
4141.02564082, 4137.56410236, 4143.46153826, 4137.17948697, 4142.05128185, 4136.02564082, 4150.89743569, 4148.07692287, 4155.38461518, 4158.20512800, 4150.38461518, 4147.56410236, 4136.92307672, 4129.99999973,10.0
4129.99999973, 4129.48717921, 4134.48717921, 4128.46153819, 4112.17948691, 4134.74358947, 4136.28205108, 4139.23076903, 4143.33333313, 4143.07692287, 4134.87179460, 4139.23076903, 4126.41025614, 4131.15384588,10.0
4121.92307665, 4120.38461511, 4126.53846126, 4123.20512793, 4120.25640998, 4130.38461511, 4121.79487152, 4123.71794844, 4123.20512793, 4124.74358947, 4128.33333306, 4129.87179460, 4116.66666639, 4131.15384588,10.0
4130.51282024, 4125.89743562, 4135.12820485, 4128.07692280, 4146.15384595, 4127.69230742, 4124.48717921, 4127.43589716, 4128.20512793, 4127.30769203, 4139.23076903, 4134.23076896, 4124.48717921, 4129.74358947,10.0
4143.20512800, 4135.51282031, 4147.17948697, 4132.05128178, 4142.05128185, 4131.41025614, 4133.20512793, 4146.02564082, 4149.61538441, 4142.94871774, 4149.35897415, 4147.56410236, 4136.28205108, 4131.02564075,10.0
4142.30769210, 4134.99999973, 4146.53846133, 4126.41025614, 4128.97435870, 4126.41025614, 4125.38461511, 4139.87179467, 4139.23076903, 4135.76923056, 4142.56410236, 4148.46153826, 4130.51282024, 4131.66666639,10.0
4140.64102544, 4138.84615364, 4150.64102544, 4131.66666639, 4141.28205108, 4127.17948691, 4124.74358947, 4125.51282024, 4124.74358947, 4124.61538434, 4134.99999973, 4150.25641005, 4122.82051255, 4128.58974332,10.0
4143.84615364, 4142.30769210, 4157.30769210, 4141.02564082, 4140.51282031, 4135.51282031, 4136.66666646, 4137.30769210, 4134.35897408, 4128.33333306, 4134.10256383, 4156.53846133, 4123.84615357, 4129.87179460,10.0
4140.89743569, 4132.82051255, 4147.43589723, 4131.92307665, 4122.43589716, 4129.10256383, 4131.28205101, 4143.07692287, 4133.71794844, 4126.53846126, 4131.66666639, 4148.33333313, 4122.30769203, 4132.69230742,10.0
4136.28205108, 4129.61538434, 4139.74358954, 4126.02564075, 4131.79487152, 4124.48717921, 4121.02564075, 4124.74358947, 4124.23076896, 4123.97435870, 4132.05128178, 4142.56410236, 4121.53846126, 4129.74358947,10.0
4139.61538441, 4139.74358954, 4147.94871774, 4134.61538434, 4149.35897415, 4136.66666646, 4131.79487152, 4121.66666639, 4128.20512793, 4129.87179460, 4138.58974339, 4149.61538441, 4124.74358947, 4128.07692280,10.0
4148.46153826, 4148.46153826, 4155.38461518, 4140.89743569, 4150.64102544, 4143.58974339, 4150.64102544, 4143.97435877, 4138.20512800, 4133.07692280, 4141.53846133, 4153.84615364, 4126.79487152, 4132.56410229,10.0
4148.97435877, 4146.66666646, 4147.30769210, 4138.46153826, 4149.99999980, 4137.94871774, 4153.33333313, 4154.23076903, 4143.46153826, 4136.79487159, 4139.10256390, 4144.48717928, 4125.38461511, 4132.05128178,10.0
4134.48717921, 4135.51282031, 4130.25640998, 4130.12820485, 4142.43589723, 4133.33333306, 4137.82051262, 4140.25641005, 4144.99999980, 4139.48717928, 4136.53846133, 4136.28205108, 4122.69230742, 4126.41025614,10.0
4122.69230742, 4126.02564075, 4123.20512793, 4119.48717921, 4129.74358947, 4126.79487152, 4120.64102537, 4122.56410229, 4132.43589716, 4130.38461511, 4129.48717921, 4134.48717921, 4119.23076896, 4129.48717921,10.0
4131.02564075, 4134.35897408, 4133.84615357, 4126.66666639, 4134.74358947, 4123.58974332, 4126.15384588, 4130.89743562, 4127.82051255, 4131.02564075, 4132.17948691, 4136.53846133, 4126.53846126, 4131.92307665,10.0
4138.71794851, 4142.43589723, 4144.23076903, 4137.82051262, 4132.82051255, 4130.25640998, 4146.02564082, 4157.17948697, 4151.02564082, 4142.69230749, 4144.35897415, 4139.87179467, 4135.51282031, 4129.23076896,10.0
4127.82051255, 4127.05128178, 4131.53846126, 4125.25640998, 4118.07692280, 4130.38461511, 4142.05128185, 4151.02564082, 4154.48717928, 4134.10256383, 4134.48717921, 4132.05128178, 4126.41025614, 4131.15384588,10.0
4123.33333306, 4121.66666639, 4123.58974332, 4122.17948691, 4133.33333306, 4128.33333306, 4127.43589716, 4128.84615357, 4135.38461518, 4122.94871767, 4121.53846126, 4128.33333306, 4121.15384588, 4129.10256383,10.0
4144.35897415, 4145.51282031, 4142.94871774, 4146.41025621, 4159.48717928, 4139.10256390, 4140.64102544, 4140.89743569, 4141.02564082, 4132.05128178, 4138.46153826, 4145.12820492, 4132.94871767, 4128.84615357,10.0
4160.25641005, 4162.17948697, 4157.05128185, 4155.12820492, 4159.48717928, 4148.71794851, 4153.07692287, 4157.82051262, 4153.46153826, 4137.05128185, 4151.66666646, 4157.17948697, 4135.89743569, 4134.99999973,10.0
4149.61538441, 4155.64102544, 4152.94871774, 4146.41025621, 4150.12820492, 4145.25641005, 4144.87179467, 4143.58974339, 4136.28205108, 4131.28205101, 4140.64102544, 4153.33333313, 4128.84615357, 4132.43589716,10.0
4140.51282031, 4149.23076903, 4150.51282031, 4148.58974339, 4152.82051262, 4143.84615364, 4145.64102544, 4129.61538434, 4118.33333306, 4131.53846126, 4134.23076896, 4151.28205108, 4128.71794844, 4129.23076896,10.0
4144.99999980, 4151.79487159, 4153.97435877, 4149.99999980, 4152.82051262, 4140.76923056, 4140.76923056, 4133.33333306, 4123.07692280, 4132.05128178, 4140.25641005, 4153.97435877, 4128.71794844, 4133.07692280,10.0
4143.46153826, 4149.10256390, 4153.20512800, 4141.15384595, 4133.84615357, 4132.43589716, 4119.99999973, 4136.28205108, 4122.43589716, 4125.12820485, 4138.84615364, 4152.05128185, 4125.64102537, 4133.20512793,10.0
4136.66666646, 4143.97435877, 4151.02564082, 4136.79487159, 4121.28205101, 4127.30769203, 4118.84615357, 4136.02564082, 4123.58974332, 4123.71794844, 4135.12820485, 4149.10256390, 4128.20512793, 4130.25640998,10.0
4142.43589723, 4151.02564082, 4155.89743569, 4141.41025621, 4143.84615364, 4126.41025614, 4132.82051255, 4137.17948697, 4138.33333313, 4133.97435870, 4144.61538441, 4154.35897415, 4134.87179460, 4131.28205101,10.0
4146.28205108, 4156.66666646, 4156.41025621, 4143.84615364, 4157.43589723, 4133.33333306, 4136.02564082, 4142.43589723, 4142.30769210, 4138.58974339, 4151.92307672, 4161.02564082, 4137.94871774, 4132.94871767,10.0
4143.58974339, 4150.89743569, 4156.79487159, 4141.41025621, 4139.61538441, 4142.69230749, 4140.51282031, 4149.35897415, 4138.07692287, 4139.61538441, 4149.87179467, 4164.61538441, 4137.69230749, 4129.23076896,10.0
4151.92307672, 4153.58974339, 4163.20512800, 4141.92307672, 4138.07692287, 4140.51282031, 4148.97435877, 4153.20512800, 4148.20512800, 4147.82051262, 4151.66666646, 4168.71794858, 4141.66666646, 4131.41025614,10.0
4165.76923056, 4163.46153826, 4165.51282031, 4145.51282031, 4155.25641005, 4143.46153826, 4158.07692287, 4155.25641005, 4154.10256390, 4150.25641005, 4152.43589723, 4171.79487166, 4144.23076903, 4137.17948697,10.0
4166.02564082, 4161.28205108, 4160.64102544, 4144.74358954, 4155.12820492, 4156.79487159, 4163.97435877, 4152.56410236, 4145.76923056, 4144.35897415, 4144.74358954, 4170.25641012, 4140.51282031, 4131.79487152,10.0
4154.35897415, 4152.69230749, 4157.43589723, 4140.12820492, 4142.30769210, 4148.97435877, 4142.69230749, 4141.92307672, 4143.46153826, 4143.20512800, 4143.84615364, 4164.10256390, 4137.56410236, 4126.92307665,10.0
4147.82051262, 4149.10256390, 4157.43589723, 4140.25641005, 4132.05128178, 4132.69230742, 4125.38461511, 4136.28205108, 4146.66666646, 4144.74358954, 4152.17948697, 4158.97435877, 4140.64102544, 4131.92307665,10.0
4146.92307672, 4142.17948697, 4148.20512800, 4140.25641005, 4127.56410229, 4134.48717921, 4135.64102544, 4138.46153826, 4133.97435870, 4132.43589716, 4142.43589723, 4147.05128185, 4137.69230749, 4134.23076896,10.0
4141.66666646, 4138.20512800, 4136.41025621, 4136.41025621, 4134.23076896, 4136.15384595, 4134.48717921, 4137.30769210, 4118.07692280, 4120.12820485, 4120.76923050, 4131.02564075, 4128.58974332, 4129.87179460,10.0
4133.97435870, 4141.02564082, 4136.41025621, 4136.41025621, 4143.58974339, 4127.43589716, 4122.82051255, 4136.66666646, 4123.84615357, 4123.71794844, 4117.30769203, 4127.43589716, 4124.74358947, 4127.17948691,10.0
4126.66666639, 4135.25640998, 4135.25640998, 4133.58974332, 4137.56410236, 4124.10256383, 4125.51282024, 4133.84615357, 4129.10256383, 4124.48717921, 4126.02564075, 4128.33333306, 4123.84615357, 4130.38461511,10.0
4133.58974332, 4137.17948697, 4136.41025621, 4136.15384595, 4135.76923056, 4140.25641005, 4156.79487159, 4151.92307672, 4139.99999980, 4129.74358947, 4135.64102544, 4135.51282031, 4135.12820485, 4132.94871767,10.0
4151.15384595, 4153.20512800, 4150.25641005, 4148.46153826, 4146.41025621, 4151.41025621, 4178.58974345, 4179.23076910, 4171.41025628, 4151.53846133, 4144.48717928, 4150.12820492, 4149.61538441, 4132.05128178,10.0
4147.30769210, 4147.94871774, 4151.92307672, 4148.84615364, 4142.05128185, 4132.69230742, 4141.66666646, 4152.56410236, 4162.94871774, 4150.12820492, 4142.94871774, 4149.35897415, 4140.76923056, 4130.25640998,10.0
4126.53846126, 4126.02564075, 4134.74358947, 4135.64102544, 4127.05128178, 4116.66666639, 4099.87179453, 4111.79487152, 4119.35897408, 4124.23076896, 4131.79487152, 4134.10256383, 4124.48717921, 4130.76923050,10.0
4129.35897408, 4129.23076896, 4139.23076903, 4135.64102544, 4121.28205101, 4124.61538434, 4115.38461511, 4127.30769203, 4119.61538434, 4124.87179460, 4131.92307665, 4135.64102544, 4130.25640998, 4131.15384588,10.0
4141.79487159, 4141.66666646, 4155.89743569, 4143.71794851, 4120.64102537, 4126.92307665, 4128.84615357, 4145.76923056, 4139.10256390, 4136.66666646, 4137.69230749, 4147.17948697, 4139.61538441, 4127.94871767,10.0
4134.35897408, 4133.84615357, 4150.76923056, 4139.23076903, 4124.23076896, 4119.35897408, 4110.25640998, 4126.79487152, 4123.97435870, 4123.97435870, 4133.46153819, 4143.84615364, 4131.66666639, 4128.97435870,10.0
4137.43589723, 4138.58974339, 4147.94871774, 4139.48717928, 4141.66666646, 4126.53846126, 4117.94871767, 4128.84615357, 4123.20512793, 4123.07692280, 4135.89743569, 4147.05128185, 4133.33333306, 4134.99999973,10.0
4153.07692287, 4154.99999980, 4159.74358954, 4149.99999980, 4147.82051262, 4136.92307672, 4135.25640998, 4141.79487159, 4140.89743569, 4139.74358954, 4142.69230749, 4154.61538441, 4144.35897415, 4134.74358947,10.0
4156.53846133, 4156.02564082, 4166.92307672, 4153.97435877, 4137.69230749, 4144.23076903, 4143.07692287, 4144.23076903, 4144.74358954, 4144.61538441, 4143.71794851, 4157.69230749, 4147.05128185, 4130.76923050,10.0
4159.74358954, 4157.05128185, 4169.99999986, 4154.61538441, 4145.89743569, 4157.69230749, 4170.76923063, 4163.33333313, 4159.99999980, 4150.64102544, 4149.35897415, 4168.84615371, 4149.87179467, 4129.35897408,10.0
4163.07692287, 4160.51282031, 4170.76923063, 4155.51282031, 4154.10256390, 4158.33333313, 4179.23076910, 4165.89743569, 4169.10256397, 4153.33333313, 4153.33333313, 4172.17948704, 4151.66666646, 4130.12820485,10.0
4161.92307672, 4159.99999980, 4172.43589730, 4157.30769210, 4146.66666646, 4144.99999980, 4154.87179467, 4148.07692287, 4154.10256390, 4144.23076903, 4149.48717928, 4163.46153826, 4147.82051262, 4132.56410229,10.0
4153.58974339, 4155.12820492, 4167.30769210, 4154.10256390, 4136.28205108, 4134.87179460, 4133.58974332, 4143.84615364, 4146.53846133, 4138.97435877, 4142.05128185, 4157.05128185, 4139.35897415, 4132.43589716,10.0
4131.92307665, 4137.82051262, 4144.61538441, 4142.05128185, 4119.10256383, 4127.17948691, 4118.71794844, 4137.05128185, 4142.94871774, 4128.97435870, 4126.92307665, 4144.10256390, 4124.99999973, 4129.74358947,10.0
4117.05128178, 4123.84615357, 4128.20512793, 4131.79487152, 4111.15384588, 4119.35897408, 4107.82051255, 4125.51282024, 4133.33333306, 4117.05128178, 4116.02564075, 4127.43589716, 4119.10256383, 4129.23076896,10.0
4123.20512793, 4133.84615357, 4133.46153819, 4137.69230749, 4129.61538434, 4123.07692280, 4116.66666639, 4131.92307665, 4133.71794844, 4121.92307665, 4125.51282024, 4128.58974332, 4129.99999973, 4129.10256383,10.0
4131.28205101, 4149.48717928, 4141.79487159, 4152.17948697, 4146.15384595, 4136.66666646, 4139.61538441, 4145.38461518, 4143.46153826, 4133.97435870, 4136.92307672, 4139.87179467, 4139.35897415, 4128.84615357,10.0
4130.89743562, 4148.46153826, 4142.94871774, 4153.84615364, 4142.17948697, 4141.79487159, 4151.28205108, 4150.64102544, 4153.20512800, 4141.02564082, 4138.58974339, 4143.33333313, 4142.30769210, 4127.94871767,10.0
4122.69230742, 4135.64102544, 4135.12820485, 4138.20512800, 4134.61538434, 4132.69230742, 4133.71794844, 4140.64102544, 4152.30769210, 4140.38461518, 4137.82051262, 4136.92307672, 4140.12820492, 4126.79487152,10.0
4121.41025614, 4137.30769210, 4134.87179460, 4136.79487159, 4142.17948697, 4138.97435877, 4131.15384588, 4136.02564082, 4148.33333313, 4140.25641005, 4140.89743569, 4140.12820492, 4140.51282031, 4128.20512793,10.0
4147.69230749, 4165.38461518, 4158.97435877, 4165.38461518, 4163.71794851, 4169.74358961, 4173.07692294, 4165.64102544, 4174.74358961, 4160.51282031, 4157.17948697, 4171.41025628, 4158.33333313, 4128.84615357,10.0
4164.35897415, 4174.10256397, 4168.84615371, 4173.84615371, 4163.84615364, 4171.02564089, 4172.82051269, 4175.64102551, 4189.61538448, 4170.38461525, 4168.84615371, 4186.53846140, 4165.64102544, 4132.43589716,10.0
4153.46153826, 4155.38461518, 4158.07692287, 4159.74358954, 4148.84615364, 4150.25641005, 4134.99999973, 4146.15384595, 4162.30769210, 4156.02564082, 4165.76923056, 4174.23076910, 4152.05128185, 4135.38461518,10.0
4154.10256390, 4156.02564082, 4163.71794851, 4163.46153826, 4154.99999980, 4153.33333313, 4143.84615364, 4138.20512800, 4147.69230749, 4152.94871774, 4161.92307672, 4176.41025628, 4151.92307672, 4128.71794844,10.0
4157.05128185, 4165.51282031, 4166.02564082, 4167.30769210, 4156.53846133, 4157.56410236, 4154.23076903, 4149.10256390, 4155.38461518, 4151.79487159, 4155.89743569, 4176.28205115, 4157.05128185, 4126.28205101,10.0
4141.53846133, 4156.28205108, 4150.76923056, 4156.66666646, 4148.33333313, 4148.71794851, 4132.43589716, 4144.61538441, 4151.28205108, 4136.53846133, 4146.92307672, 4161.02564082, 4142.43589723, 4132.69230742,10.0
4138.71794851, 4151.15384595, 4153.46153826, 4157.05128185, 4158.71794851, 4153.33333313, 4138.84615364, 4146.41025621, 4150.51282031, 4134.10256383, 4144.35897415, 4161.92307672, 4136.28205108, 4133.58974332,10.0
4145.76923056, 4156.28205108, 4159.99999980, 4158.97435877, 4162.43589723, 4161.53846133, 4154.48717928, 4152.05128185, 4156.53846133, 4137.30769210, 4136.15384595, 4164.23076903, 4142.05128185, 4129.48717921,10.0
4141.41025621, 4154.74358954, 4149.48717928, 4150.51282031, 4152.56410236, 4154.10256390, 4145.12820492, 4149.23076903, 4154.10256390, 4132.17948691, 4129.48717921, 4149.48717928, 4139.10256390, 4128.20512793,10.0
4144.48717928, 4157.69230749, 4154.35897415, 4157.56410236, 4158.97435877, 4151.79487159, 4151.53846133, 4156.79487159, 4162.82051262, 4142.30769210, 4145.12820492, 4149.10256390, 4143.71794851, 4132.17948691,10.0
4153.20512800, 4166.15384595, 4169.74358961, 4170.12820499, 4165.25641005, 4155.64102544, 4159.23076903, 4155.38461518, 4170.76923063, 4157.05128185, 4160.12820492, 4159.87179467, 4152.69230749, 4132.94871767,10.0
4159.23076903, 4173.33333320, 4174.74358961, 4170.25641012, 4164.35897415, 4170.64102551, 4168.71794858, 4147.43589723, 4169.48717935, 4161.92307672, 4162.43589723, 4166.28205108, 4156.28205108, 4129.87179460,10.0
4170.38461525, 4177.05128192, 4178.84615371, 4173.46153833, 4169.87179474, 4181.41025628, 4182.05128192, 4157.94871774, 4175.89743576, 4168.84615371, 4169.48717935, 4172.17948704, 4163.07692287, 4131.15384588,10.0
4165.64102544, 4162.94871774, 4172.17948704, 4168.84615371, 4160.12820492, 4150.25641005, 4143.46153826, 4149.74358954, 4163.46153826, 4158.20512800, 4163.46153826, 4160.64102544, 4155.89743569, 4130.76923050,10.0
4142.17948697, 4138.71794851, 4151.28205108, 4146.53846133, 4127.82051255, 4118.46153819, 4095.25640991, 4118.97435870, 4134.99999973, 4133.97435870, 4138.46153826, 4138.33333313, 4132.69230742, 4128.33333306,10.0
4136.02564082, 4133.20512793, 4150.89743569, 4138.84615364, 4112.94871767, 4122.94871767, 4107.56410229, 4115.38461511, 4128.46153819, 4131.02564075, 4132.82051255, 4138.84615364, 4130.51282024, 4129.61538434,10.0
4150.25641005, 4145.76923056, 4170.51282038, 4155.89743569, 4136.02564082, 4137.17948697, 4137.69230749, 4135.38461518, 4148.71794851, 4149.23076903, 4152.17948697, 4156.28205108, 4151.79487159, 4131.41025614,10.0
4152.17948697, 4146.79487159, 4168.71794858, 4152.69230749, 4153.71794851, 4138.71794851, 4137.94871774, 4141.79487159, 4162.56410236, 4155.38461518, 4159.87179467, 4157.82051262, 4154.23076903, 4129.87179460,10.0
4142.43589723, 4137.94871774, 4152.56410236, 4132.30769203, 4145.38461518, 4135.64102544, 4132.94871767, 4134.61538434, 4154.48717928, 4146.15384595, 4147.56410236, 4146.66666646, 4139.35897415, 4126.28205101,10.0
4142.94871774, 4142.43589723, 4154.23076903, 4140.51282031, 4145.12820492, 4138.71794851, 4143.71794851, 4138.58974339, 4146.92307672, 4143.84615364, 4144.35897415, 4147.30769210, 4138.84615364, 4128.84615357,10.0
4147.05128185, 4151.28205108, 4161.28205108, 4154.99999980, 4156.15384595, 4143.07692287, 4156.41025621, 4154.23076903, 4153.46153826, 4150.38461518, 4151.92307672, 4152.43589723, 4145.89743569, 4132.56410229,10.0
4138.20512800, 4146.15384595, 4151.66666646, 4144.10256390, 4149.87179467, 4142.43589723, 4152.43589723, 4154.35897415, 4152.43589723, 4149.23076903, 4142.43589723, 4140.51282031, 4138.33333313, 4131.53846126,10.0
4125.12820485, 4136.41025621, 4138.58974339, 4133.20512793, 4137.05128185, 4138.97435877, 4141.53846133, 4135.38461518, 4133.97435870, 4133.58974332, 4124.10256383, 4123.58974332, 4124.35897408, 4128.84615357,10.0
4124.10256383, 4135.64102544, 4137.30769210, 4137.82051262, 4132.56410229, 4132.05128178, 4128.71794844, 4124.48717921, 4128.58974332, 4123.97435870, 4122.82051255, 4121.79487152, 4120.76923050, 4127.82051255,10.0
4129.48717921, 4133.71794844, 4141.02564082, 4139.61538441, 4130.51282024, 4109.99999973, 4096.28205094, 4121.92307665, 4135.12820485, 4130.38461511, 4129.99999973, 4124.87179460, 4124.87179460, 4132.69230742,10.0
4127.30769203, 4124.23076896, 4137.69230749, 4129.61538434, 4124.61538434, 4096.28205094, 4073.20512786, 4112.30769203, 4125.38461511, 4132.82051255, 4126.79487152, 4123.71794844, 4126.92307665, 4135.64102544,10.0
4128.07692280, 4123.33333306, 4134.99999973, 4124.10256383, 4108.33333306, 4110.64102537, 4092.43589709, 4114.99999973, 4123.46153819, 4131.02564075, 4128.33333306, 4129.99999973, 4128.71794844, 4130.89743562,10.0
4137.82051262, 4132.56410229, 4143.71794851, 4133.07692280, 4106.28205101, 4123.20512793, 4119.35897408, 4126.28205101, 4131.79487152, 4132.30769203, 4136.28205108, 4141.79487159, 4130.76923050, 4128.71794844,10.0
4139.87179467, 4136.15384595, 4149.99999980, 4140.64102544, 4123.46153819, 4119.35897408, 4120.64102537, 4124.87179460, 4126.79487152, 4129.35897408, 4130.25640998, 4139.48717928, 4125.51282024, 4130.76923050,10.0
4142.69230749, 4139.99999980, 4153.97435877, 4138.84615364, 4129.23076896, 4120.89743562, 4122.94871767, 4130.89743562, 4126.15384588, 4126.41025614, 4130.89743562, 4139.74358954, 4125.38461511, 4129.74358947,10.0
4153.97435877, 4149.99999980, 4160.38461518, 4139.23076903, 4132.56410229, 4132.69230742, 4143.33333313, 4146.92307672, 4140.64102544, 4133.20512793, 4145.76923056, 4152.56410236, 4139.23076903, 4129.87179460,10.0
4152.30769210, 4152.05128185, 4155.76923056, 4145.51282031, 4138.20512800, 4137.30769210, 4152.43589723, 4151.66666646, 4153.20512800, 4142.94871774, 4150.38461518, 4154.23076903, 4146.02564082, 4133.07692280,10.0
4136.41025621, 4141.53846133, 4139.74358954, 4141.15384595, 4123.58974332, 4125.64102537, 4129.61538434, 4134.87179460, 4144.87179467, 4141.15384595, 4142.05128185, 4141.02564082, 4132.94871767, 4131.66666639,10.0
4132.56410229, 4138.33333313, 4135.12820485, 4137.69230749, 4120.64102537, 4125.89743562, 4124.48717921, 4130.64102537, 4137.30769210, 4137.30769210, 4138.84615364, 4136.92307672, 4127.17948691, 4125.76923050,10.0
4144.48717928, 4149.61538441, 4144.74358954, 4147.94871774, 4153.33333313, 4148.71794851, 4155.38461518, 4156.28205108, 4158.20512800, 4148.71794851, 4142.82051262, 4144.48717928, 4139.10256390, 4127.69230742,10.0
4138.46153826, 4145.76923056, 4137.43589723, 4143.33333313, 4159.35897415, 4144.74358954, 4145.38461518, 4152.30769210, 4159.48717928, 4147.17948697, 4131.79487152, 4134.23076896, 4131.79487152, 4134.61538434,10.0
4117.17948691, 4126.53846126, 4121.15384588, 4123.97435870, 4132.82051255, 4114.10256383, 4099.23076889, 4112.05128178, 4120.89743562, 4117.82051255, 4112.94871767, 4111.53846126, 4109.35897408, 4133.84615357,10.0
4110.38461511, 4122.30769203, 4121.53846126, 4120.76923050, 4126.15384588, 4106.28205101, 4087.69230735, 4102.05128171, 4104.99999973, 4104.99999973, 4107.56410229, 4106.02564075, 4106.66666639, 4131.15384588,10.0
4113.20512793, 4128.46153819, 4125.25640998, 4128.07692280, 4126.15384588, 4112.82051255, 4095.12820478, 4117.05128178, 4122.05128178, 4118.46153819, 4111.15384588, 4108.97435870, 4115.64102537, 4132.05128178,10.0
4111.79487152, 4125.64102537, 4121.15384588, 4125.12820485, 4121.41025614, 4114.10256383, 4101.15384581, 4118.33333306, 4120.51282024, 4120.64102537, 4110.12820485, 4107.43589716, 4116.28205101, 4133.07692280,10.0
4118.84615357, 4122.17948691, 4121.53846126, 4121.92307665, 4116.79487152, 4117.30769203, 4111.41025614, 4122.43589716, 4114.10256383, 4115.64102537, 4114.87179460, 4112.82051255, 4120.89743562, 4131.28205101,10.0
4129.99999973, 4124.23076896, 4127.43589716, 4128.07692280, 4112.05128178, 4122.82051255, 4117.17948691, 4128.84615357, 4123.33333306, 4121.02564075, 4127.94871767, 4125.12820485, 4126.92307665, 4128.46153819,10.0
