AF3,F7,F3,FC5,T7,P7,O1,O2,P8,T8,FC6,F4,F8,AF4,Label
4073.46153812, 4101.92307658, 4082.17948684, 4081.92307658, 4118.46153819, 4130.76923050, 4138.58974339, 4127.17948691, 4124.48717921, 4116.02564075, 4096.92307658, 4091.28205094, 4107.43589716, 4129.23076896,10.0
4083.33333299, 4116.41025614, 4091.53846119, 4094.99999966, 4120.64102537, 4131.66666639, 4137.05128185, 4126.92307665, 4121.79487152, 4121.28205101, 4100.25640991, 4094.87179453, 4108.20512793, 4135.12820485,10.0
4085.25640991, 4118.07692280, 4094.99999966, 4098.84615350, 4111.41025614, 4127.56410229, 4127.05128178, 4126.53846126, 4114.87179460, 4119.35897408, 4094.61538427, 4088.97435863, 4107.69230742, 4136.28205108,10.0
4084.10256376, 4119.74358947, 4100.76923043, 4100.51282017, 4116.02564075, 4135.89743569, 4132.43589716, 4129.23076896, 4117.17948691, 4120.76923050, 4106.28205101, 4093.97435863, 4111.15384588, 4132.17948691,10.0
4077.69230735, 4116.79487152, 4095.76923043, 4095.89743555, 4127.69230742, 4132.43589716, 4121.79487152, 4126.79487152, 4115.12820485, 4120.12820485, 4118.97435870, 4093.84615350, 4112.56410229, 4132.30769203,10.0
4063.07692266, 4100.25640991, 4080.64102530, 4083.07692273, 4111.53846126, 4108.07692280, 4092.94871761, 4117.43589716, 4108.84615357, 4113.71794844, 4112.56410229, 4080.76923043, 4111.02564075, 4127.56410229,10.0
4065.76923036, 4102.56410229, 4086.66666632, 4084.87179453, 4097.56410222, 4110.89743562, 4100.89743555, 4116.92307665, 4113.20512793, 4120.64102537, 4115.38461511, 4084.99999966, 4117.56410229, 4128.46153819,10.0
4073.58974325, 4111.79487152, 4093.71794837, 4089.87179453, 4109.99999973, 4132.82051255, 4127.82051255, 4127.69230742, 4117.69230742, 4129.35897408, 4121.41025614, 4088.58974325, 4117.56410229, 4133.71794844,10.0
4067.43589702, 4101.79487145, 4078.97435863, 4083.07692273, 4110.38461511, 4130.89743562, 4124.48717921, 4128.97435870, 4109.23076896, 4119.48717921, 4107.43589716, 4074.10256376, 4104.99999973, 4129.35897408,10.0
4077.69230735, 4112.30769203, 4087.17948684, 4098.46153812, 4116.15384588, 4132.56410229, 4128.84615357, 4127.05128178, 4111.66666639, 4125.25640998, 4112.69230742, 4084.10256376, 4116.53846126, 4128.71794844,10.0
4097.82051248, 4140.25641005, 4117.05128178, 4123.33333306, 4133.46153819, 4148.07692287, 4151.66666646, 4138.07692287, 4129.35897408, 4149.48717928, 4142.82051262, 4112.69230742, 4142.69230749, 4132.94871767,10.0
4089.87179453, 4130.89743562, 4110.64102537, 4112.56410229, 4117.30769203, 4140.38461518, 4141.53846133, 4141.66666646, 4129.99999973, 4144.48717928, 4139.87179467, 4104.23076896, 4138.84615364, 4132.69230742,10.0
4078.84615350, 4113.20512793, 4090.25640991, 4096.28205094, 4107.30769203, 4128.97435870, 4125.12820485, 4126.79487152, 4116.28205101, 4126.41025614, 4121.79487152, 4081.28205094, 4121.15384588, 4129.48717921,10.0
4106.92307665, 4143.46153826, 4119.48717921, 4121.02564075, 4148.46153826, 4153.46153826, 4163.33333313, 4143.97435877, 4137.56410236, 4155.25641005, 4150.76923056, 4111.02564075, 4140.76923056, 4131.28205101,10.0
4123.58974332, 4164.61538441, 4144.74358954, 4145.25641005, 4163.46153826, 4166.41025621, 4184.10256397, 4169.23076910, 4164.35897415, 4180.76923063, 4176.28205115, 4138.97435877, 4159.99999980, 4136.28205108,10.0
4081.02564068, 4133.84615357, 4109.10256383, 4123.84615357, 4122.69230742, 4135.12820485, 4130.76923050, 4138.33333313, 4133.46153819, 4142.43589723, 4138.84615364, 4100.64102530, 4128.46153819, 4132.94871767,10.0
4055.89743548, 4110.38461511, 4084.10256376, 4104.48717921, 4106.15384588, 4118.84615357, 4104.99999973, 4112.17948691, 4099.87179453, 4110.76923050, 4111.02564075, 4071.66666632, 4105.64102537, 4131.02564075,10.0
4091.02564068, 4126.02564075, 4114.74358947, 4124.61538434, 4119.99999973, 4134.74358947, 4139.74358954, 4137.05128185, 4121.28205101, 4132.94871767, 4144.23076903, 4106.79487152, 4132.30769203, 4132.94871767,10.0
4114.23076896, 4141.28205108, 4139.87179467, 4142.17948697, 4130.51282024, 4139.99999980, 4152.30769210, 4150.76923056, 4145.64102544, 4156.15384595, 4171.92307679, 4137.43589723, 4151.02564082, 4132.43589716,10.0
4097.43589709, 4134.74358947, 4124.23076896, 4132.43589716, 4136.41025621, 4138.07692287, 4142.82051262, 4139.23076903, 4135.38461518, 4148.58974339, 4158.97435877, 4123.84615357, 4139.35897415, 4134.35897408,10.0
4083.84615350, 4127.82051255, 4105.12820485, 4121.79487152, 4131.28205101, 4146.28205108, 4148.97435877, 4137.17948697, 4124.61538434, 4139.74358954, 4146.28205108, 4108.07692280, 4131.53846126, 4132.17948691,10.0
4086.28205094, 4128.71794844, 4108.71794844, 4127.43589716, 4126.53846126, 4144.99999980, 4147.05128185, 4136.02564082, 4126.79487152, 4143.20512800, 4146.15384595, 4110.64102537, 4131.41025614, 4131.15384588,10.0
4096.79487145, 4136.02564082, 4124.23076896, 4141.28205108, 4134.10256383, 4144.61538441, 4153.20512800, 4141.79487159, 4133.84615357, 4152.94871774, 4152.82051262, 4124.23076896, 4133.46153819, 4135.25640998,10.0
4106.92307665, 4143.46153826, 4131.41025614, 4149.23076903, 4136.02564082, 4157.69230749, 4175.51282038, 4156.28205108, 4142.30769210, 4159.48717928, 4163.84615364, 4134.74358947, 4141.92307672, 4133.33333306,10.0
4105.64102537, 4143.07692287, 4127.82051255, 4147.30769210, 4133.07692280, 4157.30769210, 4164.87179467, 4149.99999980, 4137.94871774, 4151.28205108, 4163.97435877, 4131.28205101, 4142.43589723, 4132.17948691,10.0
4099.35897402, 4135.89743569, 4126.28205101, 4142.94871774, 4141.92307672, 4146.79487159, 4141.66666646, 4137.94871774, 4127.05128178, 4141.79487159, 4153.71794851, 4127.17948691, 4133.84615357, 4133.46153819,10.0
4100.64102530, 4134.99999973, 4129.61538434, 4144.61538441, 4142.43589723, 4146.28205108, 4144.35897415, 4141.28205108, 4127.56410229, 4140.89743569, 4156.15384595, 4136.28205108, 4139.74358954, 4132.05128178,10.0
4110.64102537, 4143.84615364, 4143.46153826, 4150.76923056, 4138.20512800, 4148.71794851, 4151.79487159, 4147.94871774, 4137.94871774, 4153.46153826, 4175.76923063, 4156.02564082, 4161.02564082, 4130.76923050,10.0
4116.92307665, 4143.20512800, 4152.94871774, 4146.15384595, 4140.76923056, 4149.48717928, 4149.74358954, 4147.30769210, 4143.07692287, 4168.97435884, 4183.07692294, 4160.64102544, 4166.53846133, 4129.61538434,10.0
4112.82051255, 4138.20512800, 4143.46153826, 4127.94871767, 4136.28205108, 4154.23076903, 4149.10256390, 4145.25641005, 4141.02564082, 4166.02564082, 4168.20512807, 4145.38461518, 4151.02564082, 4132.82051255,10.0
4110.12820485, 4143.07692287, 4135.51282031, 4119.99999973, 4138.20512800, 4153.33333313, 4146.41025621, 4143.33333313, 4138.46153826, 4156.28205108, 4153.46153826, 4136.79487159, 4142.43589723, 4133.07692280,10.0
4127.05128178, 4157.43589723, 4152.69230749, 4137.05128185, 4155.12820492, 4156.28205108, 4153.20512800, 4147.30769210, 4144.35897415, 4169.23076910, 4168.46153833, 4153.07692287, 4156.02564082, 4127.69230742,10.0
4137.05128185, 4159.61538441, 4163.58974339, 4144.61538441, 4157.94871774, 4164.61538441, 4161.92307672, 4150.12820492, 4150.12820492, 4185.89743576, 4186.15384602, 4162.69230749, 4162.05128185, 4128.33333306,10.0
4108.97435870, 4139.10256390, 4137.17948697, 4120.89743562, 4143.71794851, 4153.07692287, 4148.58974339, 4138.46153826, 4142.30769210, 4170.89743576, 4164.10256390, 4136.15384595, 4139.10256390, 4129.48717921,10.0
4093.84615350, 4130.12820485, 4120.76923050, 4108.71794844, 4146.41025621, 4144.48717928, 4147.17948697, 4137.94871774, 4136.53846133, 4156.15384595, 4148.46153826, 4119.10256383, 4128.97435870, 4129.48717921,10.0
4114.10256383, 4144.61538441, 4138.20512800, 4126.02564075, 4159.35897415, 4159.87179467, 4165.38461518, 4152.82051262, 4144.23076903, 4168.07692287, 4167.69230749, 4136.66666646, 4147.69230749, 4131.15384588,10.0
4124.23076896, 4151.41025621, 4147.94871774, 4134.61538434, 4159.99999980, 4164.61538441, 4166.02564082, 4154.99999980, 4148.07692287, 4174.61538448, 4177.94871781, 4150.38461518, 4154.74358954, 4133.07692280,10.0
4114.35897408, 4143.33333313, 4139.74358954, 4126.53846126, 4161.02564082, 4159.99999980, 4166.79487159, 4144.61538441, 4139.35897415, 4164.10256390, 4167.94871774, 4144.23076903, 4144.99999980, 4133.84615357,10.0
4115.12820485, 4145.64102544, 4144.61538441, 4133.84615357, 4170.38461525, 4170.76923063, 4176.66666653, 4139.87179467, 4136.92307672, 4162.17948697, 4174.87179474, 4145.38461518, 4147.82051262, 4132.05128178,10.0
4131.53846126, 4159.99999980, 4167.17948697, 4153.97435877, 4177.69230756, 4176.28205115, 4169.10256397, 4149.74358954, 4152.43589723, 4180.89743576, 4194.48717935, 4162.17948697, 4161.02564082, 4132.69230742,10.0
4129.35897408, 4154.35897415, 4166.02564082, 4147.94871774, 4163.71794851, 4158.84615364, 4142.82051262, 4147.69230749, 4157.05128185, 4180.76923063, 4188.33333320, 4158.33333313, 4152.94871774, 4130.64102537,10.0
4107.82051255, 4131.02564075, 4142.82051262, 4123.20512793, 4139.48717928, 4140.76923056, 4121.92307665, 4126.92307665, 4136.15384595, 4153.07692287, 4160.76923056, 4134.48717921, 4131.53846126, 4128.07692280,10.0
4107.82051255, 4131.41025614, 4143.58974339, 4124.48717921, 4131.41025614, 4134.61538434, 4121.92307665, 4126.28205101, 4125.12820485, 4149.10256390, 4158.20512800, 4133.20512793, 4131.66666639, 4131.79487152,10.0
4128.84615357, 4152.82051262, 4168.84615371, 4148.58974339, 4138.58974339, 4141.15384595, 4141.92307672, 4150.51282031, 4145.76923056, 4172.30769217, 4183.20512807, 4155.64102544, 4148.07692287, 4131.53846126,10.0
4132.05128178, 4156.79487159, 4172.17948704, 4151.66666646, 4149.61538441, 4156.92307672, 4155.89743569, 4157.56410236, 4159.48717928, 4179.10256397, 4185.51282038, 4160.25641005, 4151.53846133, 4131.02564075,10.0
4125.64102537, 4153.07692287, 4165.51282031, 4146.66666646, 4163.46153826, 4158.07692287, 4149.35897415, 4142.17948697, 4150.12820492, 4177.69230756, 4183.84615371, 4160.64102544, 4155.12820492, 4131.02564075,10.0
4136.28205108, 4164.74358954, 4181.66666653, 4161.02564082, 4175.12820499, 4151.79487159, 4148.20512800, 4139.10256390, 4146.53846133, 4190.25641012, 4213.84615378, 4184.99999986, 4176.41025628, 4130.12820485,10.0
4143.97435877, 4168.07692287, 4191.15384602, 4164.35897415, 4169.23076910, 4157.56410236, 4154.74358954, 4145.64102544, 4148.20512800, 4191.66666653, 4231.53846147, 4195.64102551, 4182.43589730, 4133.71794844,10.0
4132.30769203, 4151.92307672, 4178.97435884, 4144.48717928, 4149.10256390, 4148.33333313, 4140.76923056, 4135.12820485, 4138.97435877, 4179.74358961, 4219.99999993, 4182.56410243, 4165.12820492, 4132.82051255,10.0
4127.30769203, 4148.07692287, 4178.58974345, 4135.38461518, 4140.89743569, 4127.56410229, 4127.56410229, 4127.82051255, 4134.48717921, 4178.71794858, 4225.38461532, 4184.35897422, 4166.92307672, 4131.53846126,10.0
4135.89743569, 4156.79487159, 4190.89743576, 4139.61538441, 4147.56410236, 4135.89743569, 4141.02564082, 4139.35897415, 4141.66666646, 4184.35897422, 4245.12820513, 4196.15384602, 4181.79487166, 4135.25640998,10.0
4138.33333313, 4153.84615364, 4187.30769217, 4136.79487159, 4146.92307672, 4152.43589723, 4149.74358954, 4140.76923056, 4139.48717928, 4185.12820499, 4239.61538462, 4190.25641012, 4173.97435884, 4133.97435870,10.0
4137.05128185, 4147.30769210, 4175.12820499, 4132.69230742, 4142.30769210, 4146.79487159, 4141.02564082, 4137.05128185, 4137.05128185, 4183.46153833, 4225.38461532, 4178.46153833, 4163.33333313, 4134.99999973,10.0
4131.92307665, 4139.23076903, 4165.51282031, 4124.99999973, 4144.48717928, 4141.53846133, 4142.94871774, 4145.38461518, 4145.38461518, 4177.94871781, 4214.74358968, 4171.15384602, 4162.69230749, 4135.89743569,10.0
4117.94871767, 4121.02564075, 4148.58974339, 4109.87179460, 4132.56410229, 4142.30769210, 4149.87179467, 4141.15384595, 4137.30769210, 4163.46153826, 4197.17948704, 4157.30769210, 4146.53846133, 4131.92307665,10.0
4117.94871767, 4121.41025614, 4144.99999980, 4111.92307665, 4121.79487152, 4143.46153826, 4144.99999980, 4129.61538434, 4125.89743562, 4164.61538441, 4196.53846140, 4159.35897415, 4143.71794851, 4133.20512793,10.0
4142.56410236, 4147.94871774, 4173.07692294, 4134.10256383, 4147.17948697, 4157.05128185, 4160.12820492, 4152.30769210, 4150.89743569, 4194.74358961, 4224.35897429, 4187.05128192, 4171.41025628, 4132.43589716,10.0
4155.89743569, 4156.02564082, 4189.87179474, 4141.79487159, 4169.10256397, 4166.28205108, 4183.33333320, 4177.69230756, 4174.99999986, 4202.69230763, 4234.35897436, 4199.35897422, 4178.84615371, 4130.38461511,10.0
4144.35897415, 4149.74358954, 4181.15384602, 4137.17948697, 4154.48717928, 4154.10256390, 4164.10256390, 4155.64102544, 4155.76923056, 4184.61538448, 4221.28205122, 4191.28205115, 4166.02564082, 4131.15384588,10.0
4134.74358947, 4146.15384595, 4174.74358961, 4136.41025621, 4137.82051262, 4141.66666646, 4141.28205108, 4127.69230742, 4135.76923056, 4186.41025628, 4222.69230763, 4188.33333320, 4169.48717935, 4128.58974332,10.0
4138.97435877, 4138.84615364, 4176.53846140, 4133.58974332, 4138.84615364, 4142.17948697, 4155.12820492, 4142.43589723, 4148.97435877, 4197.69230756, 4232.69230763, 4191.28205115, 4182.17948704, 4130.25640998,10.0
4143.58974339, 4139.23076903, 4175.64102551, 4135.76923056, 4145.38461518, 4145.12820492, 4161.92307672, 4160.12820492, 4159.35897415, 4189.87179474, 4228.84615378, 4191.41025628, 4171.41025628, 4131.02564075,10.0
4133.71794844, 4140.51282031, 4164.48717928, 4132.69230742, 4141.15384595, 4145.38461518, 4148.84615364, 4151.02564082, 4146.15384595, 4174.87179474, 4212.94871788, 4181.79487166, 4144.48717928, 4131.02564075,10.0
4125.76923050, 4134.10256383, 4155.89743569, 4120.64102537, 4126.66666639, 4145.38461518, 4152.82051262, 4150.76923056, 4154.48717928, 4180.38461525, 4206.15384609, 4175.89743576, 4145.76923056, 4133.84615357,10.0
4127.82051255, 4128.33333306, 4152.94871774, 4120.89743562, 4122.17948691, 4143.07692287, 4155.38461518, 4154.74358954, 4169.48717935, 4187.43589730, 4203.07692301, 4175.76923063, 4151.02564082, 4130.64102537,10.0
4126.66666639, 4126.53846126, 4151.41025621, 4127.17948691, 4133.20512793, 4136.15384595, 4138.84615364, 4139.35897415, 4153.46153826, 4181.92307679, 4194.99999986, 4171.66666653, 4134.48717921, 4131.92307665,10.0
4135.51282031, 4139.61538441, 4167.82051262, 4136.15384595, 4149.10256390, 4142.94871774, 4152.43589723, 4140.64102544, 4153.33333313, 4195.51282038, 4210.76923070, 4186.02564089, 4142.69230749, 4131.79487152,10.0
4152.30769210, 4154.10256390, 4186.66666653, 4146.02564082, 4154.74358954, 4155.89743569, 4175.76923063, 4165.51282031, 4179.61538448, 4215.64102558, 4233.97435898, 4205.89743583, 4169.10256397, 4129.10256383,10.0
4151.79487159, 4149.61538441, 4178.71794858, 4145.51282031, 4149.10256390, 4153.07692287, 4169.61538448, 4164.10256390, 4167.69230749, 4202.82051275, 4223.58974352, 4197.43589730, 4164.87179467, 4132.69230742,10.0
4153.58974339, 4154.23076903, 4177.94871781, 4151.41025621, 4152.43589723, 4149.61538441, 4163.97435877, 4144.10256390, 4143.58974339, 4190.89743576, 4214.74358968, 4190.76923063, 4155.89743569, 4131.02564075,10.0
4161.41025621, 4164.61538441, 4184.99999986, 4155.89743569, 4155.38461518, 4149.99999980, 4162.94871774, 4150.12820492, 4161.66666646, 4203.33333327, 4221.15384609, 4194.99999986, 4159.10256390, 4132.69230742,10.0
4144.48717928, 4146.66666646, 4163.33333313, 4139.48717928, 4143.07692287, 4137.69230749, 4149.23076903, 4159.61538441, 4168.58974345, 4198.33333320, 4207.43589737, 4181.53846140, 4149.48717928, 4133.84615357,10.0
4127.94871767, 4137.82051262, 4148.97435877, 4131.41025614, 4139.23076903, 4131.66666639, 4145.25641005, 4148.97435877, 4148.20512800, 4181.28205115, 4190.12820499, 4169.74358961, 4135.89743569, 4133.07692280,10.0
4121.92307665, 4144.61538441, 4154.23076903, 4134.35897408, 4137.69230749, 4136.66666646, 4146.15384595, 4132.94871767, 4139.10256390, 4167.05128185, 4181.02564089, 4166.02564082, 4122.56410229, 4138.20512800,10.0
4104.87179460, 4133.71794844, 4144.23076903, 4129.61538434, 4113.71794844, 4127.05128178, 4126.66666639, 4118.84615357, 4128.33333306, 4146.66666646, 4165.76923056, 4149.61538441, 4106.53846126, 4132.05128178,10.0
4108.20512793, 4133.58974332, 4146.92307672, 4138.33333313, 4116.79487152, 4124.87179460, 4129.23076896, 4123.07692280, 4122.05128178, 4153.07692287, 4176.02564089, 4156.41025621, 4118.97435870, 4129.48717921,10.0
4126.92307665, 4146.79487159, 4164.10256390, 4150.89743569, 4153.58974339, 4137.43589723, 4151.15384595, 4142.05128185, 4141.92307672, 4176.02564089, 4198.97435884, 4178.33333320, 4137.82051262, 4135.12820485,10.0
4120.64102537, 4139.99999980, 4153.84615364, 4141.79487159, 4157.05128185, 4142.56410236, 4150.76923056, 4144.35897415, 4157.17948697, 4171.66666653, 4185.25641012, 4165.25641005, 4122.69230742, 4132.69230742,10.0
4119.99999973, 4139.74358954, 4153.58974339, 4143.46153826, 4147.17948697, 4148.97435877, 4156.02564082, 4139.99999980, 4152.94871774, 4170.89743576, 4181.79487166, 4163.71794851, 4118.97435870, 4133.71794844,10.0
4136.53846133, 4150.76923056, 4175.89743576, 4156.28205108, 4155.12820492, 4153.07692287, 4167.17948697, 4145.38461518, 4152.94871774, 4191.41025628, 4207.69230763, 4190.12820499, 4134.99999973, 4134.87179460,10.0
4138.71794851, 4149.61538441, 4173.07692294, 4153.97435877, 4152.94871774, 4149.48717928, 4168.07692287, 4156.66666646, 4162.30769210, 4193.97435884, 4208.71794865, 4189.61538448, 4135.25640998, 4135.64102544,10.0
4118.71794844, 4131.15384588, 4140.38461518, 4139.87179467, 4135.51282031, 4139.10256390, 4153.33333313, 4153.20512800, 4156.79487159, 4166.41025621, 4171.15384602, 4157.30769210, 4116.02564075, 4136.02564082,10.0
4099.74358940, 4115.38461511, 4116.41025614, 4127.43589716, 4119.74358947, 4125.76923050, 4130.76923050, 4134.48717921, 4137.17948697, 4142.56410236, 4141.79487159, 4135.38461518, 4097.17948684, 4131.92307665,10.0
4107.82051255, 4124.74358947, 4126.53846126, 4135.51282031, 4118.33333306, 4127.05128178, 4129.48717921, 4132.30769203, 4140.38461518, 4151.92307672, 4160.25641005, 4146.15384595, 4106.92307665, 4135.76923056,10.0
4107.05128178, 4123.46153819, 4126.15384588, 4138.07692287, 4125.76923050, 4126.79487152, 4128.33333306, 4126.79487152, 4137.30769210, 4153.58974339, 4169.23076910, 4143.58974339, 4108.97435870, 4134.10256383,10.0
4077.17948684, 4092.69230735, 4094.99999966, 4113.33333306, 4123.71794844, 4114.35897408, 4115.25640998, 4113.07692280, 4109.61538434, 4122.94871767, 4130.12820485, 4106.92307665, 4076.66666632, 4128.84615357,10.0
4067.56410215, 4086.79487145, 4084.99999966, 4105.89743562, 4118.84615357, 4114.23076896, 4116.79487152, 4115.25640998, 4104.87179460, 4108.97435870, 4113.97435870, 4097.05128171, 4071.41025607, 4131.79487152,10.0
4086.79487145, 4114.10256383, 4104.48717921, 4126.02564075, 4125.38461511, 4126.28205101, 4125.64102537, 4118.71794844, 4121.66666639, 4128.33333306, 4144.48717928, 4126.41025614, 4100.25640991, 4130.38461511,10.0
4097.30769196, 4128.58974332, 4114.99999973, 4137.43589723, 4136.02564082, 4130.51282024, 4129.61538434, 4125.76923050, 4132.56410229, 4148.07692287, 4158.07692287, 4139.35897415, 4102.94871767, 4132.43589716,10.0
4102.69230742, 4132.69230742, 4123.20512793, 4143.84615364, 4151.02564082, 4141.02564082, 4151.53846133, 4150.89743569, 4145.89743569, 4161.02564082, 4152.69230749, 4136.41025621, 4097.05128171, 4136.02564082,10.0
4106.92307665, 4133.84615357, 4132.82051255, 4148.97435877, 4155.89743569, 4150.76923056, 4159.99999980, 4154.23076903, 4148.07692287, 4162.56410236, 4158.46153826, 4139.23076903, 4108.33333306, 4133.20512793,10.0
4103.84615357, 4124.74358947, 4128.58974332, 4147.30769210, 4144.23076903, 4142.94871774, 4132.94871767, 4129.35897408, 4136.53846133, 4153.58974339, 4157.69230749, 4141.92307672, 4107.17948691, 4131.41025614,10.0
4104.87179460, 4123.84615357, 4126.66666639, 4150.76923056, 4138.84615364, 4131.41025614, 4119.87179460, 4128.33333306, 4140.12820492, 4148.71794851, 4148.46153826, 4141.02564082, 4094.99999966, 4131.79487152,10.0
4098.07692273, 4117.69230742, 4119.10256383, 4145.38461518, 4135.12820485, 4116.28205101, 4108.07692280, 4125.51282024, 4126.15384588, 4130.64102537, 4132.05128178, 4128.84615357, 4085.38461504, 4134.99999973,10.0
4080.38461504, 4102.69230742, 4104.10256383, 4131.66666639, 4119.61538434, 4108.46153819, 4089.61538427, 4099.74358940, 4092.43589709, 4104.23076896, 4114.87179460, 4111.41025614, 4076.53846119, 4131.92307665,10.0
4077.94871761, 4101.53846119, 4102.56410229, 4127.17948691, 4103.20512793, 4116.41025614, 4098.07692273, 4100.89743555, 4094.10256376, 4105.89743562, 4116.66666639, 4107.30769203, 4078.84615350, 4132.43589716,10.0
4079.74358940, 4101.66666632, 4098.71794837, 4125.76923050, 4101.02564068, 4116.92307665, 4115.25640998, 4122.05128178, 4111.15384588, 4118.97435870, 4121.66666639, 4108.71794844, 4086.41025607, 4138.46153826,10.0
4077.30769196, 4099.74358940, 4096.02564068, 4133.58974332, 4116.28205101, 4110.12820485, 4111.28205101, 4121.92307665, 4107.69230742, 4120.12820485, 4118.97435870, 4109.87179460, 4087.82051248, 4134.10256383,10.0
4087.43589709, 4111.41025614, 4108.20512793, 4148.20512800, 4132.82051255, 4114.35897408, 4109.23076896, 4118.84615357, 4107.56410229, 4121.53846126, 4122.05128178, 4118.07692280, 4093.20512786, 4133.07692280,10.0
4085.51282017, 4113.20512793, 4102.43589709, 4138.46153826, 4122.69230742, 4117.56410229, 4117.05128178, 4125.51282024, 4107.56410229, 4116.66666639, 4115.89743562, 4111.15384588, 4085.89743555, 4132.17948691,10.0
4087.43589709, 4114.61538434, 4099.23076889, 4136.66666646, 4126.02564075, 4120.64102537, 4126.02564075, 4135.76923056, 4109.48717921, 4123.71794844, 4122.30769203, 4108.84615357, 4083.46153812, 4129.10256383,10.0
4107.17948691, 4128.33333306, 4118.20512793, 4158.07692287, 4152.56410236, 4131.02564075, 4137.82051262, 4151.79487159, 4134.74358947, 4154.87179467, 4149.74358954, 4127.69230742, 4106.28205101, 4133.84615357,10.0
4086.92307658, 4110.12820485, 4098.46153812, 4142.30769210, 4130.89743562, 4122.82051255, 4126.02564075, 4145.12820492, 4138.33333313, 4151.15384595, 4130.38461511, 4109.87179460, 4097.94871761, 4132.17948691,10.0
4046.53846113, 4075.51282017, 4053.58974318, 4110.12820485, 4088.84615350, 4100.38461504, 4091.92307658, 4111.02564075, 4100.25640991, 4108.33333306, 4079.48717914, 4067.56410215, 4053.33333292, 4129.87179460,10.0
4049.23076882, 4079.48717914, 4056.79487138, 4119.35897408, 4099.35897402, 4099.48717914, 4082.94871761, 4100.12820478, 4082.43589709, 4098.33333299, 4080.38461504, 4070.12820478, 4042.69230728, 4132.30769203,10.0
4068.33333292, 4100.76923043, 4079.35897402, 4136.92307672, 4123.71794844, 4115.25640998, 4108.20512793, 4122.30769203, 4098.84615350, 4117.94871767, 4107.30769203, 4092.30769196, 4062.30769189, 4130.64102537,10.0
4065.51282010, 4097.82051248, 4072.94871761, 4129.61538434, 4113.33333306, 4114.23076896, 4115.25640998, 4126.41025614, 4097.30769196, 4110.76923050, 4101.53846119, 4086.53846119, 4062.82051241, 4132.94871767,10.0
4060.89743548, 4086.02564068, 4064.74358933, 4125.51282024, 4102.56410229, 4102.43589709, 4097.05128171, 4114.48717921, 4084.61538427, 4096.02564068, 4090.25640991, 4075.12820478, 4059.23076882, 4133.07692280,10.0
4062.82051241, 4088.58974325, 4068.84615343, 4131.02564075, 4109.99999973, 4104.10256383, 4099.10256376, 4124.99999973, 4094.48717914, 4106.02564075, 4094.10256376, 4078.07692273, 4063.07692266, 4132.05128178,10.0
4056.02564061, 4090.89743555, 4065.38461497, 4127.43589716, 4108.71794844, 4103.97435870, 4104.74358947, 4128.46153819, 4097.30769196, 4104.87179460, 4085.38461504, 4074.87179453, 4054.23076882, 4133.20512793,10.0
4052.05128164, 4084.10256376, 4059.99999959, 4122.94871767, 4102.05128171, 4100.12820478, 4097.82051248, 4115.76923050, 4087.30769196, 4089.99999966, 4076.92307658, 4064.10256369, 4051.02564061, 4127.82051255,10.0
4071.79487145, 4097.17948684, 4079.61538427, 4137.30769210, 4116.28205101, 4114.87179460, 4109.10256383, 4125.64102537, 4098.84615350, 4106.41025614, 4099.87179453, 4077.56410222, 4078.84615350, 4131.66666639,10.0
4092.56410222, 4119.61538434, 4102.43589709, 4154.74358954, 4133.58974332, 4126.53846126, 4122.05128178, 4142.69230749, 4119.23076896, 4132.43589716, 4127.30769203, 4101.53846119, 4098.20512786, 4135.25640998,10.0
4066.92307651, 4096.15384581, 4076.15384581, 4133.97435870, 4102.82051255, 4105.25640998, 4095.38461504, 4126.79487152, 4102.82051255, 4109.48717921, 4105.89743562, 4079.99999966, 4070.51282017, 4129.35897408,10.0
4038.20512779, 4067.94871754, 4043.84615343, 4110.89743562, 4075.12820478, 4087.05128171, 4075.76923043, 4107.69230742, 4079.48717914, 4080.64102530, 4075.64102530, 4048.71794830, 4052.69230728, 4129.74358947,10.0
4055.64102523, 4086.79487145, 4055.12820472, 4125.64102537, 4103.33333306, 4099.99999966, 4094.48717914, 4114.99999973, 4087.82051248, 4094.35897402, 4085.38461504, 4059.23076882, 4066.66666625, 4131.02564075,10.0
4079.10256376, 4108.20512793, 4074.87179453, 4143.07692287, 4130.51282024, 4119.23076896, 4117.30769203, 4128.58974332, 4103.71794844, 4114.99999973, 4101.02564068, 4079.87179453, 4073.07692273, 4131.53846126,10.0
4083.07692273, 4108.97435870, 4083.58974325, 4147.43589723, 4124.23076896, 4120.64102537, 4125.76923050, 4139.99999980, 4120.76923050, 4122.17948691, 4110.38461511, 4089.10256376, 4073.46153812, 4129.48717921,10.0
4082.30769196, 4113.07692280, 4088.46153812, 4148.71794851, 4121.66666639, 4112.69230742, 4125.64102537, 4145.12820492, 4138.46153826, 4126.92307665, 4120.25640998, 4094.99999966, 4076.53846119, 4128.97435870,10.0
4082.30769196, 4114.23076896, 4083.46153812, 4138.97435877, 4126.41025614, 4117.05128178, 4133.07692280, 4143.71794851, 4128.71794844, 4124.10256383, 4115.38461511, 4092.43589709, 4073.84615350, 4134.74358947,10.0
4079.61538427, 4104.74358947, 4075.76923043, 4126.53846126, 4120.25640998, 4122.56410229, 4134.23076896, 4142.43589723, 4130.12820485, 4117.05128178, 4104.23076896, 4084.87179453, 4068.20512779, 4135.38461518,10.0
4080.64102530, 4102.94871767, 4081.79487145, 4132.05128178, 4116.15384588, 4113.33333306, 4111.79487152, 4133.07692280, 4135.76923056, 4114.10256383, 4102.17948684, 4084.61538427, 4068.33333292, 4134.10256383,10.0
4071.02564068, 4098.33333299, 4080.38461504, 4130.38461511, 4108.58974332, 4099.87179453, 4084.23076889, 4110.12820485, 4017.17948670, 4102.56410229, 4093.58974325, 4077.82051248, 4064.99999959, 4131.79487152,10.0
4043.20512779, 4073.71794837, 4054.87179446, 4105.89743562, 4094.48717914, 4087.82051248, 4065.51282010, 4093.84615350, 3837.30769141, 4076.02564068, 4068.20512779, 4051.92307651, 4050.12820472, 4130.51282024,10.0
4036.02564054, 4065.51282010, 4045.76923036, 4097.43589709, 4083.84615350, 4080.38461504, 4061.28205087, 4102.43589709, 3800.25640929, 4064.99999959, 4057.69230728, 4042.43589702, 4042.30769189, 4135.12820485,10.0
4054.35897395, 4084.87179453, 4066.66666625, 4113.84615357, 4081.66666632, 4088.20512786, 4076.92307658, 4118.71794844, 3860.25640943, 4083.58974325, 4071.41025607, 4063.20512779, 4053.33333292, 4133.07692280,10.0
4061.66666625, 4088.20512786, 4071.66666632, 4115.76923050, 4092.69230735, 4097.30769196, 4092.69230735, 4121.92307665, 3864.10256327, 4094.61538427, 4078.33333299, 4071.66666632, 4062.56410215, 4134.48717921,10.0
4062.56410215, 4082.69230735, 4063.46153805, 4110.25640998, 4106.41025614, 4097.05128171, 4094.87179453, 4117.43589716, 3850.25640943, 4089.87179453, 4076.92307658, 4065.25640984, 4058.58974318, 4138.20512800,10.0
4072.94871761, 4093.07692273, 4070.38461504, 4120.51282024, 4106.92307665, 4097.17948684, 4096.92307658, 4114.48717921, 3867.56410173, 4093.71794837, 4083.84615350, 4069.87179453, 4058.84615343, 4134.35897408,10.0
4087.56410222, 4110.76923050, 4089.10256376, 4136.02564082, 4105.89743562, 4102.56410229, 4105.76923050, 4122.69230742, 3883.20512744, 4110.12820485, 4105.12820485, 4088.46153812, 4079.87179453, 4137.69230749,10.0
4089.61538427, 4112.69230742, 4093.33333299, 4132.56410229, 4109.99999973, 4108.71794844, 4114.61538434, 4137.43589723, 3898.33333257, 4115.25640998, 4109.74358947, 4094.61538427, 4089.99999966, 4136.41025621,10.0
4075.38461504, 4091.92307658, 4074.23076889, 4109.48717921, 4099.10256376, 4111.92307665, 4114.87179460, 4131.02564075, 3892.69230693, 4093.58974325, 4083.07692273, 4076.15384581, 4064.87179446, 4131.41025614,10.0
4064.10256369, 4078.46153812, 4061.02564061, 4100.51282017, 4074.74358940, 4105.38461511, 4102.82051255, 4113.33333306, 3876.15384539, 4078.84615350, 4064.87179446, 4064.23076882, 4046.92307651, 4133.46153819,10.0
4070.25640991, 4089.87179453, 4074.48717914, 4112.82051255, 4077.56410222, 4098.58974325, 4099.87179453, 4117.30769203, 3884.48717873, 4089.99999966, 4076.53846119, 4072.82051248, 4061.41025600, 4130.89743562,10.0
4070.38461504, 4095.51282017, 4080.76923043, 4115.38461511, 4099.74358940, 4101.79487145, 4101.28205094, 4121.92307665, 3889.99999924, 4092.56410222, 4084.35897402, 4073.84615350, 4066.66666625, 4131.92307665,10.0
4057.30769189, 4082.05128171, 4067.17948677, 4104.61538434, 4101.02564068, 4099.10256376, 4085.38461504, 4102.17948684, 3875.64102488, 4077.30769196, 4074.99999966, 4064.10256369, 4051.92307651, 4132.56410229,10.0
4068.58974318, 4090.12820478, 4079.87179453, 4114.99999973, 4097.94871761, 4094.61538427, 4082.56410222, 4097.30769196, 3882.17948642, 4083.33333299, 4085.76923043, 4076.41025607, 4059.10256369, 4128.71794844,10.0
4078.46153812, 4103.07692280, 4091.02564068, 4125.64102537, 4104.23076896, 4094.99999966, 4088.20512786, 4106.02564075, 3897.43589668, 4094.10256376, 4093.07692273, 4083.84615350, 4065.25640984, 4129.74358947,10.0
4059.74358933, 4089.23076889, 4070.89743555, 4107.56410229, 4099.87179453, 4095.76923043, 4087.43589709, 4098.84615350, 3892.30769155, 4085.89743555, 4075.38461504, 4065.12820472, 4047.30769189, 4129.87179460,10.0
4055.89743548, 4079.74358940, 4062.43589702, 4098.58974325, 4089.23076889, 4098.58974325, 4097.43589709, 4097.69230735, 3898.07692232, 4082.82051248, 4068.84615343, 4059.61538420, 4046.02564061, 4129.23076896,10.0
4070.64102530, 4088.07692273, 4071.79487145, 4110.89743562, 4094.35897402, 4101.28205094, 4108.84615357, 4106.41025614, 3913.33333264, 4091.66666632, 4078.07692273, 4069.61538420, 4061.79487138, 4128.33333306,10.0
4075.64102530, 4098.46153812, 4079.48717914, 4115.89743562, 4102.43589709, 4101.92307658, 4104.35897408, 4105.64102537, 3913.07692239, 4101.53846119, 4086.41025607, 4074.61538427, 4065.51282010, 4128.84615357,10.0
4073.46153812, 4096.66666632, 4084.87179453, 4111.92307665, 4088.84615350, 4100.12820478, 4093.71794837, 4096.53846119, 3907.30769162, 4104.10256383, 4089.87179453, 4077.17948684, 4061.92307651, 4129.87179460,10.0
4071.02564068, 4089.35897402, 4082.82051248, 4115.12820485, 4085.64102530, 4104.48717921, 4099.87179453, 4095.89743555, 3911.15384546, 4099.61538427, 4089.61538427, 4080.76923043, 4062.56410215, 4128.71794844,10.0
4062.82051241, 4083.71794837, 4069.99999966, 4111.92307665, 4101.41025607, 4108.97435870, 4109.35897408, 4103.46153819, 3909.87179418, 4087.69230735, 4077.94871761, 4073.07692273, 4058.07692266, 4130.76923050,10.0
4069.99999966, 4093.71794837, 4083.58974325, 4117.17948691, 4114.48717921, 4106.53846126, 4112.43589716, 4106.41025614, 3910.64102495, 4091.53846119, 4083.58974325, 4079.74358940, 4064.74358933, 4130.76923050,10.0
4087.17948684, 4108.84615357, 4111.66666639, 4135.25640998, 4116.53846126, 4104.23076896, 4112.94871767, 4108.58974332, 3921.79487110, 4108.84615357, 4104.61538434, 4104.99999973, 4079.35897402, 4129.99999973,10.0
4081.66666632, 4102.43589709, 4103.07692280, 4130.12820485, 4112.43589716, 4104.61538434, 4110.64102537, 4109.35897408, 3919.35897367, 4101.66666632, 4095.76923043, 4101.15384581, 4073.71794837, 4130.64102537,10.0
4057.30769189, 4081.28205094, 4070.38461504, 4107.82051255, 4097.69230735, 4096.79487145, 4096.92307658, 4099.23076889, 3903.46153770, 4076.28205094, 4063.33333292, 4069.10256369, 4050.38461497, 4129.23076896,10.0
4050.25640984, 4075.64102530, 4060.89743548, 4103.84615357, 4091.79487145, 4093.07692273, 4091.28205094, 4102.30769196, 3906.53846085, 4073.84615350, 4054.61538420, 4057.17948677, 4041.53846113, 4132.56410229,10.0
4066.02564061, 4090.64102530, 4082.05128171, 4118.71794844, 4106.53846126, 4107.56410229, 4110.89743562, 4116.92307665, 3924.35897367, 4095.38461504, 4076.53846119, 4072.30769196, 4057.17948677, 4132.17948691,10.0
4071.66666632, 4093.20512786, 4087.82051248, 4122.94871767, 4100.89743555, 4108.58974332, 4111.28205101, 4104.10256383, 3916.53846085, 4096.02564068, 4082.82051248, 4077.94871761, 4066.66666625, 4130.76923050,10.0
4066.92307651, 4084.87179453, 4074.10256376, 4113.97435870, 4087.43589709, 4091.41025607, 4086.53846119, 4087.82051248, 3899.99999924, 4081.02564068, 4069.23076882, 4072.05128171, 4061.66666625, 4135.12820485,10.0
4075.38461504, 4094.23076889, 4078.20512786, 4117.30769203, 4103.46153819, 4094.35897402, 4091.41025607, 4097.69230735, 3914.74358905, 4090.25640991, 4076.79487145, 4078.71794837, 4064.10256369, 4133.71794844,10.0
4088.20512786, 4107.30769203, 4094.61538427, 4129.23076896, 4119.48717921, 4109.99999973, 4117.69230742, 4107.17948691, 3929.48717880, 4105.51282024, 4095.38461504, 4092.82051248, 4077.69230735, 4132.56410229,10.0
4080.76923043, 4093.20512786, 4088.20512786, 4119.35897408, 4105.76923050, 4100.38461504, 4108.20512793, 4101.41025607, 3913.97435828, 4092.05128171, 4087.05128171, 4088.84615350, 4077.05128171, 4133.20512793,10.0
4077.69230735, 4083.33333299, 4084.61538427, 4108.33333306, 4101.15384581, 4097.30769196, 4100.38461504, 4105.25640998, 3910.64102495, 4086.79487145, 4081.53846119, 4086.02564068, 4071.53846119, 4132.05128178,10.0
4102.69230742, 4106.92307665, 4112.30769203, 4129.35897408, 4123.20512793, 4118.97435870, 4126.79487152, 4114.61538434, 3932.43589674, 4113.84615357, 4107.94871767, 4109.23076896, 4085.76923043, 4134.35897408,10.0
4102.30769196, 4107.82051255, 4112.05128178, 4135.38461518, 4118.07692280, 4109.35897408, 4115.51282024, 4100.38461504, 3918.58974290, 4112.82051255, 4107.17948691, 4107.43589716, 4084.99999966, 4131.28205101,10.0
4063.46153805, 4071.28205094, 4068.46153805, 4101.41025607, 4079.87179453, 4073.33333299, 4065.76923036, 4079.23076889, 3875.64102488, 4075.12820478, 4064.87179446, 4065.38461497, 4055.25640984, 4127.43589716,10.0
4052.56410215, 4061.66666625, 4054.74358933, 4092.17948684, 4069.74358940, 4077.17948684, 4072.82051248, 4082.82051248, 3868.58974276, 4061.79487138, 4055.12820472, 4054.61538420, 4047.43589702, 4130.38461511,10.0
4082.69230735, 4090.12820478, 4083.97435863, 4124.35897408, 4102.94871767, 4109.99999973, 4120.51282024, 4101.02564068, 3893.84615309, 4084.87179453, 4087.05128171, 4085.38461504, 4071.92307658, 4132.05128178,10.0
4093.84615350, 4099.61538427, 4096.15384581, 4135.12820485, 4113.58974332, 4111.41025614, 4118.97435870, 4102.43589709, 3901.92307616, 4100.89743555, 4096.79487145, 4091.79487145, 4080.76923043, 4132.94871767,10.0
4084.87179453, 4091.02564068, 4088.20512786, 4126.15384588, 4097.05128171, 4095.51282017, 4096.53846119, 4090.12820478, 3889.87179411, 4096.41025607, 4081.41025607, 4077.05128171, 4072.17948684, 4133.46153819,10.0
4101.02564068, 4104.23076896, 4099.87179453, 4137.82051262, 4114.35897408, 4108.07692280, 4114.87179460, 4096.92307658, 3893.33333257, 4101.79487145, 4086.28205094, 4090.51282017, 4081.79487145, 4134.74358947,10.0
4119.23076896, 4121.28205101, 4114.35897408, 4152.82051262, 4144.74358954, 4128.71794844, 4144.35897415, 4115.89743562, 3906.15384546, 4119.10256383, 4103.33333306, 4113.20512793, 4095.25640991, 4133.71794844,10.0
4108.97435870, 4114.61538434, 4109.99999973, 4148.71794851, 4141.79487159, 4124.74358947, 4136.15384595, 4105.51282024, 3885.64102488, 4116.92307665, 4104.99999973, 4108.71794844, 4089.61538427, 4127.30769203,10.0
4102.43589709, 4109.23076896, 4106.41025614, 4145.76923056, 4131.41025614, 4112.43589716, 4116.92307665, 4087.94871761, 3860.25640943, 4107.56410229, 4100.89743555, 4097.69230735, 4085.38461504, 4130.38461511,10.0
4092.43589709, 4106.53846126, 4094.61538427, 4142.56410236, 4124.23076896, 4106.28205101, 4107.82051255, 4086.92307658, 3863.58974276, 4103.20512793, 4084.74358940, 4083.84615350, 4075.51282017, 4131.79487152,10.0
4064.87179446, 4088.07692273, 4069.35897395, 4128.71794844, 4100.76923043, 4099.10256376, 4097.30769196, 4079.99999966, 3859.23076840, 4082.82051248, 4057.30769189, 4058.46153805, 4050.51282010, 4125.76923050,10.0
4063.46153805, 4084.87179453, 4071.92307658, 4132.82051255, 4098.07692273, 4101.28205094, 4101.41025607, 4080.51282017, 3849.99999917, 4073.71794837, 4058.71794830, 4056.15384574, 4052.43589702, 4128.71794844,10.0
4080.51282017, 4099.35897402, 4091.92307658, 4148.20512800, 4110.12820485, 4109.35897408, 4110.12820485, 4094.35897402, 3862.43589661, 4090.76923043, 4079.48717914, 4074.99999966, 4076.41025607, 4133.20512793,10.0
4075.89743555, 4092.05128171, 4083.20512786, 4140.51282031, 4091.66666632, 4106.15384588, 4103.20512793, 4093.97435863, 3868.07692225, 4091.66666632, 4079.23076889, 4074.87179453, 4073.97435863, 4134.99999973,10.0
4079.61538427, 4090.25640991, 4080.25640991, 4137.43589723, 4091.92307658, 4107.82051255, 4103.71794844, 4088.97435863, 3868.84615302, 4090.12820478, 4083.71794837, 4076.92307658, 4069.61538420, 4132.05128178,10.0
4105.76923050, 4112.69230742, 4109.23076896, 4156.66666646, 4124.61538434, 4119.74358947, 4118.84615357, 4099.61538427, 3893.33333257, 4114.23076896, 4111.92307665, 4104.10256383, 4091.79487145, 4127.69230742,10.0
4115.38461511, 4116.92307665, 4121.28205101, 4163.71794851, 4123.33333306, 4119.74358947, 4119.23076896, 4100.38461504, 3898.07692232, 4122.56410229, 4125.51282024, 4120.38461511, 4104.61538434, 4130.12820485,10.0
4117.05128178, 4112.43589716, 4118.20512793, 4161.15384595, 4110.12820485, 4118.20512793, 4117.69230742, 4089.35897402, 3879.74358898, 4112.82051255, 4126.28205101, 4123.97435870, 4103.33333306, 4130.89743562,10.0
4127.82051255, 4118.33333306, 4124.48717921, 4164.23076903, 4116.66666639, 4119.87179460, 4121.28205101, 4090.12820478, 3884.99999924, 4117.43589716, 4131.28205101, 4127.69230742, 4107.69230742, 4131.92307665,10.0
4116.79487152, 4108.58974332, 4117.94871767, 4154.10256390, 4106.79487152, 4110.25640998, 4110.25640998, 4094.23076889, 3897.17948642, 4118.46153819, 4120.89743562, 4113.33333306, 4104.99999973, 4132.17948691,10.0
4106.53846126, 4105.64102537, 4112.69230742, 4154.35897415, 4106.02564075, 4112.30769203, 4113.97435870, 4101.41025607, 3905.25640950, 4120.12820485, 4116.02564075, 4108.33333306, 4104.74358947, 4131.02564075,10.0
4126.02564075, 4128.84615357, 4129.87179460, 4176.28205115, 4124.23076896, 4128.20512793, 4129.23076896, 4104.74358947, 3911.79487110, 4134.87179460, 4135.25640998, 4125.76923050, 4117.30769203, 4136.15384595,10.0
4127.94871767, 4132.56410229, 4131.15384588, 4175.89743576, 4116.41025614, 4122.69230742, 4122.69230742, 4098.20512786, 3905.76923008, 4132.94871767, 4135.76923056, 4118.71794844, 4114.74358947, 4134.99999973,10.0
4099.48717914, 4108.46153819, 4100.51282017, 4150.38461518, 4106.02564075, 4107.43589716, 4109.87179460, 4097.30769196, 3897.94871719, 4111.41025614, 4107.94871767, 4089.74358940, 4096.53846119, 4132.94871767,10.0
4088.46153812, 4100.38461504, 4086.28205094, 4142.56410236, 4118.20512793, 4111.66666639, 4117.30769203, 4103.20512793, 3906.41025572, 4105.64102537, 4098.97435863, 4083.58974325, 4094.61538427, 4137.05128185,10.0
4102.94871767, 4113.84615357, 4105.64102537, 4159.61538441, 4127.82051255, 4126.41025614, 4133.58974332, 4106.28205101, 3923.33333264, 4120.38461511, 4117.30769203, 4097.05128171, 4106.79487152, 4131.79487152,10.0
4112.17948691, 4125.25640998, 4117.69230742, 4172.82051269, 4129.87179460, 4131.15384588, 4136.66666646, 4105.76923050, 3926.02564033, 4124.99999973, 4124.61538434, 4104.99999973, 4110.12820485, 4129.23076896,10.0
4110.64102537, 4122.69230742, 4109.61538434, 4168.84615371, 4128.71794844, 4124.87179460, 4129.10256383, 4104.48717921, 3917.30769162, 4111.79487152, 4112.43589716, 4103.33333306, 4103.33333306, 4132.43589716,10.0
4101.79487145, 4107.43589716, 4099.35897402, 4155.64102544, 4114.48717921, 4110.64102537, 4110.89743562, 4093.58974325, 3908.07692239, 4092.94871761, 4093.07692273, 4087.56410222, 4090.38461504, 4132.17948691,10.0
4100.89743555, 4102.17948684, 4101.66666632, 4153.46153826, 4101.02564068, 4102.56410229, 4099.48717914, 4084.87179453, 3905.76923008, 4084.35897402, 4089.35897402, 4084.35897402, 4086.15384581, 4132.43589716,10.0
4121.28205101, 4114.48717921, 4118.58974332, 4163.33333313, 4102.56410229, 4111.15384588, 4108.58974332, 4095.12820478, 3912.17948649, 4094.10256376, 4109.87179460, 4108.33333306, 4101.28205094, 4130.76923050,10.0
4141.53846133, 4128.58974332, 4137.05128185, 4173.97435884, 4114.87179460, 4118.33333306, 4120.51282024, 4105.89743562, 3923.46153777, 4108.20512793, 4127.43589716, 4128.20512793, 4118.20512793, 4130.38461511,10.0
4139.23076903, 4129.99999973, 4142.82051262, 4177.17948704, 4127.69230742, 4109.10256383, 4114.35897408, 4094.87179453, 3926.15384546, 4113.07692280, 4130.25640998, 4128.58974332, 4119.23076896, 4130.38461511,10.0
4126.66666639, 4122.05128178, 4135.89743569, 4166.92307672, 4123.33333306, 4100.25640991, 4105.12820485, 4083.58974325, 3920.12820444, 4107.17948691, 4123.33333306, 4120.89743562, 4108.71794844, 4129.61538434,10.0
4132.56410229, 4125.25640998, 4137.82051262, 4165.25641005, 4119.74358947, 4117.69230742, 4126.53846126, 4100.51282017, 3930.38461469, 4108.46153819, 4120.64102537, 4123.20512793, 4108.97435870, 4131.15384588,10.0
4145.64102544, 4140.25641005, 4149.99999980, 4177.17948704, 4132.56410229, 4136.66666646, 4145.64102544, 4114.35897408, 3946.92307630, 4122.30769203, 4131.15384588, 4131.92307665, 4118.46153819, 4130.12820485,10.0
4145.51282031, 4144.74358954, 4154.10256390, 4180.51282038, 4135.51282031, 4130.64102537, 4138.84615364, 4110.38461511, 3952.05128143, 4134.10256383, 4140.64102544, 4134.48717921, 4121.92307665, 4129.23076896,10.0
4139.61538441, 4140.51282031, 4149.87179467, 4181.02564089, 4135.25640998, 4127.94871767, 4143.58974339, 4114.99999973, 3961.92307630, 4139.61538441, 4142.30769210, 4138.20512800, 4124.23076896, 4126.02564075,10.0
4138.07692287, 4138.46153826, 4144.10256390, 4181.79487166, 4142.30769210, 4135.89743569, 4149.48717928, 4114.99999973, 3964.61538399, 4133.46153819, 4140.89743569, 4140.64102544, 4123.46153819, 4128.20512793,10.0
4130.25640998, 4125.51282024, 4131.79487152, 4166.28205108, 4122.82051255, 4130.89743562, 4124.99999973, 4095.38461504, 3944.23076861, 4111.53846126, 4122.94871767, 4120.76923050, 4105.38461511, 4134.48717921,10.0
4119.48717921, 4113.84615357, 4123.07692280, 4154.99999980, 4105.38461511, 4126.15384588, 4114.74358947, 4092.69230735, 3942.17948656, 4103.20512793, 4104.74358947, 4100.38461504, 4095.12820478, 4130.25640998,10.0
4125.64102537, 4127.17948691, 4130.25640998, 4166.02564082, 4133.20512793, 4133.46153819, 4138.20512800, 4111.28205101, 3967.05128143, 4122.69230742, 4118.84615357, 4109.61538434, 4115.38461511, 4132.30769203,10.0
4138.07692287, 4142.82051262, 4141.79487159, 4178.20512807, 4159.23076903, 4136.79487159, 4141.92307672, 4112.56410229, 3978.33333278, 4140.76923056, 4141.02564082, 4130.38461511, 4137.05128185, 4138.84615364,10.0
4142.05128185, 4143.20512800, 4151.15384595, 4183.97435884, 4148.97435877, 4134.87179460, 4134.23076896, 4106.79487152, 3978.84615329, 4151.41025621, 4148.58974339, 4142.94871774, 4144.10256390, 4135.76923056,10.0
4134.10256383, 4133.33333306, 4150.64102544, 4179.61538448, 4133.07692280, 4130.76923050, 4136.79487159, 4108.84615357, 3979.35897381, 4152.05128185, 4149.87179467, 4141.79487159, 4142.43589723, 4132.82051255,10.0
4127.94871767, 4126.41025614, 4139.23076903, 4169.99999986, 4129.74358947, 4126.41025614, 4136.92307672, 4111.15384588, 3980.25640970, 4144.99999980, 4152.17948697, 4134.61538434, 4139.74358954, 4132.17948691,10.0
4131.28205101, 4126.79487152, 4132.30769203, 4170.38461525, 4135.38461518, 4127.17948691, 4136.02564082, 4115.12820485, 3987.30769176, 4147.30769210, 4155.51282031, 4131.28205101, 4141.02564082, 4132.05128178,10.0
4131.02564075, 4128.20512793, 4132.94871767, 4177.82051269, 4140.51282031, 4122.82051255, 4129.10256383, 4110.25640998, 3992.43589688, 4150.38461518, 4156.28205108, 4130.64102537, 4141.79487159, 4128.71794844,10.0
4118.33333306, 4121.79487152, 4124.61538434, 4172.82051269, 4126.28205101, 4115.12820485, 4119.10256383, 4100.12820478, 3986.28205073, 4139.74358954, 4144.99999980, 4120.64102537, 4130.12820485, 4125.38461511,10.0
4103.20512793, 4110.38461511, 4105.25640998, 4155.64102544, 4115.51282024, 4123.20512793, 4125.89743562, 4106.41025614, 3985.89743535, 4128.20512793, 4126.66666639, 4102.17948684, 4114.61538434, 4128.33333306,10.0
4099.35897402, 4102.30769196, 4094.23076889, 4141.28205108, 4125.38461511, 4133.97435870, 4136.28205108, 4114.61538434, 3990.38461483, 4126.79487152, 4118.58974332, 4094.87179453, 4108.07692280, 4130.51282024,10.0
4106.41025614, 4099.10256376, 4094.74358940, 4135.51282031, 4126.53846126, 4131.15384588, 4134.23076896, 4110.64102537, 3991.92307637, 4128.97435870, 4118.84615357, 4095.76923043, 4105.64102537, 4131.66666639,10.0
4120.38461511, 4108.97435870, 4104.99999973, 4141.53846133, 4124.87179460, 4130.76923050, 4140.12820492, 4117.82051255, 4003.97435842, 4134.48717921, 4122.94871767, 4098.46153812, 4108.84615357, 4133.71794844,10.0
4132.69230742, 4128.97435870, 4123.07692280, 4156.53846133, 4141.92307672, 4145.38461518, 4160.12820492, 4133.58974332, 4022.17948670, 4142.43589723, 4126.28205101, 4107.56410229, 4117.30769203, 4131.92307665,10.0
4141.28205108, 4143.07692287, 4138.33333313, 4164.23076903, 4160.25641005, 4161.92307672, 4175.76923063, 4137.56410236, 4027.82051234, 4143.58974339, 4125.38461511, 4122.69230742, 4122.82051255, 4133.71794844,10.0
4145.64102544, 4141.92307672, 4140.76923056, 4159.48717928, 4162.94871774, 4157.69230749, 4172.05128192, 4125.89743562, 4018.20512772, 4132.56410229, 4117.69230742, 4129.23076896, 4117.30769203, 4134.23076896,10.0
4145.51282031, 4136.15384595, 4134.74358947, 4155.64102544, 4151.66666646, 4144.87179467, 4157.30769210, 4112.82051255, 4003.71794817, 4118.97435870, 4109.10256383, 4125.25640998, 4105.76923050, 4131.02564075,10.0
4140.64102544, 4136.92307672, 4128.71794844, 4154.99999980, 4140.25641005, 4142.94871774, 4155.25641005, 4114.35897408, 3999.48717894, 4115.38461511, 4105.89743562, 4120.51282024, 4104.74358947, 4131.79487152,10.0
4127.94871767, 4133.07692280, 4119.99999973, 4148.20512800, 4140.25641005, 4134.35897408, 4143.07692287, 4109.48717921, 4001.15384560, 4111.41025614, 4099.48717914, 4114.87179460, 4106.53846126, 4132.30769203,10.0
4124.87179460, 4127.30769203, 4119.10256383, 4144.10256390, 4145.38461518, 4119.48717921, 4116.15384588, 4099.61538427, 4002.17948663, 4111.92307665, 4102.30769196, 4118.33333306, 4109.23076896, 4134.87179460,10.0
4128.84615357, 4125.25640998, 4124.10256383, 4147.05128185, 4139.35897415, 4114.87179460, 4106.41025614, 4099.10256376, 3999.99999945, 4121.92307665, 4117.56410229, 4127.43589716, 4118.71794844, 4134.23076896,10.0
4126.92307665, 4126.02564075, 4126.02564075, 4147.30769210, 4131.66666639, 4120.12820485, 4117.69230742, 4096.15384581, 4002.94871740, 4131.02564075, 4126.53846126, 4131.41025614, 4127.17948691, 4131.02564075,10.0
4130.64102537, 4131.79487152, 4133.71794844, 4149.99999980, 4141.79487159, 4129.99999973, 4130.76923050, 4096.15384581, 4020.89743541, 4142.17948697, 4134.74358947, 4134.10256383, 4131.92307665, 4132.30769203,10.0
4133.97435870, 4135.76923056, 4141.15384595, 4156.15384595, 4148.97435877, 4132.43589716, 4130.38461511, 4093.58974325, 4024.87179439, 4149.10256390, 4149.87179467, 4135.64102544, 4136.79487159, 4128.71794844,10.0
4134.48717921, 4137.69230749, 4141.53846133, 4157.82051262, 4141.28205108, 4132.30769203, 4135.89743569, 4097.30769196, 4021.53846106, 4149.87179467, 4159.61538441, 4137.82051262, 4141.41025621, 4127.82051255,10.0
4139.74358954, 4140.25641005, 4143.07692287, 4156.53846133, 4142.43589723, 4137.17948697, 4151.53846133, 4115.12820485, 4040.25640984, 4159.35897415, 4157.69230749, 4135.76923056, 4139.99999980, 4131.15384588,10.0
4139.99999980, 4134.48717921, 4141.66666646, 4153.46153826, 4152.82051262, 4134.48717921, 4146.66666646, 4107.69230742, 4041.66666625, 4156.79487159, 4148.07692287, 4123.97435870, 4131.92307665, 4131.02564075,10.0
4138.58974339, 4130.12820485, 4136.02564082, 4152.82051262, 4156.28205108, 4132.82051255, 4133.97435870, 4083.71794837, 4020.25640977, 4137.56410236, 4137.69230749, 4122.30769203, 4127.17948691, 4131.53846126,10.0
4137.69230749, 4129.61538434, 4128.71794844, 4148.71794851, 4147.05128185, 4136.79487159, 4133.33333306, 4081.79487145, 4015.38461490, 4122.82051255, 4124.99999973, 4124.87179460, 4119.74358947, 4130.51282024,10.0
4123.33333306, 4119.61538434, 4114.35897408, 4132.82051255, 4128.97435870, 4127.43589716, 4127.30769203, 4080.89743555, 4010.64102516, 4109.35897408, 4106.41025614, 4107.94871767, 4106.02564075, 4133.07692280,10.0
4113.84615357, 4113.46153819, 4108.07692280, 4125.51282024, 4128.97435870, 4120.89743562, 4122.43589716, 4071.41025607, 4001.15384560, 4100.25640991, 4100.25640991, 4096.53846119, 4103.33333306, 4134.99999973,10.0
4123.97435870, 4122.94871767, 4120.12820485, 4132.56410229, 4138.97435877, 4129.48717921, 4129.35897408, 4082.82051248, 4019.74358926, 4104.99999973, 4107.17948691, 4105.51282024, 4110.25640998, 4129.99999973,10.0
4126.15384588, 4125.89743562, 4121.02564075, 4130.25640998, 4127.69230742, 4127.43589716, 4123.58974332, 4089.99999966, 4033.33333285, 4108.84615357, 4104.61538434, 4107.69230742, 4106.92307665, 4133.07692280,10.0
4119.99999973, 4117.69230742, 4115.25640998, 4128.33333306, 4123.33333306, 4119.74358947, 4118.20512793, 4077.94871761, 4020.25640977, 4107.43589716, 4103.97435870, 4106.92307665, 4108.20512793, 4135.38461518,10.0
4124.74358947, 4116.66666639, 4123.84615357, 4136.53846133, 4138.97435877, 4123.97435870, 4132.05128178, 4084.48717914, 4026.28205080, 4114.74358947, 4117.43589716, 4116.66666639, 4122.56410229, 4131.41025614,10.0
4137.43589723, 4128.58974332, 4137.82051262, 4145.25641005, 4144.87179467, 4135.38461518, 4143.84615364, 4097.05128171, 4044.23076882, 4126.79487152, 4129.61538434, 4129.23076896, 4130.89743562, 4134.99999973,10.0
4153.97435877, 4149.99999980, 4153.71794851, 4156.41025621, 4156.66666646, 4147.69230749, 4155.89743569, 4099.48717914, 4047.94871754, 4137.56410236, 4138.84615364, 4144.74358954, 4133.46153819, 4136.28205108,10.0
4163.71794851, 4156.53846133, 4165.12820492, 4161.41025621, 4166.28205108, 4147.43589723, 4162.94871774, 4102.94871767, 4052.17948677, 4143.20512800, 4146.02564082, 4155.64102544, 4137.30769210, 4133.84615357,10.0
4147.56410236, 4136.92307672, 4151.02564082, 4145.89743569, 4138.07692287, 4128.58974332, 4140.38461518, 4095.51282017, 4053.33333292, 4139.48717928, 4142.82051262, 4145.51282031, 4132.94871767, 4129.99999973,10.0
4128.07692280, 4120.12820485, 4128.46153819, 4128.58974332, 4121.53846126, 4120.12820485, 4121.53846126, 4078.97435863, 4038.84615343, 4134.87179460, 4133.46153819, 4126.15384588, 4125.25640998, 4128.84615357,10.0
4137.56410236, 4126.66666639, 4133.84615357, 4135.12820485, 4144.61538441, 4130.38461511, 4133.07692280, 4079.48717914, 4033.33333285, 4134.48717921, 4133.46153819, 4126.66666639, 4131.41025614, 4135.12820485,10.0
4151.41025621, 4137.17948697, 4148.84615364, 4147.43589723, 4148.71794851, 4127.56410229, 4133.33333306, 4087.69230735, 4049.99999959, 4137.05128185, 4143.58974339, 4141.79487159, 4139.99999980, 4133.20512793,10.0
4152.05128185, 4135.76923056, 4151.15384595, 4146.53846133, 4136.66666646, 4117.82051255, 4117.30769203, 4088.20512786, 4060.25640984, 4141.79487159, 4153.33333313, 4149.10256390, 4144.99999980, 4127.82051255,10.0
4155.89743569, 4135.89743569, 4156.66666646, 4150.38461518, 4144.10256390, 4125.38461511, 4124.48717921, 4095.89743555, 4061.66666625, 4153.20512800, 4162.17948697, 4152.30769210, 4151.28205108, 4129.23076896,10.0
4154.99999980, 4134.10256383, 4156.79487159, 4152.82051262, 4143.58974339, 4132.05128178, 4138.84615364, 4106.41025614, 4068.20512779, 4159.74358954, 4161.66666646, 4154.48717928, 4149.48717928, 4132.05128178,10.0
4146.41025621, 4130.38461511, 4147.82051262, 4144.35897415, 4127.05128178, 4127.94871767, 4132.82051255, 4099.74358940, 4066.28205087, 4146.66666646, 4151.28205108, 4152.69230749, 4146.15384595, 4135.51282031,10.0
4153.33333313, 4143.07692287, 4158.97435877, 4150.38461518, 4138.20512800, 4136.28205108, 4135.25640998, 4090.25640991, 4060.25640984, 4139.35897415, 4159.74358954, 4161.53846133, 4153.71794851, 4129.99999973,10.0
4167.17948697, 4156.92307672, 4176.02564089, 4167.69230749, 4164.74358954, 4146.02564082, 4150.12820492, 4093.97435863, 4064.74358933, 4147.56410236, 4173.97435884, 4172.43589730, 4158.97435877, 4124.10256383,10.0
4152.17948697, 4142.17948697, 4152.56410236, 4157.05128185, 4160.12820492, 4134.23076896, 4140.51282031, 4092.05128171, 4059.48717907, 4134.99999973, 4148.97435877, 4151.15384595, 4141.15384595, 4127.17948691,10.0
4129.87179460, 4121.41025614, 4120.25640998, 4133.58974332, 4132.56410229, 4124.61538434, 4125.51282024, 4083.20512786, 4046.92307651, 4108.71794844, 4118.71794844, 4122.94871767, 4121.02564075, 4129.48717921,10.0
4142.17948697, 4132.05128178, 4139.87179467, 4142.05128185, 4131.92307665, 4131.79487152, 4135.89743569, 4089.23076889, 4056.28205087, 4118.97435870, 4140.12820492, 4138.58974339, 4131.15384588, 4129.23076896,10.0
4159.35897415, 4144.48717928, 4167.56410236, 4156.92307672, 4154.74358954, 4138.07692287, 4145.51282031, 4099.23076889, 4070.38461504, 4143.07692287, 4163.07692287, 4162.30769210, 4141.28205108, 4129.87179460,10.0
4148.71794851, 4132.69230742, 4150.89743569, 4142.82051262, 4155.64102544, 4136.66666646, 4131.66666639, 4095.64102530, 4068.84615343, 4133.46153819, 4142.94871774, 4147.17948697, 4125.64102537, 4133.07692280,10.0
4136.53846133, 4125.38461511, 4131.92307665, 4131.79487152, 4136.53846133, 4129.61538434, 4113.71794844, 4087.94871761, 4065.64102523, 4119.35897408, 4126.15384588, 4126.92307665, 4116.41025614, 4132.05128178,10.0
4149.99999980, 4139.87179467, 4149.48717928, 4151.92307672, 4138.46153826, 4130.76923050, 4123.97435870, 4094.10256376, 4075.76923043, 4137.05128185, 4149.74358954, 4148.71794851, 4131.79487152, 4129.87179460,10.0
4165.12820492, 4151.79487159, 4169.23076910, 4167.17948697, 4156.41025621, 4143.20512800, 4146.28205108, 4106.02564075, 4088.58974325, 4155.25641005, 4173.46153833, 4174.10256397, 4146.02564082, 4132.56410229,10.0
4152.30769210, 4141.28205108, 4158.33333313, 4152.82051262, 4144.74358954, 4139.48717928, 4136.79487159, 4101.53846119, 4086.02564068, 4145.64102544, 4161.66666646, 4160.76923056, 4140.38461518, 4130.12820485,10.0
4138.97435877, 4129.10256383, 4146.92307672, 4141.66666646, 4119.48717921, 4126.79487152, 4118.07692280, 4092.43589709, 4076.02564068, 4138.46153826, 4154.35897415, 4151.02564082, 4134.74358947, 4131.15384588,10.0
4136.02564082, 4121.02564075, 4141.41025621, 4141.02564082, 4119.48717921, 4124.99999973, 4123.33333306, 4092.94871761, 4073.58974325, 4136.02564082, 4149.35897415, 4149.23076903, 4128.33333306, 4134.23076896,10.0
4125.12820485, 4112.30769203, 4122.82051255, 4133.97435870, 4130.89743562, 4132.30769203, 4137.30769210, 4090.25640991, 4069.48717907, 4113.46153819, 4120.25640998, 4123.33333306, 4112.82051255, 4130.12820485,10.0
4127.30769203, 4124.87179460, 4122.05128178, 4140.89743569, 4138.07692287, 4139.99999980, 4141.92307672, 4089.87179453, 4064.74358933, 4104.23076896, 4120.25640998, 4119.35897408, 4116.15384588, 4133.46153819,10.0
4146.79487159, 4148.71794851, 4149.61538441, 4163.97435877, 4143.46153826, 4139.10256390, 4145.25641005, 4102.82051255, 4080.25640991, 4132.43589716, 4155.38461518, 4154.10256390, 4138.07692287, 4134.99999973,10.0
4151.28205108, 4149.87179467, 4156.41025621, 4168.58974345, 4148.33333313, 4139.35897415, 4150.25641005, 4111.28205101, 4098.84615350, 4148.84615364, 4153.71794851, 4157.30769210, 4142.30769210, 4128.97435870,10.0
4137.17948697, 4132.05128178, 4129.35897408, 4149.87179467, 4142.17948697, 4142.30769210, 4140.89743569, 4101.66666632, 4089.99999966, 4126.92307665, 4122.17948691, 4122.82051255, 4127.69230742, 4129.48717921,10.0
4124.23076896, 4122.94871767, 4113.33333306, 4138.46153826, 4122.56410229, 4130.64102537, 4117.94871767, 4086.66666632, 4074.48717914, 4109.74358947, 4117.82051255, 4109.99999973, 4120.51282024, 4132.43589716,10.0
4119.23076896, 4124.35897408, 4117.82051255, 4142.30769210, 4114.35897408, 4118.07692280, 4106.41025614, 4078.33333299, 4074.10256376, 4111.15384588, 4122.30769203, 4119.74358947, 4119.74358947, 4133.84615357,10.0
4126.41025614, 4129.35897408, 4130.38461511, 4150.25641005, 4132.82051255, 4126.92307665, 4114.61538434, 4077.94871761, 4077.05128171, 4112.56410229, 4124.48717921, 4129.61538434, 4122.17948691, 4131.02564075,10.0
4137.82051262, 4132.30769203, 4141.41025621, 4149.87179467, 4140.89743569, 4128.46153819, 4114.61538434, 4083.46153812, 4078.46153812, 4112.56410229, 4136.66666646, 4133.33333306, 4128.07692280, 4128.97435870,10.0
4147.56410236, 4135.64102544, 4150.25641005, 4151.66666646, 4133.46153819, 4125.89743562, 4123.07692280, 4095.25640991, 4093.84615350, 4125.38461511, 4148.20512800, 4141.53846133, 4134.10256383, 4132.94871767,10.0
4162.17948697, 4149.99999980, 4165.38461518, 4166.79487159, 4147.05128185, 4147.17948697, 4154.61538441, 4108.97435870, 4114.48717921, 4144.87179467, 4158.58974339, 4156.66666646, 4142.17948697, 4131.79487152,10.0
4165.89743569, 4157.17948697, 4167.56410236, 4172.56410243, 4152.82051262, 4154.48717928, 4159.35897415, 4112.43589716, 4114.48717921, 4143.33333313, 4160.64102544, 4158.07692287, 4141.02564082, 4129.35897408,10.0
4144.10256390, 4140.76923056, 4143.33333313, 4155.76923056, 4131.02564075, 4134.35897408, 4132.05128178, 4102.82051255, 4101.66666632, 4127.30769203, 4141.79487159, 4142.30769210, 4127.17948691, 4132.56410229,10.0
4126.28205101, 4127.56410229, 4127.05128178, 4142.82051262, 4134.87179460, 4129.10256383, 4120.76923050, 4091.02564068, 4094.35897402, 4117.82051255, 4124.10256383, 4130.51282024, 4119.48717921, 4132.17948691,10.0
4145.12820492, 4142.82051262, 4145.38461518, 4151.66666646, 4161.79487159, 4144.61538441, 4139.87179467, 4097.17948684, 4099.74358940, 4121.02564075, 4134.10256383, 4137.69230749, 4129.23076896, 4130.64102537,10.0
4161.53846133, 4148.97435877, 4154.48717928, 4153.07692287, 4156.15384595, 4146.53846133, 4146.53846133, 4105.51282024, 4108.20512793, 4123.84615357, 4145.51282031, 4143.71794851, 4133.07692280, 4129.74358947,10.0
4145.12820492, 4130.12820485, 4136.28205108, 4137.82051262, 4135.38461518, 4137.94871774, 4136.92307672, 4102.05128171, 4106.41025614, 4119.74358947, 4134.35897408, 4135.76923056, 4122.05128178, 4132.43589716,10.0
4134.74358947, 4125.76923050, 4131.79487152, 4136.53846133, 4136.92307672, 4139.23076903, 4138.33333313, 4098.71794837, 4103.07692280, 4120.51282024, 4132.30769203, 4132.56410229, 4123.58974332, 4132.69230742,10.0
4149.87179467, 4140.64102544, 4148.84615364, 4148.46153826, 4149.99999980, 4147.43589723, 4150.51282031, 4107.17948691, 4119.35897408, 4136.66666646, 4149.74358954, 4144.99999980, 4139.23076903, 4128.20512793,10.0
4159.48717928, 4145.12820492, 4153.71794851, 4149.48717928, 4154.23076903, 4145.25641005, 4149.35897415, 4115.76923050, 4139.99999980, 4148.71794851, 4157.82051262, 4154.87179467, 4143.58974339, 4131.02564075,10.0
4152.82051262, 4139.23076903, 4147.30769210, 4147.17948697, 4144.87179467, 4131.79487152, 4128.97435870, 4110.64102537, 4134.74358947, 4145.25641005, 4154.48717928, 4153.97435877, 4139.99999980, 4130.51282024,10.0
4154.10256390, 4140.25641005, 4156.02564082, 4154.10256390, 4137.43589723, 4138.58974339, 4138.20512800, 4110.64102537, 4128.20512793, 4152.17948697, 4159.48717928, 4158.33333313, 4144.87179467, 4128.84615357,10.0
4149.87179467, 4134.87179460, 4155.89743569, 4151.92307672, 4140.64102544, 4148.20512800, 4151.28205108, 4107.82051255, 4129.10256383, 4150.25641005, 4156.28205108, 4153.33333313, 4142.05128185, 4133.71794844,10.0
4130.89743562, 4124.74358947, 4137.94871774, 4142.69230749, 4143.20512800, 4130.38461511, 4122.17948691, 4090.38461504, 4114.74358947, 4123.20512793, 4133.33333306, 4137.82051262, 4125.12820485, 4132.94871767,10.0
4126.02564075, 4132.05128178, 4133.46153819, 4143.07692287, 4140.38461518, 4119.35897408, 4107.69230742, 4089.87179453, 4102.56410229, 4110.25640998, 4120.89743562, 4133.33333306, 4116.79487152, 4133.97435870,10.0
4131.92307665, 4142.69230749, 4140.51282031, 4148.07692287, 4140.12820492, 4131.53846126, 4131.02564075, 4104.99999973, 4111.41025614, 4116.41025614, 4123.46153819, 4132.17948691, 4117.43589716, 4135.25640998,10.0
4126.92307665, 4132.69230742, 4128.46153819, 4143.33333313, 4137.94871774, 4127.30769203, 4131.79487152, 4099.35897402, 4112.43589716, 4107.69230742, 4116.41025614, 4116.66666639, 4110.38461511, 4133.58974332,10.0
4120.38461511, 4119.61538434, 4114.61538434, 4134.23076896, 4120.38461511, 4113.20512793, 4116.28205101, 4092.43589709, 4098.46153812, 4094.48717914, 4107.94871767, 4107.30769203, 4104.61538434, 4135.64102544,10.0
4134.87179460, 4137.30769210, 4137.94871774, 4147.05128185, 4120.12820485, 4127.56410229, 4137.69230749, 4112.17948691, 4113.07692280, 4116.28205101, 4127.43589716, 4134.35897408, 4121.53846126, 4132.43589716,10.0
4148.20512800, 4132.94871767, 4147.17948697, 4145.64102544, 4139.61538441, 4125.89743562, 4118.46153819, 4106.15384588, 4141.15384595, 4133.33333306, 4152.94871774, 4161.02564082, 4140.38461518, 4131.28205101,10.0
4148.97435877, 4142.05128185, 4141.79487159, 4146.41025621, 4134.74358947, 4128.97435870, 4133.97435870, 4108.84615357, 4139.74358954, 4128.58974332, 4147.05128185, 4154.74358954, 4134.99999973, 4126.79487152,10.0
4136.15384595, 4129.74358947, 4122.43589716, 4130.12820485, 4122.82051255, 4121.66666639, 4127.30769203, 4097.56410222, 4118.46153819, 4109.48717921, 4125.25640998, 4126.02564075, 4119.87179460, 4131.02564075,10.0
4138.46153826, 4129.48717921, 4126.28205101, 4129.61538434, 4141.02564082, 4123.20512793, 4123.97435870, 4100.25640991, 4127.05128178, 4118.58974332, 4125.64102537, 4121.15384588, 4126.41025614, 4131.79487152,10.0
4138.97435877, 4136.66666646, 4126.15384588, 4132.69230742, 4144.74358954, 4128.20512793, 4134.48717921, 4110.76923050, 4144.61538441, 4125.76923050, 4131.28205101, 4121.66666639, 4124.48717921, 4126.41025614,10.0
4137.82051262, 4140.76923056, 4126.28205101, 4134.74358947, 4134.48717921, 4133.46153819, 4151.79487159, 4121.53846126, 4143.97435877, 4120.64102537, 4132.30769203, 4122.30769203, 4118.20512793, 4127.43589716,10.0
4140.76923056, 4139.35897415, 4135.51282031, 4136.41025621, 4138.46153826, 4135.25640998, 4149.74358954, 4120.64102537, 4139.35897415, 4124.35897408, 4133.46153819, 4128.58974332, 4127.17948691, 4128.84615357,10.0
4134.23076896, 4126.66666639, 4128.20512793, 4126.28205101, 4130.64102537, 4126.15384588, 4131.02564075, 4105.25640998, 4137.56410236, 4119.87179460, 4124.48717921, 4123.07692280, 4128.84615357, 4129.74358947,10.0
4135.89743569, 4132.05128178, 4128.71794844, 4134.35897408, 4118.33333306, 4124.48717921, 4132.17948691, 4107.94871767, 4141.66666646, 4121.41025614, 4128.71794844, 4127.17948691, 4131.41025614, 4128.20512793,10.0
4151.41025621, 4152.17948697, 4148.58974339, 4160.38461518, 4131.02564075, 4132.94871767, 4145.38461518, 4129.74358947, 4158.33333313, 4143.33333313, 4147.43589723, 4146.41025621, 4144.35897415, 4130.64102537,10.0
4140.12820492, 4140.64102544, 4136.02564082, 4151.66666646, 4138.84615364, 4125.38461511, 4129.48717921, 4120.12820485, 4157.17948697, 4139.23076903, 4134.74358947, 4133.07692280, 4135.12820485, 4135.89743569,10.0
4111.28205101, 4120.89743562, 4105.38461511, 4129.87179460, 4130.89743562, 4115.51282024, 4112.94871767, 4093.97435863, 4137.30769210, 4117.30769203, 4111.53846126, 4104.74358947, 4116.92307665, 4132.82051255,10.0
4113.46153819, 4130.38461511, 4111.15384588, 4138.33333313, 4131.66666639, 4125.76923050, 4123.20512793, 4099.87179453, 4141.53846133, 4126.79487152, 4123.84615357, 4111.79487152, 4125.76923050, 4131.02564075,10.0
4134.74358947, 4145.12820492, 4132.17948691, 4151.15384595, 4146.28205108, 4136.28205108, 4131.53846126, 4111.02564075, 4157.05128185, 4145.12820492, 4145.38461518, 4133.84615357, 4136.79487159, 4131.41025614,10.0
4141.41025621, 4144.23076903, 4134.35897408, 4141.66666646, 4151.15384595, 4141.79487159, 4134.48717921, 4109.10256383, 4156.66666646, 4142.69230749, 4143.97435877, 4135.38461518, 4131.53846126, 4131.41025614,10.0
4137.69230749, 4134.87179460, 4121.41025614, 4124.35897408, 4139.61538441, 4144.35897415, 4142.69230749, 4111.41025614, 4150.25641005, 4128.58974332, 4131.92307665, 4123.71794844, 4122.43589716, 4133.07692280,10.0
4133.20512793, 4129.10256383, 4113.07692280, 4116.66666639, 4134.99999973, 4137.69230749, 4145.38461518, 4113.97435870, 4148.07692287, 4115.38461511, 4122.43589716, 4115.38461511, 4113.97435870, 4132.43589716,10.0
4136.79487159, 4135.38461518, 4121.53846126, 4119.87179460, 4133.71794844, 4133.71794844, 4143.71794851, 4116.15384588, 4150.76923056, 4116.28205101, 4119.23076896, 4118.46153819, 4113.58974332, 4133.97435870,10.0
4145.38461518, 4140.64102544, 4132.30769203, 4119.35897408, 4129.23076896, 4141.15384595, 4148.20512800, 4124.48717921, 4155.25641005, 4120.89743562, 4117.17948691, 4125.12820485, 4118.58974332, 4133.33333306,10.0
4147.82051262, 4134.61538434, 4131.41025614, 4111.92307665, 4134.35897408, 4146.28205108, 4152.05128185, 4125.76923050, 4152.82051262, 4108.97435870, 4107.17948691, 4123.58974332, 4115.12820485, 4132.17948691,10.0
4146.53846133, 4134.10256383, 4130.76923050, 4114.74358947, 4145.76923056, 4146.79487159, 4153.46153826, 4117.69230742, 4147.69230749, 4101.28205094, 4100.12820478, 4123.33333306, 4111.92307665, 4133.46153819,10.0
4142.94871774, 4136.02564082, 4132.30769203, 4117.82051255, 4143.58974339, 4149.74358954, 4152.82051262, 4114.48717921, 4151.66666646, 4105.51282024, 4104.23076896, 4128.84615357, 4118.71794844, 4129.48717921,10.0
4142.43589723, 4131.28205101, 4136.15384595, 4113.46153819, 4136.41025621, 4146.79487159, 4143.20512800, 4119.99999973, 4156.15384595, 4112.69230742, 4116.79487152, 4136.92307672, 4130.25640998, 4130.38461511,10.0
4142.94871774, 4129.61538434, 4140.76923056, 4113.58974332, 4136.92307672, 4133.58974332, 4123.58974332, 4116.02564075, 4153.71794851, 4126.53846126, 4128.46153819, 4138.20512800, 4132.17948691, 4134.23076896,10.0
4137.82051262, 4131.66666639, 4137.56410236, 4118.97435870, 4136.28205108, 4129.48717921, 4112.69230742, 4106.53846126, 4156.79487159, 4141.15384595, 4133.97435870, 4133.33333306, 4129.10256383, 4129.10256383,10.0
4138.46153826, 4137.05128185, 4138.20512800, 4126.28205101, 4139.48717928, 4141.92307672, 4130.12820485, 4113.84615357, 4171.79487166, 4151.92307672, 4145.64102544, 4137.43589723, 4139.48717928, 4128.84615357,10.0
4137.69230749, 4136.41025621, 4135.12820485, 4126.41025614, 4141.28205108, 4143.71794851, 4138.46153826, 4118.46153819, 4175.64102551, 4157.82051262, 4152.43589723, 4134.74358947, 4143.20512800, 4132.05128178,10.0
4125.38461511, 4124.35897408, 4117.30769203, 4114.10256383, 4135.76923056, 4126.28205101, 4114.61538434, 4105.38461511, 4158.71794851, 4152.43589723, 4137.82051262, 4118.20512793, 4129.35897408, 4132.56410229,10.0
4127.56410229, 4122.56410229, 4116.79487152, 4113.07692280, 4138.58974339, 4117.17948691, 4105.89743562, 4103.20512793, 4153.97435877, 4147.56410236, 4134.61538434, 4118.84615357, 4129.10256383, 4130.38461511,10.0
4141.41025621, 4127.69230742, 4122.69230742, 4118.20512793, 4142.17948697, 4122.94871767, 4122.56410229, 4110.51282024, 4163.46153826, 4143.97435877, 4146.53846133, 4127.43589716, 4131.15384588, 4127.17948691,10.0
4130.38461511, 4113.97435870, 4108.46153819, 4099.74358940, 4124.61538434, 4121.66666639, 4118.71794844, 4103.33333306, 4150.51282031, 4121.15384588, 4131.02564075, 4111.15384588, 4111.53846126, 4128.46153819,10.0
4120.64102537, 4103.97435870, 4105.89743562, 4090.38461504, 4105.38461511, 4115.51282024, 4108.20512793, 4097.17948684, 4132.56410229, 4105.76923050, 4111.28205101, 4105.76923050, 4103.33333306, 4127.17948691,10.0
4137.69230749, 4118.33333306, 4124.10256383, 4109.48717921, 4112.94871767, 4121.53846126, 4118.58974332, 4106.79487152, 4142.30769210, 4111.92307665, 4119.74358947, 4125.89743562, 4117.94871767, 4128.58974332,10.0
4148.58974339, 4129.61538434, 4129.87179460, 4116.66666639, 4124.35897408, 4128.84615357, 4123.58974332, 4114.61538434, 4153.58974339, 4106.15384588, 4125.51282024, 4130.25640998, 4119.61538434, 4135.76923056,10.0
4152.69230749, 4132.82051255, 4136.15384595, 4117.56410229, 4120.38461511, 4126.41025614, 4122.69230742, 4113.07692280, 4151.02564082, 4104.99999973, 4123.20512793, 4129.10256383, 4114.35897408, 4133.84615357,10.0
4161.53846133, 4137.69230749, 4146.92307672, 4129.48717921, 4123.97435870, 4126.53846126, 4133.46153819, 4112.30769203, 4152.82051262, 4121.02564075, 4127.30769203, 4139.10256390, 4119.35897408, 4129.99999973,10.0
4152.17948697, 4134.99999973, 4136.53846133, 4127.82051255, 4138.33333313, 4129.48717921, 4134.99999973, 4111.66666639, 4154.23076903, 4116.53846126, 4117.82051255, 4133.97435870, 4117.17948691, 4130.64102537,10.0
4138.58974339, 4131.92307665, 4126.15384588, 4119.61538434, 4143.84615364, 4132.43589716, 4131.15384588, 4113.20512793, 4151.92307672, 4105.76923050, 4107.69230742, 4122.43589716, 4109.48717921, 4134.10256383,10.0
4141.15384595, 4133.46153819, 4128.97435870, 4122.69230742, 4139.35897415, 4135.89743569, 4134.23076896, 4112.94871767, 4154.35897415, 4115.64102537, 4113.20512793, 4122.17948691, 4112.17948691, 4133.84615357,10.0
4141.15384595, 4133.46153819, 4128.97435870, 4122.69230742, 4139.35897415, 4135.89743569, 4134.23076896, 4112.94871767, 4154.35897415, 4115.64102537, 4113.20512793, 4122.17948691, 4112.17948691, 4133.84615357,10.0
4132.56410229, 4121.92307665, 4118.46153819, 4116.28205101, 4128.84615357, 4125.12820485, 4118.58974332, 4099.35897402, 4149.74358954, 4115.25640998, 4106.28205101, 4113.84615357, 4109.87179460, 4129.48717921,10.0
4121.92307665, 4116.41025614, 4110.76923050, 4108.20512793, 4119.61538434, 4115.12820485, 4104.48717921, 4097.56410222, 4146.79487159, 4106.92307665, 4098.46153812, 4109.61538434, 4107.56410229, 4131.79487152,10.0
4136.02564082, 4133.46153819, 4125.38461511, 4120.12820485, 4125.51282024, 4122.56410229, 4116.28205101, 4110.64102537, 4158.46153826, 4119.87179460, 4116.92307665, 4127.05128178, 4121.66666639, 4131.28205101,10.0
4152.56410236, 4139.10256390, 4139.61538441, 4127.56410229, 4131.15384588, 4128.84615357, 4125.51282024, 4111.79487152, 4166.92307672, 4134.99999973, 4138.71794851, 4141.41025621, 4133.71794844, 4128.20512793,10.0
4155.76923056, 4129.99999973, 4142.30769210, 4120.76923050, 4119.87179460, 4127.05128178, 4119.74358947, 4109.10256383, 4166.66666646, 4134.74358947, 4145.76923056, 4143.46153826, 4133.33333306, 4133.71794844,10.0
4149.23076903, 4130.12820485, 4137.94871774, 4116.79487152, 4114.48717921, 4123.97435870, 4121.41025614, 4115.25640998, 4166.66666646, 4132.17948691, 4145.12820492, 4139.48717928, 4132.94871767, 4133.71794844,10.0
4148.07692287, 4136.02564082, 4138.33333313, 4120.89743562, 4129.48717921, 4127.56410229, 4139.35897415, 4125.76923050, 4171.41025628, 4134.99999973, 4144.48717928, 4137.43589723, 4137.69230749, 4131.79487152,10.0
4172.56410243, 4153.97435877, 4166.15384595, 4145.38461518, 4150.89743569, 4141.53846133, 4156.15384595, 4137.82051262, 4187.05128192, 4152.30769210, 4165.51282031, 4160.64102544, 4151.28205108, 4133.84615357,10.0
4190.51282038, 4168.84615371, 4183.20512807, 4162.43589723, 4159.61538441, 4154.48717928, 4158.46153826, 4141.92307672, 4197.56410243, 4166.53846133, 4181.66666653, 4178.33333320, 4155.76923056, 4130.89743562,10.0
4166.92307672, 4148.58974339, 4150.12820492, 4137.94871774, 4147.43589723, 4141.92307672, 4145.89743569, 4127.43589716, 4175.25641012, 4141.15384595, 4150.12820492, 4149.48717928, 4129.61538434, 4132.30769203,10.0
4139.87179467, 4125.64102537, 4124.35897408, 4112.17948691, 4128.58974332, 4122.30769203, 4134.99999973, 4110.25640998, 4152.05128185, 4106.15384588, 4120.12820485, 4120.51282024, 4105.76923050, 4133.58974332,10.0
4141.92307672, 4130.12820485, 4131.79487152, 4114.10256383, 4122.56410229, 4121.41025614, 4127.82051255, 4106.02564075, 4153.58974339, 4099.74358940, 4119.61538434, 4124.35897408, 4108.20512793, 4129.99999973,10.0
4138.71794851, 4126.66666639, 4122.94871767, 4110.89743562, 4118.58974332, 4121.53846126, 4112.05128178, 4103.84615357, 4146.41025621, 4096.41025607, 4108.33333306, 4118.97435870, 4106.92307665, 4129.61538434,10.0
4131.28205101, 4120.12820485, 4110.76923050, 4105.64102537, 4114.61538434, 4116.92307665, 4103.07692280, 4100.12820478, 4129.61538434, 4087.94871761, 4099.61538427, 4108.46153819, 4102.82051255, 4128.58974332,10.0
4142.82051262, 4133.71794844, 4127.82051255, 4120.64102537, 4125.64102537, 4121.02564075, 4116.28205101, 4106.53846126, 4137.30769210, 4099.23076889, 4120.12820485, 4123.58974332, 4117.69230742, 4130.64102537,10.0
4156.66666646, 4144.87179467, 4150.76923056, 4138.71794851, 4141.28205108, 4133.84615357, 4135.76923056, 4122.17948691, 4164.87179467, 4125.76923050, 4142.43589723, 4149.10256390, 4139.48717928, 4131.66666639,10.0
4157.30769210, 4143.84615364, 4156.41025621, 4142.05128185, 4145.64102544, 4135.76923056, 4137.30769210, 4125.12820485, 4176.02564089, 4140.25641005, 4152.17948697, 4162.82051262, 4143.84615364, 4129.23076896,10.0
4149.10256390, 4139.74358954, 4150.51282031, 4135.64102544, 4130.38461511, 4123.71794844, 4124.74358947, 4113.07692280, 4166.02564082, 4141.79487159, 4156.92307672, 4159.48717928, 4137.82051262, 4128.97435870,10.0
4144.10256390, 4131.92307665, 4142.82051262, 4131.66666639, 4114.87179460, 4117.05128178, 4121.02564075, 4112.82051255, 4165.25641005, 4141.53846133, 4155.25641005, 4151.66666646, 4138.07692287, 4127.69230742,10.0
4141.66666646, 4122.94871767, 4135.25640998, 4125.76923050, 4113.84615357, 4117.56410229, 4123.33333306, 4123.46153819, 4173.71794858, 4139.99999980, 4145.51282031, 4143.71794851, 4138.71794851, 4131.92307665,10.0
4141.02564082, 4123.33333306, 4132.43589716, 4121.53846126, 4117.94871767, 4118.97435870, 4119.87179460, 4116.92307665, 4165.12820492, 4137.69230749, 4141.53846133, 4142.43589723, 4135.12820485, 4134.35897408,10.0
4148.46153826, 4133.33333306, 4145.38461518, 4136.02564082, 4123.33333306, 4117.69230742, 4116.53846126, 4105.89743562, 4153.46153826, 4138.71794851, 4156.66666646, 4154.23076903, 4141.28205108, 4128.58974332,10.0
4153.58974339, 4135.89743569, 4158.20512800, 4149.99999980, 4119.61538434, 4116.15384588, 4116.41025614, 4114.10256383, 4161.28205108, 4141.15384595, 4167.30769210, 4161.15384595, 4152.05128185, 4128.84615357,10.0
4147.82051262, 4127.69230742, 4153.84615364, 4140.89743569, 4107.94871767, 4110.89743562, 4115.76923050, 4116.92307665, 4163.84615364, 4136.15384595, 4154.23076903, 4155.64102544, 4147.17948697, 4130.38461511,10.0
4154.61538441, 4134.48717921, 4157.69230749, 4139.99999980, 4111.79487152, 4111.02564075, 4120.38461511, 4107.30769203, 4152.82051262, 4132.43589716, 4154.74358954, 4163.33333313, 4148.84615364, 4132.43589716,10.0
4154.61538441, 4134.48717921, 4157.69230749, 4139.99999980, 4111.79487152, 4111.02564075, 4120.38461511, 4107.30769203, 4152.82051262, 4132.43589716, 4154.74358954, 4163.33333313, 4148.84615364, 4132.43589716,10.0
4172.82051269, 4154.10256390, 4176.41025628, 4160.25641005, 4124.87179460, 4124.87179460, 4131.79487152, 4113.33333306, 4155.64102544, 4136.15384595, 4176.02564089, 4182.82051269, 4160.51282031, 4130.64102537,10.0
4169.35897422, 4154.61538441, 4173.46153833, 4159.99999980, 4126.79487152, 4132.94871767, 4137.94871774, 4122.56410229, 4160.38461518, 4132.05128178, 4169.61538448, 4176.15384602, 4147.82051262, 4127.56410229,10.0
4164.23076903, 4154.10256390, 4159.61538441, 4147.69230749, 4139.23076903, 4131.15384588, 4141.15384595, 4120.51282024, 4156.53846133, 4128.71794844, 4153.07692287, 4161.66666646, 4136.41025621, 4134.23076896,10.0
4174.48717935, 4163.07692287, 4165.25641005, 4156.41025621, 4153.20512800, 4126.79487152, 4135.25640998, 4118.84615357, 4159.35897415, 4134.35897408, 4161.02564082, 4167.69230749, 4147.56410236, 4135.76923056,10.0
4173.07692294, 4160.12820492, 4167.17948697, 4164.87179467, 4140.76923056, 4127.17948691, 4126.66666639, 4119.99999973, 4161.66666646, 4130.25640998, 4164.35897415, 4168.33333320, 4147.94871774, 4132.94871767,10.0
4160.25641005, 4153.20512800, 4153.58974339, 4155.51282031, 4138.58974339, 4133.71794844, 4134.87179460, 4118.97435870, 4161.41025621, 4124.74358947, 4154.87179467, 4153.71794851, 4136.79487159, 4134.23076896,10.0
4156.53846133, 4149.99999980, 4145.89743569, 4145.89743569, 4139.10256390, 4133.07692280, 4137.94871774, 4120.76923050, 4168.58974345, 4134.23076896, 4150.76923056, 4145.64102544, 4137.17948697, 4133.46153819,10.0
4164.35897415, 4144.61538441, 4152.82051262, 4146.66666646, 4119.99999973, 4124.10256383, 4126.92307665, 4129.48717921, 4181.28205115, 4145.76923056, 4153.46153826, 4153.58974339, 4142.43589723, 4133.07692280,10.0
4167.56410236, 4139.48717928, 4156.15384595, 4144.99999980, 4124.87179460, 4127.05128178, 4136.79487159, 4130.64102537, 4188.20512807, 4146.66666646, 4157.43589723, 4158.33333313, 4144.48717928, 4133.97435870,10.0
4158.07692287, 4135.25640998, 4144.99999980, 4135.51282031, 4146.66666646, 4144.35897415, 4156.28205108, 4122.82051255, 4181.79487166, 4141.02564082, 4152.94871774, 4150.38461518, 4145.25641005, 4134.61538434,10.0
4146.53846133, 4130.76923050, 4137.56410236, 4132.05128178, 4138.71794851, 4143.97435877, 4141.41025621, 4119.61538434, 4173.33333320, 4134.35897408, 4141.92307672, 4142.43589723, 4142.94871774, 4135.12820485,10.0
4139.74358954, 4129.74358947, 4138.71794851, 4133.71794844, 4125.12820485, 4126.41025614, 4113.46153819, 4116.66666639, 4171.53846140, 4133.07692280, 4138.46153826, 4140.89743569, 4138.20512800, 4134.87179460,10.0
4137.69230749, 4131.28205101, 4135.64102544, 4132.56410229, 4128.07692280, 4122.30769203, 4108.97435870, 4108.97435870, 4172.69230756, 4131.79487152, 4138.07692287, 4138.20512800, 4135.64102544, 4133.58974332,10.0
4137.82051262, 4131.28205101, 4132.56410229, 4136.66666646, 4123.20512793, 4126.02564075, 4111.28205101, 4104.48717921, 4168.20512807, 4125.89743562, 4134.74358947, 4134.10256383, 4135.25640998, 4131.28205101,10.0
4144.10256390, 4137.43589723, 4139.99999980, 4144.74358954, 4126.15384588, 4127.30769203, 4118.46153819, 4109.87179460, 4166.92307672, 4129.48717921, 4140.64102544, 4139.35897415, 4138.71794851, 4133.20512793,10.0
4150.64102544, 4142.82051262, 4140.64102544, 4143.97435877, 4141.66666646, 4131.15384588, 4134.74358947, 4123.07692280, 4177.43589730, 4136.41025621, 4146.92307672, 4143.46153826, 4138.71794851, 4136.28205108,10.0
4140.89743569, 4138.07692287, 4128.58974332, 4139.10256390, 4128.33333306, 4127.69230742, 4132.43589716, 4128.33333306, 4182.30769217, 4129.10256383, 4140.51282031, 4130.76923050, 4132.82051255, 4132.17948691,10.0
4126.41025614, 4130.64102537, 4122.82051255, 4136.79487159, 4108.84615357, 4112.43589716, 4110.51282024, 4121.66666639, 4174.87179474, 4119.35897408, 4133.58974332, 4118.46153819, 4131.79487152, 4130.89743562,10.0
4139.10256390, 4141.92307672, 4139.74358954, 4151.28205108, 4137.05128185, 4120.12820485, 4123.07692280, 4121.41025614, 4179.99999986, 4134.48717921, 4151.28205108, 4141.28205108, 4147.69230749, 4133.07692280,10.0
4163.33333313, 4160.76923056, 4160.38461518, 4170.89743576, 4170.12820499, 4145.64102544, 4153.58974339, 4128.71794844, 4196.15384602, 4160.64102544, 4178.84615371, 4171.15384602, 4167.69230749, 4134.48717921,10.0
4150.76923056, 4147.05128185, 4144.35897415, 4152.30769210, 4143.46153826, 4138.07692287, 4138.84615364, 4123.46153819, 4190.51282038, 4154.61538441, 4169.61538448, 4154.10256390, 4161.15384595, 4133.71794844,10.0
4124.61538434, 4120.12820485, 4116.15384588, 4123.71794844, 4115.38461511, 4115.76923050, 4108.84615357, 4114.74358947, 4177.56410243, 4135.38461518, 4145.89743569, 4125.64102537, 4142.43589723, 4128.46153819,10.0
4123.71794844, 4118.58974332, 4115.64102537, 4128.58974332, 4129.87179460, 4118.46153819, 4109.87179460, 4115.89743562, 4180.76923063, 4133.33333306, 4144.23076903, 4124.99999973, 4136.92307672, 4128.97435870,10.0
4128.71794844, 4130.25640998, 4126.28205101, 4141.15384595, 4136.28205108, 4131.79487152, 4122.82051255, 4117.30769203, 4187.69230756, 4141.02564082, 4150.89743569, 4133.46153819, 4139.87179467, 4130.12820485,10.0
4128.33333306, 4133.46153819, 4126.53846126, 4138.71794851, 4129.48717921, 4133.20512793, 4122.05128178, 4114.74358947, 4187.43589730, 4142.69230749, 4151.41025621, 4136.02564082, 4142.17948697, 4131.66666639,10.0
4128.71794844, 4122.30769203, 4117.69230742, 4128.97435870, 4125.25640998, 4123.84615357, 4113.07692280, 4107.82051255, 4172.30769217, 4129.35897408, 4142.43589723, 4128.71794844, 4133.33333306, 4137.30769210,10.0
4123.71794844, 4108.58974332, 4109.61538434, 4120.38461511, 4111.28205101, 4113.07692280, 4112.94871767, 4108.20512793, 4160.12820492, 4113.46153819, 4127.05128178, 4113.58974332, 4119.87179460, 4134.23076896,10.0
4133.84615357, 4124.23076896, 4124.99999973, 4132.69230742, 4120.76923050, 4122.17948691, 4137.05128185, 4132.43589716, 4181.92307679, 4124.74358947, 4137.56410236, 4124.61538434, 4130.76923050, 4131.92307665,10.0
4152.56410236, 4148.07692287, 4147.69230749, 4154.35897415, 4156.02564082, 4144.99999980, 4156.79487159, 4143.71794851, 4200.89743576, 4148.33333313, 4161.28205108, 4149.35897415, 4148.71794851, 4134.74358947,10.0
4131.02564075, 4126.66666639, 4125.64102537, 4138.46153826, 4145.38461518, 4130.38461511, 4123.07692280, 4116.53846126, 4179.99999986, 4132.56410229, 4143.07692287, 4129.87179460, 4134.74358947, 4132.30769203,10.0
4107.30769203, 4104.99999973, 4097.56410222, 4117.05128178, 4109.61538434, 4101.02564068, 4092.05128171, 4097.94871761, 4157.56410236, 4103.07692280, 4121.53846126, 4105.76923050, 4122.05128178, 4130.12820485,10.0
4127.69230742, 4127.94871767, 4114.10256383, 4133.58974332, 4123.46153819, 4114.61538434, 4120.25640998, 4115.12820485, 4168.71794858, 4111.41025614, 4138.97435877, 4120.89743562, 4132.69230742, 4128.07692280,10.0
4144.10256390, 4143.33333313, 4129.35897408, 4145.38461518, 4143.71794851, 4139.10256390, 4146.66666646, 4130.38461511, 4183.84615371, 4129.61538434, 4146.66666646, 4132.43589716, 4132.17948691, 4132.17948691,10.0
4125.89743562, 4120.76923050, 4111.28205101, 4127.69230742, 4121.15384588, 4128.20512793, 4125.51282024, 4117.05128178, 4174.61538448, 4118.84615357, 4123.71794844, 4116.28205101, 4119.87179460, 4137.17948697,10.0
4117.94871767, 4106.53846126, 4103.07692280, 4119.23076896, 4108.97435870, 4115.89743562, 4108.46153819, 4108.58974332, 4167.69230749, 4109.48717921, 4116.41025614, 4110.51282024, 4120.76923050, 4130.51282024,10.0
4144.61538441, 4126.02564075, 4128.07692280, 4137.05128185, 4127.82051255, 4129.48717921, 4127.17948691, 4129.48717921, 4185.76923063, 4128.20512793, 4138.20512800, 4132.69230742, 4133.33333306, 4129.10256383,10.0
4161.79487159, 4143.84615364, 4144.99999980, 4151.28205108, 4134.10256383, 4139.23076903, 4144.99999980, 4136.66666646, 4189.99999986, 4136.02564082, 4148.84615364, 4147.69230749, 4135.51282031, 4131.41025614,10.0
4153.46153826, 4136.41025621, 4134.99999973, 4145.89743569, 4127.30769203, 4140.64102544, 4146.66666646, 4118.07692280, 4172.94871781, 4125.64102537, 4139.87179467, 4140.25641005, 4130.89743562, 4129.35897408,10.0
4133.33333306, 4115.38461511, 4114.99999973, 4131.66666639, 4122.94871767, 4130.89743562, 4128.58974332, 4110.89743562, 4172.17948704, 4118.58974332, 4126.92307665, 4123.46153819, 4127.05128178, 4131.92307665,10.0
4118.58974332, 4105.89743562, 4105.89743562, 4122.56410229, 4114.99999973, 4115.51282024, 4109.23076896, 4116.79487152, 4180.25641012, 4114.35897408, 4120.76923050, 4115.64102537, 4118.46153819, 4132.05128178,10.0
4131.79487152, 4122.56410229, 4122.56410229, 4132.56410229, 4119.10256383, 4126.02564075, 4122.30769203, 4124.10256383, 4183.71794858, 4127.17948691, 4136.53846133, 4127.05128178, 4126.41025614, 4130.89743562,10.0
4146.02564082, 4131.41025614, 4132.05128178, 4139.61538441, 4128.20512793, 4140.64102544, 4136.28205108, 4126.02564075, 4190.64102551, 4137.43589723, 4148.07692287, 4134.99999973, 4140.12820492, 4129.74358947,10.0
4124.99999973, 4106.92307665, 4106.79487152, 4120.89743562, 4112.69230742, 4128.20512793, 4120.51282024, 4117.30769203, 4184.10256397, 4115.51282024, 4123.33333306, 4116.28205101, 4124.48717921, 4130.25640998,10.0
4120.51282024, 4108.71794844, 4105.76923050, 4122.56410229, 4116.66666639, 4127.82051255, 4124.74358947, 4118.97435870, 4179.74358961, 4113.97435870, 4117.82051255, 4116.79487152, 4121.15384588, 4134.10256383,10.0
4149.99999980, 4143.84615364, 4139.48717928, 4151.66666646, 4144.10256390, 4149.23076903, 4157.43589723, 4137.56410236, 4196.53846140, 4143.07692287, 4146.02564082, 4143.20512800, 4144.10256390, 4131.02564075,10.0
4141.66666646, 4138.71794851, 4127.94871767, 4143.33333313, 4132.17948691, 4144.99999980, 4153.46153826, 4140.25641005, 4199.23076910, 4132.56410229, 4130.89743562, 4128.46153819, 4136.02564082, 4130.51282024,10.0
4117.17948691, 4116.66666639, 4100.25640991, 4122.82051255, 4118.07692280, 4128.84615357, 4126.92307665, 4123.97435870, 4180.76923063, 4109.61538434, 4101.79487145, 4099.99999966, 4115.38461511, 4131.41025614,10.0
4137.43589723, 4135.51282031, 4122.17948691, 4145.38461518, 4145.25641005, 4137.30769210, 4127.69230742, 4120.64102537, 4181.28205115, 4131.92307665, 4125.51282024, 4119.99999973, 4127.69230742, 4127.94871767,10.0
4157.56410236, 4150.38461518, 4140.12820492, 4159.74358954, 4157.82051262, 4144.99999980, 4136.79487159, 4125.64102537, 4188.33333320, 4147.69230749, 4148.84615364, 4138.58974339, 4137.69230749, 4132.30769203,10.0
4149.10256390, 4135.38461518, 4128.07692280, 4142.82051262, 4138.71794851, 4134.10256383, 4129.87179460, 4119.23076896, 4177.56410243, 4132.69230742, 4136.28205108, 4125.38461511, 4129.35897408, 4131.79487152,10.0
4147.05128185, 4131.92307665, 4128.07692280, 4137.43589723, 4128.46153819, 4124.87179460, 4124.61538434, 4114.99999973, 4173.46153833, 4131.92307665, 4133.46153819, 4122.05128178, 4127.82051255, 4128.33333306,10.0
4148.33333313, 4136.02564082, 4134.61538434, 4136.66666646, 4134.23076896, 4128.84615357, 4129.61538434, 4126.15384588, 4180.38461525, 4136.28205108, 4139.23076903, 4130.12820485, 4126.92307665, 4132.82051255,10.0
4147.43589723, 4136.15384595, 4133.97435870, 4131.92307665, 4148.07692287, 4137.05128185, 4136.66666646, 4133.07692280, 4184.99999986, 4134.35897408, 4142.43589723, 4132.69230742, 4128.58974332, 4134.74358947,10.0
4156.28205108, 4142.30769210, 4144.48717928, 4138.84615364, 4157.30769210, 4143.71794851, 4143.07692287, 4132.30769203, 4192.69230756, 4144.23076903, 4149.61538441, 4139.23076903, 4140.89743569, 4134.61538434,10.0
4158.71794851, 4142.69230749, 4153.33333313, 4142.82051262, 4153.84615364, 4145.76923056, 4147.94871774, 4136.41025621, 4196.15384602, 4149.61538441, 4146.79487159, 4144.99999980, 4143.07692287, 4133.33333306,10.0
4157.94871774, 4137.43589723, 4152.30769210, 4138.97435877, 4152.56410236, 4144.48717928, 4155.89743569, 4144.99999980, 4195.38461525, 4146.15384595, 4144.87179467, 4149.99999980, 4138.33333313, 4132.94871767,10.0
4165.38461518, 4144.61538441, 4158.71794851, 4148.46153826, 4153.07692287, 4141.41025621, 4156.41025621, 4146.92307672, 4199.23076910, 4151.66666646, 4152.17948697, 4158.71794851, 4145.12820492, 4134.35897408,10.0
4154.99999980, 4143.33333313, 4149.99999980, 4145.25641005, 4147.43589723, 4134.99999973, 4135.76923056, 4130.64102537, 4194.35897422, 4144.61538441, 4143.33333313, 4147.17948697, 4139.99999980, 4132.82051255,10.0
4129.23076896, 4118.84615357, 4117.94871767, 4117.43589716, 4132.43589716, 4128.33333306, 4121.02564075, 4114.74358947, 4167.56410236, 4115.25640998, 4119.35897408, 4115.76923050, 4113.58974332, 4132.94871767,10.0
4118.07692280, 4107.94871767, 4104.87179460, 4108.07692280, 4109.74358947, 4121.66666639, 4116.92307665, 4111.41025614, 4148.84615364, 4104.10256383, 4109.99999973, 4104.99999973, 4103.20512793, 4133.58974332,10.0
4122.56410229, 4117.05128178, 4116.28205101, 4121.02564075, 4110.12820485, 4116.79487152, 4110.12820485, 4108.71794844, 4157.69230749, 4117.17948691, 4121.15384588, 4116.92307665, 4117.30769203, 4133.46153819,10.0
4129.35897408, 4124.99999973, 4124.35897408, 4130.38461511, 4135.76923056, 4117.82051255, 4109.23076896, 4108.07692280, 4169.10256397, 4128.07692280, 4135.51282031, 4125.25640998, 4127.30769203, 4133.58974332,10.0
4138.33333313, 4133.07692280, 4132.43589716, 4134.99999973, 4142.69230749, 4124.10256383, 4119.61538434, 4119.61538434, 4176.66666653, 4138.07692287, 4145.89743569, 4130.64102537, 4128.97435870, 4130.64102537,10.0
4137.94871774, 4130.89743562, 4130.89743562, 4129.48717921, 4129.87179460, 4127.05128178, 4127.30769203, 4123.46153819, 4179.35897422, 4141.41025621, 4140.76923056, 4126.66666639, 4127.30769203, 4129.10256383,10.0
4127.17948691, 4116.53846126, 4112.05128178, 4114.10256383, 4125.25640998, 4126.28205101, 4125.89743562, 4111.66666639, 4170.89743576, 4129.74358947, 4128.46153819, 4108.84615357, 4122.43589716, 4129.10256383,10.0
4138.07692287, 4124.74358947, 4120.38461511, 4120.25640998, 4123.58974332, 4131.66666639, 4127.56410229, 4125.12820485, 4179.99999986, 4137.82051262, 4140.64102544, 4116.53846126, 4135.76923056, 4131.28205101,10.0
4158.33333313, 4145.25641005, 4145.38461518, 4137.17948697, 4126.92307665, 4142.94871774, 4140.51282031, 4147.17948697, 4202.43589737, 4163.58974339, 4160.12820492, 4141.02564082, 4154.48717928, 4132.17948691,10.0
4146.92307672, 4134.23076896, 4128.84615357, 4121.66666639, 4135.38461518, 4144.74358954, 4147.30769210, 4132.05128178, 4192.05128192, 4153.97435877, 4142.30769210, 4125.76923050, 4139.99999980, 4129.48717921,10.0
4123.46153819, 4109.35897408, 4100.64102530, 4095.64102530, 4128.71794844, 4135.64102544, 4136.28205108, 4112.94871767, 4164.61538441, 4121.15384588, 4107.82051255, 4091.53846119, 4113.07692280, 4130.25640998,10.0
4119.87179460, 4104.99999973, 4103.07692280, 4091.79487145, 4112.56410229, 4127.43589716, 4121.02564075, 4115.64102537, 4161.66666646, 4110.51282024, 4101.02564068, 4088.33333299, 4115.25640998, 4130.51282024,10.0
4128.07692280, 4113.71794844, 4116.79487152, 4095.38461504, 4116.41025614, 4126.41025614, 4124.48717921, 4120.64102537, 4169.35897422, 4117.43589716, 4112.56410229, 4102.17948684, 4130.25640998, 4130.89743562,10.0
4132.94871767, 4119.99999973, 4127.56410229, 4098.71794837, 4133.33333306, 4130.76923050, 4128.20512793, 4118.97435870, 4168.07692287, 4121.66666639, 4121.28205101, 4111.53846126, 4131.02564075, 4134.48717921,10.0
4138.97435877, 4129.23076896, 4138.71794851, 4115.12820485, 4135.25640998, 4134.10256383, 4123.84615357, 4118.58974332, 4167.30769210, 4128.46153819, 4130.25640998, 4123.71794844, 4131.66666639, 4131.02564075,10.0
4144.61538441, 4138.20512800, 4144.23076903, 4127.94871767, 4132.30769203, 4138.20512800, 4132.69230742, 4125.76923050, 4178.20512807, 4137.05128185, 4137.17948697, 4133.58974332, 4140.25641005, 4128.84615357,10.0
4142.94871774, 4132.05128178, 4141.66666646, 4120.64102537, 4139.23076903, 4138.20512800, 4131.28205101, 4127.56410229, 4186.53846140, 4135.76923056, 4139.87179467, 4131.02564075, 4141.15384595, 4131.53846126,10.0
4134.99999973, 4118.97435870, 4136.15384595, 4111.92307665, 4138.71794851, 4126.66666639, 4108.20512793, 4109.10256383, 4164.48717928, 4123.58974332, 4136.79487159, 4123.84615357, 4127.69230742, 4130.38461511,10.0
4138.33333313, 4123.07692280, 4140.64102544, 4116.41025614, 4137.82051262, 4130.76923050, 4121.66666639, 4112.17948691, 4154.87179467, 4122.94871767, 4138.84615364, 4129.74358947, 4127.30769203, 4132.43589716,10.0
4139.23076903, 4128.33333306, 4143.33333313, 4114.48717921, 4137.05128185, 4140.38461518, 4142.05128185, 4134.74358947, 4181.66666653, 4134.61538434, 4140.76923056, 4134.10256383, 4134.35897408, 4130.12820485,10.0
4123.20512793, 4115.76923050, 4128.33333306, 4101.41025607, 4115.51282024, 4123.33333306, 4106.66666639, 4124.61538434, 4179.61538448, 4126.15384588, 4126.92307665, 4123.33333306, 4125.64102537, 4129.61538434,10.0
4120.51282024, 4113.20512793, 4125.64102537, 4104.23076896, 4107.56410229, 4115.12820485, 4094.61538427, 4118.84615357, 4158.58974339, 4115.38461511, 4125.64102537, 4122.05128178, 4125.76923050, 4137.94871774,10.0
4124.10256383, 4118.84615357, 4135.51282031, 4111.02564075, 4125.25640998, 4128.58974332, 4127.69230742, 4130.76923050, 4167.82051262, 4124.87179460, 4137.30769210, 4125.51282024, 4135.89743569, 4133.84615357,10.0
4124.99999973, 4119.74358947, 4134.35897408, 4108.84615357, 4131.02564075, 4128.07692280, 4130.51282024, 4131.28205101, 4181.15384602, 4133.97435870, 4138.33333313, 4123.97435870, 4142.94871774, 4131.41025614,10.0
4133.97435870, 4123.20512793, 4132.30769203, 4113.71794844, 4132.17948691, 4122.82051255, 4128.20512793, 4137.17948697, 4181.92307679, 4140.38461518, 4140.76923056, 4130.38461511, 4155.25641005, 4134.87179460,10.0
4131.28205101, 4123.84615357, 4128.97435870, 4112.69230742, 4129.10256383, 4124.61538434, 4137.56410236, 4139.23076903, 4184.23076910, 4143.58974339, 4142.17948697, 4126.28205101, 4156.15384595, 4131.92307665,10.0
4118.33333306, 4120.64102537, 4115.51282024, 4103.07692280, 4119.87179460, 4127.17948691, 4131.92307665, 4127.17948691, 4184.35897422, 4137.05128185, 4127.69230742, 4108.33333306, 4139.61538441, 4132.30769203,10.0
4117.56410229, 4123.46153819, 4111.28205101, 4105.76923050, 4134.35897408, 4134.87179460, 4133.46153819, 4128.07692280, 4188.07692294, 4138.33333313, 4121.79487152, 4106.02564075, 4137.94871774, 4132.82051255,10.0
4118.84615357, 4120.64102537, 4110.64102537, 4105.64102537, 4145.38461518, 4130.89743562, 4129.48717921, 4127.94871767, 4188.84615371, 4141.92307672, 4129.48717921, 4104.74358947, 4143.71794851, 4135.25640998,10.0
4109.10256383, 4108.07692280, 4098.33333299, 4089.48717914, 4119.74358947, 4115.64102537, 4103.84615357, 4111.92307665, 4174.35897422, 4127.05128178, 4124.35897408, 4091.92307658, 4129.87179460, 4134.35897408,10.0
4114.10256383, 4115.51282024, 4105.38461511, 4092.94871761, 4117.56410229, 4127.56410229, 4116.79487152, 4120.25640998, 4174.23076910, 4122.94871767, 4127.82051255, 4101.41025607, 4128.33333306, 4130.64102537,10.0
4123.58974332, 4127.05128178, 4121.41025614, 4107.43589716, 4138.07692287, 4139.48717928, 4138.33333313, 4128.97435870, 4181.41025628, 4132.82051255, 4137.69230749, 4117.30769203, 4138.71794851, 4136.02564082,10.0
4120.38461511, 4124.10256383, 4126.15384588, 4108.58974332, 4124.99999973, 4124.99999973, 4117.82051255, 4111.53846126, 4173.71794858, 4131.79487152, 4140.25641005, 4119.48717921, 4133.33333306, 4131.92307665,10.0
4124.99999973, 4124.87179460, 4134.74358947, 4113.20512793, 4110.38461511, 4121.53846126, 4111.53846126, 4111.28205101, 4164.99999980, 4123.71794844, 4145.51282031, 4123.58974332, 4128.84615357, 4125.38461511,10.0
4130.38461511, 4126.92307665, 4139.48717928, 4117.69230742, 4120.38461511, 4123.07692280, 4125.64102537, 4124.61538434, 4161.79487159, 4114.99999973, 4139.48717928, 4124.48717921, 4132.17948691, 4131.79487152,10.0
4136.28205108, 4135.38461518, 4147.56410236, 4124.87179460, 4134.74358947, 4121.41025614, 4128.33333306, 4130.89743562, 4171.66666653, 4122.17948691, 4141.02564082, 4136.79487159, 4136.28205108, 4132.94871767,10.0
4142.05128185, 4143.07692287, 4157.43589723, 4131.15384588, 4135.89743569, 4128.20512793, 4124.35897408, 4128.71794844, 4184.48717935, 4138.07692287, 4155.89743569, 4150.51282031, 4136.41025621, 4128.97435870,10.0
4129.74358947, 4130.38461511, 4143.20512800, 4119.48717921, 4126.66666639, 4129.87179460, 4120.64102537, 4122.43589716, 4178.84615371, 4129.74358947, 4146.92307672, 4136.02564082, 4130.25640998, 4127.69230742,10.0
4112.05128178, 4116.02564075, 4119.87179460, 4103.46153819, 4119.48717921, 4123.84615357, 4117.17948691, 4121.41025614, 4164.87179467, 4107.94871767, 4122.69230742, 4114.23076896, 4122.05128178, 4131.41025614,10.0
4109.99999973, 4120.76923050, 4123.20512793, 4107.43589716, 4117.69230742, 4122.17948691, 4116.66666639, 4122.82051255, 4167.69230749, 4105.51282024, 4119.48717921, 4112.94871767, 4121.92307665, 4130.38461511,10.0
4109.87179460, 4123.84615357, 4126.92307665, 4114.35897408, 4122.43589716, 4117.30769203, 4106.66666639, 4113.07692280, 4171.15384602, 4111.53846126, 4123.33333306, 4116.15384588, 4125.89743562, 4126.41025614,10.0
4111.41025614, 4122.43589716, 4120.76923050, 4115.25640998, 4133.84615357, 4120.25640998, 4107.30769203, 4108.33333306, 4164.87179467, 4113.46153819, 4121.15384588, 4118.84615357, 4128.84615357, 4136.15384595,10.0
4127.17948691, 4135.25640998, 4134.87179460, 4126.02564075, 4138.07692287, 4141.28205108, 4136.66666646, 4123.58974332, 4173.33333320, 4121.92307665, 4129.23076896, 4126.02564075, 4133.20512793, 4136.79487159,10.0
4131.92307665, 4137.56410236, 4141.02564082, 4128.58974332, 4127.43589716, 4133.58974332, 4133.20512793, 4129.74358947, 4183.84615371, 4125.38461511, 4133.20512793, 4122.69230742, 4133.58974332, 4129.87179460,10.0
4123.84615357, 4128.71794844, 4127.17948691, 4122.94871767, 4128.07692280, 4112.69230742, 4107.69230742, 4118.20512793, 4179.48717935, 4121.53846126, 4133.84615357, 4119.35897408, 4136.02564082, 4133.20512793,10.0
4128.20512793, 4133.33333306, 4130.25640998, 4127.17948691, 4144.48717928, 4129.74358947, 4125.25640998, 4117.43589716, 4178.58974345, 4125.51282024, 4141.41025621, 4122.69230742, 4139.48717928, 4134.23076896,10.0
4133.97435870, 4135.89743569, 4140.51282031, 4126.41025614, 4140.12820492, 4141.92307672, 4144.87179467, 4134.61538434, 4187.94871781, 4129.87179460, 4139.87179467, 4123.33333306, 4136.41025621, 4131.92307665,10.0
4127.17948691, 4129.48717921, 4133.33333306, 4119.61538434, 4122.56410229, 4119.74358947, 4123.97435870, 4140.76923056, 4191.53846140, 4131.92307665, 4133.33333306, 4122.69230742, 4134.23076896, 4129.61538434,10.0
4120.76923050, 4125.25640998, 4121.15384588, 4116.79487152, 4121.79487152, 4111.79487152, 4111.15384588, 4123.07692280, 4179.48717935, 4133.33333306, 4133.58974332, 4119.10256383, 4134.74358947, 4134.35897408,10.0
4127.82051255, 4131.92307665, 4126.53846126, 4125.89743562, 4131.15384588, 4131.28205101, 4133.84615357, 4117.69230742, 4173.58974345, 4134.10256383, 4142.69230749, 4121.79487152, 4140.89743569, 4138.97435877,10.0
4126.15384588, 4132.43589716, 4127.56410229, 4133.33333306, 4129.87179460, 4136.02564082, 4139.10256390, 4124.48717921, 4173.46153833, 4129.10256383, 4148.20512800, 4124.48717921, 4142.94871774, 4129.61538434,10.0
4112.17948691, 4123.46153819, 4119.48717921, 4127.05128178, 4126.28205101, 4124.61538434, 4125.25640998, 4123.20512793, 4171.02564089, 4118.97435870, 4139.74358954, 4117.94871767, 4133.33333306, 4128.58974332,10.0
4116.41025614, 4126.28205101, 4129.23076896, 4128.84615357, 4128.58974332, 4118.71794844, 4123.46153819, 4128.20512793, 4178.97435884, 4125.25640998, 4141.79487159, 4122.30769203, 4131.28205101, 4135.64102544,10.0
4130.25640998, 4136.02564082, 4141.79487159, 4146.92307672, 4126.92307665, 4119.35897408, 4119.35897408, 4134.23076896, 4183.46153833, 4137.43589723, 4154.48717928, 4135.89743569, 4138.71794851, 4131.15384588,10.0
4133.46153819, 4140.38461518, 4143.84615364, 4163.33333313, 4132.69230742, 4126.92307665, 4121.02564075, 4136.15384595, 4182.56410243, 4132.43589716, 4151.53846133, 4139.35897415, 4137.82051262, 4132.05128178,10.0
4133.46153819, 4141.15384595, 4154.48717928, 4177.43589730, 4147.94871774, 4139.74358954, 4143.33333313, 4145.38461518, 4192.30769217, 4130.12820485, 4144.87179467, 4144.74358954, 4132.43589716, 4133.84615357,10.0
4137.82051262, 4142.43589723, 4166.28205108, 4196.15384602, 4146.66666646, 4135.89743569, 4147.43589723, 4149.23076903, 4196.79487166, 4138.84615364, 4154.23076903, 4153.46153826, 4135.38461518, 4130.51282024,10.0
4137.82051262, 4142.17948697, 4162.43589723, 4208.84615378, 4135.51282031, 4117.69230742, 4126.15384588, 4135.76923056, 4186.28205115, 4140.51282031, 4161.15384595, 4152.82051262, 4137.30769210, 4133.58974332,10.0
4129.23076896, 4138.20512800, 4147.05128185, 4216.02564096, 4131.02564075, 4117.69230742, 4128.20512793, 4134.10256383, 4181.79487166, 4128.07692280, 4147.43589723, 4142.43589723, 4129.87179460, 4132.82051255,10.0
4124.35897408, 4131.15384588, 4136.41025621, 4241.53846154, 4122.17948691, 4125.64102537, 4139.35897415, 4146.02564082, 4183.97435884, 4117.30769203, 4133.46153819, 4130.76923050, 4127.17948691, 4132.43589716,10.0
4130.38461511, 4134.23076896, 4147.94871774, 4284.10256418, 4124.48717921, 4118.84615357, 4120.89743562, 4141.15384595, 4183.71794858, 4127.30769203, 4148.84615364, 4135.51282031, 4138.97435877, 4134.10256383,10.0
4130.51282024, 4136.79487159, 4154.74358954, 4300.51282066, 4128.58974332, 4111.92307665, 4107.69230742, 4132.82051255, 4185.25641012, 4134.99999973, 4158.58974339, 4136.41025621, 4139.99999980, 4134.48717921,10.0
4110.64102537, 4119.48717921, 4126.02564075, 4281.66666674, 4108.46153819, 4115.12820485, 4120.38461511, 4140.76923056, 4174.48717935, 4114.10256383, 4126.53846126, 4109.10256383, 4117.94871767, 4135.38461518,10.0
4101.28205094, 4112.69230742, 4109.99999973, 4278.33333341, 4112.17948691, 4124.74358947, 4140.51282031, 4156.41025621, 4174.10256397, 4104.23076896, 4111.79487152, 4093.33333299, 4110.51282024, 4130.51282024,10.0
4110.89743562, 4126.79487152, 4123.97435870, 4288.46153853, 4143.46153826, 4129.99999973, 4144.74358954, 4164.10256390, 4194.23076910, 4123.58974332, 4135.12820485, 4108.58974332, 4123.07692280, 4133.84615357,10.0
4102.69230742, 4127.56410229, 4118.97435870, 4276.92307700, 4141.41025621, 4124.61538434, 4135.38461518, 4162.69230749, 4191.28205115, 4122.43589716, 4132.17948691, 4106.66666639, 4117.30769203, 4136.15384595,10.0
4102.05128171, 4131.02564075, 4117.94871767, 4276.28205136, 4134.74358947, 4131.41025614, 4149.48717928, 4167.69230749, 4190.64102551, 4119.10256383, 4123.20512793, 4103.20512793, 4112.82051255, 4131.41025614,10.0
4130.64102537, 4155.38461518, 4141.79487159, 4301.15384630, 4154.35897415, 4148.33333313, 4165.89743569, 4162.30769210, 4211.02564096, 4142.56410236, 4151.28205108, 4125.51282024, 4134.23076896, 4134.10256383,10.0
4135.25640998, 4158.71794851, 4143.58974339, 4300.76923091, 4150.89743569, 4133.46153819, 4138.97435877, 4140.51282031, 4211.79487173, 4143.84615364, 4164.35897415, 4133.07692280, 4141.92307672, 4130.89743562,10.0
4119.10256383, 4143.20512800, 4135.64102544, 4282.43589751, 4132.43589716, 4111.53846126, 4112.69230742, 4144.74358954, 4194.48717935, 4124.74358947, 4149.35897415, 4128.07692280, 4136.15384595, 4132.43589716,10.0
4127.17948691, 4147.56410236, 4151.15384595, 4285.76923084, 4135.64102544, 4123.71794844, 4126.15384588, 4171.02564089, 4192.43589730, 4129.61538434, 4155.64102544, 4140.64102544, 4143.58974339, 4135.12820485,10.0
4145.76923056, 4158.33333313, 4166.15384595, 4289.35897443, 4140.25641005, 4145.76923056, 4145.76923056, 4185.38461525, 4208.97435891, 4149.61538441, 4173.20512807, 4152.82051262, 4150.12820492, 4130.25640998,10.0
4146.53846133, 4149.61538441, 4157.17948697, 4274.35897443, 4136.02564082, 4147.94871774, 4151.15384595, 4190.38461525, 4219.99999993, 4150.12820492, 4164.87179467, 4144.87179467, 4149.61538441, 4139.74358954,10.0
4129.61538434, 4134.48717921, 4142.94871774, 4255.38461539, 4132.56410229, 4137.94871774, 4145.51282031, 4184.23076910, 4208.33333327, 4131.02564075, 4143.33333313, 4131.79487152, 4145.38461518, 4136.66666646,10.0
4122.82051255, 4136.02564082, 4144.87179467, 4249.10256411, 4132.94871767, 4138.97435877, 4142.43589723, 4178.46153833, 4192.43589730, 4123.20512793, 4140.64102544, 4131.53846126, 4140.25641005, 4131.02564075,10.0
4138.07692287, 4143.46153826, 4158.97435877, 4255.25641026, 4138.71794851, 4149.61538441, 4158.33333313, 4192.30769217, 4201.15384609, 4136.28205108, 4151.15384595, 4143.97435877, 4146.02564082, 4139.48717928,10.0
4139.35897415, 4141.15384595, 4167.17948697, 4251.79487180, 4141.28205108, 4151.02564082, 4170.76923063, 4195.12820499, 4205.64102558, 4144.48717928, 4153.71794851, 4148.20512800, 4144.61538441, 4129.61538434,10.0
4122.05128178, 4133.58974332, 4157.94871774, 4236.53846154, 4131.53846126, 4140.25641005, 4156.02564082, 4180.64102551, 4182.69230756, 4128.20512793, 4140.25641005, 4135.51282031, 4130.12820485, 4131.66666639,10.0
4121.79487152, 4134.10256383, 4153.46153826, 4234.87179488, 4130.89743562, 4136.66666646, 4147.05128185, 4187.56410243, 4180.38461525, 4123.20512793, 4135.25640998, 4132.30769203, 4132.17948691, 4131.02564075,10.0
4131.66666639, 4138.46153826, 4159.48717928, 4242.05128206, 4139.23076903, 4142.56410236, 4154.61538441, 4204.87179481, 4195.38461525, 4135.12820485, 4143.58974339, 4140.64102544, 4142.94871774, 4126.79487152,10.0
4131.02564075, 4141.53846133, 4160.25641005, 4242.05128206, 4143.20512800, 4140.25641005, 4147.56410236, 4202.56410250, 4191.28205115, 4138.20512800, 4146.02564082, 4143.97435877, 4143.33333313, 4138.97435877,10.0
4122.05128178, 4139.74358954, 4153.71794851, 4238.84615385, 4139.10256390, 4130.12820485, 4129.10256383, 4187.94871781, 4181.92307679, 4137.30769210, 4143.07692287, 4136.41025621, 4137.94871774, 4126.53846126,10.0
4119.10256383, 4133.20512793, 4148.20512800, 4234.35897436, 4125.38461511, 4131.15384588, 4129.23076896, 4187.30769217, 4183.46153833, 4135.51282031, 4139.74358954, 4128.84615357, 4139.10256390, 4131.28205101,10.0
4116.92307665, 4126.79487152, 4141.92307672, 4223.46153840, 4124.74358947, 4134.23076896, 4134.48717921, 4189.99999986, 4186.15384602, 4127.30769203, 4135.25640998, 4123.07692280, 4136.15384595, 4137.94871774,10.0
4116.28205101, 4123.84615357, 4136.41025621, 4217.17948711, 4137.69230749, 4132.82051255, 4132.17948691, 4189.23076910, 4192.05128192, 4124.10256383, 4134.23076896, 4116.28205101, 4124.23076896, 4127.69230742,10.0
4124.87179460, 4127.43589716, 4138.58974339, 4220.25641019, 4135.12820485, 4143.20512800, 4140.76923056, 4199.61538448, 4199.61538448, 4125.12820485, 4129.87179460, 4113.33333306, 4120.89743562, 4144.10256390,10.0
4115.76923050, 4122.56410229, 4134.35897408, 4211.79487173, 4121.53846126, 4149.23076903, 4149.10256390, 4201.92307686, 4195.38461525, 4117.05128178, 4115.76923050, 4106.66666639, 4116.02564075, 4132.94871767,10.0
4113.33333306, 4121.15384588, 4133.97435870, 4203.46153840, 4131.02564075, 4141.41025621, 4146.15384595, 4206.66666660, 4204.23076917, 4123.20512793, 4122.17948691, 4114.87179460, 4124.10256383, 4127.94871767,10.0
4132.94871767, 4138.58974339, 4147.56410236, 4202.82051275, 4148.33333313, 4141.02564082, 4149.48717928, 4220.25641019, 4224.87179481, 4147.69230749, 4147.17948697, 4138.46153826, 4145.12820492, 4138.84615364,10.0
4123.33333306, 4133.71794844, 4139.87179467, 4179.99999986, 4127.05128178, 4136.53846133, 4140.64102544, 4206.28205122, 4210.12820506, 4142.69230749, 4139.10256390, 4128.71794844, 4132.30769203, 4126.53846126,10.0
4113.33333306, 4124.61538434, 4131.02564075, 4163.20512800, 4112.17948691, 4130.25640998, 4131.66666639, 4196.66666653, 4191.41025628, 4126.15384588, 4124.23076896, 4113.20512793, 4118.97435870, 4134.10256383,10.0
4140.12820492, 4151.28205108, 4158.71794851, 4170.64102551, 4156.41025621, 4146.53846133, 4158.20512800, 4222.82051275, 4219.61538455, 4152.56410236, 4151.28205108, 4140.89743569, 4144.74358954, 4126.15384588,10.0
4147.94871774, 4159.87179467, 4167.69230749, 4149.61538441, 4178.58974345, 4157.05128185, 4169.48717935, 4231.41025634, 4232.43589737, 4164.48717928, 4160.38461518, 4151.92307672, 4152.94871774, 4122.05128178,10.0
4117.17948691, 4127.56410229, 4135.12820485, 4105.89743562, 4135.76923056, 4138.33333313, 4138.20512800, 4205.38461532, 4193.20512807, 4126.79487152, 4123.46153819, 4117.94871767, 4124.10256383, 4132.17948691,10.0
4101.53846119, 4112.56410229, 4122.94871767, 4096.53846119, 4124.23076896, 4129.23076896, 4128.33333306, 4197.30769217, 4175.25641012, 4111.79487152, 4109.87179460, 4104.48717921, 4113.33333306, 4116.79487152,10.0
4113.97435870, 4119.87179460, 4135.38461518, 4109.74358947, 4143.58974339, 4137.94871774, 4140.38461518, 4212.30769224, 4191.15384602, 4124.48717921, 4121.66666639, 4117.56410229, 4126.02564075, 4135.25640998,10.0
4104.48717921, 4106.53846126, 4123.20512793, 4096.53846119, 4117.30769203, 4126.79487152, 4122.05128178, 4198.46153833, 4181.79487166, 4109.99999973, 4108.58974332, 4105.64102537, 4117.05128178, 4136.79487159,10.0
4100.12820478, 4104.10256383, 4118.71794844, 4090.12820478, 4106.28205101, 4121.92307665, 4125.25640998, 4187.56410243, 4167.82051262, 4101.41025607, 4101.53846119, 4099.87179453, 4109.61538434, 4121.02564075,10.0
4135.12820485, 4135.38461518, 4155.25641005, 4116.28205101, 4144.61538441, 4143.84615364, 4166.79487159, 4220.38461532, 4193.58974345, 4131.92307665, 4131.53846126, 4134.61538434, 4138.84615364, 4141.41025621,10.0
4148.20512800, 4146.66666646, 4174.35897422, 4127.94871767, 4152.69230749, 4144.87179467, 4164.35897415, 4229.87179481, 4216.28205122, 4150.38461518, 4149.10256390, 4153.58974339, 4155.12820492, 4134.87179460,10.0
4130.76923050, 4130.38461511, 4155.12820492, 4115.25640998, 4131.02564075, 4132.30769203, 4142.30769210, 4204.35897429, 4201.92307686, 4136.53846133, 4133.71794844, 4133.33333306, 4138.97435877, 4127.94871767,10.0
4130.76923050, 4130.38461511, 4155.12820492, 4115.25640998, 4131.02564075, 4132.30769203, 4142.30769210, 4204.35897429, 4201.92307686, 4136.53846133, 4133.71794844, 4133.33333306, 4138.97435877, 4127.94871767,10.0
4119.61538434, 4120.12820485, 4135.25640998, 4103.71794844, 4130.38461511, 4136.28205108, 4152.56410236, 4203.46153840, 4185.38461525, 4124.74358947, 4119.23076896, 4115.89743562, 4127.43589716, 4138.20512800,10.0
4123.46153819, 4121.02564075, 4135.51282031, 4102.17948684, 4130.25640998, 4140.25641005, 4156.79487159, 4217.56410250, 4189.61538448, 4126.66666639, 4122.56410229, 4122.82051255, 4132.56410229, 4137.56410236,10.0
4130.89743562, 4125.89743562, 4141.15384595, 4105.38461511, 4127.82051255, 4139.74358954, 4142.56410236, 4204.74358968, 4188.71794858, 4127.43589716, 4127.30769203, 4127.56410229, 4139.10256390, 4134.87179460,10.0
4127.82051255, 4125.76923050, 4134.87179460, 4108.97435870, 4143.71794851, 4144.61538441, 4144.35897415, 4194.87179474, 4180.12820499, 4120.38461511, 4118.46153819, 4118.46153819, 4131.28205101, 4134.61538434,10.0
4127.43589716, 4128.71794844, 4132.94871767, 4117.82051255, 4155.64102544, 4145.76923056, 4156.92307672, 4217.05128199, 4189.35897422, 4120.89743562, 4117.43589716, 4121.15384588, 4129.61538434, 4136.41025621,10.0
4134.99999973, 4141.15384595, 4145.64102544, 4125.76923050, 4154.10256390, 4145.25641005, 4162.82051262, 4224.10256404, 4196.79487166, 4129.10256383, 4128.20512793, 4130.51282024, 4140.12820492, 4132.17948691,10.0
4138.97435877, 4144.23076903, 4149.23076903, 4123.84615357, 4152.43589723, 4148.07692287, 4158.71794851, 4204.10256404, 4186.92307679, 4128.20512793, 4126.79487152, 4127.17948691, 4139.61538441, 4131.15384588,10.0
4138.33333313, 4135.89743569, 4141.53846133, 4118.97435870, 4148.97435877, 4142.30769210, 4145.51282031, 4195.51282038, 4180.51282038, 4124.23076896, 4121.92307665, 4126.41025614, 4131.66666639, 4128.07692280,10.0
4142.56410236, 4135.25640998, 4147.82051262, 4119.99999973, 4138.71794851, 4138.97435877, 4149.74358954, 4207.94871788, 4187.82051269, 4129.10256383, 4129.87179460, 4136.28205108, 4134.87179460, 4130.25640998,10.0
4143.20512800, 4139.61538441, 4154.87179467, 4120.12820485, 4131.66666639, 4143.58974339, 4161.15384595, 4219.10256404, 4191.53846140, 4126.66666639, 4127.82051255, 4137.56410236, 4137.43589723, 4137.17948697,10.0
4140.25641005, 4138.71794851, 4149.99999980, 4121.02564075, 4142.17948697, 4146.28205108, 4163.07692287, 4218.71794865, 4188.07692294, 4121.41025614, 4120.51282024, 4137.17948697, 4132.43589716, 4129.61538434,10.0
4150.25641005, 4140.89743569, 4156.66666646, 4127.69230742, 4156.02564082, 4144.10256390, 4159.35897415, 4214.35897429, 4190.25641012, 4131.79487152, 4134.35897408, 4148.84615364, 4136.53846133, 4127.69230742,10.0
4145.38461518, 4136.28205108, 4157.94871774, 4120.64102537, 4137.82051262, 4133.33333306, 4140.64102544, 4198.84615371, 4183.71794858, 4134.48717921, 4133.46153819, 4147.05128185, 4136.92307672, 4131.02564075,10.0
4126.79487152, 4123.84615357, 4139.99999980, 4106.66666639, 4117.17948691, 4124.87179460, 4132.94871767, 4188.84615371, 4170.64102551, 4121.02564075, 4112.05128178, 4132.05128178, 4126.66666639, 4132.56410229,10.0
4141.02564082, 4131.41025614, 4144.74358954, 4117.69230742, 4133.07692280, 4132.43589716, 4149.10256390, 4206.15384609, 4175.25641012, 4128.07692280, 4121.79487152, 4143.46153826, 4130.12820485, 4131.92307665,10.0
4159.74358954, 4141.41025621, 4163.58974339, 4132.30769203, 4137.43589723, 4140.12820492, 4151.92307672, 4208.97435891, 4187.56410243, 4145.89743569, 4141.66666646, 4159.87179467, 4137.94871774, 4124.23076896,10.0
4149.48717928, 4137.56410236, 4162.17948697, 4126.79487152, 4127.82051255, 4143.58974339, 4149.99999980, 4186.53846140, 4188.33333320, 4143.71794851, 4134.74358947, 4151.92307672, 4138.71794851, 4132.30769203,10.0
4136.92307672, 4130.25640998, 4149.48717928, 4115.25640998, 4137.43589723, 4140.89743569, 4153.33333313, 4174.87179474, 4181.92307679, 4130.64102537, 4123.46153819, 4139.61538441, 4132.56410229, 4137.17948697,10.0
4133.46153819, 4120.64102537, 4141.92307672, 4107.82051255, 4134.74358947, 4128.58974332, 4138.71794851, 4173.58974345, 4175.64102551, 4123.46153819, 4124.61538434, 4136.66666646, 4125.25640998, 4130.76923050,10.0
4129.48717921, 4113.33333306, 4138.84615364, 4103.58974332, 4115.76923050, 4120.12820485, 4121.41025614, 4168.33333320, 4167.82051262, 4120.38461511, 4126.15384588, 4132.82051255, 4125.76923050, 4133.46153819,10.0
4125.76923050, 4116.02564075, 4137.05128185, 4105.64102537, 4120.51282024, 4119.99999973, 4122.43589716, 4165.51282031, 4162.69230749, 4115.76923050, 4125.64102537, 4127.56410229, 4125.51282024, 4126.41025614,10.0
4132.69230742, 4126.66666639, 4144.61538441, 4112.17948691, 4128.71794844, 4123.97435870, 4133.46153819, 4173.46153833, 4168.07692287, 4122.56410229, 4131.02564075, 4133.84615357, 4128.20512793, 4127.94871767,10.0
4144.10256390, 4132.69230742, 4154.35897415, 4116.41025614, 4119.61538434, 4126.53846126, 4143.07692287, 4178.71794858, 4176.41025628, 4136.53846133, 4138.97435877, 4142.30769210, 4141.15384595, 4132.94871767,10.0
4143.07692287, 4127.69230742, 4148.46153826, 4113.46153819, 4124.23076896, 4126.28205101, 4143.71794851, 4173.97435884, 4172.05128192, 4132.82051255, 4134.35897408, 4135.25640998, 4143.07692287, 4125.25640998,10.0
4134.61538434, 4124.35897408, 4137.82051262, 4108.33333306, 4137.17948697, 4131.66666639, 4144.48717928, 4169.48717935, 4162.56410236, 4121.41025614, 4123.58974332, 4125.25640998, 4132.69230742, 4132.05128178,10.0
4134.61538434, 4124.35897408, 4137.82051262, 4108.33333306, 4137.17948697, 4131.66666639, 4144.48717928, 4169.48717935, 4162.56410236, 4121.41025614, 4123.58974332, 4125.25640998, 4132.69230742, 4132.05128178,10.0
4127.69230742, 4126.66666639, 4135.25640998, 4106.66666639, 4132.05128178, 4134.23076896, 4144.35897415, 4169.61538448, 4164.99999980, 4124.10256383, 4118.07692280, 4122.82051255, 4125.89743562, 4134.99999973,10.0
4117.56410229, 4118.46153819, 4126.41025614, 4097.94871761, 4119.10256383, 4123.97435870, 4133.33333306, 4177.69230756, 4172.69230756, 4124.10256383, 4108.07692280, 4113.46153819, 4118.20512793, 4127.56410229,10.0
4114.48717921, 4111.41025614, 4119.10256383, 4091.92307658, 4119.10256383, 4120.51282024, 4135.38461518, 4182.30769217, 4176.79487166, 4118.97435870, 4104.74358947, 4104.99999973, 4117.30769203, 4133.84615357,10.0
4117.94871767, 4116.28205101, 4124.61538434, 4097.17948684, 4124.23076896, 4127.05128178, 4143.07692287, 4168.46153833, 4171.41025628, 4121.15384588, 4113.07692280, 4108.58974332, 4122.17948691, 4135.89743569,10.0
4110.38461511, 4109.87179460, 4120.12820485, 4090.64102530, 4111.66666639, 4115.89743562, 4125.38461511, 4149.10256390, 4152.17948697, 4109.35897408, 4105.25640998, 4105.38461511, 4111.66666639, 4129.48717921,10.0
4115.51282024, 4107.94871767, 4126.15384588, 4087.82051248, 4096.66666632, 4108.71794844, 4118.58974332, 4156.66666646, 4149.99999980, 4104.23076896, 4103.07692280, 4112.17948691, 4117.30769203, 4132.94871767,10.0
4142.43589723, 4130.64102537, 4157.43589723, 4111.53846126, 4114.23076896, 4124.23076896, 4139.61538441, 4174.35897422, 4172.43589730, 4129.61538434, 4133.46153819, 4144.99999980, 4146.02564082, 4131.79487152,10.0
4155.76923056, 4146.15384595, 4171.79487166, 4127.43589716, 4143.84615364, 4140.12820492, 4154.61538441, 4174.87179474, 4178.33333320, 4146.41025621, 4151.15384595, 4161.28205108, 4149.48717928, 4134.48717921,10.0
4140.12820492, 4136.28205108, 4157.05128185, 4117.30769203, 4140.12820492, 4133.97435870, 4141.53846133, 4161.02564082, 4163.71794851, 4133.97435870, 4137.43589723, 4147.17948697, 4129.74358947, 4135.89743569,10.0
4117.82051255, 4119.23076896, 4140.38461518, 4100.12820478, 4111.28205101, 4109.74358947, 4107.05128178, 4143.58974339, 4150.76923056, 4113.20512793, 4121.66666639, 4132.94871767, 4117.17948691, 4129.48717921,10.0
4114.23076896, 4115.25640998, 4136.92307672, 4093.20512786, 4101.28205094, 4101.02564068, 4098.84615350, 4147.69230749, 4148.33333313, 4103.97435870, 4114.35897408, 4130.76923050, 4116.41025614, 4135.89743569,10.0
4123.20512793, 4128.46153819, 4144.87179467, 4101.02564068, 4116.28205101, 4118.46153819, 4128.97435870, 4161.41025621, 4158.07692287, 4116.02564075, 4118.07692280, 4136.53846133, 4124.61538434, 4131.53846126,10.0
4124.48717921, 4129.35897408, 4146.02564082, 4102.82051255, 4123.33333306, 4123.71794844, 4137.30769210, 4160.25641005, 4162.82051262, 4126.02564075, 4124.87179460, 4138.46153826, 4128.20512793, 4128.33333306,10.0
4118.20512793, 4113.71794844, 4136.66666646, 4093.07692273, 4119.74358947, 4112.69230742, 4120.76923050, 4160.64102544, 4161.02564082, 4120.38461511, 4122.69230742, 4134.61538434, 4119.61538434, 4135.12820485,10.0
4116.92307665, 4110.76923050, 4131.15384588, 4091.15384581, 4113.58974332, 4117.69230742, 4124.99999973, 4165.25641005, 4163.97435877, 4123.33333306, 4122.56410229, 4134.87179460, 4116.53846126, 4128.97435870,10.0
4128.97435870, 4129.61538434, 4138.84615364, 4105.76923050, 4122.05128178, 4138.07692287, 4149.35897415, 4169.35897422, 4168.71794858, 4138.84615364, 4136.53846133, 4142.69230749, 4131.28205101, 4129.48717921,10.0
4137.17948697, 4141.92307672, 4143.71794851, 4112.30769203, 4144.10256390, 4143.84615364, 4155.64102544, 4172.05128192, 4171.92307679, 4147.05128185, 4147.17948697, 4140.76923056, 4139.35897415, 4132.05128178,10.0
4121.66666639, 4129.99999973, 4127.17948691, 4093.84615350, 4142.69230749, 4129.74358947, 4132.56410229, 4168.20512807, 4173.33333320, 4137.69230749, 4132.05128178, 4121.92307665, 4126.66666639, 4131.02564075,10.0
4097.05128171, 4108.84615357, 4106.28205101, 4070.25640991, 4112.43589716, 4111.92307665, 4108.97435870, 4153.07692287, 4165.12820492, 4119.23076896, 4105.25640998, 4103.58974332, 4111.02564075, 4130.25640998,10.0
4104.35897408, 4111.41025614, 4115.89743562, 4075.38461504, 4111.28205101, 4118.46153819, 4127.17948691, 4158.71794851, 4165.64102544, 4121.41025614, 4108.58974332, 4108.58974332, 4116.02564075, 4128.33333306,10.0
4132.30769203, 4138.46153826, 4144.48717928, 4105.76923050, 4149.48717928, 4141.53846133, 4163.71794851, 4183.58974345, 4183.84615371, 4148.07692287, 4140.25641005, 4136.28205108, 4137.56410236, 4129.74358947,10.0
