AF3,F7,F3,FC5,T7,P7,O1,O2,P8,T8,FC6,F4,F8,AF4,Label
4045.12820472, 4058.97435856, 4047.94871754, 4036.15384567, 4023.46153798, 4048.97435856, 4041.41025600, 4058.07692266, 4067.56410215, 4022.05128157, 4042.43589702, 4043.84615343, 4059.99999959, 4124.48717921,10.0
4046.28205087, 4056.92307651, 4046.92307651, 4038.20512779, 4042.94871754, 4059.99999959, 4049.74358933, 4059.61538420, 4067.05128164, 4019.87179439, 4047.43589702, 4044.10256369, 4068.07692266, 4122.69230742,10.0
4059.35897395, 4067.30769189, 4059.99999959, 4050.89743548, 4048.07692266, 4063.33333292, 4058.58974318, 4068.58974318, 4079.10256376, 4028.46153798, 4048.84615343, 4053.58974318, 4072.17948684, 4127.43589716,10.0
4055.64102523, 4069.10256369, 4057.69230728, 4046.66666625, 4027.17948670, 4051.53846113, 4048.46153805, 4063.20512779, 4071.66666632, 4026.66666618, 4032.82051234, 4046.92307651, 4052.69230728, 4121.53846126,10.0
4045.51282010, 4058.07692266, 4040.89743548, 4035.51282003, 4042.05128164, 4055.51282010, 4049.23076882, 4067.43589702, 4063.33333292, 4018.71794824, 4026.02564054, 4039.23076882, 4044.61538420, 4128.20512793,10.0
4047.05128164, 4055.51282010, 4042.30769189, 4038.71794830, 4056.15384574, 4062.69230728, 4055.76923036, 4074.74358940, 4066.15384574, 4018.84615336, 4037.82051241, 4044.99999959, 4056.92307651, 4127.43589716,10.0
4053.97435856, 4062.43589702, 4056.02564061, 4046.53846113, 4032.43589695, 4056.66666625, 4052.17948677, 4064.23076882, 4063.58974318, 4022.05128157, 4046.41025600, 4055.51282010, 4059.61538420, 4121.66666639,10.0
4048.20512779, 4055.64102523, 4048.33333292, 4038.20512779, 4026.92307644, 4050.25640984, 4044.48717907, 4050.89743548, 4043.33333292, 4012.56410208, 4035.25640977, 4050.76923036, 4044.87179446, 4132.56410229,10.0
4033.07692259, 4044.61538420, 4031.79487131, 4023.33333285, 4042.69230728, 4045.89743548, 4035.38461490, 4047.17948677, 4030.12820465, 3994.61538406, 4020.76923029, 4033.58974311, 4033.07692259, 4124.35897408,10.0
4036.02564054, 4047.43589702, 4037.94871754, 4026.28205080, 4043.71794830, 4041.66666625, 4032.05128157, 4048.71794830, 4038.71794830, 3993.97435842, 4027.17948670, 4036.02564054, 4040.38461497, 4117.82051255,10.0
4049.61538420, 4053.97435856, 4051.79487138, 4037.82051241, 4040.38461497, 4045.12820472, 4041.28205087, 4055.51282010, 4052.82051241, 4014.74358926, 4042.69230728, 4052.43589702, 4051.79487138, 4128.07692280,10.0
4052.56410215, 4063.71794830, 4056.28205087, 4045.64102523, 4038.20512779, 4056.66666625, 4055.25640984, 4066.28205087, 4067.82051241, 4030.38461490, 4050.12820472, 4058.97435856, 4055.89743548, 4130.76923050,10.0
4047.82051241, 4069.23076882, 4051.02564061, 4047.30769189, 4032.56410208, 4054.99999959, 4053.07692266, 4065.64102523, 4068.07692266, 4011.92307644, 4043.71794830, 4051.53846113, 4049.99999959, 4126.15384588,10.0
4038.20512779, 4060.89743548, 4038.71794830, 4040.25640984, 4037.94871754, 4043.46153805, 4044.87179446, 4053.84615343, 4049.61538420, 3983.97435842, 4032.05128157, 4036.15384567, 4036.28205080, 4118.84615357,10.0
4039.74358933, 4062.94871754, 4042.30769189, 4044.35897395, 4050.12820472, 4058.46153805, 4066.28205087, 4065.89743548, 4054.23076882, 3997.30769176, 4037.56410215, 4038.46153805, 4038.97435856, 4122.82051255,10.0
4056.15384574, 4081.28205094, 4060.64102523, 4061.15384574, 4064.10256369, 4082.05128171, 4085.25640991, 4088.20512786, 4081.79487145, 4026.66666618, 4053.20512779, 4058.71794830, 4054.35897395, 4125.51282024,10.0
4055.76923036, 4078.58974325, 4060.51282010, 4059.23076882, 4059.61538420, 4059.23076882, 4051.28205087, 4069.87179453, 4070.89743555, 4010.51282003, 4052.30769189, 4057.30769189, 4051.15384574, 4121.41025614,10.0
4035.12820465, 4052.69230728, 4041.02564061, 4039.10256369, 4017.17948670, 4017.82051234, 4006.53846106, 4029.87179439, 4023.58974311, 3972.69230714, 4030.76923029, 4030.76923029, 4030.12820465, 4126.28205101,10.0
4030.25640977, 4047.43589702, 4034.87179439, 4033.33333285, 3995.38461483, 4016.79487131, 4008.33333285, 4025.38461490, 4009.35897388, 3973.58974304, 4019.87179439, 4026.92307644, 4023.20512772, 4126.28205101,10.0
4046.41025600, 4063.07692266, 4045.51282010, 4047.94871754, 4021.66666618, 4035.64102516, 4027.30769183, 4044.35897395, 4029.35897388, 3995.51281996, 4035.76923029, 4048.07692266, 4033.33333285, 4121.92307665,10.0
4057.05128164, 4069.10256369, 4054.61538420, 4056.28205087, 4048.71794830, 4043.33333292, 4038.07692266, 4054.35897395, 4039.48717907, 3998.33333278, 4049.87179446, 4053.20512779, 4039.10256369, 4122.30769203,10.0
4057.30769189, 4066.28205087, 4059.10256369, 4051.41025600, 4057.17948677, 4048.84615343, 4053.20512779, 4059.74358933, 4044.87179446, 3997.69230714, 4049.35897395, 4047.94871754, 4043.07692266, 4125.89743562,10.0
4057.17948677, 4068.46153805, 4056.79487138, 4050.38461497, 4047.43589702, 4048.33333292, 4058.97435856, 4065.64102523, 4057.94871754, 4007.05128157, 4047.56410215, 4049.23076882, 4046.41025600, 4126.28205101,10.0
4059.10256369, 4067.56410215, 4052.43589702, 4050.25640984, 4032.17948670, 4046.41025600, 4055.38461497, 4069.61538420, 4064.74358933, 4006.66666618, 4045.25640984, 4048.46153805, 4041.79487138, 4123.58974332,10.0
4061.66666625, 4062.05128164, 4054.35897395, 4044.99999959, 4042.43589702, 4055.51282010, 4061.15384574, 4070.25640991, 4058.97435856, 3993.84615329, 4037.56410215, 4047.05128164, 4035.12820465, 4125.76923050,10.0
4064.61538420, 4066.92307651, 4058.46153805, 4047.30769189, 4056.41025600, 4062.43589702, 4067.82051241, 4070.64102530, 4058.20512779, 3995.51281996, 4035.64102516, 4047.82051241, 4036.53846106, 4123.46153819,10.0
4064.61538420, 4072.69230735, 4058.97435856, 4054.10256369, 4040.51282010, 4057.69230728, 4064.23076882, 4071.53846119, 4063.97435856, 4010.51282003, 4040.25640984, 4047.94871754, 4040.89743548, 4121.92307665,10.0
4066.79487138, 4073.84615350, 4064.23076882, 4056.79487138, 4036.15384567, 4057.56410215, 4063.20512779, 4069.61538420, 4065.25640984, 4019.99999952, 4048.33333292, 4054.61538420, 4047.17948677, 4127.30769203,10.0
4077.43589709, 4082.30769196, 4077.05128171, 4060.89743548, 4058.33333292, 4066.28205087, 4071.02564068, 4073.33333299, 4069.23076882, 4030.12820465, 4065.25640984, 4065.25640984, 4055.25640984, 4125.25640998,10.0
4086.66666632, 4092.82051248, 4089.23076889, 4069.61538420, 4071.15384581, 4071.41025607, 4075.51282017, 4085.25640991, 4081.15384581, 4042.30769189, 4080.51282017, 4074.61538427, 4062.30769189, 4124.99999973,10.0
4099.99999966, 4104.10256383, 4105.64102537, 4084.35897402, 4082.43589709, 4082.69230735, 4087.17948684, 4094.87179453, 4095.89743555, 4052.69230728, 4095.25640991, 4092.69230735, 4076.79487145, 4124.35897408,10.0
4124.35897408, 4121.66666639, 4128.84615357, 4103.20512793, 4106.15384588, 4107.43589716, 4112.82051255, 4103.07692280, 4111.15384588, 4074.74358940, 4117.05128178, 4113.71794844, 4095.89743555, 4122.43589716,10.0
4141.28205108, 4135.12820485, 4143.07692287, 4113.97435870, 4124.61538434, 4124.74358947, 4128.84615357, 4114.10256383, 4123.97435870, 4099.10256376, 4132.05128178, 4125.12820485, 4104.35897408, 4125.76923050,10.0
4142.69230749, 4135.38461518, 4144.10256390, 4113.71794844, 4126.28205101, 4121.28205101, 4124.35897408, 4116.53846126, 4125.51282024, 4099.23076889, 4132.69230742, 4126.28205101, 4104.10256383, 4126.02564075,10.0
4145.64102544, 4138.58974339, 4148.07692287, 4119.61538434, 4121.66666639, 4118.71794844, 4124.23076896, 4115.64102537, 4119.48717921, 4083.97435863, 4133.71794844, 4126.92307665, 4110.76923050, 4126.92307665,10.0
4155.64102544, 4148.46153826, 4156.79487159, 4130.25640998, 4128.07692280, 4132.30769203, 4139.23076903, 4125.38461511, 4126.41025614, 4095.64102530, 4138.07692287, 4130.64102537, 4117.43589716, 4126.41025614,10.0
4162.94871774, 4150.76923056, 4163.97435877, 4134.61538434, 4148.07692287, 4143.58974339, 4147.82051262, 4133.58974332, 4138.97435877, 4124.61538434, 4140.51282031, 4135.89743569, 4116.02564075, 4127.43589716,10.0
4166.28205108, 4143.71794851, 4164.99999980, 4133.20512793, 4156.79487159, 4140.12820492, 4142.17948697, 4129.99999973, 4138.58974339, 4122.30769203, 4141.15384595, 4136.92307672, 4117.30769203, 4127.94871767,10.0
4168.07692287, 4142.17948697, 4162.82051262, 4131.15384588, 4155.12820492, 4136.15384595, 4141.41025621, 4131.92307665, 4142.05128185, 4110.76923050, 4142.69230749, 4135.76923056, 4119.23076896, 4121.28205101,10.0
4173.84615371, 4149.23076903, 4166.28205108, 4134.48717921, 4149.74358954, 4140.25641005, 4148.07692287, 4143.84615364, 4157.30769210, 4123.84615357, 4146.02564082, 4141.92307672, 4117.56410229, 4121.66666639,10.0
4170.51282038, 4141.28205108, 4161.92307672, 4128.07692280, 4117.43589716, 4134.87179460, 4140.76923056, 4139.23076903, 4157.43589723, 4119.74358947, 4139.87179467, 4141.02564082, 4112.94871767, 4120.12820485,10.0
4159.35897415, 4123.58974332, 4145.76923056, 4116.66666639, 4093.97435863, 4122.05128178, 4127.69230742, 4132.43589716, 4148.33333313, 4098.07692273, 4130.12820485, 4131.15384588, 4110.76923050, 4126.92307665,10.0
4160.89743569, 4124.87179460, 4141.79487159, 4119.87179460, 4122.56410229, 4124.48717921, 4133.84615357, 4146.02564082, 4157.82051262, 4109.99999973, 4136.15384595, 4128.84615357, 4115.25640998, 4134.99999973,10.0
4159.48717928, 4128.97435870, 4144.99999980, 4121.41025614, 4149.87179467, 4128.20512793, 4137.30769210, 4142.30769210, 4162.17948697, 4128.58974332, 4135.76923056, 4127.05128178, 4108.46153819, 4117.94871767,10.0
4148.71794851, 4120.38461511, 4138.20512800, 4117.56410229, 4136.66666646, 4113.84615357, 4115.12820485, 4114.35897408, 4141.79487159, 4119.99999973, 4120.12820485, 4124.10256383, 4096.02564068, 4121.28205101,10.0
4144.48717928, 4114.99999973, 4131.53846126, 4116.66666639, 4108.20512793, 4095.51282017, 4097.30769196, 4102.43589709, 4121.79487152, 4109.61538434, 4114.48717921, 4122.17948691, 4093.71794837, 4128.46153819,10.0
4146.02564082, 4110.25640998, 4127.69230742, 4110.38461511, 4084.61538427, 4090.25640991, 4102.30769196, 4100.64102530, 4105.76923050, 4093.84615350, 4109.99999973, 4114.48717921, 4088.07692273, 4115.76923050,10.0
4144.48717928, 4105.25640998, 4125.12820485, 4104.48717921, 4085.76923043, 4096.41025607, 4104.48717921, 4093.97435863, 4086.79487145, 4068.84615343, 4099.23076889, 4111.53846126, 4086.15384581, 4120.12820485,10.0
4147.05128185, 4111.15384588, 4135.64102544, 4108.33333306, 4114.99999973, 4106.53846126, 4108.07692280, 4100.12820478, 4094.74358940, 4073.71794837, 4115.38461511, 4123.33333306, 4101.53846119, 4121.53846126,10.0
4152.69230749, 4116.02564075, 4146.53846133, 4104.74358947, 4115.76923050, 4108.97435870, 4118.20512793, 4111.53846126, 4118.97435870, 4100.12820478, 4147.56410236, 4133.46153819, 4114.48717921, 4119.61538434,10.0
4153.33333313, 4110.12820485, 4148.97435877, 4092.94871761, 4097.69230735, 4105.12820485, 4117.56410229, 4112.69230742, 4123.84615357, 4117.17948691, 4163.97435877, 4138.84615364, 4117.30769203, 4122.17948691,10.0
4157.43589723, 4106.28205101, 4157.82051262, 4092.17948684, 4114.48717921, 4107.05128178, 4116.15384588, 4119.87179460, 4124.87179460, 4129.23076896, 4176.15384602, 4149.35897415, 4125.51282024, 4122.69230742,10.0
4158.71794851, 4102.43589709, 4158.58974339, 4086.28205094, 4116.28205101, 4109.99999973, 4122.94871767, 4127.94871767, 4129.61538434, 4130.38461511, 4182.30769217, 4149.99999980, 4127.94871767, 4127.43589716,10.0
4151.02564082, 4091.15384581, 4139.10256390, 4066.02564061, 4088.33333299, 4109.10256383, 4126.53846126, 4125.38461511, 4131.41025614, 4121.92307665, 4173.20512807, 4135.12820485, 4118.46153819, 4122.05128178,10.0
4140.64102544, 4076.92307658, 4115.38461511, 4047.69230728, 4077.30769196, 4100.76923043, 4112.43589716, 4119.35897408, 4123.07692280, 4103.84615357, 4154.74358954, 4119.87179460, 4109.23076896, 4119.74358947,10.0
4129.74358947, 4065.76923036, 4096.79487145, 4033.71794824, 4068.97435856, 4089.23076889, 4100.64102530, 4111.15384588, 4106.79487152, 4082.56410222, 4134.23076896, 4105.12820485, 4098.84615350, 4126.79487152,10.0
4125.51282024, 4064.48717907, 4090.51282017, 4027.69230721, 4067.43589702, 4095.76923043, 4116.15384588, 4116.02564075, 4111.02564075, 4088.84615350, 4127.30769203, 4097.30769196, 4092.30769196, 4126.92307665,10.0
4129.23076896, 4070.64102530, 4095.12820478, 4031.28205080, 4093.07692273, 4107.56410229, 4129.48717921, 4127.69230742, 4124.48717921, 4113.84615357, 4130.51282024, 4099.74358940, 4093.07692273, 4125.38461511,10.0
4119.87179460, 4062.43589702, 4081.02564068, 4023.33333285, 4082.17948684, 4083.33333299, 4097.30769196, 4104.87179460, 4095.38461504, 4089.23076889, 4113.07692280, 4087.94871761, 4078.97435863, 4122.82051255,10.0
4104.87179460, 4048.46153805, 4060.76923036, 4008.71794824, 4033.33333285, 4059.99999959, 4071.53846119, 4082.94871761, 4061.53846113, 4045.12820472, 4094.87179453, 4072.82051248, 4067.43589702, 4124.48717921,10.0
4117.69230742, 4057.69230728, 4074.74358940, 4018.58974311, 4053.46153805, 4087.43589709, 4108.84615357, 4107.82051255, 4089.10256376, 4073.20512786, 4116.41025614, 4087.82051248, 4085.89743555, 4127.94871767,10.0
4123.84615357, 4065.64102523, 4083.33333299, 4028.58974311, 4085.38461504, 4101.66666632, 4121.28205101, 4118.46153819, 4109.23076896, 4104.99999973, 4125.51282024, 4093.84615350, 4089.99999966, 4124.10256383,10.0
4095.76923043, 4051.53846113, 4057.05128164, 4015.76923029, 4047.43589702, 4071.79487145, 4073.58974325, 4088.46153812, 4079.99999966, 4073.71794837, 4096.02564068, 4066.28205087, 4068.46153805, 4125.89743562,10.0
4078.46153812, 4044.74358933, 4038.20512779, 4010.64102516, 4037.05128164, 4065.12820472, 4064.35897395, 4083.84615350, 4069.48717907, 4054.10256369, 4082.69230735, 4046.02564061, 4059.87179446, 4123.58974332,10.0
4092.17948684, 4053.58974318, 4046.15384574, 4018.20512772, 4079.74358940, 4091.53846119, 4103.71794844, 4110.64102537, 4091.28205094, 4078.20512786, 4094.48717914, 4051.15384574, 4067.43589702, 4122.43589716,10.0
4102.30769196, 4059.74358933, 4059.23076882, 4022.17948670, 4086.28205094, 4101.53846119, 4119.23076896, 4113.71794844, 4100.12820478, 4087.94871761, 4102.82051255, 4065.25640984, 4076.41025607, 4123.97435870,10.0
4097.30769196, 4061.41025600, 4061.28205087, 4020.38461490, 4059.23076882, 4094.48717914, 4106.66666639, 4094.23076889, 4085.76923043, 4071.53846119, 4099.87179453, 4067.56410215, 4077.43589709, 4119.23076896,10.0
4099.74358940, 4064.99999959, 4059.10256369, 4021.28205080, 4058.07692266, 4095.38461504, 4106.28205101, 4096.02564068, 4079.74358940, 4072.69230735, 4094.99999966, 4064.48717907, 4075.89743555, 4125.51282024,10.0
4110.64102537, 4068.71794830, 4066.41025600, 4028.58974311, 4073.20512786, 4096.28205094, 4116.41025614, 4110.76923050, 4090.12820478, 4090.76923043, 4097.43589709, 4074.10256376, 4077.17948684, 4122.94871767,10.0
4114.61538434, 4069.99999966, 4076.02564068, 4031.66666618, 4080.51282017, 4094.61538427, 4121.66666639, 4112.43589716, 4095.12820478, 4097.30769196, 4105.12820485, 4081.53846119, 4079.99999966, 4118.71794844,10.0
4110.89743562, 4066.41025600, 4071.53846119, 4028.07692259, 4067.94871754, 4094.10256376, 4113.71794844, 4108.84615357, 4089.99999966, 4087.56410222, 4098.33333299, 4073.71794837, 4081.41025607, 4123.33333306,10.0
4104.48717921, 4058.84615343, 4061.41025600, 4020.89743541, 4050.64102523, 4082.82051248, 4094.74358940, 4104.48717921, 4088.20512786, 4079.99999966, 4082.94871761, 4063.84615343, 4075.64102530, 4118.33333306,10.0
4094.35897402, 4051.79487138, 4055.51282010, 4011.79487131, 4053.84615343, 4058.20512779, 4079.61538427, 4097.17948684, 4089.35897402, 4077.69230735, 4077.69230735, 4059.87179446, 4067.17948677, 4124.74358947,10.0
4084.10256376, 4051.28205087, 4055.38461497, 4012.43589695, 4046.66666625, 4047.17948677, 4071.15384581, 4093.71794837, 4087.82051248, 4072.43589709, 4075.38461504, 4054.87179446, 4062.17948677, 4122.94871767,10.0
4080.76923043, 4055.25640984, 4064.87179446, 4019.74358926, 4018.84615336, 4058.33333292, 4071.02564068, 4092.94871761, 4081.79487145, 4057.56410215, 4075.64102530, 4053.33333292, 4061.41025600, 4117.56410229,10.0
4077.94871761, 4051.41025600, 4066.92307651, 4017.30769183, 4018.58974311, 4057.69230728, 4067.69230728, 4086.41025607, 4070.12820478, 4044.23076882, 4076.15384581, 4052.69230728, 4060.76923036, 4127.43589716,10.0
4073.46153812, 4046.41025600, 4056.66666625, 4012.56410208, 4043.46153805, 4052.43589702, 4063.07692266, 4084.10256376, 4072.17948684, 4057.56410215, 4071.92307658, 4048.20512779, 4054.99999959, 4122.43589716,10.0
4073.33333299, 4050.64102523, 4050.25640984, 4013.71794824, 4041.15384574, 4066.79487138, 4081.41025607, 4096.02564068, 4089.87179453, 4072.17948684, 4069.74358940, 4048.84615343, 4054.10256369, 4123.58974332,10.0
4065.38461497, 4045.89743548, 4038.58974318, 4008.97435849, 4032.56410208, 4070.25640991, 4090.25640991, 4098.33333299, 4088.07692273, 4057.82051241, 4061.92307651, 4042.69230728, 4049.10256369, 4127.30769203,10.0
4047.30769189, 4029.23076875, 4015.89743541, 3994.87179432, 4029.48717900, 4055.89743548, 4071.28205094, 4084.87179453, 4066.79487138, 4027.05128157, 4042.56410215, 4021.66666618, 4038.97435856, 4122.05128178,10.0
4036.53846106, 4021.66666618, 3999.61538406, 3985.25640970, 4004.48717900, 4048.33333292, 4054.61538420, 4074.10256376, 4057.30769189, 4008.58974311, 4026.79487131, 4006.02564054, 4039.48717907, 4124.87179460,10.0
4038.97435856, 4029.87179439, 3999.87179432, 3988.33333278, 4009.74358926, 4054.48717907, 4059.74358933, 4073.46153812, 4064.99999959, 4018.07692259, 4024.48717900, 4004.35897388, 4038.84615343, 4121.41025614,10.0
4036.92307651, 4032.17948670, 4002.43589688, 3990.38461483, 4041.92307651, 4054.87179446, 4061.41025600, 4073.20512786, 4061.41025600, 4022.69230721, 4021.02564054, 4003.58974304, 4030.76923029, 4122.56410229,10.0
4021.79487131, 4018.58974311, 3993.97435842, 3982.30769176, 4025.89743541, 4036.15384567, 4036.02564054, 4057.17948677, 4040.76923036, 3997.30769176, 4004.99999952, 3988.71794817, 4019.48717900, 4123.71794844,10.0
4007.82051234, 4012.17948670, 3980.76923022, 3975.89743535, 3996.15384560, 4025.51282003, 4019.61538413, 4046.66666625, 4037.82051241, 3986.66666611, 3994.99999945, 3972.17948663, 4009.48717900, 4120.89743562,10.0
4008.71794824, 4020.38461490, 3977.56410201, 3979.35897381, 4010.25640977, 4041.28205087, 4038.84615343, 4062.17948677, 4056.66666625, 4012.69230721, 4006.66666618, 3979.23076868, 4016.53846106, 4129.99999973,10.0
4019.61538413, 4026.28205080, 3985.51281996, 3985.51281996, 4016.28205080, 4058.33333292, 4062.69230728, 4080.12820478, 4071.79487145, 4030.51282003, 4018.84615336, 3993.33333278, 4031.15384567, 4125.89743562,10.0
4022.05128157, 4020.64102516, 3988.46153791, 3982.94871740, 3999.99999945, 4052.05128164, 4055.25640984, 4075.51282017, 4073.07692273, 4020.76923029, 4014.48717900, 3992.17948663, 4035.64102516, 4121.28205101,10.0
4021.92307644, 4019.35897388, 3985.25640970, 3980.89743535, 4008.33333285, 4048.33333292, 4046.66666625, 4067.05128164, 4074.99999966, 4009.10256362, 4019.48717900, 3994.23076868, 4041.15384574, 4127.43589716,10.0
4037.30769189, 4030.51282003, 3988.46153791, 3982.69230714, 4025.25640977, 4060.38461497, 4064.23076882, 4079.99999966, 4090.51282017, 4031.79487131, 4038.97435856, 4008.58974311, 4051.79487138, 4125.25640998,10.0
4051.41025600, 4036.02564054, 3999.10256355, 3985.25640970, 4030.89743541, 4063.84615343, 4070.64102530, 4083.71794837, 4098.20512786, 4064.23076882, 4045.25640984, 4018.97435849, 4057.30769189, 4127.69230742,10.0
4047.43589702, 4034.10256362, 4005.89743541, 3989.61538406, 4024.61538413, 4054.35897395, 4051.02564061, 4064.48717907, 4085.64102530, 4050.76923036, 4041.15384574, 4019.61538413, 4057.82051241, 4124.87179460,10.0
4038.71794830, 4033.33333285, 4001.02564047, 3988.07692252, 4009.87179439, 4042.43589702, 4029.99999952, 4056.28205087, 4072.94871761, 4026.15384567, 4039.10256369, 4016.41025593, 4051.53846113, 4119.87179460,10.0
4039.99999959, 4036.02564054, 3999.87179432, 3984.74358919, 3994.61538406, 4032.69230721, 4014.87179439, 4051.79487138, 4057.43589702, 4024.23076875, 4028.71794824, 4010.12820465, 4040.38461497, 4126.53846126,10.0
4041.28205087, 4039.61538420, 4006.53846106, 3989.23076868, 3997.82051227, 4030.38461490, 4007.17948670, 4033.58974311, 4032.82051234, 4004.35897388, 4018.71794824, 4004.87179439, 4037.05128164, 4126.02564075,10.0
4038.07692266, 4042.94871754, 4010.89743541, 3996.66666611, 4026.53846106, 4037.69230728, 4018.46153798, 4036.66666618, 4032.94871747, 3997.43589688, 4019.61538413, 4012.43589695, 4038.58974318, 4124.74358947,10.0
4039.61538420, 4048.84615343, 4015.89743541, 4003.07692252, 4040.89743548, 4039.99999959, 4030.89743541, 4058.71794830, 4053.20512779, 4034.48717900, 4020.25640977, 4020.64102516, 4036.92307651, 4124.10256383,10.0
4040.38461497, 4050.89743548, 4018.33333285, 4004.61538413, 4036.15384567, 4036.66666618, 4030.12820465, 4061.28205087, 4046.66666625, 4034.87179439, 4016.79487131, 4014.87179439, 4034.74358926, 4123.71794844,10.0
4031.92307644, 4044.99999959, 4009.87179439, 4000.12820458, 4017.82051234, 4032.82051234, 4026.92307644, 4046.79487138, 4025.12820465, 3984.99999945, 4008.20512772, 4003.84615329, 4025.38461490, 4125.89743562,10.0
4026.79487131, 4041.28205087, 3998.58974304, 3994.61538406, 3994.99999945, 4023.58974311, 4024.10256362, 4037.69230728, 4022.69230721, 3974.74358919, 3994.48717894, 3995.12820458, 4012.82051234, 4121.15384588,10.0
4031.15384567, 4046.92307651, 4004.61538413, 3997.05128150, 4007.94871747, 4027.69230721, 4028.58974311, 4048.33333292, 4041.79487138, 4019.10256362, 4003.71794817, 4000.51281996, 4021.66666618, 4122.82051255,10.0
4032.82051234, 4048.20512779, 4015.38461490, 4004.35897388, 4037.05128164, 4046.66666625, 4047.30769189, 4069.61538420, 4063.46153805, 4038.58974318, 4028.20512772, 4014.23076875, 4039.99999959, 4126.02564075,10.0
4026.41025593, 4038.46153805, 4005.64102516, 3998.71794817, 4029.61538413, 4052.05128164, 4054.61538420, 4067.17948677, 4060.38461497, 4014.48717900, 4026.28205080, 4009.99999952, 4034.99999952, 4120.76923050,10.0
4015.38461490, 4025.38461490, 3986.41025586, 3981.79487124, 4012.69230721, 4041.79487138, 4037.05128164, 4049.10256369, 4043.58974318, 3998.97435842, 4010.38461490, 3992.05128150, 4024.48717900, 4124.23076896,10.0
4002.43589688, 4015.89743541, 3973.97435842, 3971.79487124, 4003.97435842, 4034.10256362, 4022.69230721, 4045.76923036, 4037.82051241, 3993.07692252, 4000.12820458, 3974.99999945, 4020.38461490, 4125.38461511,10.0
3997.43589688, 4015.38461490, 3968.07692246, 3970.64102502, 3992.17948663, 4032.05128157, 4026.92307644, 4050.64102523, 4044.61538420, 3993.46153791, 3995.25640970, 3965.64102502, 4012.17948670, 4121.66666639,10.0
3996.53846099, 4014.87179439, 3961.79487117, 3968.46153784, 3994.99999945, 4030.89743541, 4026.92307644, 4047.17948677, 4045.12820472, 4004.61538413, 3990.51281996, 3962.43589681, 4005.12820465, 4124.10256383,10.0
3993.97435842, 4009.35897388, 3962.05128143, 3966.66666605, 3988.46153791, 4027.43589695, 4017.43589695, 4041.15384574, 4032.43589695, 3993.71794817, 3984.23076868, 3961.41025579, 4004.35897388, 4123.46153819,10.0
4004.48717900, 4020.38461490, 3977.94871740, 3980.89743535, 3992.05128150, 4031.92307644, 4028.33333285, 4049.74358933, 4036.53846106, 3982.05128150, 3987.30769176, 3972.69230714, 4013.07692259, 4125.12820485,10.0
4015.51282003, 4037.56410215, 3988.84615329, 3994.35897381, 4029.10256362, 4041.15384574, 4046.28205087, 4058.07692266, 4048.58974318, 4000.89743535, 3989.74358919, 3985.64102509, 4013.58974311, 4127.05128178,10.0
4009.74358926, 4035.25640977, 3983.84615329, 3989.35897381, 4026.41025593, 4037.17948677, 4042.82051241, 4051.28205087, 4045.89743548, 4003.20512765, 3983.84615329, 3983.84615329, 4004.61538413, 4122.17948691,10.0
4017.17948670, 4039.48717907, 3991.28205073, 3994.61538406, 4007.30769183, 4038.97435856, 4048.84615343, 4057.05128164, 4053.97435856, 3994.10256355, 3994.35897381, 3992.17948663, 4015.38461490, 4122.05128178,10.0
4031.92307644, 4053.46153805, 4008.20512772, 4010.12820465, 4031.02564054, 4050.51282010, 4062.17948677, 4064.99999959, 4062.30769189, 4012.94871747, 4011.92307644, 4007.17948670, 4029.99999952, 4123.33333306,10.0
4025.51282003, 4052.56410215, 4010.64102516, 4009.87179439, 4032.17948670, 4048.07692266, 4051.79487138, 4050.64102523, 4048.84615343, 4019.87179439, 4005.76923029, 4006.41025593, 4027.82051234, 4122.82051255,10.0
4012.82051234, 4042.94871754, 4003.97435842, 4000.51281996, 3999.23076868, 4028.84615336, 4025.12820465, 4030.89743541, 4032.05128157, 3986.28205073, 3994.99999945, 4000.38461483, 4024.61538413, 4122.82051255,10.0
4004.61538413, 4028.20512772, 3995.38461483, 3986.66666611, 3994.48717894, 4006.02564054, 3997.17948663, 4021.28205080, 4024.23076875, 3967.69230707, 3997.17948663, 3998.07692252, 4018.84615336, 4122.82051255,10.0
4003.46153791, 4020.76923029, 3998.07692252, 3980.64102509, 3993.46153791, 4000.51281996, 3986.02564047, 4022.30769183, 4026.15384567, 3996.02564047, 4001.79487124, 4001.66666611, 4008.07692259, 4123.58974332,10.0
4014.99999952, 4033.71794824, 4019.99999952, 3993.33333278, 3991.92307637, 4015.76923029, 4007.69230721, 4037.05128164, 4041.66666625, 4023.97435849, 4014.35897388, 4016.28205080, 4017.43589695, 4122.30769203,10.0
4020.64102516, 4039.87179446, 4031.53846106, 4000.38461483, 3999.74358919, 4027.43589695, 4030.12820465, 4050.89743548, 4054.23076882, 4012.05128157, 4025.12820465, 4024.87179439, 4033.20512772, 4123.07692280,10.0
4022.05128157, 4038.07692266, 4031.79487131, 4001.02564047, 4007.05128157, 4039.74358933, 4042.43589702, 4062.30769189, 4068.84615343, 4010.64102516, 4028.46153798, 4025.89743541, 4036.53846106, 4125.51282024,10.0
4035.89743541, 4051.92307651, 4044.99999959, 4014.74358926, 4036.92307651, 4060.38461497, 4065.76923036, 4084.10256376, 4094.23076889, 4051.02564061, 4041.79487138, 4037.17948677, 4046.02564061, 4123.46153819,10.0
4049.23076882, 4068.84615343, 4058.33333292, 4030.25640977, 4059.61538420, 4067.43589702, 4081.53846119, 4097.05128171, 4100.64102530, 4069.48717907, 4058.46153805, 4051.02564061, 4061.53846113, 4124.61538434,10.0
4055.38461497, 4078.20512786, 4060.89743548, 4038.58974318, 4038.33333292, 4063.20512779, 4075.12820478, 4089.61538427, 4089.99999966, 4052.17948677, 4065.25640984, 4056.02564061, 4068.71794830, 4124.61538434,10.0
4064.87179446, 4089.74358940, 4066.41025600, 4047.30769189, 4044.74358933, 4071.28205094, 4077.17948684, 4082.82051248, 4092.05128171, 4056.15384574, 4073.58974325, 4059.35897395, 4068.97435856, 4122.05128178,10.0
4072.56410222, 4096.41025607, 4071.66666632, 4054.74358933, 4089.61538427, 4082.56410222, 4090.12820478, 4084.74358940, 4100.12820478, 4076.92307658, 4076.79487145, 4065.12820472, 4068.58974318, 4125.76923050,10.0
4076.15384581, 4098.46153812, 4074.74358940, 4059.10256369, 4097.05128171, 4081.92307658, 4089.35897402, 4089.61538427, 4105.12820485, 4078.84615350, 4069.99999966, 4065.89743548, 4066.15384574, 4125.12820485,10.0
4087.69230735, 4106.66666639, 4086.02564068, 4068.71794830, 4090.38461504, 4078.97435863, 4082.30769196, 4091.92307658, 4110.64102537, 4077.94871761, 4074.99999966, 4067.94871754, 4071.41025607, 4121.79487152,10.0
4099.99999966, 4111.66666639, 4092.17948684, 4073.84615350, 4083.71794837, 4079.35897402, 4085.12820478, 4092.56410222, 4108.07692280, 4080.64102530, 4088.58974325, 4071.41025607, 4078.33333299, 4124.74358947,10.0
4098.07692273, 4108.20512793, 4083.46153812, 4067.17948677, 4054.74358933, 4078.58974325, 4090.38461504, 4090.51282017, 4101.02564068, 4074.61538427, 4090.25640991, 4067.05128164, 4074.10256376, 4127.69230742,10.0
4093.33333299, 4102.94871767, 4074.99999966, 4064.61538420, 4053.97435856, 4077.17948684, 4090.51282017, 4093.71794837, 4110.38461511, 4079.87179453, 4084.23076889, 4064.10256369, 4072.30769196, 4126.41025614,10.0
4091.41025607, 4091.53846119, 4069.74358940, 4061.79487138, 4089.61538427, 4074.74358940, 4084.87179453, 4100.51282017, 4122.94871767, 4094.99999966, 4075.38461504, 4064.99999959, 4073.33333299, 4123.33333306,10.0
4079.23076889, 4073.58974325, 4057.82051241, 4047.30769189, 4081.53846119, 4062.94871754, 4067.82051241, 4082.05128171, 4097.82051248, 4081.41025607, 4062.56410215, 4062.43589702, 4066.02564061, 4127.30769203,10.0
4061.15384574, 4063.58974318, 4050.25640984, 4033.46153798, 4035.64102516, 4050.12820472, 4050.89743548, 4055.64102523, 4059.35897395, 4045.89743548, 4052.30769189, 4054.61538420, 4055.25640984, 4127.82051255,10.0
4067.43589702, 4070.64102530, 4062.05128164, 4035.76923029, 4037.94871754, 4063.33333292, 4068.84615343, 4073.58974325, 4073.71794837, 4047.82051241, 4055.76923036, 4055.12820472, 4058.20512779, 4118.20512793,10.0
4080.51282017, 4069.61538420, 4069.99999966, 4038.20512779, 4055.38461497, 4076.02564068, 4085.25640991, 4092.30769196, 4095.76923043, 4068.33333292, 4058.84615343, 4057.17948677, 4060.38461497, 4120.64102537,10.0
4067.43589702, 4054.61538420, 4058.58974318, 4023.84615336, 4024.10256362, 4060.64102523, 4064.48717907, 4071.79487145, 4079.99999966, 4057.56410215, 4049.99999959, 4048.33333292, 4046.28205087, 4128.71794844,10.0
4067.17948677, 4063.33333292, 4066.41025600, 4028.84615336, 4016.66666618, 4058.58974318, 4064.10256369, 4072.94871761, 4086.28205094, 4055.51282010, 4060.38461497, 4057.05128164, 4052.05128164, 4127.69230742,10.0
4092.56410222, 4086.41025607, 4090.51282017, 4054.35897395, 4071.41025607, 4082.43589709, 4090.38461504, 4094.48717914, 4110.89743562, 4077.43589709, 4081.28205094, 4077.05128171, 4074.10256376, 4124.48717921,10.0
4093.84615350, 4082.56410222, 4088.71794837, 4055.76923036, 4085.51282017, 4085.12820478, 4084.87179453, 4084.10256376, 4099.61538427, 4066.66666625, 4075.89743555, 4073.07692273, 4069.35897395, 4123.33333306,10.0
4075.12820478, 4074.23076889, 4078.33333299, 4047.30769189, 4047.30769189, 4062.82051241, 4060.51282010, 4069.10256369, 4080.76923043, 4039.10256369, 4063.07692266, 4061.66666625, 4054.35897395, 4124.87179460,10.0
4076.53846119, 4086.28205094, 4082.82051248, 4056.02564061, 4058.84615343, 4063.84615343, 4066.28205087, 4078.33333299, 4090.64102530, 4056.02564061, 4068.84615343, 4066.41025600, 4064.74358933, 4122.30769203,10.0
4081.15384581, 4086.92307658, 4081.53846119, 4061.02564061, 4082.56410222, 4077.17948684, 4077.43589709, 4081.92307658, 4097.56410222, 4080.38461504, 4072.94871761, 4065.64102523, 4072.30769196, 4121.41025614,10.0
4071.66666632, 4070.12820478, 4071.79487145, 4053.20512779, 4055.38461497, 4065.89743548, 4064.61538420, 4075.25640991, 4089.61538427, 4073.33333299, 4065.38461497, 4052.94871754, 4058.71794830, 4124.99999973,10.0
4064.87179446, 4065.89743548, 4071.02564068, 4050.76923036, 4045.25640984, 4051.53846113, 4055.12820472, 4075.51282017, 4088.97435863, 4061.02564061, 4060.12820472, 4049.61538420, 4053.97435856, 4123.97435870,10.0
4067.05128164, 4072.69230735, 4075.51282017, 4053.58974318, 4061.15384574, 4055.38461497, 4056.41025600, 4074.74358940, 4091.53846119, 4053.46153805, 4057.43589702, 4050.25640984, 4057.17948677, 4124.87179460,10.0
4073.97435863, 4076.28205094, 4076.79487145, 4057.56410215, 4052.56410215, 4065.89743548, 4067.82051241, 4074.23076889, 4088.46153812, 4056.02564061, 4059.99999959, 4049.23076882, 4055.25640984, 4124.23076896,10.0
4070.51282017, 4069.23076882, 4072.56410222, 4051.92307651, 4045.89743548, 4057.43589702, 4068.20512779, 4079.74358940, 4085.25640991, 4059.61538420, 4064.10256369, 4048.07692266, 4054.61538420, 4123.84615357,10.0
4056.66666625, 4057.56410215, 4064.87179446, 4036.92307651, 4040.12820472, 4037.82051241, 4047.94871754, 4076.66666632, 4075.76923043, 4043.20512779, 4057.17948677, 4043.33333292, 4054.87179446, 4126.53846126,10.0
4056.92307651, 4059.48717907, 4064.35897395, 4036.41025593, 4020.89743541, 4046.66666625, 4052.17948677, 4068.58974318, 4066.02564061, 4038.58974318, 4047.17948677, 4043.33333292, 4054.74358933, 4123.97435870,10.0
4058.58974318, 4058.46153805, 4061.92307651, 4038.84615343, 4022.69230721, 4062.69230728, 4061.92307651, 4068.46153805, 4066.53846113, 4049.10256369, 4041.41025600, 4045.12820472, 4053.33333292, 4125.64102537,10.0
4047.82051241, 4042.17948677, 4050.89743548, 4027.17948670, 4033.46153798, 4041.15384574, 4035.51282003, 4058.33333292, 4055.38461497, 4032.05128157, 4041.66666625, 4038.20512779, 4047.82051241, 4129.61538434,10.0
4041.41025600, 4035.51282003, 4044.61538420, 4017.05128157, 4020.89743541, 4015.38461490, 4011.15384567, 4039.10256369, 4031.79487131, 4012.56410208, 4038.33333292, 4028.58974311, 4038.20512779, 4127.82051255,10.0
4047.05128164, 4046.66666625, 4048.07692266, 4021.28205080, 4008.58974311, 4029.61538413, 4025.76923029, 4041.92307651, 4034.99999952, 4027.43589695, 4029.74358926, 4028.97435849, 4036.66666618, 4124.48717921,10.0
4054.35897395, 4053.84615343, 4052.94871754, 4026.92307644, 4024.74358926, 4046.79487138, 4041.92307651, 4061.28205087, 4058.20512779, 4046.53846113, 4036.41025593, 4036.79487131, 4047.43589702, 4124.74358947,10.0
4061.15384574, 4054.35897395, 4059.35897395, 4030.64102516, 4042.82051241, 4042.94871754, 4041.15384574, 4069.61538420, 4062.82051241, 4053.46153805, 4055.64102523, 4048.71794830, 4060.25640984, 4129.10256383,10.0
4066.66666625, 4063.46153805, 4068.20512779, 4037.94871754, 4032.30769183, 4043.71794830, 4044.23076882, 4068.58974318, 4061.92307651, 4055.12820472, 4061.53846113, 4054.23076882, 4065.64102523, 4125.12820485,10.0
4062.43589702, 4066.66666625, 4066.79487138, 4038.58974318, 4019.87179439, 4045.25640984, 4041.92307651, 4064.87179446, 4060.51282010, 4043.84615343, 4051.79487138, 4042.69230728, 4058.46153805, 4123.33333306,10.0
4059.87179446, 4060.25640984, 4063.97435856, 4040.64102523, 4037.43589702, 4043.33333292, 4044.74358933, 4066.15384574, 4056.53846113, 4041.66666625, 4054.48717907, 4041.28205087, 4058.84615343, 4129.87179460,10.0
4066.15384574, 4064.74358933, 4070.89743555, 4046.66666625, 4045.25640984, 4046.66666625, 4058.97435856, 4085.89743555, 4069.87179453, 4054.35897395, 4065.25640984, 4052.94871754, 4068.20512779, 4128.97435870,10.0
4066.53846113, 4068.71794830, 4071.66666632, 4045.89743548, 4028.97435849, 4044.23076882, 4054.99999959, 4086.02564068, 4070.12820478, 4046.66666625, 4057.17948677, 4048.46153805, 4064.23076882, 4131.28205101,10.0
4057.05128164, 4059.23076882, 4060.76923036, 4040.89743548, 4036.15384567, 4038.07692266, 4039.99999959, 4059.10256369, 4042.17948677, 4032.05128157, 4043.97435856, 4032.69230721, 4052.94871754, 4136.79487159,10.0
4048.07692266, 4045.12820472, 4051.28205087, 4031.41025593, 4038.97435856, 4035.38461490, 4038.33333292, 4055.12820472, 4030.64102516, 4032.43589695, 4040.76923036, 4024.74358926, 4049.99999959, 4135.12820485,10.0
4038.20512779, 4033.07692259, 4041.15384574, 4014.61538413, 4006.41025593, 4027.56410208, 4035.89743541, 4060.12820472, 4034.48717900, 4027.82051234, 4035.25640977, 4018.33333285, 4050.12820472, 4124.99999973,10.0
4024.48717900, 4021.53846106, 4026.28205080, 4000.64102509, 3984.35897381, 4017.94871747, 4022.43589695, 4045.25640984, 4021.66666618, 4014.61538413, 4024.99999952, 4007.17948670, 4041.92307651, 4116.66666639,10.0
4028.84615336, 4021.41025593, 4027.17948670, 4004.99999952, 3990.89743535, 4022.69230721, 4024.35897388, 4047.30769189, 4018.46153798, 4016.66666618, 4027.43589695, 4006.92307644, 4039.61538420, 4124.48717921,10.0
4044.48717907, 4035.51282003, 4044.87179446, 4018.58974311, 4013.58974311, 4033.07692259, 4039.87179446, 4077.05128171, 4045.25640984, 4037.30769189, 4041.41025600, 4020.89743541, 4051.41025600, 4128.71794844,10.0
4037.05128164, 4036.66666618, 4042.69230728, 4016.66666618, 4023.33333285, 4031.02564054, 4034.99999952, 4081.28205094, 4051.53846113, 4043.07692266, 4042.43589702, 4022.94871747, 4053.07692266, 4119.74358947,10.0
4015.38461490, 4022.05128157, 4024.23076875, 4004.23076875, 4003.58974304, 4015.25640977, 4019.23076875, 4058.71794830, 4027.30769183, 4022.56410208, 4027.69230721, 4008.46153798, 4038.58974318, 4116.79487152,10.0
4006.92307644, 4014.35897388, 4021.66666618, 3999.23076868, 3997.56410201, 4007.56410208, 4018.20512772, 4050.64102523, 4020.25640977, 4011.28205080, 4015.25640977, 3999.87179432, 4029.23076875, 4121.28205101,10.0
4012.82051234, 4020.64102516, 4030.76923029, 4003.33333278, 4004.87179439, 4021.41025593, 4028.97435849, 4060.64102523, 4027.82051234, 4021.92307644, 4015.51282003, 4004.74358926, 4032.30769183, 4130.12820485,10.0
4012.05128157, 4022.94871747, 4026.92307644, 4004.74358926, 3979.74358919, 4025.76923029, 4028.07692259, 4056.92307651, 4015.76923029, 4014.48717900, 4011.28205080, 4002.17948663, 4027.94871747, 4129.99999973,10.0
4006.15384567, 4017.69230721, 4022.30769183, 4005.64102516, 3965.51281989, 4019.10256362, 4028.33333285, 4046.41025600, 4002.17948663, 3992.05128150, 4006.79487131, 3994.61538406, 4020.12820465, 4120.76923050,10.0
4019.35897388, 4030.38461490, 4041.53846113, 4022.94871747, 4006.28205080, 4035.25640977, 4048.58974318, 4063.46153805, 4020.38461490, 4002.43589688, 4031.02564054, 4012.05128157, 4036.79487131, 4123.46153819,10.0
4032.30769183, 4041.79487138, 4056.41025600, 4035.51282003, 4036.41025593, 4047.94871754, 4051.66666625, 4072.56410222, 4034.48717900, 4027.69230721, 4051.28205087, 4030.89743541, 4052.17948677, 4123.97435870,10.0
4022.69230721, 4030.25640977, 4045.12820472, 4023.84615336, 4023.97435849, 4041.28205087, 4037.30769189, 4055.38461497, 4024.35897388, 4031.15384567, 4033.71794824, 4021.53846106, 4042.30769189, 4120.64102537,10.0
4011.41025593, 4017.05128157, 4032.94871747, 4008.33333285, 4006.02564054, 4031.66666618, 4023.97435849, 4044.61538420, 4016.66666618, 4026.41025593, 4015.51282003, 4005.25640977, 4030.89743541, 4124.48717921,10.0
4008.46153798, 4013.84615336, 4027.94871747, 4002.05128150, 3982.17948663, 4011.92307644, 4002.17948663, 4041.41025600, 4012.43589695, 4021.53846106, 4018.58974311, 3998.20512765, 4029.99999952, 4124.74358947,10.0
4010.25640977, 4021.02564054, 4031.02564054, 4007.17948670, 3974.61538406, 4002.82051227, 3997.17948663, 4041.53846113, 4013.07692259, 4015.38461490, 4030.89743541, 4001.02564047, 4037.30769189, 4125.76923050,10.0
4018.58974311, 4032.56410208, 4039.99999959, 4019.61538413, 4004.74358926, 4022.94871747, 4021.79487131, 4051.15384574, 4024.23076875, 4024.74358926, 4042.17948677, 4013.46153798, 4043.84615343, 4125.51282024,10.0
4024.99999952, 4036.66666618, 4040.89743548, 4026.02564054, 4015.12820465, 4033.33333285, 4036.15384567, 4057.56410215, 4029.87179439, 4043.07692266, 4039.23076882, 4018.33333285, 4038.84615343, 4122.56410229,10.0
4025.38461490, 4036.41025593, 4036.79487131, 4028.46153798, 4004.74358926, 4029.48717900, 4030.38461490, 4055.25640984, 4024.99999952, 4046.41025600, 4030.64102516, 4014.23076875, 4033.84615336, 4122.43589716,10.0
4034.23076875, 4049.10256369, 4048.07692266, 4040.12820472, 4018.20512772, 4041.41025600, 4042.05128164, 4069.35897395, 4037.43589702, 4047.05128164, 4042.69230728, 4022.94871747, 4044.74358933, 4123.07692280,10.0
4035.64102516, 4055.25640984, 4056.66666625, 4047.69230728, 4027.82051234, 4043.97435856, 4046.15384574, 4071.28205094, 4042.30769189, 4040.51282010, 4046.53846113, 4026.28205080, 4047.69230728, 4126.53846126,10.0
4020.76923029, 4044.23076882, 4046.02564061, 4042.30769189, 4025.25640977, 4031.53846106, 4034.48717900, 4051.41025600, 4021.28205080, 4020.76923029, 4022.30769183, 4014.99999952, 4033.46153798, 4122.05128178,10.0
4019.61538413, 4044.48717907, 4042.56410215, 4040.38461497, 4031.41025593, 4037.30769189, 4039.23076882, 4055.76923036, 4016.28205080, 4019.10256362, 4018.71794824, 4016.15384567, 4032.56410208, 4121.02564075,10.0
4030.51282003, 4052.94871754, 4054.48717907, 4047.30769189, 4029.74358926, 4041.92307651, 4040.89743548, 4061.28205087, 4023.58974311, 4029.23076875, 4039.10256369, 4028.46153798, 4045.51282010, 4127.05128178,10.0
4026.92307644, 4049.35897395, 4059.10256369, 4048.20512779, 4017.30769183, 4029.99999952, 4027.69230721, 4043.20512779, 4015.51282003, 4023.20512772, 4039.23076882, 4029.48717900, 4043.33333292, 4122.17948691,10.0
4023.33333285, 4045.25640984, 4054.10256369, 4045.51282010, 4008.07692259, 4031.41025593, 4026.92307644, 4041.66666625, 4009.74358926, 4022.43589695, 4032.94871747, 4025.76923029, 4036.92307651, 4124.99999973,10.0
4036.53846106, 4051.15384574, 4056.79487138, 4052.82051241, 4003.07692252, 4044.99999959, 4041.79487138, 4061.53846113, 4027.30769183, 4043.97435856, 4050.51282010, 4035.25640977, 4048.84615343, 4131.02564075,10.0
4052.82051241, 4059.23076882, 4065.51282010, 4061.28205087, 4013.46153798, 4044.61538420, 4048.58974318, 4069.10256369, 4047.05128164, 4062.17948677, 4072.17948684, 4049.99999959, 4063.71794830, 4126.79487152,10.0
4059.10256369, 4063.84615343, 4071.41025607, 4063.33333292, 4031.79487131, 4041.53846113, 4050.76923036, 4069.10256369, 4049.74358933, 4058.84615343, 4078.46153812, 4061.66666625, 4073.07692273, 4126.02564075,10.0
4055.76923036, 4063.46153805, 4075.38461504, 4062.56410215, 4041.02564061, 4049.48717907, 4057.30769189, 4074.99999966, 4049.35897395, 4052.30769189, 4080.38461504, 4065.51282010, 4077.17948684, 4123.71794844,10.0
4058.58974318, 4066.02564061, 4080.38461504, 4066.28205087, 4047.17948677, 4056.28205087, 4066.66666625, 4091.53846119, 4066.92307651, 4073.58974325, 4082.69230735, 4067.69230728, 4076.41025607, 4122.56410229,10.0
4071.28205094, 4078.33333299, 4090.51282017, 4078.97435863, 4041.53846113, 4060.38461497, 4075.12820478, 4098.20512786, 4081.15384581, 4096.41025607, 4085.89743555, 4075.76923043, 4078.33333299, 4123.97435870,10.0
4074.99999966, 4079.87179453, 4096.15384581, 4081.79487145, 4036.92307651, 4063.71794830, 4067.82051241, 4081.28205094, 4066.92307651, 4083.71794837, 4090.38461504, 4076.02564068, 4082.30769196, 4126.15384588,10.0
4069.61538420, 4069.10256369, 4089.48717914, 4071.02564068, 4044.48717907, 4057.94871754, 4057.94871754, 4080.76923043, 4059.87179446, 4071.15384581, 4091.02564068, 4066.79487138, 4083.46153812, 4130.25640998,10.0
4068.58974318, 4066.28205087, 4081.41025607, 4068.20512779, 4043.46153805, 4052.43589702, 4060.89743548, 4089.48717914, 4064.10256369, 4072.69230735, 4082.56410222, 4060.12820472, 4074.99999966, 4125.25640998,10.0
4066.02564061, 4071.53846119, 4080.76923043, 4073.71794837, 4031.53846106, 4053.33333292, 4059.74358933, 4075.38461504, 4049.74358933, 4061.28205087, 4068.33333292, 4056.53846113, 4063.07692266, 4124.10256383,10.0
4064.74358933, 4075.25640991, 4087.69230735, 4077.94871761, 4032.69230721, 4048.84615343, 4049.48717907, 4063.71794830, 4038.33333292, 4054.99999959, 4067.43589702, 4056.92307651, 4062.69230728, 4125.76923050,10.0
4070.12820478, 4078.07692273, 4095.51282017, 4085.25640991, 4041.02564061, 4043.71794830, 4047.82051241, 4069.35897395, 4047.30769189, 4062.05128164, 4080.64102530, 4064.99999959, 4069.74358940, 4123.71794844,10.0
4068.33333292, 4077.30769196, 4096.92307658, 4091.79487145, 4039.87179446, 4047.43589702, 4052.17948677, 4068.84615343, 4047.17948677, 4053.84615343, 4080.51282017, 4068.07692266, 4071.02564068, 4130.12820485,10.0
4061.02564061, 4074.61538427, 4092.82051248, 4090.12820478, 4048.46153805, 4049.23076882, 4048.97435856, 4062.69230728, 4042.43589702, 4054.61538420, 4070.12820478, 4061.41025600, 4066.02564061, 4127.82051255,10.0
4068.97435856, 4085.12820478, 4101.41025607, 4097.05128171, 4068.97435856, 4061.28205087, 4062.82051241, 4075.64102530, 4055.64102523, 4073.46153812, 4080.12820478, 4067.56410215, 4071.53846119, 4122.56410229,10.0
4076.41025607, 4095.51282017, 4108.84615357, 4109.74358947, 4067.05128164, 4071.28205094, 4080.64102530, 4089.87179453, 4068.58974318, 4075.89743555, 4092.30769196, 4077.69230735, 4080.64102530, 4126.79487152,10.0
4058.20512779, 4080.89743555, 4084.87179453, 4099.35897402, 4048.71794830, 4051.28205087, 4059.48717907, 4077.56410222, 4058.84615343, 4068.33333292, 4075.25640991, 4060.12820472, 4068.46153805, 4124.35897408,10.0
4035.25640977, 4058.97435856, 4053.58974318, 4080.76923043, 4035.25640977, 4037.05128164, 4038.97435856, 4066.41025600, 4043.71794830, 4069.87179453, 4050.51282010, 4034.48717900, 4050.51282010, 4121.53846126,10.0
4025.89743541, 4053.07692266, 4043.71794830, 4075.89743555, 4018.46153798, 4042.82051241, 4044.61538420, 4069.48717907, 4040.64102523, 4054.35897395, 4042.82051241, 4023.58974311, 4049.23076882, 4122.43589716,10.0
4021.15384567, 4050.89743548, 4039.10256369, 4072.69230735, 4018.71794824, 4034.35897388, 4034.10256362, 4055.38461497, 4027.17948670, 4018.97435849, 4037.56410215, 4013.07692259, 4044.48717907, 4123.97435870,10.0
4018.46153798, 4045.64102523, 4035.89743541, 4071.28205094, 4043.46153805, 4025.64102516, 4017.56410208, 4038.84615343, 4009.74358926, 4018.97435849, 4032.69230721, 4010.64102516, 4032.30769183, 4125.12820485,10.0
4022.17948670, 4046.92307651, 4044.35897395, 4079.99999966, 4040.38461497, 4042.94871754, 4036.53846106, 4055.12820472, 4021.66666618, 4050.25640984, 4039.99999959, 4023.33333285, 4037.82051241, 4121.53846126,10.0
4032.94871747, 4054.74358933, 4054.61538420, 4088.33333299, 4026.53846106, 4057.82051241, 4061.66666625, 4077.30769196, 4045.64102523, 4060.89743548, 4049.35897395, 4035.12820465, 4053.33333292, 4123.97435870,10.0
4048.84615343, 4067.69230728, 4063.84615343, 4093.46153812, 4053.84615343, 4060.51282010, 4066.53846113, 4081.79487145, 4054.99999959, 4054.87179446, 4058.46153805, 4047.43589702, 4064.61538420, 4126.28205101,10.0
4068.20512779, 4084.61538427, 4083.33333299, 4105.51282024, 4075.76923043, 4073.58974325, 4080.64102530, 4089.61538427, 4067.05128164, 4068.46153805, 4076.15384581, 4063.07692266, 4076.79487145, 4124.48717921,10.0
4091.41025607, 4109.10256383, 4110.89743562, 4129.10256383, 4079.99999966, 4103.33333306, 4109.35897408, 4114.61538434, 4104.35897408, 4104.99999973, 4104.74358947, 4084.87179453, 4095.38461504, 4123.58974332,10.0
4113.71794844, 4131.41025614, 4136.02564082, 4152.82051262, 4117.69230742, 4128.58974332, 4131.53846126, 4137.69230749, 4138.71794851, 4138.33333313, 4129.99999973, 4110.25640998, 4114.35897408, 4121.53846126,10.0
4123.20512793, 4135.51282031, 4148.20512800, 4162.56410236, 4150.12820492, 4129.10256383, 4133.07692280, 4138.33333313, 4138.71794851, 4151.79487159, 4139.87179467, 4121.92307665, 4123.20512793, 4124.99999973,10.0
4128.07692280, 4136.92307672, 4152.30769210, 4168.07692287, 4140.12820492, 4123.33333306, 4130.51282024, 4124.99999973, 4130.38461511, 4145.51282031, 4149.74358954, 4127.43589716, 4130.89743562, 4125.38461511,10.0
4141.79487159, 4148.84615364, 4157.94871774, 4176.66666653, 4132.94871767, 4128.71794844, 4136.79487159, 4126.41025614, 4136.02564082, 4146.79487159, 4160.25641005, 4138.46153826, 4136.53846133, 4120.12820485,10.0
4155.51282031, 4155.12820492, 4165.76923056, 4184.23076910, 4143.33333313, 4135.25640998, 4136.79487159, 4138.58974339, 4142.69230749, 4166.92307672, 4165.89743569, 4144.87179467, 4137.43589723, 4124.99999973,10.0
4159.23076903, 4151.79487159, 4174.35897422, 4187.82051269, 4147.30769210, 4134.48717921, 4137.05128185, 4142.43589723, 4145.38461518, 4177.43589730, 4174.99999986, 4147.17948697, 4140.51282031, 4127.56410229,10.0
4159.61538441, 4146.66666646, 4181.02564089, 4184.61538448, 4139.74358954, 4130.38461511, 4142.56410236, 4141.28205108, 4144.10256390, 4166.79487159, 4182.69230756, 4152.05128185, 4144.48717928, 4124.61538434,10.0
4158.46153826, 4137.69230749, 4178.84615371, 4177.17948704, 4134.87179460, 4126.28205101, 4140.38461518, 4136.53846133, 4129.74358947, 4158.71794851, 4175.64102551, 4150.25641005, 4138.07692287, 4124.74358947,10.0
4158.33333313, 4132.82051255, 4174.87179474, 4172.56410243, 4145.51282031, 4131.66666639, 4141.66666646, 4139.10256390, 4127.17948691, 4166.41025621, 4168.46153833, 4149.10256390, 4131.66666639, 4126.28205101,10.0
4165.76923056, 4138.07692287, 4179.10256397, 4173.20512807, 4148.20512800, 4139.35897415, 4151.92307672, 4156.02564082, 4148.58974339, 4170.89743576, 4172.69230756, 4157.17948697, 4144.48717928, 4129.48717921,10.0
4162.43589723, 4134.61538434, 4174.61538448, 4165.38461518, 4121.02564075, 4130.89743562, 4143.97435877, 4149.48717928, 4145.38461518, 4158.20512800, 4166.41025621, 4149.10256390, 4144.61538441, 4126.66666639,10.0
4144.61538441, 4124.48717921, 4157.94871774, 4157.82051262, 4115.25640998, 4122.05128178, 4121.53846126, 4121.53846126, 4118.58974332, 4134.48717921, 4146.79487159, 4130.12820485, 4120.64102537, 4124.48717921,10.0
4138.97435877, 4123.58974332, 4152.82051262, 4162.69230749, 4148.20512800, 4122.94871767, 4119.74358947, 4117.17948691, 4115.89743562, 4128.07692280, 4139.10256390, 4130.12820485, 4113.58974332, 4125.12820485,10.0
4144.87179467, 4124.10256383, 4155.25641005, 4164.87179467, 4145.51282031, 4118.97435870, 4127.05128178, 4131.15384588, 4129.35897408, 4141.66666646, 4141.79487159, 4134.99999973, 4124.10256383, 4122.94871767,10.0
4143.07692287, 4119.87179460, 4148.97435877, 4162.17948697, 4108.97435870, 4112.56410229, 4120.25640998, 4128.84615357, 4123.97435870, 4147.05128185, 4136.66666646, 4125.25640998, 4124.10256383, 4128.33333306,10.0
4137.82051262, 4118.46153819, 4143.71794851, 4164.23076903, 4118.84615357, 4118.58974332, 4118.46153819, 4126.15384588, 4116.15384588, 4147.69230749, 4131.15384588, 4117.82051255, 4118.33333306, 4128.46153819,10.0
4137.43589723, 4120.25640998, 4143.58974339, 4165.25641005, 4154.10256390, 4124.87179460, 4132.82051255, 4140.64102544, 4123.07692280, 4145.89743569, 4130.12820485, 4115.89743562, 4116.92307665, 4123.33333306,10.0
4140.25641005, 4126.41025614, 4141.15384595, 4165.64102544, 4137.94871774, 4121.92307665, 4137.30769210, 4141.02564082, 4121.92307665, 4136.15384595, 4128.97435870, 4111.53846126, 4117.82051255, 4125.64102537,10.0
4141.66666646, 4131.53846126, 4143.20512800, 4172.43589730, 4113.71794844, 4118.97435870, 4127.30769203, 4125.76923050, 4113.97435870, 4139.74358954, 4136.79487159, 4112.43589716, 4121.92307665, 4125.25640998,10.0
4141.41025621, 4123.97435870, 4148.97435877, 4175.51282038, 4138.07692287, 4114.61538434, 4120.64102537, 4128.97435870, 4118.71794844, 4155.76923056, 4143.33333313, 4117.94871767, 4125.38461511, 4125.38461511,10.0
4137.43589723, 4116.02564075, 4147.05128185, 4169.61538448, 4146.92307672, 4107.82051255, 4114.87179460, 4132.56410229, 4122.30769203, 4149.23076903, 4134.10256383, 4116.79487152, 4119.74358947, 4126.53846126,10.0
4132.82051255, 4116.28205101, 4141.79487159, 4164.35897415, 4121.41025614, 4106.02564075, 4113.07692280, 4118.71794844, 4110.64102537, 4130.76923050, 4129.61538434, 4112.43589716, 4114.99999973, 4123.71794844,10.0
4135.38461518, 4115.64102537, 4144.61538441, 4162.94871774, 4118.97435870, 4110.25640998, 4125.12820485, 4119.74358947, 4111.02564075, 4134.74358947, 4137.43589723, 4117.43589716, 4121.66666639, 4121.28205101,10.0
4140.25641005, 4115.64102537, 4152.30769210, 4161.41025621, 4119.35897408, 4109.10256383, 4128.71794844, 4135.25640998, 4127.05128178, 4144.48717928, 4138.07692287, 4124.99999973, 4126.41025614, 4120.64102537,10.0
4136.15384595, 4110.76923050, 4152.17948697, 4155.12820492, 4095.25640991, 4098.07692273, 4105.38461511, 4124.61538434, 4121.53846126, 4142.43589723, 4130.89743562, 4122.56410229, 4119.87179460, 4127.17948691,10.0
4118.58974332, 4091.02564068, 4139.23076903, 4141.53846133, 4090.64102530, 4089.23076889, 4087.05128171, 4099.61538427, 4097.30769196, 4128.07692280, 4122.17948691, 4110.51282024, 4107.43589716, 4125.25640998,10.0
4107.43589716, 4078.46153812, 4126.79487152, 4129.35897408, 4102.30769196, 4086.15384581, 4093.46153812, 4097.56410222, 4086.15384581, 4111.53846126, 4116.53846126, 4104.10256383, 4104.10256383, 4120.25640998,10.0
4107.94871767, 4083.46153812, 4124.61538434, 4128.46153819, 4095.25640991, 4079.74358940, 4092.05128171, 4101.41025607, 4082.94871761, 4105.64102537, 4114.35897408, 4106.92307665, 4108.07692280, 4128.07692280,10.0
4108.20512793, 4088.97435863, 4124.87179460, 4132.43589716, 4082.17948684, 4072.94871761, 4080.38461504, 4094.10256376, 4074.10256376, 4108.20512793, 4109.87179460, 4105.25640998, 4105.25640998, 4126.92307665,10.0
4113.84615357, 4098.71794837, 4124.48717921, 4138.20512800, 4088.33333299, 4070.25640991, 4082.17948684, 4096.53846119, 4073.07692273, 4110.25640998, 4107.69230742, 4103.84615357, 4101.92307658, 4125.51282024,10.0
4123.46153819, 4109.10256383, 4133.33333306, 4148.97435877, 4109.23076896, 4077.30769196, 4094.61538427, 4111.15384588, 4085.64102530, 4106.79487152, 4114.23076896, 4109.99999973, 4107.17948691, 4125.64102537,10.0
4118.84615357, 4102.43589709, 4139.87179467, 4150.51282031, 4106.41025614, 4092.82051248, 4104.23076896, 4118.58974332, 4092.05128171, 4108.33333306, 4115.89743562, 4112.43589716, 4108.58974332, 4119.99999973,10.0
4106.02564075, 4095.12820478, 4132.05128178, 4143.07692287, 4081.53846119, 4087.94871761, 4096.92307658, 4108.20512793, 4079.61538427, 4111.79487152, 4105.38461511, 4106.28205101, 4104.74358947, 4124.10256383,10.0
4106.02564075, 4101.02564068, 4128.33333306, 4143.71794851, 4093.33333299, 4072.30769196, 4080.12820478, 4094.61538427, 4067.05128164, 4104.48717921, 4099.61538427, 4102.30769196, 4101.15384581, 4125.64102537,10.0
4109.23076896, 4104.61538434, 4130.12820485, 4147.69230749, 4127.69230742, 4079.10256376, 4079.10256376, 4092.43589709, 4072.17948684, 4101.66666632, 4102.43589709, 4101.41025607, 4096.02564068, 4125.89743562,10.0
4104.35897408, 4102.94871767, 4124.61538434, 4146.28205108, 4113.46153819, 4085.76923043, 4087.69230735, 4096.41025607, 4077.56410222, 4101.66666632, 4103.97435870, 4098.58974325, 4091.41025607, 4126.79487152,10.0
4102.69230742, 4101.79487145, 4118.71794844, 4141.28205108, 4091.53846119, 4076.41025607, 4082.30769196, 4098.46153812, 4072.17948684, 4090.89743555, 4101.28205094, 4095.51282017, 4087.05128171, 4123.20512793,10.0
4107.05128178, 4099.74358940, 4122.94871767, 4141.28205108, 4108.46153819, 4076.28205094, 4077.05128171, 4098.46153812, 4075.64102530, 4091.41025607, 4105.38461511, 4098.97435863, 4088.20512786, 4127.05128178,10.0
4109.48717921, 4101.28205094, 4128.07692280, 4146.02564082, 4107.30769203, 4083.33333299, 4085.76923043, 4100.25640991, 4086.92307658, 4101.92307658, 4114.10256383, 4105.76923050, 4095.76923043, 4125.38461511,10.0
4107.30769203, 4103.07692280, 4125.12820485, 4143.46153826, 4084.35897402, 4081.53846119, 4094.23076889, 4105.89743562, 4089.48717914, 4100.64102530, 4112.17948691, 4103.58974332, 4097.69230735, 4123.97435870,10.0
4108.84615357, 4104.23076896, 4124.10256383, 4140.76923056, 4094.99999966, 4082.56410222, 4095.89743555, 4112.82051255, 4092.30769196, 4112.43589716, 4109.99999973, 4101.15384581, 4097.05128171, 4128.46153819,10.0
4118.20512793, 4112.82051255, 4125.64102537, 4146.02564082, 4123.58974332, 4088.33333299, 4100.38461504, 4115.89743562, 4098.33333299, 4125.12820485, 4118.07692280, 4106.15384588, 4104.87179460, 4122.56410229,10.0
4120.89743562, 4114.35897408, 4123.20512793, 4147.05128185, 4117.05128178, 4084.48717914, 4104.61538434, 4109.87179460, 4086.53846119, 4100.38461504, 4121.53846126, 4106.92307665, 4107.94871767, 4122.43589716,10.0
4113.58974332, 4104.99999973, 4121.92307665, 4143.46153826, 4095.12820478, 4075.89743555, 4099.23076889, 4098.97435863, 4069.10256369, 4087.82051248, 4114.35897408, 4102.69230742, 4097.43589709, 4124.99999973,10.0
4111.28205101, 4103.20512793, 4121.41025614, 4144.99999980, 4089.35897402, 4072.05128171, 4087.94871761, 4097.30769196, 4075.12820478, 4112.17948691, 4115.76923050, 4104.61538434, 4094.99999966, 4123.71794844,10.0
4111.02564075, 4106.02564075, 4114.23076896, 4144.48717928, 4091.79487145, 4066.53846113, 4077.69230735, 4101.28205094, 4079.74358940, 4109.74358947, 4122.69230742, 4106.28205101, 4102.30769196, 4126.92307665,10.0
4104.87179460, 4102.69230742, 4108.97435870, 4140.12820492, 4101.92307658, 4062.82051241, 4074.35897402, 4096.15384581, 4068.07692266, 4086.28205094, 4121.02564075, 4103.33333306, 4099.35897402, 4124.10256383,10.0
4102.17948684, 4101.79487145, 4112.30769203, 4142.05128185, 4108.84615357, 4069.10256369, 4081.28205094, 4092.82051248, 4067.82051241, 4097.17948684, 4116.92307665, 4106.28205101, 4094.61538427, 4124.35897408,10.0
4103.46153819, 4105.89743562, 4114.35897408, 4145.25641005, 4103.84615357, 4069.87179453, 4083.58974325, 4094.23076889, 4076.15384581, 4115.64102537, 4116.79487152, 4112.05128178, 4098.71794837, 4125.12820485,10.0
4101.79487145, 4104.23076896, 4115.51282024, 4140.76923056, 4084.23076889, 4063.84615343, 4075.38461504, 4094.87179453, 4072.43589709, 4109.99999973, 4124.10256383, 4112.56410229, 4103.97435870, 4122.30769203,10.0
4109.48717921, 4107.43589716, 4125.89743562, 4140.64102544, 4068.07692266, 4069.35897395, 4077.43589709, 4102.30769196, 4078.97435863, 4114.61538434, 4134.10256383, 4118.84615357, 4113.33333306, 4125.38461511,10.0
4121.92307665, 4120.12820485, 4136.15384595, 4152.56410236, 4094.35897402, 4078.46153812, 4093.46153812, 4109.61538434, 4098.33333299, 4128.97435870, 4138.46153826, 4132.69230742, 4122.17948691, 4123.71794844,10.0
4123.71794844, 4121.41025614, 4133.07692280, 4156.41025621, 4127.69230742, 4078.97435863, 4098.33333299, 4107.17948691, 4094.87179453, 4120.64102537, 4135.12820485, 4134.74358947, 4120.25640998, 4123.71794844,10.0
4123.97435870, 4113.97435870, 4127.69230742, 4147.43589723, 4118.97435870, 4082.17948684, 4097.82051248, 4106.28205101, 4080.89743555, 4109.74358947, 4133.97435870, 4130.64102537, 4117.17948691, 4125.38461511,10.0
4128.46153819, 4118.20512793, 4128.07692280, 4142.43589723, 4115.51282024, 4095.12820478, 4110.89743562, 4116.53846126, 4088.33333299, 4123.07692280, 4136.28205108, 4131.79487152, 4118.46153819, 4124.74358947,10.0
4119.48717921, 4114.74358947, 4116.28205101, 4138.97435877, 4110.76923050, 4093.97435863, 4110.12820485, 4117.30769203, 4091.41025607, 4126.28205101, 4124.87179460, 4120.25640998, 4108.07692280, 4128.58974332,10.0
4099.23076889, 4094.61538427, 4093.71794837, 4127.05128178, 4073.84615350, 4068.97435856, 4082.30769196, 4100.51282017, 4071.28205094, 4107.05128178, 4104.48717921, 4099.35897402, 4090.64102530, 4124.48717921,10.0
4097.05128171, 4091.41025607, 4089.74358940, 4123.84615357, 4075.12820478, 4058.58974318, 4072.05128171, 4095.64102530, 4062.94871754, 4095.25640991, 4100.38461504, 4099.74358940, 4094.48717914, 4123.71794844,10.0
4112.30769203, 4106.66666639, 4104.87179460, 4136.92307672, 4116.02564075, 4077.43589709, 4088.97435863, 4109.23076896, 4074.74358940, 4102.43589709, 4115.38461511, 4118.33333306, 4112.43589716, 4127.43589716,10.0
4127.30769203, 4115.12820485, 4117.56410229, 4146.79487159, 4117.82051255, 4089.23076889, 4098.07692273, 4115.76923050, 4082.17948684, 4117.05128178, 4127.56410229, 4128.20512793, 4119.61538434, 4119.74358947,10.0
4132.43589716, 4116.41025614, 4122.43589716, 4147.17948697, 4101.28205094, 4085.38461504, 4096.53846119, 4108.46153819, 4078.84615350, 4118.20512793, 4130.89743562, 4128.46153819, 4117.43589716, 4116.66666639,10.0
4128.84615357, 4117.69230742, 4120.76923050, 4144.99999980, 4101.92307658, 4085.38461504, 4099.10256376, 4111.79487152, 4080.64102530, 4111.79487152, 4132.30769203, 4127.17948691, 4116.92307665, 4121.15384588,10.0
4129.10256383, 4120.76923050, 4121.15384588, 4143.07692287, 4107.82051255, 4092.30769196, 4105.76923050, 4121.41025614, 4090.12820478, 4114.99999973, 4134.23076896, 4129.35897408, 4120.38461511, 4124.99999973,10.0
4130.76923050, 4123.07692280, 4127.30769203, 4144.74358954, 4111.53846126, 4095.89743555, 4107.69230742, 4117.69230742, 4094.61538427, 4128.20512793, 4134.99999973, 4134.23076896, 4122.05128178, 4127.05128178,10.0
4117.30769203, 4117.05128178, 4118.07692280, 4141.79487159, 4102.82051255, 4086.41025607, 4093.58974325, 4103.46153819, 4082.05128171, 4129.87179460, 4122.82051255, 4124.48717921, 4112.17948691, 4121.79487152,10.0
4099.74358940, 4108.58974332, 4104.48717921, 4135.38461518, 4105.38461511, 4075.25640991, 4077.94871761, 4098.20512786, 4072.17948684, 4116.92307665, 4111.92307665, 4111.02564075, 4101.92307658, 4120.89743562,10.0
4095.64102530, 4104.35897408, 4104.10256383, 4130.51282024, 4112.69230742, 4072.69230735, 4073.46153812, 4098.07692273, 4072.43589709, 4106.92307665, 4110.89743562, 4105.12820485, 4099.74358940, 4128.33333306,10.0
4088.33333299, 4095.12820478, 4092.43589709, 4117.94871767, 4079.23076889, 4063.97435856, 4066.53846113, 4087.56410222, 4052.17948677, 4092.05128171, 4099.61538427, 4091.66666632, 4091.02564068, 4124.61538434,10.0
4084.61538427, 4095.25640991, 4082.17948684, 4116.41025614, 4064.99999959, 4061.02564061, 4068.33333292, 4084.48717914, 4031.79487131, 4081.15384581, 4093.20512786, 4087.82051248, 4092.05128171, 4118.71794844,10.0
4100.51282017, 4106.66666639, 4098.71794837, 4132.17948691, 4106.92307665, 4077.69230735, 4087.30769196, 4096.66666632, 4047.05128164, 4090.25640991, 4104.87179460, 4104.61538434, 4104.48717921, 4123.97435870,10.0
4104.23076896, 4104.61538434, 4107.43589716, 4133.20512793, 4115.76923050, 4081.66666632, 4090.76923043, 4100.12820478, 4062.05128164, 4099.23076889, 4105.38461511, 4106.15384588, 4098.71794837, 4121.41025614,10.0
4088.46153812, 4097.05128171, 4091.66666632, 4120.76923050, 4073.84615350, 4067.30769189, 4073.07692273, 4089.61538427, 4050.64102523, 4089.61538427, 4093.33333299, 4090.51282017, 4089.35897402, 4121.53846126,10.0
4092.17948684, 4105.12820485, 4091.28205094, 4123.84615357, 4077.43589709, 4077.69230735, 4083.97435863, 4094.23076889, 4057.17948677, 4098.07692273, 4103.97435870, 4095.25640991, 4102.94871767, 4126.66666639,10.0
4105.76923050, 4113.46153819, 4103.46153819, 4137.17948697, 4121.15384588, 4097.05128171, 4108.58974332, 4103.97435870, 4078.46153812, 4125.89743562, 4118.84615357, 4109.23076896, 4112.17948691, 4123.20512793,10.0
4093.33333299, 4105.38461511, 4093.58974325, 4132.94871767, 4113.33333306, 4079.99999966, 4089.48717914, 4094.61538427, 4070.89743555, 4119.74358947, 4106.02564075, 4099.23076889, 4098.33333299, 4125.38461511,10.0
4075.51282017, 4096.53846119, 4078.97435863, 4119.35897408, 4074.99999966, 4051.15384574, 4051.02564061, 4082.05128171, 4052.82051241, 4090.76923043, 4091.66666632, 4086.02564068, 4086.28205094, 4123.07692280,10.0
4079.87179453, 4099.35897402, 4083.20512786, 4120.64102537, 4080.64102530, 4054.10256369, 4049.10256369, 4077.94871761, 4047.94871754, 4078.07692273, 4098.33333299, 4093.33333299, 4091.28205094, 4123.97435870,10.0
4083.46153812, 4100.64102530, 4087.17948684, 4124.61538434, 4094.74358940, 4069.48717907, 4064.10256369, 4076.28205094, 4043.97435856, 4082.82051248, 4102.94871767, 4098.20512786, 4096.66666632, 4127.30769203,10.0
4072.69230735, 4093.58974325, 4077.05128171, 4119.74358947, 4079.87179453, 4063.46153805, 4061.66666625, 4075.38461504, 4040.38461497, 4088.33333299, 4095.89743555, 4088.84615350, 4089.99999966, 4118.84615357,10.0
4070.64102530, 4094.61538427, 4068.84615343, 4117.56410229, 4077.17948684, 4060.64102523, 4065.25640984, 4083.46153812, 4051.66666625, 4092.94871761, 4094.99999966, 4084.61538427, 4087.56410222, 4124.61538434,10.0
4073.07692273, 4098.84615350, 4067.94871754, 4114.99999973, 4087.69230735, 4070.89743555, 4073.71794837, 4090.76923043, 4057.69230728, 4093.97435863, 4092.30769196, 4080.12820478, 4084.48717914, 4124.23076896,10.0
4072.69230735, 4096.66666632, 4071.02564068, 4115.89743562, 4099.74358940, 4078.20512786, 4080.38461504, 4094.48717914, 4053.84615343, 4086.41025607, 4089.48717914, 4075.51282017, 4081.66666632, 4118.58974332,10.0
4078.97435863, 4100.76923043, 4072.82051248, 4121.15384588, 4103.71794844, 4080.64102530, 4092.43589709, 4100.25640991, 4060.12820472, 4080.64102530, 4097.94871761, 4082.17948684, 4089.10256376, 4124.10256383,10.0
4085.12820478, 4112.30769203, 4072.05128171, 4122.30769203, 4098.97435863, 4076.28205094, 4094.74358940, 4103.20512793, 4074.35897402, 4090.89743555, 4102.69230742, 4091.02564068, 4089.87179453, 4114.99999973,10.0
4087.94871761, 4116.15384588, 4078.58974325, 4124.48717921, 4106.02564075, 4075.76923043, 4090.51282017, 4100.25640991, 4072.56410222, 4102.56410229, 4099.61538427, 4095.12820478, 4086.41025607, 4116.92307665,10.0
4088.46153812, 4109.61538434, 4083.20512786, 4127.17948691, 4106.41025614, 4078.20512786, 4086.41025607, 4086.02564068, 4051.92307651, 4093.20512786, 4098.97435863, 4093.84615350, 4086.41025607, 4118.58974332,10.0
4079.99999966, 4103.07692280, 4073.84615350, 4120.25640998, 4085.64102530, 4067.94871754, 4073.20512786, 4077.43589709, 4042.94871754, 4074.99999966, 4092.43589709, 4088.33333299, 4079.99999966, 4113.71794844,10.0
4067.30769189, 4097.94871761, 4062.56410215, 4107.17948691, 4083.58974325, 4059.23076882, 4060.76923036, 4082.30769196, 4046.28205087, 4067.43589702, 4078.20512786, 4080.51282017, 4073.71794837, 4124.10256383,10.0
4065.51282010, 4095.12820478, 4063.58974318, 4106.79487152, 4090.89743555, 4066.53846113, 4063.71794830, 4078.33333299, 4047.05128164, 4075.12820478, 4075.64102530, 4078.84615350, 4076.28205094, 4124.23076896,10.0
4074.61538427, 4099.87179453, 4075.76923043, 4115.25640998, 4080.51282017, 4073.07692273, 4068.46153805, 4071.66666632, 4050.51282010, 4091.66666632, 4087.17948684, 4089.74358940, 4082.69230735, 4127.30769203,10.0
4081.28205094, 4108.58974332, 4089.87179453, 4120.25640998, 4095.12820478, 4075.12820478, 4077.69230735, 4084.99999966, 4062.05128164, 4097.05128171, 4101.92307658, 4098.71794837, 4093.07692273, 4129.10256383,10.0
4091.02564068, 4120.25640998, 4102.17948684, 4131.53846126, 4131.79487152, 4089.35897402, 4096.92307658, 4101.28205094, 4078.97435863, 4094.48717914, 4118.71794844, 4107.30769203, 4106.53846126, 4122.43589716,10.0
4103.33333306, 4127.43589716, 4107.05128178, 4139.74358954, 4122.43589716, 4099.87179453, 4105.76923050, 4105.12820485, 4086.92307658, 4098.71794837, 4119.23076896, 4114.99999973, 4108.33333306, 4130.51282024,10.0
4111.53846126, 4131.15384588, 4113.07692280, 4141.66666646, 4105.51282024, 4104.35897408, 4116.41025614, 4114.61538434, 4090.25640991, 4114.10256383, 4114.74358947, 4115.12820485, 4107.43589716, 4129.23076896,10.0
4128.46153819, 4146.15384595, 4133.97435870, 4154.87179467, 4135.38461518, 4126.02564075, 4145.64102544, 4141.41025621, 4115.76923050, 4145.12820492, 4138.07692287, 4126.02564075, 4127.69230742, 4125.76923050,10.0
4149.61538441, 4162.43589723, 4152.30769210, 4173.07692294, 4162.30769210, 4145.12820492, 4162.56410236, 4163.46153826, 4148.71794851, 4171.79487166, 4169.48717935, 4147.94871774, 4151.41025621, 4128.46153819,10.0
4156.53846133, 4166.15384595, 4155.76923056, 4181.02564089, 4163.58974339, 4142.30769210, 4156.02564082, 4161.79487159, 4153.97435877, 4173.97435884, 4173.33333320, 4158.20512800, 4156.53846133, 4125.12820485,10.0
4158.20512800, 4167.17948697, 4155.89743569, 4181.79487166, 4171.02564089, 4139.35897415, 4154.10256390, 4153.97435877, 4141.92307672, 4169.99999986, 4162.94871774, 4156.15384595, 4154.87179467, 4127.82051255,10.0
4168.97435884, 4172.56410243, 4160.89743569, 4181.92307679, 4176.41025628, 4147.94871774, 4161.15384595, 4153.20512800, 4141.41025621, 4170.64102551, 4164.10256390, 4155.25641005, 4152.82051262, 4127.30769203,10.0
4182.43589730, 4181.41025628, 4174.48717935, 4189.48717935, 4175.76923063, 4155.76923056, 4165.64102544, 4156.02564082, 4149.74358954, 4178.97435884, 4175.89743576, 4162.56410236, 4158.71794851, 4124.99999973,10.0
4186.66666653, 4183.58974345, 4182.30769217, 4196.79487166, 4193.33333320, 4156.28205108, 4168.20512807, 4160.51282031, 4156.92307672, 4191.28205115, 4179.87179474, 4167.94871774, 4165.51282031, 4126.28205101,10.0
4183.07692294, 4173.58974345, 4174.99999986, 4188.46153833, 4206.15384609, 4158.58974339, 4168.07692287, 4157.43589723, 4161.53846133, 4194.10256397, 4173.58974345, 4161.15384595, 4160.51282031, 4125.12820485,10.0
4175.89743576, 4159.74358954, 4167.05128185, 4174.87179474, 4172.69230756, 4150.64102544, 4153.71794851, 4139.99999980, 4147.17948697, 4181.92307679, 4168.84615371, 4150.76923056, 4156.02564082, 4124.23076896,10.0
4176.41025628, 4162.69230749, 4174.87179474, 4176.66666653, 4144.99999980, 4137.56410236, 4143.84615364, 4136.15384595, 4132.94871767, 4169.35897422, 4177.69230756, 4157.94871774, 4165.64102544, 4122.82051255,10.0
4187.82051269, 4174.61538448, 4186.28205115, 4187.69230756, 4169.23076910, 4142.17948697, 4157.17948697, 4154.35897415, 4146.28205108, 4169.99999986, 4186.92307679, 4172.05128192, 4173.71794858, 4124.61538434,10.0
4193.84615371, 4177.82051269, 4185.25641012, 4193.20512807, 4186.15384602, 4163.58974339, 4170.89743576, 4159.10256390, 4152.82051262, 4202.82051275, 4179.99999986, 4170.51282038, 4168.07692287, 4125.89743562,10.0
4200.38461525, 4186.28205115, 4197.30769217, 4202.43589737, 4207.05128199, 4170.89743576, 4176.28205115, 4161.28205108, 4161.66666646, 4209.23076917, 4184.48717935, 4180.12820499, 4177.56410243, 4126.28205101,10.0
4187.30769217, 4174.87179474, 4186.41025628, 4193.58974345, 4191.02564089, 4155.51282031, 4162.82051262, 4159.61538441, 4155.12820492, 4185.89743576, 4181.53846140, 4171.79487166, 4174.35897422, 4122.56410229,10.0
4168.71794858, 4150.38461518, 4161.79487159, 4172.56410243, 4162.30769210, 4137.43589723, 4137.56410236, 4152.17948697, 4145.64102544, 4184.87179474, 4160.76923056, 4146.79487159, 4154.23076903, 4123.58974332,10.0
4154.87179467, 4139.35897415, 4147.94871774, 4163.97435877, 4150.51282031, 4138.20512800, 4130.12820485, 4136.66666646, 4135.12820485, 4196.28205115, 4146.92307672, 4133.33333306, 4139.61538441, 4122.69230742,10.0
4149.99999980, 4142.05128185, 4146.41025621, 4164.61538441, 4138.71794851, 4141.28205108, 4139.74358954, 4135.12820485, 4136.28205108, 4178.46153833, 4151.41025621, 4131.92307665, 4141.28205108, 4121.15384588,10.0
4152.30769210, 4141.79487159, 4148.71794851, 4162.43589723, 4149.48717928, 4138.58974339, 4135.76923056, 4136.28205108, 4137.82051262, 4153.20512800, 4153.46153826, 4131.92307665, 4141.92307672, 4124.10256383,10.0
4150.89743569, 4133.97435870, 4147.30769210, 4157.05128185, 4177.94871781, 4135.12820485, 4125.51282024, 4123.84615357, 4119.61538434, 4153.20512800, 4146.41025621, 4133.84615357, 4136.02564082, 4125.12820485,10.0
4138.33333313, 4124.23076896, 4135.51282031, 4150.51282031, 4156.79487159, 4127.69230742, 4126.79487152, 4118.07692280, 4104.61538434, 4153.84615364, 4134.87179460, 4128.20512793, 4128.46153819, 4127.56410229,10.0
4123.84615357, 4119.10256383, 4122.82051255, 4142.69230749, 4110.64102537, 4116.92307665, 4122.43589716, 4119.10256383, 4105.12820485, 4134.74358947, 4124.23076896, 4113.07692280, 4121.02564075, 4129.23076896,10.0
4126.41025614, 4123.07692280, 4125.76923050, 4141.79487159, 4109.35897408, 4116.41025614, 4124.23076896, 4119.87179460, 4104.35897408, 4122.56410229, 4122.43589716, 4109.35897408, 4121.66666639, 4126.28205101,10.0
4142.82051262, 4132.43589716, 4140.64102544, 4151.02564082, 4135.76923056, 4125.25640998, 4137.05128185, 4128.07692280, 4109.99999973, 4134.74358947, 4132.30769203, 4122.69230742, 4133.33333306, 4125.64102537,10.0
4146.28205108, 4133.84615357, 4140.89743569, 4154.99999980, 4151.41025621, 4126.41025614, 4132.69230742, 4129.35897408, 4121.28205101, 4150.12820492, 4136.28205108, 4124.35897408, 4136.28205108, 4126.41025614,10.0
4137.43589723, 4131.79487152, 4129.23076896, 4153.58974339, 4147.82051262, 4121.15384588, 4117.43589716, 4124.48717921, 4121.41025614, 4149.61538441, 4132.17948691, 4112.43589716, 4126.53846126, 4126.79487152,10.0
4135.76923056, 4136.66666646, 4133.07692280, 4159.35897415, 4134.87179460, 4118.84615357, 4117.56410229, 4128.97435870, 4120.51282024, 4149.10256390, 4137.94871774, 4114.35897408, 4126.66666639, 4128.07692280,10.0
4143.46153826, 4147.30769210, 4148.58974339, 4168.33333320, 4142.17948697, 4129.87179460, 4129.99999973, 4129.48717921, 4124.74358947, 4151.53846133, 4151.92307672, 4128.71794844, 4138.46153826, 4126.28205101,10.0
4145.64102544, 4149.99999980, 4151.66666646, 4169.74358961, 4161.15384595, 4138.71794851, 4126.53846126, 4117.94871767, 4118.07692280, 4147.30769210, 4153.07692287, 4132.17948691, 4143.97435877, 4125.51282024,10.0
4138.58974339, 4139.23076903, 4141.79487159, 4163.84615364, 4154.61538441, 4127.17948691, 4109.48717921, 4112.05128178, 4108.07692280, 4139.61538441, 4140.64102544, 4119.87179460, 4136.66666646, 4124.61538434,10.0
4135.64102544, 4131.92307665, 4140.25641005, 4158.97435877, 4137.69230749, 4114.99999973, 4104.61538434, 4113.97435870, 4108.58974332, 4138.58974339, 4132.56410229, 4112.56410229, 4126.02564075, 4124.23076896,10.0
4137.30769210, 4131.53846126, 4144.61538441, 4156.79487159, 4125.89743562, 4115.38461511, 4113.20512793, 4117.30769203, 4109.23076896, 4140.25641005, 4130.25640998, 4116.92307665, 4122.43589716, 4126.02564075,10.0
4137.17948697, 4134.35897408, 4144.35897415, 4158.97435877, 4127.56410229, 4125.25640998, 4127.94871767, 4129.61538434, 4114.99999973, 4141.02564082, 4133.71794844, 4121.02564075, 4129.35897408, 4124.10256383,10.0
4138.33333313, 4138.20512800, 4142.43589723, 4161.28205108, 4148.71794851, 4134.48717921, 4137.82051262, 4134.10256383, 4122.17948691, 4137.56410236, 4140.25641005, 4119.61538434, 4136.92307672, 4125.64102537,10.0
4143.33333313, 4139.74358954, 4141.92307672, 4159.61538441, 4152.17948697, 4135.76923056, 4135.64102544, 4129.35897408, 4119.61538434, 4131.79487152, 4142.56410236, 4120.76923050, 4138.58974339, 4126.92307665,10.0
4154.10256390, 4149.87179467, 4148.84615364, 4166.92307672, 4138.07692287, 4136.92307672, 4138.20512800, 4139.99999980, 4126.41025614, 4150.89743569, 4146.53846133, 4131.41025614, 4145.51282031, 4124.87179460,10.0
4159.23076903, 4154.87179467, 4153.20512800, 4172.69230756, 4154.10256390, 4135.64102544, 4137.17948697, 4139.61538441, 4131.15384588, 4176.53846140, 4147.17948697, 4137.30769210, 4148.84615364, 4129.10256383,10.0
4137.82051262, 4130.76923050, 4133.33333306, 4154.10256390, 4163.46153826, 4121.53846126, 4112.56410229, 4111.15384588, 4108.20512793, 4153.97435877, 4129.61538434, 4119.10256383, 4130.89743562, 4128.97435870,10.0
4111.15384588, 4112.82051255, 4110.38461511, 4137.94871774, 4125.51282024, 4111.41025614, 4100.64102530, 4102.17948684, 4092.05128171, 4117.05128178, 4115.64102537, 4102.43589709, 4118.07692280, 4121.92307665,10.0
4117.56410229, 4128.84615357, 4120.64102537, 4149.74358954, 4102.30769196, 4115.38461511, 4117.30769203, 4121.28205101, 4107.94871767, 4125.12820485, 4128.33333306, 4112.69230742, 4130.25640998, 4123.97435870,10.0
4134.74358947, 4137.82051262, 4140.51282031, 4158.46153826, 4120.38461511, 4114.99999973, 4113.84615357, 4123.20512793, 4113.07692280, 4143.97435877, 4137.82051262, 4126.02564075, 4137.17948697, 4128.46153819,10.0
4138.58974339, 4132.56410229, 4142.43589723, 4153.84615364, 4140.12820492, 4114.48717921, 4098.20512786, 4109.23076896, 4100.38461504, 4139.74358954, 4128.07692280, 4126.28205101, 4131.28205101, 4125.12820485,10.0
4137.56410236, 4133.84615357, 4135.12820485, 4151.53846133, 4139.35897415, 4117.82051255, 4100.89743555, 4105.12820485, 4099.35897402, 4131.53846126, 4121.79487152, 4119.48717921, 4124.23076896, 4121.79487152,10.0
4129.10256383, 4125.89743562, 4124.23076896, 4145.25641005, 4120.76923050, 4109.99999973, 4100.89743555, 4106.92307665, 4099.61538427, 4124.10256383, 4119.87179460, 4109.87179460, 4116.53846126, 4125.51282024,10.0
4121.53846126, 4119.23076896, 4121.41025614, 4139.23076903, 4115.89743562, 4112.94871767, 4106.41025614, 4114.48717921, 4101.53846119, 4128.07692280, 4116.66666639, 4105.51282024, 4118.58974332, 4128.97435870,10.0
4123.07692280, 4128.71794844, 4124.10256383, 4142.17948697, 4129.61538434, 4121.79487152, 4119.23076896, 4118.33333306, 4103.20512793, 4137.94871774, 4118.97435870, 4104.35897408, 4125.51282024, 4127.82051255,10.0
4130.89743562, 4139.48717928, 4130.12820485, 4152.43589723, 4149.35897415, 4124.99999973, 4123.71794844, 4122.56410229, 4105.12820485, 4139.74358954, 4129.48717921, 4111.02564075, 4132.05128178, 4129.87179460,10.0
4138.97435877, 4145.51282031, 4140.89743569, 4159.74358954, 4158.46153826, 4134.48717921, 4133.58974332, 4136.41025621, 4121.53846126, 4142.05128185, 4133.97435870, 4123.84615357, 4137.82051262, 4127.05128178,10.0
4135.25640998, 4143.46153826, 4141.53846133, 4157.94871774, 4142.43589723, 4128.71794844, 4131.41025614, 4133.07692280, 4124.61538434, 4144.61538441, 4130.38461511, 4124.99999973, 4133.46153819, 4117.56410229,10.0
4121.79487152, 4130.25640998, 4129.87179460, 4148.97435877, 4122.94871767, 4108.20512793, 4108.20512793, 4113.33333306, 4104.48717921, 4138.20512800, 4126.53846126, 4112.82051255, 4122.69230742, 4117.94871767,10.0
4113.97435870, 4117.69230742, 4121.41025614, 4139.61538441, 4121.02564075, 4106.79487152, 4105.51282024, 4113.84615357, 4099.74358940, 4132.56410229, 4121.79487152, 4105.51282024, 4117.17948691, 4121.15384588,10.0
4111.15384588, 4115.51282024, 4122.05128178, 4136.41025621, 4117.17948691, 4113.84615357, 4115.89743562, 4118.58974332, 4110.12820485, 4123.33333306, 4118.46153819, 4106.02564075, 4118.84615357, 4123.33333306,10.0
4107.30769203, 4114.74358947, 4121.28205101, 4131.92307665, 4113.84615357, 4106.28205101, 4104.35897408, 4102.30769196, 4096.53846119, 4110.76923050, 4114.99999973, 4103.20512793, 4117.05128178, 4124.99999973,10.0
4111.02564075, 4113.46153819, 4123.71794844, 4128.71794844, 4134.61538434, 4102.94871767, 4098.71794837, 4100.25640991, 4088.20512786, 4122.30769203, 4112.17948691, 4103.07692280, 4114.10256383, 4123.58974332,10.0
4117.05128178, 4118.07692280, 4128.46153819, 4131.41025614, 4138.58974339, 4108.84615357, 4110.38461511, 4118.20512793, 4110.51282024, 4140.51282031, 4117.43589716, 4106.79487152, 4118.97435870, 4125.76923050,10.0
4120.12820485, 4127.94871767, 4128.97435870, 4133.58974332, 4125.38461511, 4111.66666639, 4112.17948691, 4119.10256383, 4123.58974332, 4140.38461518, 4125.25640998, 4105.64102537, 4125.76923050, 4122.82051255,10.0
4121.53846126, 4131.53846126, 4128.97435870, 4133.58974332, 4128.33333306, 4116.53846126, 4111.41025614, 4112.56410229, 4121.28205101, 4145.51282031, 4126.92307665, 4104.99999973, 4125.76923050, 4121.66666639,10.0
4110.89743562, 4120.51282024, 4120.89743562, 4128.71794844, 4126.15384588, 4113.58974332, 4111.41025614, 4115.89743562, 4118.33333306, 4145.76923056, 4118.84615357, 4105.38461511, 4119.10256383, 4126.79487152,10.0
4100.51282017, 4113.07692280, 4114.23076896, 4123.84615357, 4117.94871767, 4103.07692280, 4108.71794844, 4116.28205101, 4112.82051255, 4123.71794844, 4112.82051255, 4103.58974332, 4117.17948691, 4124.99999973,10.0
4104.87179460, 4116.41025614, 4116.41025614, 4122.69230742, 4122.94871767, 4104.74358947, 4114.35897408, 4111.92307665, 4106.53846126, 4120.25640998, 4115.64102537, 4102.69230742, 4120.25640998, 4123.71794844,10.0
4104.48717921, 4113.84615357, 4112.82051255, 4118.71794844, 4127.56410229, 4112.94871767, 4118.46153819, 4113.07692280, 4107.69230742, 4140.51282031, 4116.53846126, 4100.89743555, 4118.20512793, 4126.15384588,10.0
4092.82051248, 4104.10256383, 4102.56410229, 4111.41025614, 4123.84615357, 4109.87179460, 4107.05128178, 4112.17948691, 4107.17948691, 4134.99999973, 4104.61538434, 4092.94871761, 4110.12820485, 4127.94871767,10.0
4093.33333299, 4105.25640998, 4098.84615350, 4111.92307665, 4114.35897408, 4101.41025607, 4099.61538427, 4110.89743562, 4101.66666632, 4108.71794844, 4093.46153812, 4088.46153812, 4105.38461511, 4126.02564075,10.0
4101.15384581, 4114.99999973, 4103.84615357, 4119.48717921, 4107.05128178, 4104.99999973, 4112.30769203, 4119.10256383, 4106.15384588, 4107.82051255, 4104.48717921, 4096.28205094, 4109.74358947, 4121.79487152,10.0
4097.05128171, 4113.46153819, 4106.02564075, 4118.33333306, 4113.33333306, 4115.38461511, 4127.43589716, 4124.48717921, 4105.76923050, 4122.94871767, 4115.12820485, 4101.02564068, 4110.51282024, 4124.87179460,10.0
4092.82051248, 4106.28205101, 4104.10256383, 4109.61538434, 4119.74358947, 4114.99999973, 4124.35897408, 4117.82051255, 4095.76923043, 4118.33333306, 4103.71794844, 4096.02564068, 4105.12820485, 4125.38461511,10.0
4099.87179453, 4111.15384588, 4110.64102537, 4115.25640998, 4115.89743562, 4107.82051255, 4112.30769203, 4113.07692280, 4097.94871761, 4110.64102537, 4094.99999966, 4097.94871761, 4108.84615357, 4122.17948691,10.0
4104.61538434, 4118.97435870, 4116.53846126, 4127.56410229, 4114.10256383, 4104.87179460, 4109.23076896, 4119.99999973, 4109.61538434, 4112.56410229, 4098.33333299, 4104.10256383, 4114.48717921, 4126.41025614,10.0
4103.07692280, 4116.92307665, 4108.20512793, 4124.10256383, 4121.41025614, 4109.35897408, 4118.33333306, 4122.43589716, 4109.74358947, 4110.64102537, 4095.12820478, 4101.15384581, 4110.64102537, 4124.99999973,10.0
4108.58974332, 4116.92307665, 4102.30769196, 4117.05128178, 4124.35897408, 4112.17948691, 4120.38461511, 4111.92307665, 4099.48717914, 4104.74358947, 4089.74358940, 4098.58974325, 4109.87179460, 4122.05128178,10.0
4116.41025614, 4120.12820485, 4110.64102537, 4119.35897408, 4109.74358947, 4105.89743562, 4109.23076896, 4107.05128178, 4095.89743555, 4108.07692280, 4096.92307658, 4103.07692280, 4116.53846126, 4125.64102537,10.0
4118.58974332, 4122.69230742, 4116.66666639, 4126.15384588, 4101.41025607, 4105.12820485, 4108.46153819, 4113.71794844, 4104.99999973, 4116.41025614, 4102.43589709, 4109.74358947, 4118.46153819, 4124.74358947,10.0
4123.84615357, 4127.82051255, 4116.66666639, 4126.92307665, 4126.15384588, 4115.25640998, 4122.69230742, 4120.38461511, 4115.38461511, 4124.48717921, 4101.15384581, 4114.23076896, 4120.12820485, 4124.23076896,10.0
4120.76923050, 4123.97435870, 4108.84615357, 4117.94871767, 4145.64102544, 4115.12820485, 4118.71794844, 4113.97435870, 4108.33333306, 4123.46153819, 4096.92307658, 4108.58974332, 4116.53846126, 4126.41025614,10.0
4104.74358947, 4111.53846126, 4095.51282017, 4111.02564075, 4117.43589716, 4101.15384581, 4096.28205094, 4105.25640998, 4095.89743555, 4108.58974332, 4091.15384581, 4099.35897402, 4109.99999973, 4126.92307665,10.0
4110.51282024, 4115.89743562, 4106.15384588, 4120.51282024, 4098.71794837, 4109.87179460, 4107.56410229, 4117.43589716, 4107.43589716, 4118.97435870, 4104.23076896, 4111.15384588, 4124.48717921, 4123.71794844,10.0
4137.17948697, 4138.07692287, 4135.51282031, 4138.84615364, 4124.10256383, 4132.43589716, 4139.35897415, 4137.82051262, 4135.12820485, 4152.30769210, 4134.61538434, 4135.51282031, 4149.23076903, 4121.92307665,10.0
4143.07692287, 4149.48717928, 4143.07692287, 4142.30769210, 4148.07692287, 4131.53846126, 4139.23076903, 4138.46153826, 4145.76923056, 4158.07692287, 4147.05128185, 4144.10256390, 4152.17948697, 4125.89743562,10.0
4126.15384588, 4140.89743569, 4125.76923050, 4130.38461511, 4143.07692287, 4120.25640998, 4121.53846126, 4127.30769203, 4130.51282024, 4136.66666646, 4128.97435870, 4129.87179460, 4135.76923056, 4124.87179460,10.0
4120.64102537, 4133.58974332, 4116.15384588, 4127.43589716, 4138.33333313, 4118.71794844, 4121.53846126, 4127.94871767, 4123.20512793, 4131.66666639, 4116.28205101, 4122.17948691, 4130.76923050, 4124.48717921,10.0
4128.20512793, 4137.82051262, 4124.23076896, 4135.12820485, 4137.17948697, 4126.02564075, 4131.79487152, 4129.48717921, 4131.02564075, 4149.10256390, 4129.87179460, 4131.66666639, 4142.43589723, 4126.92307665,10.0
4122.43589716, 4131.66666639, 4120.89743562, 4128.20512793, 4113.58974332, 4120.76923050, 4120.89743562, 4116.15384588, 4121.41025614, 4146.92307672, 4137.05128185, 4127.43589716, 4144.48717928, 4125.76923050,10.0
4113.20512793, 4121.28205101, 4105.38461511, 4118.33333306, 4109.87179460, 4109.23076896, 4107.82051255, 4109.99999973, 4110.25640998, 4131.92307665, 4123.20512793, 4114.48717921, 4134.61538434, 4127.17948691,10.0
4115.64102537, 4124.74358947, 4102.17948684, 4123.20512793, 4139.99999980, 4114.61538434, 4118.84615357, 4123.71794844, 4124.87179460, 4136.02564082, 4116.53846126, 4116.02564075, 4132.43589716, 4124.48717921,10.0
4116.28205101, 4126.79487152, 4109.61538434, 4127.30769203, 4145.89743569, 4124.35897408, 4127.94871767, 4131.41025614, 4136.79487159, 4148.97435877, 4122.69230742, 4121.41025614, 4138.33333313, 4122.05128178,10.0
4106.79487152, 4125.51282024, 4110.64102537, 4126.41025614, 4136.15384595, 4122.94871767, 4117.43589716, 4123.20512793, 4129.61538434, 4148.97435877, 4120.76923050, 4115.38461511, 4135.89743569, 4125.38461511,10.0
4097.56410222, 4125.89743562, 4104.99999973, 4126.15384588, 4135.12820485, 4118.20512793, 4109.35897408, 4114.10256383, 4121.92307665, 4141.02564082, 4111.92307665, 4105.89743562, 4124.87179460, 4125.76923050,10.0
4097.30769196, 4123.71794844, 4101.66666632, 4125.38461511, 4114.99999973, 4111.79487152, 4105.76923050, 4110.76923050, 4117.69230742, 4129.74358947, 4108.97435870, 4104.10256383, 4121.92307665, 4128.46153819,10.0
4102.43589709, 4121.79487152, 4104.87179460, 4123.71794844, 4112.94871767, 4108.58974332, 4107.43589716, 4120.12820485, 4122.56410229, 4121.28205101, 4111.28205101, 4111.92307665, 4132.43589716, 4128.46153819,10.0
4102.56410229, 4120.25640998, 4106.92307665, 4122.05128178, 4138.07692287, 4116.66666639, 4118.20512793, 4123.20512793, 4124.10256383, 4121.28205101, 4112.43589716, 4119.10256383, 4135.25640998, 4122.82051255,10.0
4094.87179453, 4114.35897408, 4097.43589709, 4118.58974332, 4123.58974332, 4115.38461511, 4112.17948691, 4109.48717921, 4107.43589716, 4115.76923050, 4106.66666639, 4109.99999973, 4123.97435870, 4122.69230742,10.0
4097.56410222, 4121.02564075, 4099.87179453, 4125.51282024, 4123.20512793, 4114.74358947, 4107.82051255, 4110.64102537, 4113.20512793, 4125.51282024, 4111.15384588, 4108.46153819, 4124.48717921, 4123.84615357,10.0
4113.97435870, 4139.35897415, 4122.30769203, 4142.69230749, 4162.94871774, 4132.56410229, 4128.84615357, 4128.71794844, 4143.20512800, 4156.92307672, 4132.82051255, 4126.41025614, 4140.38461518, 4124.35897408,10.0
4127.05128178, 4149.10256390, 4137.94871774, 4150.76923056, 4157.43589723, 4142.30769210, 4145.51282031, 4143.97435877, 4158.58974339, 4172.56410243, 4148.97435877, 4140.12820492, 4152.56410236, 4124.99999973,10.0
4137.56410236, 4158.20512800, 4144.99999980, 4156.79487159, 4148.46153826, 4144.99999980, 4153.84615364, 4155.25641005, 4166.02564082, 4167.56410236, 4154.10256390, 4147.05128185, 4159.61538441, 4123.84615357,10.0
4145.51282031, 4171.02564089, 4149.35897415, 4166.53846133, 4183.58974345, 4159.61538441, 4164.74358954, 4156.41025621, 4170.51282038, 4162.69230749, 4157.05128185, 4151.66666646, 4162.94871774, 4124.74358947,10.0
4157.43589723, 4185.25641012, 4158.71794851, 4177.69230756, 4199.61538448, 4177.05128192, 4176.28205115, 4158.33333313, 4176.15384602, 4183.20512807, 4169.35897422, 4160.12820492, 4167.69230749, 4128.07692280,10.0
4182.69230756, 4204.35897429, 4182.82051269, 4196.28205115, 4214.10256404, 4194.48717935, 4203.07692301, 4184.99999986, 4202.69230763, 4226.66666660, 4193.84615371, 4185.51282038, 4185.76923063, 4129.10256383,10.0
4204.10256404, 4214.61538455, 4200.89743576, 4209.87179481, 4240.76923077, 4212.30769224, 4228.71794865, 4209.99999993, 4227.82051275, 4245.00000000, 4210.25641019, 4208.58974352, 4201.28205122, 4121.79487152,10.0
4201.28205122, 4204.35897429, 4194.87179474, 4202.69230763, 4218.33333327, 4202.56410250, 4212.69230763, 4195.51282038, 4217.82051275, 4224.23076917, 4201.41025634, 4200.51282038, 4193.58974345, 4119.10256383,10.0
4190.38461525, 4191.53846140, 4186.79487166, 4191.53846140, 4195.38461525, 4183.58974345, 4191.02564089, 4178.20512807, 4200.12820499, 4210.38461532, 4186.28205115, 4184.61538448, 4183.07692294, 4127.43589716,10.0
4193.46153833, 4193.20512807, 4192.05128192, 4195.25641012, 4202.94871788, 4192.30769217, 4202.30769224, 4187.17948704, 4200.76923063, 4217.05128199, 4188.33333320, 4188.07692294, 4186.02564089, 4127.17948691,10.0
4195.51282038, 4196.79487166, 4197.05128192, 4202.94871788, 4190.12820499, 4200.89743576, 4207.43589737, 4191.02564089, 4207.30769224, 4219.35897429, 4196.15384602, 4192.30769217, 4189.10256397, 4123.33333306,10.0
4186.15384602, 4192.43589730, 4195.76923063, 4199.87179474, 4192.82051269, 4188.58974345, 4190.12820499, 4176.15384602, 4200.25641012, 4211.79487173, 4196.28205115, 4185.25641012, 4184.10256397, 4123.71794844,10.0
4182.30769217, 4186.02564089, 4193.07692294, 4191.41025628, 4225.89743583, 4181.15384602, 4183.84615371, 4168.07692287, 4183.71794858, 4210.76923070, 4192.69230756, 4182.43589730, 4177.43589730, 4121.79487152,10.0
4192.82051269, 4189.35897422, 4193.84615371, 4195.51282038, 4216.28205122, 4187.56410243, 4190.89743576, 4175.51282038, 4184.48717935, 4217.30769224, 4196.15384602, 4189.99999986, 4178.97435884, 4122.30769203,10.0
4199.74358961, 4194.74358961, 4196.53846140, 4204.61538455, 4179.87179474, 4187.56410243, 4188.20512807, 4174.61538448, 4191.28205115, 4205.51282045, 4201.28205122, 4192.69230756, 4184.35897422, 4124.48717921,10.0
4189.61538448, 4185.25641012, 4190.12820499, 4198.20512807, 4182.69230756, 4177.43589730, 4175.25641012, 4159.35897415, 4175.64102551, 4183.71794858, 4193.07692294, 4181.02564089, 4181.79487166, 4125.89743562,10.0
4177.94871781, 4170.12820499, 4179.74358961, 4184.10256397, 4196.53846140, 4168.46153833, 4165.64102544, 4153.71794851, 4162.94871774, 4191.79487166, 4183.84615371, 4171.41025628, 4173.97435884, 4125.51282024,10.0
4180.38461525, 4170.25641012, 4176.41025628, 4182.17948704, 4186.66666653, 4167.30769210, 4168.84615371, 4163.58974339, 4176.02564089, 4212.56410250, 4189.23076910, 4173.97435884, 4171.28205115, 4122.82051255,10.0
4188.84615371, 4179.10256397, 4179.74358961, 4190.64102551, 4179.87179474, 4172.82051269, 4182.05128192, 4170.64102551, 4188.20512807, 4207.69230763, 4193.84615371, 4180.25641012, 4177.05128192, 4126.41025614,10.0
4187.30769217, 4174.48717935, 4181.92307679, 4188.07692294, 4186.02564089, 4171.15384602, 4184.61538448, 4173.46153833, 4187.05128192, 4197.43589730, 4184.35897422, 4178.71794858, 4176.66666653, 4130.12820485,10.0
4178.46153833, 4163.46153826, 4180.76923063, 4176.92307679, 4185.64102551, 4165.38461518, 4176.02564089, 4174.74358961, 4184.74358961, 4202.56410250, 4173.46153833, 4170.51282038, 4165.89743569, 4127.94871767,10.0
4180.12820499, 4168.20512807, 4182.05128192, 4178.07692294, 4175.12820499, 4166.79487159, 4179.48717935, 4175.12820499, 4184.61538448, 4200.76923063, 4173.07692294, 4167.17948697, 4164.23076903, 4126.28205101,10.0
4194.99999986, 4178.97435884, 4190.64102551, 4189.74358961, 4191.79487166, 4177.30769217, 4192.17948704, 4179.99999986, 4187.94871781, 4196.02564089, 4187.30769217, 4176.79487166, 4178.71794858, 4123.84615357,10.0
4205.89743583, 4182.05128192, 4202.69230763, 4199.74358961, 4201.15384609, 4182.69230756, 4191.66666653, 4182.94871781, 4190.76923063, 4208.58974352, 4200.38461525, 4191.53846140, 4191.28205115, 4125.38461511,10.0
4204.10256404, 4181.02564089, 4203.71794865, 4201.41025634, 4178.97435884, 4179.35897422, 4189.99999986, 4182.69230756, 4191.02564089, 4216.41025634, 4194.61538448, 4192.82051269, 4188.84615371, 4127.43589716,10.0
4193.46153833, 4173.20512807, 4190.76923063, 4192.17948704, 4176.66666653, 4175.25641012, 4188.97435884, 4173.84615371, 4182.82051269, 4200.64102551, 4174.61538448, 4178.84615371, 4176.53846140, 4126.02564075,10.0
4181.41025628, 4161.92307672, 4179.35897422, 4180.12820499, 4190.25641012, 4167.30769210, 4168.46153833, 4159.10256390, 4170.76923063, 4187.56410243, 4162.94871774, 4169.23076910, 4166.66666646, 4126.79487152,10.0
4181.41025628, 4161.92307672, 4179.35897422, 4180.12820499, 4190.25641012, 4167.30769210, 4168.46153833, 4159.10256390, 4170.76923063, 4187.56410243, 4162.94871774, 4169.23076910, 4166.66666646, 4126.79487152,10.0
4168.58974345, 4153.20512800, 4169.99999986, 4172.05128192, 4174.10256397, 4156.66666646, 4147.56410236, 4149.87179467, 4166.02564082, 4179.35897422, 4161.53846133, 4165.89743569, 4158.71794851, 4123.84615357,10.0
4160.64102544, 4149.23076903, 4164.35897415, 4170.76923063, 4163.20512800, 4154.10256390, 4146.02564082, 4149.99999980, 4164.48717928, 4166.92307672, 4159.23076903, 4162.94871774, 4155.76923056, 4123.84615357,10.0
4163.46153826, 4148.58974339, 4165.76923056, 4171.53846140, 4176.41025628, 4154.99999980, 4149.61538441, 4149.35897415, 4160.25641005, 4169.48717935, 4153.97435877, 4161.41025621, 4157.69230749, 4127.17948691,10.0
4158.33333313, 4143.07692287, 4161.79487159, 4164.48717928, 4152.56410236, 4150.12820492, 4147.94871774, 4141.66666646, 4150.64102544, 4169.10256397, 4143.84615364, 4152.17948697, 4148.58974339, 4126.41025614,10.0
4145.38461518, 4136.41025621, 4148.58974339, 4156.92307672, 4123.07692280, 4148.33333313, 4144.99999980, 4138.20512800, 4141.53846133, 4149.48717928, 4133.46153819, 4137.43589723, 4135.38461518, 4125.64102537,10.0
4138.97435877, 4136.41025621, 4139.74358954, 4157.69230749, 4148.97435877, 4151.79487159, 4140.89743569, 4137.82051262, 4141.41025621, 4143.71794851, 4129.74358947, 4130.25640998, 4132.69230742, 4124.35897408,10.0
4141.02564082, 4141.15384595, 4140.76923056, 4162.30769210, 4176.53846140, 4153.07692287, 4144.99999980, 4140.38461518, 4148.97435877, 4156.92307672, 4133.46153819, 4133.20512793, 4132.43589716, 4126.02564075,10.0
4146.28205108, 4142.94871774, 4143.71794851, 4162.17948697, 4163.71794851, 4153.84615364, 4159.35897415, 4154.61538441, 4161.79487159, 4167.05128185, 4136.53846133, 4137.56410236, 4133.20512793, 4126.02564075,10.0
4146.28205108, 4142.94871774, 4143.71794851, 4162.17948697, 4163.71794851, 4153.84615364, 4159.35897415, 4154.61538441, 4161.79487159, 4167.05128185, 4136.53846133, 4137.56410236, 4133.20512793, 4126.02564075,10.0
4146.53846133, 4143.20512800, 4146.15384595, 4161.28205108, 4147.05128185, 4151.28205108, 4158.58974339, 4159.61538441, 4166.92307672, 4166.53846133, 4136.28205108, 4139.61538441, 4139.87179467, 4123.20512793,10.0
4144.48717928, 4145.64102544, 4147.69230749, 4164.74358954, 4160.64102544, 4153.84615364, 4151.28205108, 4144.61538441, 4154.23076903, 4158.46153826, 4135.12820485, 4138.71794851, 4142.56410236, 4124.23076896,10.0
4143.58974339, 4145.25641005, 4143.84615364, 4162.69230749, 4173.07692294, 4155.38461518, 4150.89743569, 4137.17948697, 4143.07692287, 4150.51282031, 4134.87179460, 4133.20512793, 4139.74358954, 4123.84615357,10.0
4143.84615364, 4140.12820492, 4141.66666646, 4159.74358954, 4158.97435877, 4143.71794851, 4142.43589723, 4143.71794851, 4153.46153826, 4153.84615364, 4141.41025621, 4133.97435870, 4144.99999980, 4126.02564075,10.0
4140.76923056, 4137.56410236, 4144.87179467, 4164.35897415, 4138.46153826, 4133.07692280, 4126.15384588, 4137.30769210, 4156.28205108, 4159.74358954, 4143.33333313, 4138.46153826, 4144.61538441, 4126.66666639,10.0
4135.89743569, 4137.82051262, 4147.56410236, 4168.20512807, 4138.58974339, 4135.38461518, 4119.87179460, 4124.74358947, 4138.97435877, 4153.97435877, 4137.82051262, 4136.66666646, 4133.71794844, 4123.84615357,10.0
4132.30769203, 4132.30769203, 4144.10256390, 4162.43589723, 4153.84615364, 4136.02564082, 4123.71794844, 4124.35897408, 4131.02564075, 4145.38461518, 4137.82051262, 4132.56410229, 4133.58974332, 4125.38461511,10.0
4141.02564082, 4134.74358947, 4152.56410236, 4160.64102544, 4159.87179467, 4137.94871774, 4135.64102544, 4138.71794851, 4141.92307672, 4147.30769210, 4147.82051262, 4137.43589723, 4147.43589723, 4122.17948691,10.0
4154.48717928, 4148.58974339, 4168.20512807, 4171.53846140, 4147.82051262, 4145.89743569, 4152.69230749, 4158.71794851, 4156.28205108, 4159.10256390, 4152.82051262, 4145.25641005, 4153.97435877, 4119.48717921,10.0
4147.30769210, 4144.48717928, 4164.99999980, 4172.82051269, 4137.05128185, 4142.43589723, 4155.38461518, 4158.71794851, 4153.33333313, 4157.05128185, 4145.25641005, 4139.23076903, 4143.33333313, 4125.38461511,10.0
4136.02564082, 4130.12820485, 4153.58974339, 4164.10256390, 4141.28205108, 4139.23076903, 4149.74358954, 4144.61538441, 4138.97435877, 4141.92307672, 4138.33333313, 4131.02564075, 4135.12820485, 4127.05128178,10.0
4143.46153826, 4136.41025621, 4158.20512800, 4168.71794858, 4151.79487159, 4149.48717928, 4151.66666646, 4146.41025621, 4142.94871774, 4149.35897415, 4148.07692287, 4139.99999980, 4143.07692287, 4124.23076896,10.0
4151.66666646, 4148.46153826, 4168.20512807, 4175.89743576, 4166.92307672, 4155.38461518, 4156.53846133, 4157.94871774, 4163.07692287, 4172.05128192, 4163.58974339, 4150.38461518, 4152.56410236, 4122.43589716,10.0
4149.48717928, 4148.33333313, 4169.87179474, 4174.74358961, 4167.69230749, 4155.64102544, 4165.12820492, 4165.25641005, 4173.97435884, 4173.84615371, 4162.94871774, 4150.76923056, 4153.20512800, 4124.23076896,10.0
4144.74358954, 4143.97435877, 4165.89743569, 4172.82051269, 4146.79487159, 4152.56410236, 4163.97435877, 4159.48717928, 4162.30769210, 4156.02564082, 4149.87179467, 4146.02564082, 4145.12820492, 4127.17948691,10.0
4135.12820485, 4134.87179460, 4149.99999980, 4164.10256390, 4132.05128178, 4136.02564082, 4140.89743569, 4140.76923056, 4137.05128185, 4136.02564082, 4131.92307665, 4129.74358947, 4128.71794844, 4125.25640998,10.0
4131.53846126, 4130.12820485, 4143.71794851, 4156.28205108, 4132.94871767, 4128.07692280, 4127.43589716, 4137.56410236, 4133.46153819, 4132.94871767, 4131.02564075, 4122.30769203, 4128.20512793, 4124.23076896,10.0
4138.97435877, 4134.35897408, 4154.35897415, 4160.25641005, 4138.07692287, 4139.23076903, 4138.71794851, 4148.97435877, 4148.58974339, 4148.33333313, 4144.35897415, 4135.25640998, 4139.61538441, 4124.99999973,10.0
4135.38461518, 4130.25640998, 4152.30769210, 4163.20512800, 4142.94871774, 4133.07692280, 4132.17948691, 4139.23076903, 4138.20512800, 4146.66666646, 4139.23076903, 4133.20512793, 4134.10256383, 4124.10256383,10.0
4131.28205101, 4130.38461511, 4151.79487159, 4163.46153826, 4142.69230749, 4123.97435870, 4114.87179460, 4127.43589716, 4123.84615357, 4133.20512793, 4129.87179460, 4123.97435870, 4129.99999973, 4124.10256383,10.0
4145.64102544, 4148.46153826, 4169.74358961, 4171.53846140, 4143.33333313, 4144.48717928, 4128.33333306, 4141.41025621, 4142.82051262, 4152.05128185, 4141.79487159, 4137.56410236, 4142.56410236, 4123.84615357,10.0
4155.25641005, 4156.28205108, 4179.10256397, 4178.84615371, 4156.53846133, 4162.05128185, 4147.56410236, 4151.02564082, 4156.92307672, 4162.94871774, 4152.69230749, 4152.30769210, 4148.20512800, 4125.12820485,10.0
4139.61538441, 4137.05128185, 4163.97435877, 4170.89743576, 4150.64102544, 4146.02564082, 4133.58974332, 4135.89743569, 4139.99999980, 4136.79487159, 4138.33333313, 4139.99999980, 4134.87179460, 4124.99999973,10.0
4128.20512793, 4127.17948691, 4155.89743569, 4161.53846133, 4126.02564075, 4126.66666639, 4114.48717921, 4125.25640998, 4130.89743562, 4131.53846126, 4127.17948691, 4128.97435870, 4125.76923050, 4123.33333306,10.0
4142.17948697, 4143.58974339, 4162.56410236, 4170.12820499, 4127.94871767, 4130.38461511, 4126.15384588, 4137.82051262, 4147.69230749, 4146.28205108, 4134.87179460, 4137.69230749, 4136.15384595, 4123.20512793,10.0
4147.30769210, 4149.87179467, 4160.12820492, 4173.97435884, 4149.99999980, 4138.33333313, 4144.10256390, 4150.12820492, 4155.12820492, 4139.61538441, 4137.17948697, 4137.30769210, 4139.74358954, 4123.33333306,10.0
4136.41025621, 4141.79487159, 4155.12820492, 4164.23076903, 4158.07692287, 4141.79487159, 4140.89743569, 4142.17948697, 4143.33333313, 4137.43589723, 4133.07692280, 4129.10256383, 4131.41025614, 4124.35897408,10.0
4140.51282031, 4144.35897415, 4159.87179467, 4165.89743569, 4154.61538441, 4146.53846133, 4137.17948697, 4136.79487159, 4138.84615364, 4143.46153826, 4141.02564082, 4133.07692280, 4133.84615357, 4125.51282024,10.0
4150.76923056, 4150.25641005, 4166.02564082, 4175.38461525, 4149.87179467, 4147.69230749, 4143.33333313, 4148.07692287, 4151.66666646, 4136.79487159, 4151.66666646, 4139.35897415, 4143.71794851, 4124.99999973,10.0
4145.64102544, 4148.46153826, 4161.41025621, 4176.66666653, 4145.89743569, 4143.07692287, 4139.35897415, 4149.10256390, 4158.33333313, 4142.82051262, 4150.12820492, 4138.84615364, 4146.41025621, 4124.48717921,10.0
4135.76923056, 4143.71794851, 4147.82051262, 4169.23076910, 4138.46153826, 4137.69230749, 4124.87179460, 4135.51282031, 4147.43589723, 4153.20512800, 4140.12820492, 4129.61538434, 4138.46153826, 4121.41025614,10.0
4136.92307672, 4138.84615364, 4140.38461518, 4163.33333313, 4140.12820492, 4137.82051262, 4123.58974332, 4130.51282024, 4137.56410236, 4146.15384595, 4131.28205101, 4121.79487152, 4130.89743562, 4123.46153819,10.0
4139.48717928, 4138.33333313, 4144.87179467, 4165.76923056, 4147.82051262, 4139.87179467, 4135.38461518, 4137.69230749, 4138.84615364, 4134.10256383, 4129.99999973, 4122.43589716, 4135.64102544, 4128.07692280,10.0
4134.35897408, 4142.69230749, 4143.97435877, 4167.82051262, 4137.56410236, 4135.12820485, 4140.64102544, 4146.79487159, 4148.33333313, 4127.82051255, 4132.43589716, 4121.41025614, 4139.23076903, 4124.35897408,10.0
4128.33333306, 4142.94871774, 4131.66666639, 4161.53846133, 4127.56410229, 4129.48717921, 4138.20512800, 4151.92307672, 4154.35897415, 4131.66666639, 4128.71794844, 4116.15384588, 4130.38461511, 4123.07692280,10.0
4124.10256383, 4135.38461518, 4121.79487152, 4151.66666646, 4131.66666639, 4131.28205101, 4134.35897408, 4145.25641005, 4147.17948697, 4137.43589723, 4120.64102537, 4113.46153819, 4125.64102537, 4123.84615357,10.0
4121.28205101, 4129.35897408, 4122.43589716, 4152.05128185, 4133.84615357, 4133.97435870, 4130.25640998, 4132.30769203, 4136.41025621, 4139.35897415, 4121.41025614, 4111.28205101, 4128.20512793, 4122.69230742,10.0
4124.35897408, 4132.69230742, 4128.07692280, 4159.35897415, 4130.38461511, 4134.99999973, 4134.99999973, 4136.41025621, 4136.28205108, 4137.69230749, 4127.43589716, 4112.05128178, 4125.76923050, 4124.35897408,10.0
4130.38461511, 4137.94871774, 4131.15384588, 4162.94871774, 4130.51282024, 4142.94871774, 4147.56410236, 4149.23076903, 4144.61538441, 4132.82051255, 4128.71794844, 4116.28205101, 4125.12820485, 4123.07692280,10.0
4124.87179460, 4135.12820485, 4125.12820485, 4158.20512800, 4137.94871774, 4138.33333313, 4134.23076896, 4139.10256390, 4145.51282031, 4123.58974332, 4125.38461511, 4113.20512793, 4127.43589716, 4123.20512793,10.0
4113.20512793, 4127.94871767, 4115.64102537, 4149.74358954, 4141.79487159, 4123.97435870, 4106.02564075, 4121.15384588, 4134.74358947, 4121.92307665, 4121.53846126, 4104.48717921, 4126.02564075, 4126.41025614,10.0
4109.10256383, 4125.76923050, 4114.87179460, 4147.56410236, 4125.12820485, 4123.20512793, 4107.17948691, 4125.12820485, 4127.05128178, 4124.87179460, 4118.71794844, 4103.46153819, 4123.33333306, 4126.53846126,10.0
4112.82051255, 4130.25640998, 4121.41025614, 4152.17948697, 4107.56410229, 4126.92307665, 4119.87179460, 4130.12820485, 4125.25640998, 4119.87179460, 4117.05128178, 4106.15384588, 4122.05128178, 4125.12820485,10.0
4112.82051255, 4130.25640998, 4121.41025614, 4152.17948697, 4107.56410229, 4126.92307665, 4119.87179460, 4130.12820485, 4125.25640998, 4119.87179460, 4117.05128178, 4106.15384588, 4122.05128178, 4125.12820485,10.0
4120.12820485, 4135.89743569, 4125.89743562, 4157.69230749, 4122.82051255, 4129.48717921, 4115.89743562, 4122.05128178, 4121.15384588, 4119.87179460, 4121.79487152, 4107.43589716, 4122.30769203, 4124.48717921,10.0
4125.51282024, 4138.71794851, 4126.15384588, 4164.48717928, 4142.56410236, 4135.64102544, 4113.20512793, 4124.48717921, 4124.48717921, 4123.71794844, 4129.99999973, 4114.87179460, 4128.33333306, 4126.53846126,10.0
4124.48717921, 4137.43589723, 4127.05128178, 4164.74358954, 4141.15384595, 4139.74358954, 4122.30769203, 4134.48717921, 4135.89743569, 4121.15384588, 4129.48717921, 4120.25640998, 4131.15384588, 4126.66666639,10.0
4119.87179460, 4135.38461518, 4127.17948691, 4157.30769210, 4133.58974332, 4138.46153826, 4129.99999973, 4134.10256383, 4139.61538441, 4117.82051255, 4123.58974332, 4114.99999973, 4124.74358947, 4126.53846126,10.0
4120.64102537, 4135.64102544, 4126.92307665, 4156.28205108, 4139.35897415, 4139.99999980, 4136.28205108, 4135.51282031, 4136.92307672, 4125.89743562, 4125.89743562, 4114.87179460, 4123.20512793, 4128.20512793,10.0
4125.25640998, 4138.46153826, 4131.79487152, 4161.53846133, 4143.58974339, 4140.51282031, 4138.84615364, 4141.66666646, 4138.58974339, 4136.28205108, 4136.41025621, 4125.12820485, 4130.89743562, 4124.61538434,10.0
4128.33333306, 4139.99999980, 4133.97435870, 4162.69230749, 4126.41025614, 4139.74358954, 4138.07692287, 4140.76923056, 4143.84615364, 4135.25640998, 4142.30769210, 4131.53846126, 4136.79487159, 4123.33333306,10.0
4123.71794844, 4135.64102544, 4123.07692280, 4153.33333313, 4116.15384588, 4140.38461518, 4136.53846133, 4133.33333306, 4137.94871774, 4125.12820485, 4134.23076896, 4122.82051255, 4131.53846126, 4125.38461511,10.0
4111.79487152, 4127.30769203, 4107.82051255, 4140.89743569, 4128.46153819, 4137.17948697, 4129.87179460, 4130.64102537, 4125.38461511, 4110.38461511, 4117.05128178, 4105.89743562, 4120.76923050, 4124.35897408,10.0
4103.71794844, 4122.17948691, 4106.15384588, 4138.46153826, 4133.46153819, 4137.69230749, 4124.48717921, 4135.38461518, 4131.15384588, 4109.48717921, 4109.23076896, 4100.12820478, 4117.94871767, 4125.51282024,10.0
4106.53846126, 4124.74358947, 4112.94871767, 4141.53846133, 4127.82051255, 4138.46153826, 4126.28205101, 4139.99999980, 4145.12820492, 4125.51282024, 4118.58974332, 4108.84615357, 4124.10256383, 4125.64102537,10.0
4119.10256383, 4130.25640998, 4120.38461511, 4145.12820492, 4129.48717921, 4141.53846133, 4137.82051262, 4144.48717928, 4146.92307672, 4137.30769210, 4131.02564075, 4121.28205101, 4132.30769203, 4124.61538434,10.0
4133.71794844, 4138.33333313, 4131.66666639, 4153.97435877, 4136.15384595, 4153.20512800, 4154.48717928, 4151.79487159, 4151.02564082, 4141.02564082, 4135.89743569, 4134.61538434, 4137.43589723, 4124.74358947,10.0
4133.46153819, 4143.71794851, 4133.07692280, 4160.25641005, 4150.12820492, 4156.79487159, 4153.33333313, 4148.97435877, 4147.56410236, 4129.10256383, 4133.33333306, 4137.56410236, 4137.69230749, 4124.48717921,10.0
4120.64102537, 4139.87179467, 4122.69230742, 4156.66666646, 4147.69230749, 4143.07692287, 4132.17948691, 4131.79487152, 4124.10256383, 4106.79487152, 4126.28205101, 4125.64102537, 4133.20512793, 4127.05128178,10.0
4122.69230742, 4142.94871774, 4127.30769203, 4158.84615364, 4121.92307665, 4134.74358947, 4122.82051255, 4125.38461511, 4122.94871767, 4119.61538434, 4132.69230742, 4124.61538434, 4132.82051255, 4126.79487152,10.0
4130.76923050, 4149.48717928, 4138.84615364, 4167.43589723, 4121.28205101, 4138.84615364, 4126.53846126, 4127.30769203, 4138.58974339, 4143.33333313, 4144.23076903, 4132.43589716, 4136.53846133, 4125.51282024,10.0
4117.56410229, 4139.35897415, 4124.87179460, 4157.30769210, 4131.92307665, 4137.30769210, 4121.41025614, 4122.56410229, 4130.12820485, 4121.53846126, 4130.64102537, 4121.28205101, 4129.87179460, 4126.02564075,10.0
4098.97435863, 4126.66666639, 4106.02564075, 4142.30769210, 4119.87179460, 4133.07692280, 4113.33333306, 4120.64102537, 4125.12820485, 4103.07692280, 4112.82051255, 4105.51282024, 4119.23076896, 4123.46153819,10.0
4098.33333299, 4128.46153819, 4112.17948691, 4149.87179467, 4128.97435870, 4134.74358947, 4114.35897408, 4125.25640998, 4139.74358954, 4125.38461511, 4120.89743562, 4106.41025614, 4120.89743562, 4124.99999973,10.0
4100.76923043, 4128.46153819, 4117.05128178, 4154.87179467, 4147.69230749, 4139.10256390, 4121.79487152, 4125.89743562, 4141.41025621, 4134.61538434, 4128.33333306, 4106.02564075, 4123.97435870, 4126.79487152,10.0
4095.76923043, 4123.58974332, 4107.69230742, 4143.07692287, 4128.07692280, 4141.66666646, 4127.82051255, 4125.76923050, 4134.10256383, 4119.23076896, 4118.84615357, 4098.07692273, 4120.64102537, 4123.97435870,10.0
4095.51282017, 4124.74358947, 4100.64102530, 4140.12820492, 4103.20512793, 4140.12820492, 4127.82051255, 4134.74358947, 4139.35897415, 4118.84615357, 4109.87179460, 4093.97435863, 4119.87179460, 4122.94871767,10.0
4092.69230735, 4121.92307665, 4092.94871761, 4141.02564082, 4107.56410229, 4137.94871774, 4123.58974332, 4135.38461518, 4140.38461518, 4119.87179460, 4105.76923050, 4087.05128171, 4116.79487152, 4125.51282024,10.0
4091.15384581, 4121.92307665, 4090.64102530, 4137.82051262, 4129.10256383, 4139.74358954, 4125.38461511, 4125.76923050, 4132.69230742, 4105.76923050, 4108.33333306, 4089.23076889, 4117.43589716, 4130.25640998,10.0
4105.12820485, 4130.89743562, 4104.87179460, 4143.07692287, 4144.87179467, 4143.20512800, 4126.28205101, 4125.76923050, 4137.05128185, 4110.64102537, 4118.07692280, 4108.33333306, 4128.58974332, 4127.43589716,10.0
4114.10256383, 4132.94871767, 4115.38461511, 4147.05128185, 4128.97435870, 4139.87179467, 4115.64102537, 4125.64102537, 4141.15384595, 4132.30769203, 4122.69230742, 4118.71794844, 4132.56410229, 4121.79487152,10.0
4107.56410229, 4130.38461511, 4110.38461511, 4145.38461518, 4105.89743562, 4131.53846126, 4104.48717921, 4114.61538434, 4128.97435870, 4129.74358947, 4120.64102537, 4115.89743562, 4127.82051255, 4124.48717921,10.0
4108.84615357, 4137.82051262, 4114.48717921, 4152.56410236, 4131.15384588, 4135.64102544, 4111.92307665, 4114.87179460, 4123.84615357, 4118.20512793, 4125.38461511, 4120.38461511, 4132.05128178, 4126.41025614,10.0
4122.43589716, 4153.58974339, 4136.28205108, 4165.51282031, 4171.02564089, 4156.79487159, 4136.15384595, 4136.92307672, 4147.69230749, 4136.41025621, 4136.79487159, 4132.69230742, 4143.58974339, 4124.99999973,10.0
4140.64102544, 4170.12820499, 4156.92307672, 4179.99999986, 4173.71794858, 4179.74358961, 4160.64102544, 4158.46153826, 4179.10256397, 4155.38461518, 4153.97435877, 4151.28205108, 4156.92307672, 4123.58974332,10.0
4166.41025621, 4185.12820499, 4174.61538448, 4194.35897422, 4169.10256397, 4196.92307679, 4184.99999986, 4175.38461525, 4198.58974345, 4158.07692287, 4178.71794858, 4176.92307679, 4178.71794858, 4124.99999973,10.0
4187.43589730, 4200.12820499, 4194.87179474, 4206.53846147, 4184.99999986, 4211.41025634, 4208.46153840, 4191.92307679, 4215.25641019, 4182.94871781, 4201.15384609, 4194.48717935, 4197.56410243, 4127.30769203,10.0
4196.02564089, 4215.89743583, 4207.82051275, 4219.99999993, 4217.94871788, 4220.38461532, 4221.28205122, 4207.05128199, 4242.56410257, 4227.17948711, 4212.17948711, 4199.74358961, 4199.10256397, 4125.25640998,10.0
4205.12820506, 4219.61538455, 4210.51282045, 4229.99999993, 4232.94871788, 4222.17948711, 4221.02564096, 4211.66666660, 4258.71794872, 4240.38461539, 4213.84615378, 4205.25641019, 4196.28205115, 4126.41025614,10.0
4213.46153840, 4212.43589737, 4214.10256404, 4229.10256404, 4228.58974352, 4224.35897429, 4217.56410250, 4200.25641012, 4243.46153847, 4219.99999993, 4214.61538455, 4207.30769224, 4198.71794858, 4128.07692280,10.0
4214.48717942, 4210.51282045, 4213.20512814, 4223.71794865, 4230.12820506, 4219.74358968, 4210.76923070, 4189.48717935, 4228.07692301, 4210.51282045, 4212.82051275, 4204.61538455, 4199.35897422, 4125.64102537,10.0
4210.64102558, 4208.84615378, 4204.74358968, 4219.99999993, 4219.74358968, 4204.87179481, 4198.97435884, 4186.66666653, 4227.30769224, 4214.74358968, 4207.43589737, 4204.10256404, 4193.84615371, 4125.51282024,10.0
4204.74358968, 4198.84615371, 4200.25641012, 4213.71794865, 4201.02564096, 4199.48717935, 4196.92307679, 4182.94871781, 4221.92307686, 4207.69230763, 4201.15384609, 4200.25641012, 4187.17948704, 4126.15384588,10.0
4204.10256404, 4193.33333320, 4202.69230763, 4211.66666660, 4207.05128199, 4202.17948711, 4195.51282038, 4178.97435884, 4214.74358968, 4198.84615371, 4195.25641012, 4195.89743576, 4184.23076910, 4128.07692280,10.0
4207.30769224, 4195.25641012, 4204.87179481, 4215.89743583, 4215.25641019, 4196.41025628, 4180.64102551, 4173.71794858, 4214.48717942, 4199.99999986, 4195.25641012, 4198.33333320, 4186.02564089, 4127.30769203,10.0
4211.15384609, 4195.76923063, 4205.64102558, 4217.56410250, 4203.71794865, 4196.02564089, 4177.69230756, 4173.84615371, 4218.71794865, 4206.53846147, 4202.94871788, 4203.58974352, 4187.56410243, 4122.69230742,10.0
4212.05128199, 4194.61538448, 4199.61538448, 4214.87179481, 4193.84615371, 4197.17948704, 4185.25641012, 4176.92307679, 4218.58974352, 4204.23076917, 4203.46153840, 4201.41025634, 4185.76923063, 4123.84615357,10.0
4200.64102551, 4185.89743576, 4182.69230756, 4208.46153840, 4189.99999986, 4189.48717935, 4181.28205115, 4168.97435884, 4207.30769224, 4189.48717935, 4190.38461525, 4187.94871781, 4180.76923063, 4121.53846126,10.0
4191.28205115, 4178.20512807, 4180.51282038, 4208.97435891, 4200.38461525, 4191.66666653, 4181.28205115, 4166.41025621, 4203.46153840, 4183.84615371, 4185.25641012, 4181.92307679, 4176.92307679, 4121.79487152,10.0
4198.07692294, 4184.61538448, 4192.05128192, 4215.38461532, 4219.99999993, 4196.53846140, 4184.23076910, 4177.94871781, 4216.15384609, 4198.58974345, 4194.35897422, 4190.25641012, 4180.25641012, 4127.69230742,10.0
4204.61538455, 4190.76923063, 4193.46153833, 4215.25641019, 4204.10256404, 4193.46153833, 4177.17948704, 4175.89743576, 4214.48717942, 4204.48717942, 4197.43589730, 4193.97435884, 4183.33333320, 4125.89743562,10.0
4200.76923063, 4186.02564089, 4189.99999986, 4211.92307686, 4191.41025628, 4193.07692294, 4172.43589730, 4161.92307672, 4197.82051269, 4187.56410243, 4190.64102551, 4186.79487166, 4178.07692294, 4122.05128178,10.0
4194.87179474, 4178.58974345, 4189.99999986, 4208.97435891, 4211.53846147, 4193.46153833, 4176.79487166, 4162.43589723, 4198.33333320, 4182.17948704, 4189.23076910, 4182.43589730, 4170.89743576, 4121.28205101,10.0
4196.15384602, 4181.28205115, 4192.05128192, 4210.89743583, 4209.35897429, 4187.69230756, 4174.10256397, 4169.87179474, 4209.74358968, 4196.79487166, 4195.76923063, 4187.17948704, 4172.94871781, 4125.38461511,10.0
4202.43589737, 4189.10256397, 4197.82051269, 4217.17948711, 4193.46153833, 4184.99999986, 4163.33333313, 4165.89743569, 4207.69230763, 4193.71794858, 4203.20512814, 4197.94871781, 4181.28205115, 4127.17948691,10.0
4202.69230763, 4189.87179474, 4202.17948711, 4212.94871788, 4196.79487166, 4183.33333320, 4155.38461518, 4159.23076903, 4197.82051269, 4182.69230756, 4202.69230763, 4201.53846147, 4181.41025628, 4121.92307665,10.0
4201.02564096, 4188.33333320, 4203.84615378, 4205.64102558, 4202.56410250, 4182.43589730, 4163.33333313, 4160.25641005, 4198.33333320, 4191.15384602, 4202.82051275, 4198.84615371, 4182.05128192, 4123.33333306,10.0
4208.97435891, 4188.46153833, 4207.69230763, 4207.94871788, 4203.46153840, 4187.69230756, 4177.56410243, 4168.07692287, 4204.10256404, 4198.33333320, 4213.07692301, 4204.48717942, 4189.10256397, 4126.53846126,10.0
4211.66666660, 4181.28205115, 4203.07692301, 4202.30769224, 4185.38461525, 4183.33333320, 4174.23076910, 4176.53846140, 4202.69230763, 4191.15384602, 4210.12820506, 4205.38461532, 4187.30769217, 4125.38461511,10.0
4200.38461525, 4173.97435884, 4193.46153833, 4192.05128192, 4167.17948697, 4181.02564089, 4174.23076910, 4184.35897422, 4212.17948711, 4194.87179474, 4196.66666653, 4198.46153833, 4181.28205115, 4125.51282024,10.0
4187.94871781, 4169.10256397, 4185.64102551, 4187.82051269, 4180.12820499, 4183.97435884, 4179.61538448, 4177.30769217, 4219.61538455, 4201.53846147, 4189.99999986, 4191.66666653, 4172.56410243, 4124.74358947,10.0
4180.51282038, 4158.33333313, 4170.76923063, 4178.97435884, 4185.25641012, 4169.23076910, 4161.28205108, 4154.35897415, 4197.05128192, 4183.84615371, 4179.10256397, 4179.48717935, 4157.82051262, 4124.74358947,10.0
4174.74358961, 4149.48717928, 4158.33333313, 4166.41025621, 4163.07692287, 4151.15384595, 4146.79487159, 4148.07692287, 4177.43589730, 4161.79487159, 4164.61538441, 4167.56410236, 4154.48717928, 4124.99999973,10.0
4173.84615371, 4150.76923056, 4155.76923056, 4162.17948697, 4166.41025621, 4154.87179467, 4158.71794851, 4158.46153826, 4183.97435884, 4151.41025621, 4161.53846133, 4161.92307672, 4160.76923056, 4125.64102537,10.0
4173.33333320, 4148.84615364, 4153.07692287, 4159.99999980, 4168.20512807, 4157.69230749, 4152.94871774, 4154.87179467, 4186.66666653, 4153.58974339, 4163.84615364, 4156.28205108, 4154.10256390, 4126.02564075,10.0
4166.79487159, 4144.87179467, 4151.79487159, 4156.28205108, 4141.15384595, 4148.20512800, 4135.76923056, 4146.79487159, 4186.28205115, 4167.43589723, 4161.41025621, 4152.69230749, 4144.99999980, 4123.20512793,10.0
4163.97435877, 4150.25641005, 4155.38461518, 4159.23076903, 4140.89743569, 4156.53846133, 4153.07692287, 4152.43589723, 4193.58974345, 4157.56410236, 4158.20512800, 4155.64102544, 4150.76923056, 4126.92307665,10.0
4164.48717928, 4153.33333313, 4153.46153826, 4160.89743569, 4170.38461525, 4167.43589723, 4167.56410236, 4153.07692287, 4191.28205115, 4143.97435877, 4152.56410236, 4157.17948697, 4154.23076903, 4128.84615357,10.0
4168.33333320, 4150.25641005, 4152.56410236, 4159.35897415, 4188.97435884, 4163.71794851, 4155.38461518, 4149.48717928, 4192.17948704, 4163.71794851, 4157.30769210, 4160.51282031, 4150.51282031, 4123.97435870,10.0
4175.25641012, 4150.25641005, 4160.25641005, 4163.33333313, 4186.79487166, 4161.79487159, 4147.94871774, 4149.87179467, 4204.61538455, 4183.84615371, 4174.23076910, 4172.30769217, 4152.05128185, 4127.05128178,10.0
4171.53846140, 4150.12820492, 4160.25641005, 4163.33333313, 4163.07692287, 4160.38461518, 4141.92307672, 4144.10256390, 4198.58974345, 4176.15384602, 4174.48717935, 4173.71794858, 4151.79487159, 4126.66666639,10.0
4166.66666646, 4146.53846133, 4152.56410236, 4159.10256390, 4137.05128185, 4153.71794851, 4131.66666639, 4141.92307672, 4181.28205115, 4159.61538441, 4162.43589723, 4163.33333313, 4147.17948697, 4121.53846126,10.0
4172.30769217, 4145.89743569, 4156.41025621, 4160.12820492, 4149.35897415, 4151.92307672, 4134.10256383, 4149.61538441, 4189.23076910, 4158.07692287, 4162.94871774, 4162.30769210, 4150.64102544, 4122.82051255,10.0
4176.15384602, 4145.12820492, 4162.17948697, 4158.46153826, 4176.28205115, 4156.53846133, 4142.69230749, 4154.61538441, 4202.82051275, 4165.12820492, 4170.38461525, 4162.94871774, 4156.53846133, 4124.35897408,10.0
4171.28205115, 4143.07692287, 4155.51282031, 4151.15384595, 4156.53846133, 4153.33333313, 4142.56410236, 4149.61538441, 4191.79487166, 4165.76923056, 4166.79487159, 4156.02564082, 4154.87179467, 4124.99999973,10.0
4172.43589730, 4146.79487159, 4149.87179467, 4152.05128185, 4144.48717928, 4152.30769210, 4145.38461518, 4148.58974339, 4184.23076910, 4163.58974339, 4160.38461518, 4154.61538441, 4149.87179467, 4123.20512793,10.0
4177.94871781, 4151.41025621, 4152.43589723, 4158.33333313, 4179.23076910, 4164.74358954, 4164.10256390, 4165.25641005, 4200.51282038, 4169.10256397, 4167.05128185, 4160.76923056, 4149.87179467, 4123.33333306,10.0
4175.89743576, 4152.94871774, 4153.97435877, 4156.92307672, 4176.41025628, 4169.74358961, 4170.38461525, 4170.51282038, 4207.05128199, 4169.10256397, 4174.10256397, 4162.05128185, 4152.56410236, 4125.12820485,10.0
4168.97435884, 4152.17948697, 4151.28205108, 4147.82051262, 4137.17948697, 4157.43589723, 4149.87179467, 4147.17948697, 4185.25641012, 4159.35897415, 4165.76923056, 4154.99999980, 4149.35897415, 4123.20512793,10.0
4170.64102551, 4151.15384595, 4155.64102544, 4147.17948697, 4156.02564082, 4152.30769210, 4139.87179467, 4136.15384595, 4168.71794858, 4160.12820492, 4158.33333313, 4156.53846133, 4145.89743569, 4125.51282024,10.0
4179.74358961, 4152.94871774, 4162.56410236, 4150.38461518, 4175.76923063, 4157.17948697, 4148.07692287, 4146.02564082, 4169.10256397, 4160.51282031, 4163.84615364, 4164.74358954, 4144.87179467, 4125.12820485,10.0
4182.69230756, 4155.89743569, 4163.07692287, 4150.76923056, 4147.17948697, 4155.38461518, 4143.33333313, 4144.10256390, 4170.64102551, 4147.82051262, 4165.51282031, 4165.12820492, 4146.15384595, 4123.71794844,10.0
4180.64102551, 4154.61538441, 4160.89743569, 4154.74358954, 4143.84615364, 4151.41025621, 4132.69230742, 4137.56410236, 4173.07692294, 4140.51282031, 4162.17948697, 4163.07692287, 4151.79487159, 4124.99999973,10.0
4177.30769217, 4146.15384595, 4154.10256390, 4148.58974339, 4152.43589723, 4143.97435877, 4129.48717921, 4135.25640998, 4167.05128185, 4141.66666646, 4158.84615364, 4160.25641005, 4149.10256390, 4124.23076896,10.0
