AF3,F7,F3,FC5,T7,P7,O1,O2,P8,T8,FC6,F4,F8,AF4,Label
4150.51282031, 4151.66666646, 4152.56410236, 4167.82051262, 4144.10256390, 4141.53846133, 4148.71794851, 4132.82051255, 4149.48717928, 4159.74358954, 4156.02564082, 4152.56410236, 4180.38461525, 4127.82051255,12.0
4115.38461511, 4123.20512793, 4121.15384588, 4140.25641005, 4128.46153819, 4122.94871767, 4112.82051255, 4096.41025607, 4113.58974332, 4127.17948691, 4127.69230742, 4125.64102537, 4154.87179467, 4125.51282024,12.0
4128.84615357, 4131.15384588, 4133.84615357, 4148.07692287, 4131.79487152, 4128.71794844, 4121.15384588, 4107.43589716, 4119.99999973, 4132.56410229, 4134.74358947, 4144.48717928, 4162.94871774, 4132.30769203,12.0
4150.76923056, 4151.15384595, 4160.89743569, 4168.33333320, 4148.20512800, 4135.89743569, 4137.56410236, 4125.25640998, 4139.23076903, 4153.97435877, 4162.56410236, 4172.17948704, 4183.46153833, 4131.53846126,12.0
4143.97435877, 4146.66666646, 4162.17948697, 4164.74358954, 4146.79487159, 4131.02564075, 4132.05128178, 4117.17948691, 4129.87179460, 4151.53846133, 4167.94871774, 4172.30769217, 4184.35897422, 4130.76923050,12.0
4126.53846126, 4127.05128178, 4142.56410236, 4145.51282031, 4120.64102537, 4120.38461511, 4126.41025614, 4116.02564075, 4123.20512793, 4135.89743569, 4150.38461518, 4160.38461518, 4171.41025628, 4128.71794844,12.0
4124.61538434, 4123.20512793, 4130.64102537, 4139.48717928, 4115.51282024, 4114.23076896, 4123.71794844, 4116.28205101, 4118.97435870, 4122.17948691, 4133.46153819, 4152.43589723, 4159.74358954, 4131.79487152,12.0
4134.10256383, 4134.35897408, 4139.35897415, 4151.53846133, 4137.43589723, 4117.56410229, 4115.76923050, 4099.99999966, 4100.25640991, 4114.61538434, 4132.82051255, 4150.12820492, 4161.79487159, 4133.46153819,12.0
4135.38461518, 4137.30769210, 4144.48717928, 4157.69230749, 4140.38461518, 4123.71794844, 4113.07692280, 4100.12820478, 4104.48717921, 4117.05128178, 4137.69230749, 4144.48717928, 4167.94871774, 4126.02564075,12.0
4131.41025614, 4128.71794844, 4132.17948691, 4147.82051262, 4124.87179460, 4121.28205101, 4113.33333306, 4117.69230742, 4121.15384588, 4119.48717921, 4130.51282024, 4134.48717921, 4163.33333313, 4127.82051255,12.0
4128.84615357, 4126.28205101, 4126.02564075, 4144.35897415, 4122.94871767, 4110.51282024, 4105.76923050, 4108.97435870, 4104.10256383, 4116.92307665, 4127.05128178, 4137.05128185, 4154.61538441, 4130.64102537,12.0
4126.41025614, 4126.53846126, 4128.20512793, 4147.30769210, 4120.64102537, 4108.71794844, 4100.25640991, 4085.51282017, 4081.92307658, 4113.71794844, 4131.15384588, 4139.74358954, 4150.64102544, 4129.48717921,12.0
4119.48717921, 4120.76923050, 4120.25640998, 4139.74358954, 4111.15384588, 4114.35897408, 4107.82051255, 4091.66666632, 4094.35897402, 4113.84615357, 4124.23076896, 4127.56410229, 4154.35897415, 4130.12820485,12.0
4113.84615357, 4121.79487152, 4113.33333306, 4138.07692287, 4121.41025614, 4117.30769203, 4114.35897408, 4106.28205101, 4108.97435870, 4119.61538434, 4119.61538434, 4121.28205101, 4160.12820492, 4125.12820485,12.0
4116.53846126, 4127.43589716, 4116.79487152, 4142.82051262, 4128.46153819, 4110.25640998, 4108.33333306, 4101.66666632, 4094.87179453, 4119.35897408, 4124.10256383, 4128.07692280, 4156.02564082, 4129.74358947,12.0
4105.38461511, 4112.82051255, 4106.02564075, 4126.41025614, 4104.74358947, 4094.10256376, 4096.92307658, 4087.82051248, 4075.12820478, 4104.48717921, 4111.28205101, 4122.17948691, 4141.41025621, 4132.05128178,12.0
4104.10256383, 4105.12820485, 4104.48717921, 4122.30769203, 4099.61538427, 4101.41025607, 4107.17948691, 4095.12820478, 4085.51282017, 4108.58974332, 4110.51282024, 4122.05128178, 4147.05128185, 4124.87179460,12.0
4138.71794851, 4137.94871774, 4141.92307672, 4156.15384595, 4136.92307672, 4130.38461511, 4133.58974332, 4128.07692280, 4124.23076896, 4141.66666646, 4150.38461518, 4154.23076903, 4178.33333320, 4128.84615357,12.0
4143.20512800, 4145.51282031, 4150.12820492, 4159.87179467, 4139.87179467, 4128.20512793, 4125.64102537, 4129.61538434, 4128.46153819, 4142.69230749, 4157.30769210, 4160.12820492, 4175.89743576, 4128.71794844,12.0
4112.82051255, 4114.35897408, 4119.87179460, 4133.33333306, 4105.64102537, 4109.61538434, 4106.66666639, 4104.23076896, 4102.30769196, 4112.43589716, 4119.61538434, 4131.66666639, 4149.23076903, 4126.15384588,12.0
4120.12820485, 4121.66666639, 4130.25640998, 4141.41025621, 4117.43589716, 4125.89743562, 4125.12820485, 4105.38461511, 4108.33333306, 4119.23076896, 4125.89743562, 4141.02564082, 4159.74358954, 4129.35897408,12.0
4140.25641005, 4145.76923056, 4154.87179467, 4158.33333313, 4144.10256390, 4135.25640998, 4132.69230742, 4117.05128178, 4121.53846126, 4138.07692287, 4152.43589723, 4160.38461518, 4172.94871781, 4130.12820485,12.0
4122.82051255, 4128.84615357, 4132.82051255, 4144.10256390, 4127.56410229, 4107.17948691, 4103.20512793, 4106.28205101, 4104.61538434, 4119.10256383, 4135.25640998, 4139.48717928, 4153.71794851, 4129.99999973,12.0
4113.07692280, 4117.17948691, 4118.84615357, 4136.53846133, 4120.64102537, 4104.99999973, 4103.58974332, 4102.30769196, 4096.15384581, 4111.53846126, 4124.48717921, 4129.48717921, 4149.99999980, 4125.51282024,12.0
4127.56410229, 4133.07692280, 4133.07692280, 4143.33333313, 4135.51282031, 4125.38461511, 4121.41025614, 4109.74358947, 4101.28205094, 4128.84615357, 4138.84615364, 4141.79487159, 4165.38461518, 4128.71794844,12.0
4133.33333306, 4134.48717921, 4131.41025614, 4142.17948697, 4129.87179460, 4118.71794844, 4112.17948691, 4105.76923050, 4101.92307658, 4133.07692280, 4139.99999980, 4138.84615364, 4168.58974345, 4133.46153819,12.0
4135.12820485, 4129.74358947, 4132.69230742, 4146.41025621, 4127.30769203, 4110.76923050, 4114.48717921, 4109.10256383, 4110.89743562, 4134.99999973, 4141.41025621, 4142.43589723, 4170.76923063, 4127.69230742,12.0
4139.35897415, 4137.94871774, 4148.07692287, 4154.48717928, 4139.99999980, 4118.46153819, 4129.61538434, 4117.69230742, 4120.12820485, 4143.71794851, 4152.05128185, 4155.64102544, 4174.23076910, 4127.43589716,12.0
4131.92307665, 4133.46153819, 4141.41025621, 4146.41025621, 4126.41025614, 4109.99999973, 4115.89743562, 4113.46153819, 4117.82051255, 4139.35897415, 4145.76923056, 4146.02564082, 4163.58974339, 4128.71794844,12.0
4116.66666639, 4114.99999973, 4115.64102537, 4126.15384588, 4101.79487145, 4093.71794837, 4097.17948684, 4103.97435870, 4111.41025614, 4119.74358947, 4121.79487152, 4121.41025614, 4149.48717928, 4128.97435870,12.0
4114.61538434, 4115.76923050, 4108.20512793, 4119.99999973, 4111.41025614, 4100.76923043, 4106.66666639, 4102.17948684, 4107.17948691, 4111.41025614, 4113.07692280, 4113.33333306, 4148.33333313, 4129.10256383,12.0
4129.10256383, 4135.64102544, 4125.25640998, 4137.43589723, 4136.66666646, 4117.69230742, 4123.97435870, 4113.97435870, 4118.07692280, 4128.84615357, 4135.51282031, 4134.48717921, 4162.56410236, 4125.12820485,12.0
4124.99999973, 4128.46153819, 4123.20512793, 4133.07692280, 4126.02564075, 4114.74358947, 4120.51282024, 4116.66666639, 4122.43589716, 4131.53846126, 4139.48717928, 4140.38461518, 4161.92307672, 4128.97435870,12.0
4094.74358940, 4098.20512786, 4091.53846119, 4095.12820478, 4096.41025607, 4096.02564068, 4097.05128171, 4093.71794837, 4092.30769196, 4096.92307658, 4100.51282017, 4103.97435870, 4132.82051255, 4131.02564075,12.0
4092.30769196, 4097.30769196, 4081.66666632, 4086.79487145, 4096.66666632, 4096.15384581, 4095.25640991, 4081.02564068, 4076.53846119, 4078.20512786, 4080.76923043, 4086.66666632, 4119.23076896, 4127.82051255,12.0
4118.71794844, 4119.35897408, 4107.17948691, 4112.82051255, 4116.15384588, 4112.56410229, 4120.64102537, 4102.30769196, 4103.71794844, 4099.87179453, 4102.30769196, 4111.41025614, 4136.79487159, 4129.61538434,12.0
4126.02564075, 4126.53846126, 4123.84615357, 4122.43589716, 4128.84615357, 4114.74358947, 4123.97435870, 4114.35897408, 4116.79487152, 4119.48717921, 4119.61538434, 4128.33333306, 4149.99999980, 4128.97435870,12.0
4114.48717921, 4120.38461511, 4110.25640998, 4113.71794844, 4129.10256383, 4106.28205101, 4099.87179453, 4094.61538427, 4096.15384581, 4111.41025614, 4111.53846126, 4118.58974332, 4142.82051262, 4129.99999973,12.0
4097.17948684, 4108.84615357, 4086.79487145, 4101.28205094, 4116.41025614, 4097.17948684, 4087.30769196, 4082.56410222, 4083.71794837, 4090.64102530, 4088.84615350, 4097.82051248, 4123.97435870, 4129.87179460,12.0
4098.97435863, 4111.53846126, 4092.17948684, 4105.51282024, 4115.76923050, 4098.97435863, 4105.51282024, 4104.23076896, 4104.74358947, 4093.46153812, 4090.12820478, 4101.66666632, 4126.28205101, 4126.66666639,12.0
4127.82051255, 4132.82051255, 4122.17948691, 4128.97435870, 4126.92307665, 4113.71794844, 4124.99999973, 4120.64102537, 4124.48717921, 4120.64102537, 4121.79487152, 4134.23076896, 4152.69230749, 4128.58974332,12.0
4124.87179460, 4128.20512793, 4119.23076896, 4123.71794844, 4115.25640998, 4105.12820485, 4105.38461511, 4098.71794837, 4111.53846126, 4123.84615357, 4122.43589716, 4132.30769203, 4151.92307672, 4127.17948691,12.0
4098.46153812, 4107.94871767, 4100.76923043, 4100.25640991, 4104.87179460, 4089.87179453, 4084.87179453, 4091.15384581, 4108.20512793, 4112.30769203, 4103.20512793, 4108.84615357, 4136.28205108, 4126.79487152,12.0
4108.46153819, 4116.79487152, 4114.99999973, 4109.99999973, 4121.66666639, 4103.46153819, 4102.43589709, 4112.05128178, 4131.15384588, 4123.97435870, 4121.53846126, 4125.12820485, 4152.17948697, 4128.33333306,12.0
4128.71794844, 4134.87179460, 4134.23076896, 4129.87179460, 4130.89743562, 4113.46153819, 4116.53846126, 4109.87179460, 4133.07692280, 4138.71794851, 4144.61538441, 4147.17948697, 4168.20512807, 4129.10256383,12.0
4129.48717921, 4136.02564082, 4134.87179460, 4131.15384588, 4125.64102537, 4104.48717921, 4108.46153819, 4097.69230735, 4118.20512793, 4133.84615357, 4135.38461518, 4141.66666646, 4159.10256390, 4130.89743562,12.0
4120.51282024, 4126.28205101, 4124.35897408, 4123.07692280, 4119.48717921, 4099.10256376, 4102.05128171, 4099.61538427, 4115.89743562, 4121.15384588, 4121.66666639, 4132.56410229, 4148.71794851, 4123.07692280,12.0
4108.58974332, 4117.56410229, 4113.07692280, 4112.30769203, 4111.02564075, 4094.61538427, 4098.84615350, 4100.89743555, 4112.82051255, 4114.35897408, 4119.23076896, 4124.74358947, 4146.41025621, 4125.64102537,12.0
4109.87179460, 4118.33333306, 4116.79487152, 4108.20512793, 4110.12820485, 4097.56410222, 4102.82051255, 4101.53846119, 4108.58974332, 4113.58974332, 4115.89743562, 4119.61538434, 4146.15384595, 4134.10256383,12.0
4124.99999973, 4127.69230742, 4130.64102537, 4115.76923050, 4120.51282024, 4110.12820485, 4114.87179460, 4108.58974332, 4116.53846126, 4117.05128178, 4117.30769203, 4129.35897408, 4151.28205108, 4126.02564075,12.0
4136.53846133, 4133.97435870, 4135.76923056, 4120.51282024, 4125.25640998, 4112.30769203, 4116.66666639, 4114.35897408, 4124.10256383, 4121.92307665, 4130.89743562, 4144.99999980, 4160.51282031, 4125.76923050,12.0
4141.66666646, 4135.76923056, 4138.84615364, 4118.84615357, 4126.66666639, 4116.66666639, 4123.20512793, 4116.66666639, 4129.99999973, 4130.25640998, 4147.56410236, 4152.82051262, 4167.05128185, 4129.74358947,12.0
4138.46153826, 4131.41025614, 4136.28205108, 4107.69230742, 4122.69230742, 4121.53846126, 4131.92307665, 4118.58974332, 4133.84615357, 4129.23076896, 4148.71794851, 4146.79487159, 4164.99999980, 4128.84615357,12.0
4124.61538434, 4117.56410229, 4117.30769203, 4086.92307658, 4113.20512793, 4107.30769203, 4119.48717921, 4116.79487152, 4132.56410229, 4119.61538434, 4142.56410236, 4133.20512793, 4159.74358954, 4128.58974332,12.0
4112.94871767, 4101.41025607, 4101.79487145, 4069.61538420, 4101.53846119, 4095.51282017, 4107.05128178, 4109.35897408, 4128.07692280, 4117.82051255, 4148.97435877, 4123.97435870, 4156.92307672, 4123.84615357,12.0
4117.43589716, 4099.99999966, 4101.66666632, 4067.17948677, 4090.76923043, 4104.10256383, 4120.64102537, 4112.17948691, 4130.89743562, 4128.97435870, 4155.76923056, 4122.43589716, 4163.46153826, 4127.17948691,12.0
4118.97435870, 4108.71794844, 4099.61538427, 4067.17948677, 4097.05128171, 4106.28205101, 4130.64102537, 4121.15384588, 4135.38461518, 4143.20512800, 4149.48717928, 4120.38461511, 4168.84615371, 4129.74358947,12.0
4104.99999973, 4102.94871767, 4082.56410222, 4051.92307651, 4106.41025614, 4092.05128171, 4105.76923050, 4108.20512793, 4122.43589716, 4134.35897408, 4132.56410229, 4106.66666639, 4154.35897415, 4125.64102537,12.0
4093.33333299, 4091.53846119, 4066.41025600, 4040.89743548, 4092.94871761, 4089.10256376, 4085.51282017, 4088.84615350, 4107.30769203, 4109.10256383, 4122.30769203, 4090.38461504, 4141.28205108, 4126.79487152,12.0
4094.35897402, 4096.02564068, 4068.97435856, 4053.07692266, 4079.99999966, 4099.10256376, 4093.97435863, 4089.35897402, 4112.05128178, 4106.79487152, 4125.38461511, 4092.30769196, 4147.05128185, 4127.56410229,12.0
4101.66666632, 4106.15384588, 4082.56410222, 4069.74358940, 4089.87179453, 4099.99999966, 4098.46153812, 4099.35897402, 4123.84615357, 4125.12820485, 4130.25640998, 4103.84615357, 4154.48717928, 4130.38461511,12.0
4101.41025607, 4107.30769203, 4086.79487145, 4071.92307658, 4099.35897402, 4094.35897402, 4094.35897402, 4106.92307665, 4129.35897408, 4132.30769203, 4134.74358947, 4105.12820485, 4154.87179467, 4128.20512793,12.0
4098.97435863, 4111.79487152, 4085.89743555, 4074.35897402, 4102.17948684, 4098.58974325, 4105.38461511, 4110.51282024, 4130.89743562, 4130.89743562, 4143.20512800, 4104.87179460, 4158.58974339, 4123.84615357,12.0
4110.25640998, 4123.07692280, 4095.25640991, 4085.51282017, 4110.38461511, 4104.87179460, 4117.69230742, 4114.48717921, 4129.35897408, 4139.10256390, 4152.30769210, 4116.92307665, 4164.87179467, 4129.61538434,12.0
4108.33333306, 4115.64102537, 4092.30769196, 4078.07692273, 4102.05128171, 4096.28205094, 4105.12820485, 4116.92307665, 4124.74358947, 4136.66666646, 4141.53846133, 4114.74358947, 4157.05128185, 4126.66666639,12.0
4091.15384581, 4105.25640998, 4075.51282017, 4066.53846113, 4092.69230735, 4092.43589709, 4101.02564068, 4110.51282024, 4119.10256383, 4122.82051255, 4122.43589716, 4098.84615350, 4149.35897415, 4124.23076896,12.0
4105.38461511, 4126.02564075, 4089.48717914, 4083.97435863, 4108.33333306, 4111.79487152, 4130.51282024, 4112.56410229, 4128.07692280, 4136.79487159, 4136.92307672, 4113.84615357, 4167.56410236, 4128.97435870,12.0
4116.15384588, 4129.99999973, 4101.15384581, 4086.92307658, 4105.76923050, 4116.79487152, 4130.89743562, 4116.28205101, 4136.02564082, 4147.56410236, 4146.41025621, 4128.84615357, 4171.41025628, 4128.07692280,12.0
4081.15384581, 4090.25640991, 4065.25640984, 4052.94871754, 4073.71794837, 4087.94871761, 4081.53846119, 4095.25640991, 4110.25640998, 4112.43589716, 4106.53846126, 4093.84615350, 4135.76923056, 4126.53846126,12.0
4061.79487138, 4074.74358940, 4047.43589702, 4043.97435856, 4072.17948684, 4072.94871761, 4065.64102523, 4082.69230735, 4095.12820478, 4094.35897402, 4087.05128171, 4068.58974318, 4123.58974332, 4127.82051255,12.0
4083.33333299, 4093.46153812, 4072.17948684, 4063.97435856, 4087.05128171, 4088.07692273, 4094.48717914, 4099.35897402, 4115.64102537, 4117.82051255, 4110.76923050, 4088.58974325, 4145.64102544, 4133.07692280,12.0
4090.25640991, 4091.15384581, 4076.15384581, 4061.28205087, 4073.84615350, 4093.46153812, 4096.53846119, 4101.79487145, 4119.48717921, 4115.12820485, 4109.23076896, 4094.23076889, 4139.99999980, 4131.79487152,12.0
4084.35897402, 4079.99999966, 4069.48717907, 4054.74358933, 4071.15384581, 4084.99999966, 4087.43589709, 4097.05128171, 4111.79487152, 4097.17948684, 4098.97435863, 4090.25640991, 4126.15384588, 4123.58974332,12.0
4106.02564075, 4101.15384581, 4093.07692273, 4075.38461504, 4096.15384581, 4092.30769196, 4108.20512793, 4112.94871767, 4123.97435870, 4113.84615357, 4123.46153819, 4114.99999973, 4145.51282031, 4124.48717921,12.0
4121.02564075, 4119.10256383, 4105.38461511, 4084.99999966, 4103.46153819, 4102.82051255, 4119.48717921, 4120.25640998, 4133.84615357, 4124.35897408, 4128.97435870, 4124.74358947, 4153.07692287, 4125.51282024,12.0
4107.56410229, 4112.43589716, 4088.46153812, 4073.20512786, 4098.84615350, 4103.20512793, 4118.71794844, 4121.41025614, 4136.41025621, 4111.15384588, 4102.69230742, 4103.71794844, 4135.38461518, 4127.30769203,12.0
4100.12820478, 4113.58974332, 4084.99999966, 4079.23076889, 4102.69230742, 4094.35897402, 4115.76923050, 4116.66666639, 4129.61538434, 4108.58974332, 4100.12820478, 4096.41025607, 4134.61538434, 4128.58974332,12.0
4091.53846119, 4112.17948691, 4082.30769196, 4085.51282017, 4091.28205094, 4075.38461504, 4088.97435863, 4087.69230735, 4101.79487145, 4105.89743562, 4105.12820485, 4094.48717914, 4133.97435870, 4122.56410229,12.0
4068.71794830, 4089.74358940, 4052.30769189, 4063.71794830, 4072.05128171, 4063.71794830, 4070.12820478, 4072.30769196, 4086.15384581, 4084.99999966, 4074.10256376, 4067.94871754, 4108.46153819, 4126.02564075,12.0
4052.56410215, 4075.76923043, 4026.66666618, 4045.76923036, 4068.46153805, 4066.79487138, 4079.35897402, 4082.69230735, 4092.17948684, 4069.61538420, 4046.79487138, 4041.53846113, 4090.76923043, 4127.05128178,12.0
4053.58974318, 4082.94871761, 4030.89743541, 4053.07692266, 4072.69230735, 4072.43589709, 4082.17948684, 4084.74358940, 4095.25640991, 4076.28205094, 4062.94871754, 4045.89743548, 4104.10256383, 4122.17948691,12.0
4062.82051241, 4088.46153812, 4041.28205087, 4065.76923036, 4073.97435863, 4075.25640991, 4081.02564068, 4082.30769196, 4095.51282017, 4084.35897402, 4078.46153812, 4060.51282010, 4118.20512793, 4126.53846126,12.0
4067.94871754, 4089.48717914, 4043.84615343, 4067.17948677, 4073.97435863, 4075.76923043, 4089.48717914, 4094.87179453, 4103.46153819, 4085.38461504, 4070.64102530, 4062.56410215, 4116.15384588, 4125.76923050,12.0
4072.17948684, 4092.82051248, 4052.43589702, 4067.17948677, 4075.25640991, 4076.53846119, 4092.43589709, 4106.41025614, 4110.64102537, 4092.56410222, 4073.58974325, 4068.20512779, 4116.28205101, 4124.23076896,12.0
4073.71794837, 4091.66666632, 4056.02564061, 4069.10256369, 4077.69230735, 4079.48717914, 4093.46153812, 4101.15384581, 4099.61538427, 4095.89743555, 4076.41025607, 4074.48717914, 4116.41025614, 4123.71794844,12.0
4069.35897395, 4090.38461504, 4049.74358933, 4067.30769189, 4079.99999966, 4085.12820478, 4103.07692280, 4096.79487145, 4085.12820478, 4086.53846119, 4068.33333292, 4068.71794830, 4113.58974332, 4126.41025614,12.0
4078.97435863, 4101.79487145, 4062.17948677, 4076.15384581, 4086.15384581, 4091.28205094, 4112.82051255, 4116.28205101, 4103.58974332, 4090.76923043, 4079.99999966, 4078.20512786, 4126.15384588, 4133.71794844,12.0
4089.10256376, 4113.07692280, 4079.23076889, 4089.10256376, 4094.48717914, 4092.05128171, 4104.87179460, 4123.20512793, 4126.66666639, 4106.79487152, 4091.53846119, 4091.92307658, 4138.58974339, 4127.56410229,12.0
4071.15384581, 4100.51282017, 4059.48717907, 4077.69230735, 4079.99999966, 4081.79487145, 4083.97435863, 4089.48717914, 4100.76923043, 4092.69230735, 4064.35897395, 4071.28205094, 4119.48717921, 4123.84615357,12.0
4049.10256369, 4084.74358940, 4031.02564054, 4059.74358933, 4060.51282010, 4073.97435863, 4074.48717914, 4066.02564061, 4069.48717907, 4066.02564061, 4037.94871754, 4044.61538420, 4096.66666632, 4128.71794844,12.0
4055.51282010, 4093.71794837, 4039.10256369, 4066.92307651, 4074.87179453, 4079.87179453, 4082.43589709, 4083.20512786, 4087.43589709, 4074.74358940, 4054.10256369, 4054.87179446, 4106.53846126, 4129.61538434,12.0
4076.92307658, 4113.97435870, 4063.71794830, 4085.89743555, 4099.10256376, 4091.53846119, 4091.41025607, 4102.56410229, 4112.94871767, 4101.02564068, 4078.07692273, 4077.94871761, 4126.02564075, 4129.35897408,12.0
4086.79487145, 4123.33333306, 4076.92307658, 4094.10256376, 4103.97435870, 4098.07692273, 4096.53846119, 4099.61538427, 4114.87179460, 4109.23076896, 4085.12820478, 4086.28205094, 4130.64102537, 4125.25640998,12.0
4089.99999966, 4126.79487152, 4084.74358940, 4096.79487145, 4104.74358947, 4100.12820478, 4100.38461504, 4098.58974325, 4119.10256383, 4112.05128178, 4093.84615350, 4093.33333299, 4134.87179460, 4128.97435870,12.0
4095.12820478, 4131.79487152, 4089.99999966, 4103.07692280, 4110.25640998, 4104.10256383, 4104.35897408, 4104.48717921, 4126.15384588, 4118.71794844, 4099.35897402, 4097.69230735, 4137.82051262, 4133.07692280,12.0
4102.43589709, 4135.12820485, 4091.79487145, 4107.69230742, 4117.43589716, 4111.53846126, 4113.33333306, 4102.69230742, 4121.15384588, 4117.43589716, 4098.20512786, 4101.92307658, 4137.30769210, 4125.38461511,12.0
4117.17948691, 4144.48717928, 4101.92307658, 4114.23076896, 4128.58974332, 4113.07692280, 4116.15384588, 4105.51282024, 4124.10256383, 4120.25640998, 4107.05128178, 4116.53846126, 4147.69230749, 4128.46153819,12.0
4118.97435870, 4144.99999980, 4103.84615357, 4113.97435870, 4129.10256383, 4109.61538434, 4110.38461511, 4116.79487152, 4134.74358947, 4127.17948691, 4105.89743562, 4119.35897408, 4149.87179467, 4130.64102537,12.0
4103.33333306, 4127.94871767, 4090.25640991, 4101.02564068, 4119.87179460, 4110.25640998, 4110.38461511, 4119.87179460, 4133.58974332, 4124.23076896, 4087.17948684, 4107.43589716, 4136.53846133, 4124.99999973,12.0
4097.56410222, 4120.25640998, 4084.23076889, 4102.17948684, 4109.35897408, 4106.79487152, 4107.69230742, 4107.30769203, 4126.66666639, 4113.97435870, 4077.56410222, 4097.94871761, 4130.64102537, 4127.69230742,12.0
4098.97435863, 4122.82051255, 4085.51282017, 4109.35897408, 4106.41025614, 4097.69230735, 4101.53846119, 4097.17948684, 4120.64102537, 4106.02564075, 4076.41025607, 4088.71794837, 4127.69230742, 4128.33333306,12.0
4092.30769196, 4113.07692280, 4075.89743555, 4098.58974325, 4108.46153819, 4092.30769196, 4092.69230735, 4092.94871761, 4107.05128178, 4097.82051248, 4065.25640984, 4076.79487145, 4117.43589716, 4129.23076896,12.0
4088.71794837, 4105.51282024, 4072.82051248, 4095.51282017, 4106.28205101, 4089.87179453, 4081.79487145, 4087.43589709, 4101.79487145, 4094.35897402, 4060.76923036, 4078.97435863, 4115.89743562, 4128.46153819,12.0
4090.25640991, 4111.41025614, 4087.05128171, 4106.66666639, 4106.02564075, 4089.74358940, 4086.02564068, 4093.97435863, 4113.33333306, 4102.43589709, 4074.10256376, 4091.41025607, 4122.43589716, 4125.89743562,12.0
4089.10256376, 4111.02564075, 4090.76923043, 4108.58974332, 4102.43589709, 4093.84615350, 4098.58974325, 4099.23076889, 4109.99999973, 4097.56410222, 4072.69230735, 4088.97435863, 4115.64102537, 4130.25640998,12.0
4092.94871761, 4111.02564075, 4088.58974325, 4108.71794844, 4100.51282017, 4096.41025607, 4105.12820485, 4093.46153812, 4099.10256376, 4089.61538427, 4063.20512779, 4083.97435863, 4110.51282024, 4129.35897408,12.0
4105.38461511, 4119.35897408, 4098.46153812, 4114.35897408, 4110.51282024, 4102.05128171, 4118.84615357, 4108.58974332, 4115.76923050, 4104.61538434, 4074.35897402, 4092.30769196, 4120.89743562, 4128.84615357,12.0
4114.74358947, 4122.43589716, 4111.02564075, 4118.97435870, 4114.61538434, 4103.46153819, 4121.02564075, 4121.92307665, 4129.35897408, 4119.87179460, 4092.56410222, 4107.17948691, 4126.92307665, 4128.20512793,12.0
4106.28205101, 4114.10256383, 4112.56410229, 4115.38461511, 4103.20512793, 4095.25640991, 4102.94871767, 4099.10256376, 4110.25640998, 4112.05128178, 4095.64102530, 4113.07692280, 4126.02564075, 4123.33333306,12.0
4096.15384581, 4105.89743562, 4104.87179460, 4110.51282024, 4094.48717914, 4091.79487145, 4096.79487145, 4083.84615350, 4091.92307658, 4097.17948684, 4083.20512786, 4104.23076896, 4124.74358947, 4130.76923050,12.0
4095.76923043, 4105.12820485, 4098.20512786, 4110.76923050, 4094.87179453, 4089.87179453, 4090.12820478, 4089.48717914, 4090.12820478, 4093.71794837, 4074.99999966, 4095.89743555, 4123.58974332, 4129.23076896,12.0
4087.94871761, 4102.56410229, 4090.25640991, 4108.20512793, 4086.41025607, 4082.69230735, 4075.12820478, 4083.33333299, 4085.51282017, 4092.94871761, 4068.46153805, 4090.76923043, 4121.02564075, 4121.66666639,12.0
4091.28205094, 4108.71794844, 4093.84615350, 4114.48717921, 4093.46153812, 4089.35897402, 4088.58974325, 4083.33333299, 4088.33333299, 4094.23076889, 4066.41025600, 4091.53846119, 4117.94871767, 4131.02564075,12.0
4104.35897408, 4118.07692280, 4103.97435870, 4125.89743562, 4113.07692280, 4098.58974325, 4104.48717921, 4099.10256376, 4102.17948684, 4096.92307658, 4077.69230735, 4099.61538427, 4117.30769203, 4132.82051255,12.0
4110.76923050, 4122.05128178, 4109.74358947, 4134.61538434, 4111.79487152, 4096.02564068, 4099.48717914, 4101.92307658, 4106.15384588, 4101.66666632, 4089.61538427, 4106.15384588, 4124.35897408, 4127.82051255,12.0
4115.64102537, 4127.94871767, 4112.17948691, 4141.53846133, 4110.38461511, 4102.56410229, 4110.64102537, 4098.07692273, 4107.05128178, 4107.82051255, 4088.33333299, 4108.97435870, 4130.64102537, 4127.30769203,12.0
4115.89743562, 4126.79487152, 4109.74358947, 4137.30769210, 4121.02564075, 4104.99999973, 4119.61538434, 4103.33333306, 4113.07692280, 4103.20512793, 4080.12820478, 4106.92307665, 4123.84615357, 4128.33333306,12.0
4118.84615357, 4127.82051255, 4116.66666639, 4141.53846133, 4125.76923050, 4094.10256376, 4105.64102537, 4107.43589716, 4113.07692280, 4102.69230742, 4085.64102530, 4108.71794844, 4122.17948691, 4129.48717921,12.0
4116.66666639, 4129.74358947, 4123.46153819, 4146.02564082, 4114.74358947, 4093.33333299, 4100.64102530, 4103.46153819, 4107.56410229, 4110.12820485, 4088.71794837, 4107.69230742, 4126.41025614, 4126.15384588,12.0
4097.69230735, 4114.35897408, 4108.33333306, 4131.53846126, 4096.92307658, 4093.84615350, 4098.71794837, 4093.71794837, 4092.82051248, 4100.51282017, 4069.99999966, 4092.82051248, 4114.10256383, 4128.58974332,12.0
4078.07692273, 4093.33333299, 4087.69230735, 4115.76923050, 4082.82051248, 4079.35897402, 4076.28205094, 4082.30769196, 4077.82051248, 4078.97435863, 4049.61538420, 4075.89743555, 4097.43589709, 4130.76923050,12.0
4082.05128171, 4094.10256376, 4090.25640991, 4118.58974332, 4082.30769196, 4071.53846119, 4062.17948677, 4078.46153812, 4083.07692273, 4080.25640991, 4052.56410215, 4077.82051248, 4101.92307658, 4127.05128178,12.0
4102.43589709, 4112.56410229, 4106.28205101, 4134.35897408, 4093.33333299, 4079.61538427, 4077.82051248, 4084.87179453, 4094.35897402, 4093.33333299, 4064.35897395, 4090.38461504, 4113.07692280, 4129.35897408,12.0
4100.12820478, 4115.25640998, 4105.76923050, 4136.66666646, 4091.92307658, 4081.15384581, 4084.48717914, 4082.94871761, 4085.51282017, 4085.51282017, 4058.71794830, 4087.30769196, 4105.89743562, 4131.66666639,12.0
4091.53846119, 4109.48717921, 4101.92307658, 4132.69230742, 4090.76923043, 4082.17948684, 4076.41025607, 4077.56410222, 4079.74358940, 4079.61538427, 4058.71794830, 4087.56410222, 4103.71794844, 4134.23076896,12.0
4102.30769196, 4119.48717921, 4111.15384588, 4140.89743569, 4100.76923043, 4093.84615350, 4096.92307658, 4094.10256376, 4097.56410222, 4095.12820478, 4077.94871761, 4100.89743555, 4119.23076896, 4131.02564075,12.0
4102.82051255, 4125.89743562, 4113.58974332, 4141.02564082, 4101.92307658, 4094.35897402, 4114.87179460, 4105.51282024, 4104.48717921, 4102.82051255, 4084.74358940, 4101.79487145, 4121.79487152, 4125.51282024,12.0
4086.66666632, 4111.15384588, 4103.46153819, 4129.99999973, 4095.25640991, 4077.30769196, 4083.33333299, 4082.94871761, 4084.87179453, 4086.53846119, 4064.87179446, 4087.82051248, 4107.43589716, 4134.23076896,12.0
4085.64102530, 4107.43589716, 4104.48717921, 4133.46153819, 4100.76923043, 4071.53846119, 4061.15384574, 4074.10256376, 4080.12820478, 4080.89743555, 4057.17948677, 4087.56410222, 4102.82051255, 4131.15384588,12.0
4091.92307658, 4112.94871767, 4106.15384588, 4136.79487159, 4106.41025614, 4082.17948684, 4080.25640991, 4093.20512786, 4093.46153812, 4090.89743555, 4066.92307651, 4094.87179453, 4105.38461511, 4123.20512793,12.0
4080.51282017, 4104.10256383, 4090.89743555, 4126.79487152, 4095.12820478, 4082.17948684, 4079.61538427, 4085.25640991, 4082.82051248, 4083.97435863, 4063.71794830, 4083.46153812, 4101.02564068, 4132.56410229,12.0
4071.79487145, 4099.87179453, 4086.66666632, 4127.05128178, 4092.05128171, 4073.97435863, 4062.56410215, 4067.69230728, 4071.02564068, 4081.41025607, 4063.97435856, 4078.84615350, 4103.33333306, 4135.12820485,12.0
4089.35897402, 4112.56410229, 4104.35897408, 4141.02564082, 4102.69230742, 4082.17948684, 4080.51282017, 4086.41025607, 4090.12820478, 4096.41025607, 4076.79487145, 4097.17948684, 4115.25640998, 4131.15384588,12.0
4103.07692280, 4120.25640998, 4113.46153819, 4146.53846133, 4101.41025607, 4092.05128171, 4098.58974325, 4103.46153819, 4108.58974332, 4102.43589709, 4076.92307658, 4104.74358947, 4114.74358947, 4126.53846126,12.0
4095.12820478, 4116.92307665, 4105.89743562, 4139.87179467, 4103.33333306, 4088.33333299, 4089.87179453, 4088.97435863, 4099.99999966, 4101.66666632, 4070.38461504, 4097.17948684, 4109.61538434, 4126.41025614,12.0
4100.38461504, 4122.56410229, 4109.99999973, 4144.10256390, 4118.20512793, 4092.43589709, 4094.87179453, 4087.30769196, 4096.02564068, 4114.23076896, 4083.33333299, 4105.38461511, 4121.92307665, 4133.20512793,12.0
4120.38461511, 4133.20512793, 4126.15384588, 4157.43589723, 4118.84615357, 4108.20512793, 4121.66666639, 4117.82051255, 4122.30769203, 4128.58974332, 4101.66666632, 4120.76923050, 4141.28205108, 4129.61538434,12.0
4121.53846126, 4130.38461511, 4129.35897408, 4158.20512800, 4109.23076896, 4116.28205101, 4131.53846126, 4127.43589716, 4133.58974332, 4117.82051255, 4095.89743555, 4116.53846126, 4138.33333313, 4127.30769203,12.0
4107.94871767, 4117.69230742, 4120.51282024, 4147.69230749, 4110.64102537, 4103.07692280, 4102.30769196, 4101.15384581, 4106.28205101, 4098.84615350, 4077.05128171, 4103.71794844, 4116.28205101, 4130.64102537,12.0
4102.69230742, 4111.02564075, 4113.71794844, 4140.12820492, 4111.15384588, 4087.94871761, 4077.30769196, 4087.05128171, 4086.41025607, 4093.33333299, 4069.87179453, 4097.94871761, 4107.05128178, 4130.25640998,12.0
4101.02564068, 4109.87179460, 4107.94871767, 4138.33333313, 4103.20512793, 4088.33333299, 4081.02564068, 4088.58974325, 4092.17948684, 4090.76923043, 4067.56410215, 4093.33333299, 4111.41025614, 4131.02564075,12.0
4091.15384581, 4104.35897408, 4100.38461504, 4135.38461518, 4099.61538427, 4091.53846119, 4084.74358940, 4082.69230735, 4090.51282017, 4084.48717914, 4058.71794830, 4086.79487145, 4106.41025614, 4126.79487152,12.0
4097.05128171, 4112.94871767, 4108.97435870, 4140.25641005, 4112.56410229, 4095.12820478, 4093.07692273, 4092.30769196, 4089.10256376, 4089.23076889, 4064.74358933, 4095.25640991, 4108.46153819, 4128.97435870,12.0
4116.02564075, 4129.99999973, 4124.87179460, 4153.07692287, 4125.64102537, 4100.76923043, 4109.10256383, 4107.69230742, 4102.43589709, 4102.05128171, 4081.02564068, 4108.46153819, 4120.51282024, 4132.94871767,12.0
4112.69230742, 4122.69230742, 4120.64102537, 4152.30769210, 4110.89743562, 4092.82051248, 4099.48717914, 4094.61538427, 4097.43589709, 4095.38461504, 4074.23076889, 4099.23076889, 4112.69230742, 4127.94871767,12.0
4110.76923050, 4118.71794844, 4120.89743562, 4152.82051262, 4103.97435870, 4091.66666632, 4099.74358940, 4091.41025607, 4084.35897402, 4092.56410222, 4070.38461504, 4098.84615350, 4110.12820485, 4133.58974332,12.0
4134.48717921, 4144.74358954, 4143.46153826, 4174.10256397, 4139.87179467, 4120.12820485, 4136.15384595, 4118.33333306, 4099.61538427, 4118.20512793, 4097.17948684, 4126.53846126, 4134.99999973, 4133.71794844,12.0
4132.69230742, 4148.33333313, 4141.41025621, 4174.61538448, 4147.69230749, 4120.38461511, 4124.23076896, 4117.69230742, 4109.35897408, 4124.10256383, 4099.99999966, 4126.15384588, 4137.69230749, 4126.53846126,12.0
4105.51282024, 4123.84615357, 4114.48717921, 4151.92307672, 4111.66666639, 4086.92307658, 4077.69230735, 4093.58974325, 4094.35897402, 4101.15384581, 4068.20512779, 4098.46153812, 4114.61538434, 4129.35897408,12.0
4111.92307665, 4128.71794844, 4116.02564075, 4157.82051262, 4113.71794844, 4086.79487145, 4086.02564068, 4096.53846119, 4093.20512786, 4102.43589709, 4070.38461504, 4103.33333306, 4115.64102537, 4130.76923050,12.0
4132.82051255, 4150.89743569, 4133.71794844, 4178.20512807, 4137.17948697, 4103.84615357, 4107.56410229, 4107.30769203, 4097.30769196, 4121.41025614, 4100.51282017, 4126.28205101, 4133.46153819, 4133.20512793,12.0
4120.25640998, 4140.76923056, 4124.61538434, 4169.23076910, 4126.53846126, 4094.87179453, 4091.28205094, 4092.94871761, 4081.92307658, 4113.58974332, 4097.69230735, 4120.38461511, 4128.46153819, 4132.05128178,12.0
4105.38461511, 4123.58974332, 4112.30769203, 4154.10256390, 4115.12820485, 4088.46153812, 4090.25640991, 4085.89743555, 4074.74358940, 4101.41025607, 4080.25640991, 4108.20512793, 4119.61538434, 4129.10256383,12.0
4121.53846126, 4133.33333306, 4124.87179460, 4161.66666646, 4124.35897408, 4097.56410222, 4110.38461511, 4102.43589709, 4085.12820478, 4112.17948691, 4090.89743555, 4120.51282024, 4134.48717921, 4132.82051255,12.0
4141.41025621, 4150.12820492, 4141.53846133, 4175.76923063, 4137.56410236, 4106.28205101, 4120.89743562, 4117.69230742, 4094.99999966, 4122.82051255, 4113.33333306, 4138.07692287, 4147.30769210, 4132.94871767,12.0
4145.12820492, 4156.66666646, 4146.66666646, 4183.84615371, 4137.17948697, 4118.58974332, 4135.76923056, 4120.51282024, 4092.56410222, 4119.10256383, 4118.84615357, 4142.30769210, 4142.17948697, 4132.69230742,12.0
4134.23076896, 4148.33333313, 4139.23076903, 4175.89743576, 4121.66666639, 4112.56410229, 4128.84615357, 4110.38461511, 4083.07692273, 4106.79487152, 4108.71794844, 4134.61538434, 4132.94871767, 4129.87179460,12.0
4121.92307665, 4134.74358947, 4127.43589716, 4160.12820492, 4118.07692280, 4090.12820478, 4094.99999966, 4099.48717914, 4082.43589709, 4100.89743555, 4101.41025607, 4125.12820485, 4126.79487152, 4129.35897408,12.0
4117.69230742, 4130.12820485, 4122.69230742, 4158.46153826, 4126.15384588, 4089.99999966, 4084.74358940, 4095.12820478, 4082.30769196, 4102.69230742, 4101.53846119, 4117.69230742, 4126.02564075, 4134.48717921,12.0
4112.94871767, 4133.84615357, 4122.94871767, 4162.56410236, 4124.10256383, 4101.79487145, 4099.10256376, 4091.15384581, 4073.20512786, 4100.12820478, 4103.33333306, 4112.05128178, 4128.58974332, 4129.87179460,12.0
4113.07692280, 4138.84615364, 4121.41025614, 4160.38461518, 4119.48717921, 4103.07692280, 4102.94871767, 4096.66666632, 4080.12820478, 4101.79487145, 4106.28205101, 4113.58974332, 4128.46153819, 4132.17948691,12.0
4117.82051255, 4139.87179467, 4120.76923050, 4158.46153826, 4121.15384588, 4101.02564068, 4096.41025607, 4103.84615357, 4094.61538427, 4113.84615357, 4113.07692280, 4118.84615357, 4128.71794844, 4137.56410236,12.0
4118.20512793, 4134.10256383, 4122.30769203, 4157.69230749, 4117.69230742, 4099.23076889, 4091.28205094, 4093.58974325, 4087.05128171, 4119.99999973, 4118.33333306, 4118.33333306, 4132.56410229, 4131.41025614,12.0
4122.17948691, 4132.69230742, 4122.17948691, 4156.41025621, 4121.15384588, 4103.46153819, 4103.58974332, 4093.33333299, 4087.56410222, 4119.35897408, 4120.25640998, 4119.23076896, 4138.84615364, 4131.41025614,12.0
4133.71794844, 4144.35897415, 4126.79487152, 4163.58974339, 4131.66666639, 4118.07692280, 4130.38461511, 4113.97435870, 4111.28205101, 4130.64102537, 4127.56410229, 4130.51282024, 4146.53846133, 4132.17948691,12.0
4131.15384588, 4139.10256390, 4122.56410229, 4158.46153826, 4116.66666639, 4113.58974332, 4123.84615357, 4115.76923050, 4113.33333306, 4131.92307665, 4126.28205101, 4128.97435870, 4143.58974339, 4131.66666639,12.0
4112.43589716, 4118.20512793, 4105.25640998, 4135.76923056, 4097.05128171, 4091.41025607, 4097.30769196, 4096.15384581, 4093.71794837, 4113.33333306, 4109.35897408, 4111.28205101, 4128.97435870, 4132.56410229,12.0
4104.74358947, 4116.15384588, 4101.79487145, 4132.94871767, 4110.12820485, 4091.79487145, 4102.69230742, 4093.71794837, 4092.69230735, 4106.79487152, 4097.30769196, 4102.56410229, 4120.12820485, 4129.48717921,12.0
4116.41025614, 4129.35897408, 4116.28205101, 4149.74358954, 4131.02564075, 4107.30769203, 4121.66666639, 4115.64102537, 4111.41025614, 4113.33333306, 4101.92307658, 4111.02564075, 4126.15384588, 4130.12820485,12.0
4123.97435870, 4131.53846126, 4123.20512793, 4155.25641005, 4125.38461511, 4105.51282024, 4110.64102537, 4111.79487152, 4110.25640998, 4105.51282024, 4106.66666639, 4119.10256383, 4129.48717921, 4131.79487152,12.0
4123.97435870, 4129.48717921, 4121.53846126, 4149.99999980, 4116.79487152, 4102.82051255, 4103.97435870, 4095.25640991, 4097.05128171, 4098.46153812, 4106.28205101, 4119.48717921, 4128.20512793, 4131.66666639,12.0
4137.69230749, 4144.23076903, 4136.15384595, 4161.41025621, 4132.94871767, 4117.05128178, 4127.17948691, 4114.10256383, 4109.61538434, 4122.05128178, 4123.84615357, 4133.58974332, 4140.25641005, 4129.87179460,12.0
4144.23076903, 4153.07692287, 4146.15384595, 4175.12820499, 4142.94871774, 4114.74358947, 4123.07692280, 4120.38461511, 4112.94871767, 4131.28205101, 4136.02564082, 4143.07692287, 4144.74358954, 4128.07692280,12.0
4127.94871767, 4140.12820492, 4132.94871767, 4164.74358954, 4131.02564075, 4096.79487145, 4094.48717914, 4099.99999966, 4097.94871761, 4108.46153819, 4124.99999973, 4127.94871767, 4132.82051255, 4132.94871767,12.0
4120.38461511, 4130.64102537, 4126.15384588, 4155.38461518, 4126.92307665, 4097.56410222, 4098.97435863, 4101.41025607, 4105.12820485, 4102.30769196, 4118.84615357, 4119.87179460, 4127.05128178, 4129.74358947,12.0
4135.25640998, 4141.79487159, 4139.10256390, 4167.30769210, 4138.07692287, 4112.69230742, 4125.38461511, 4116.41025614, 4119.99999973, 4118.58974332, 4128.84615357, 4135.51282031, 4137.43589723, 4128.71794844,12.0
4142.82051262, 4148.07692287, 4143.33333313, 4171.28205115, 4138.84615364, 4113.84615357, 4124.61538434, 4111.92307665, 4115.25640998, 4121.66666639, 4132.56410229, 4141.53846133, 4144.48717928, 4135.38461518,12.0
4130.89743562, 4139.74358954, 4131.79487152, 4160.38461518, 4133.07692280, 4105.12820485, 4107.82051255, 4104.99999973, 4109.87179460, 4115.64102537, 4124.48717921, 4128.46153819, 4138.58974339, 4128.33333306,12.0
4125.64102537, 4138.07692287, 4125.89743562, 4156.66666646, 4129.35897408, 4104.87179460, 4105.12820485, 4111.92307665, 4117.05128178, 4118.71794844, 4121.92307665, 4123.84615357, 4132.69230742, 4126.53846126,12.0
4122.30769203, 4129.99999973, 4122.05128178, 4151.15384595, 4113.46153819, 4104.87179460, 4109.10256383, 4111.92307665, 4116.02564075, 4115.51282024, 4116.41025614, 4121.41025614, 4129.35897408, 4134.23076896,12.0
4122.56410229, 4122.17948691, 4123.97435870, 4145.64102544, 4109.10256383, 4107.82051255, 4119.99999973, 4107.82051255, 4108.07692280, 4112.69230742, 4114.74358947, 4122.82051255, 4133.07692280, 4135.25640998,12.0
4144.10256390, 4143.33333313, 4146.66666646, 4160.25641005, 4140.12820492, 4122.94871767, 4136.92307672, 4119.48717921, 4117.43589716, 4128.84615357, 4135.76923056, 4143.58974339, 4149.61538441, 4131.02564075,12.0
4158.07692287, 4160.12820492, 4158.97435877, 4172.17948704, 4159.87179467, 4132.05128178, 4140.38461518, 4132.56410229, 4138.71794851, 4142.43589723, 4151.41025621, 4156.66666646, 4154.61538441, 4127.43589716,12.0
4144.87179467, 4145.89743569, 4142.05128185, 4160.76923056, 4144.74358954, 4124.74358947, 4133.07692280, 4121.41025614, 4132.94871767, 4127.05128178, 4136.41025621, 4137.30769210, 4139.35897415, 4134.87179460,12.0
4139.87179467, 4142.69230749, 4136.66666646, 4156.15384595, 4138.97435877, 4123.58974332, 4138.58974339, 4115.64102537, 4117.82051255, 4118.20512793, 4131.15384588, 4128.07692280, 4139.74358954, 4135.38461518,12.0
4157.43589723, 4159.99999980, 4155.12820492, 4170.51282038, 4153.58974339, 4132.82051255, 4143.07692287, 4133.46153819, 4138.84615364, 4145.51282031, 4155.25641005, 4150.12820492, 4160.76923056, 4125.38461511,12.0
4153.71794851, 4151.92307672, 4146.53846133, 4164.48717928, 4148.46153826, 4127.43589716, 4126.53846126, 4126.92307665, 4147.82051262, 4151.79487159, 4152.30769210, 4146.79487159, 4156.15384595, 4127.05128178,12.0
4127.30769203, 4129.48717921, 4116.79487152, 4145.64102544, 4128.97435870, 4113.71794844, 4112.56410229, 4102.56410229, 4119.35897408, 4119.74358947, 4124.23076896, 4119.48717921, 4133.20512793, 4132.43589716,12.0
4131.28205101, 4138.58974339, 4122.17948691, 4156.79487159, 4136.41025621, 4116.15384588, 4118.58974332, 4108.33333306, 4115.76923050, 4116.53846126, 4129.23076896, 4127.94871767, 4140.25641005, 4136.79487159,12.0
4150.51282031, 4152.17948697, 4144.74358954, 4173.71794858, 4145.76923056, 4120.12820485, 4121.28205101, 4119.74358947, 4134.48717921, 4141.66666646, 4151.53846133, 4149.35897415, 4159.48717928, 4132.94871767,12.0
4143.84615364, 4137.05128185, 4140.76923056, 4163.46153826, 4125.38461511, 4111.15384588, 4115.64102537, 4109.23076896, 4126.92307665, 4137.05128185, 4148.07692287, 4140.76923056, 4149.87179467, 4123.71794844,12.0
4138.97435877, 4133.84615357, 4134.61538434, 4157.94871774, 4122.30769203, 4115.64102537, 4127.43589716, 4112.05128178, 4120.12820485, 4128.33333306, 4141.66666646, 4137.43589723, 4141.66666646, 4131.41025614,12.0
4147.30769210, 4146.92307672, 4144.87179467, 4166.15384595, 4144.48717928, 4126.41025614, 4133.58974332, 4125.51282024, 4137.82051262, 4144.10256390, 4149.61538441, 4151.53846133, 4152.69230749, 4131.53846126,12.0
4144.35897415, 4142.56410236, 4145.76923056, 4163.46153826, 4141.79487159, 4118.20512793, 4120.51282024, 4117.17948691, 4138.07692287, 4141.02564082, 4145.76923056, 4145.12820492, 4151.02564082, 4122.17948691,12.0
4138.07692287, 4132.30769203, 4135.51282031, 4153.97435877, 4128.58974332, 4110.38461511, 4116.41025614, 4106.79487152, 4128.71794844, 4128.71794844, 4138.20512800, 4133.07692280, 4144.61538441, 4127.43589716,12.0
4142.05128185, 4134.61538434, 4137.43589723, 4153.84615364, 4134.61538434, 4112.05128178, 4115.64102537, 4111.28205101, 4143.58974339, 4144.99999980, 4146.41025621, 4140.64102544, 4152.94871774, 4129.74358947,12.0
4145.12820492, 4134.23076896, 4141.92307672, 4157.69230749, 4135.76923056, 4113.46153819, 4114.99999973, 4122.94871767, 4151.41025621, 4150.51282031, 4150.25641005, 4144.10256390, 4155.12820492, 4128.07692280,12.0
4140.12820492, 4130.12820485, 4133.58974332, 4159.48717928, 4133.33333306, 4114.23076896, 4123.71794844, 4124.35897408, 4131.41025614, 4126.15384588, 4136.53846133, 4129.35897408, 4143.46153826, 4127.82051255,12.0
4144.87179467, 4141.28205108, 4135.64102544, 4170.64102551, 4147.05128185, 4120.64102537, 4133.71794844, 4121.02564075, 4127.17948691, 4125.25640998, 4133.46153819, 4127.69230742, 4144.74358954, 4128.58974332,12.0
4159.61538441, 4156.53846133, 4156.92307672, 4187.30769217, 4159.61538441, 4135.51282031, 4142.69230749, 4131.15384588, 4142.69230749, 4147.30769210, 4148.71794851, 4147.69230749, 4160.51282031, 4133.07692280,12.0
4167.30769210, 4162.17948697, 4169.87179474, 4196.53846140, 4161.41025621, 4146.02564082, 4148.07692287, 4138.71794851, 4146.92307672, 4155.38461518, 4162.30769210, 4158.97435877, 4169.99999986, 4131.15384588,12.0
4176.92307679, 4172.94871781, 4173.58974345, 4197.94871781, 4172.94871781, 4151.15384595, 4153.97435877, 4137.82051262, 4151.92307672, 4163.20512800, 4172.69230756, 4160.51282031, 4179.74358961, 4129.10256383,12.0
4191.28205115, 4186.79487166, 4184.48717935, 4198.84615371, 4185.38461525, 4157.94871774, 4166.15384595, 4145.64102544, 4166.79487159, 4177.56410243, 4181.92307679, 4169.35897422, 4189.61538448, 4131.79487152,12.0
4192.82051269, 4187.82051269, 4190.64102551, 4200.64102551, 4179.61538448, 4156.53846133, 4167.43589723, 4156.15384595, 4171.15384602, 4179.35897422, 4181.79487166, 4175.51282038, 4186.41025628, 4132.94871767,12.0
4184.61538448, 4178.84615371, 4184.10256397, 4198.58974345, 4174.10256397, 4146.79487159, 4154.48717928, 4151.79487159, 4163.20512800, 4171.66666653, 4175.38461525, 4172.94871781, 4180.76923063, 4133.58974332,12.0
4189.48717935, 4178.33333320, 4186.41025628, 4198.97435884, 4183.07692294, 4145.38461518, 4155.64102544, 4146.28205108, 4169.10256397, 4177.30769217, 4180.76923063, 4177.30769217, 4187.17948704, 4128.33333306,12.0
4203.20512814, 4185.76923063, 4198.46153833, 4207.30769224, 4190.51282038, 4153.20512800, 4168.58974345, 4155.51282031, 4181.41025628, 4185.51282038, 4193.58974345, 4187.94871781, 4191.41025628, 4128.71794844,12.0
4200.25641012, 4186.41025628, 4199.23076910, 4209.99999993, 4185.76923063, 4156.28205108, 4177.94871781, 4157.94871774, 4168.97435884, 4172.82051269, 4189.10256397, 4180.89743576, 4182.56410243, 4132.94871767,12.0
4183.97435884, 4172.43589730, 4185.89743576, 4198.84615371, 4173.46153833, 4146.79487159, 4171.79487166, 4144.23076903, 4147.69230749, 4152.82051262, 4172.56410243, 4164.61538441, 4174.10256397, 4127.30769203,12.0
4175.25641012, 4153.58974339, 4171.41025628, 4179.74358961, 4154.87179467, 4127.17948691, 4140.38461518, 4129.74358947, 4143.84615364, 4146.53846133, 4162.82051262, 4158.97435877, 4170.12820499, 4130.89743562,12.0
4179.87179474, 4154.48717928, 4172.43589730, 4177.82051269, 4151.53846133, 4123.84615357, 4128.97435870, 4127.82051255, 4148.58974339, 4153.07692287, 4167.05128185, 4165.25641005, 4167.69230749, 4133.46153819,12.0
4191.66666653, 4171.79487166, 4188.33333320, 4199.99999986, 4169.99999986, 4142.56410236, 4152.82051262, 4136.79487159, 4154.35897415, 4164.23076903, 4180.76923063, 4175.76923063, 4174.23076910, 4127.69230742,12.0
4189.48717935, 4172.56410243, 4192.17948704, 4204.87179481, 4175.76923063, 4147.43589723, 4158.20512800, 4142.05128185, 4160.76923056, 4172.17948704, 4188.20512807, 4175.25641012, 4181.79487166, 4128.33333306,12.0
4166.66666646, 4153.84615364, 4172.94871781, 4179.87179474, 4160.12820492, 4136.79487159, 4145.51282031, 4135.25640998, 4150.64102544, 4161.79487159, 4174.61538448, 4157.94871774, 4170.25641012, 4129.74358947,12.0
4160.64102544, 4151.66666646, 4167.30769210, 4173.97435884, 4153.07692287, 4135.12820485, 4146.02564082, 4129.61538434, 4140.89743569, 4152.30769210, 4162.82051262, 4152.05128185, 4159.23076903, 4133.46153819,12.0
4177.43589730, 4168.84615371, 4186.53846140, 4195.89743576, 4173.33333320, 4142.05128185, 4151.79487159, 4136.53846133, 4154.99999980, 4164.35897415, 4173.46153833, 4166.79487159, 4167.05128185, 4129.74358947,12.0
4174.99999986, 4168.71794858, 4186.41025628, 4196.66666653, 4176.28205115, 4140.51282031, 4148.58974339, 4140.89743569, 4156.15384595, 4164.74358954, 4176.53846140, 4169.74358961, 4169.87179474, 4125.25640998,12.0
4162.82051262, 4157.43589723, 4171.28205115, 4180.89743576, 4155.25641005, 4132.94871767, 4140.89743569, 4137.43589723, 4140.51282031, 4152.30769210, 4166.41025621, 4161.66666646, 4163.07692287, 4129.87179460,12.0
4169.10256397, 4160.12820492, 4177.69230756, 4181.02564089, 4158.46153826, 4134.23076896, 4140.51282031, 4140.38461518, 4144.74358954, 4157.17948697, 4169.87179474, 4168.58974345, 4163.07692287, 4130.38461511,12.0
4178.58974345, 4170.64102551, 4189.87179474, 4187.82051269, 4178.84615371, 4142.82051262, 4159.10256390, 4159.87179467, 4169.61538448, 4176.02564089, 4184.35897422, 4180.76923063, 4174.99999986, 4131.28205101,12.0
4179.23076910, 4172.30769217, 4189.87179474, 4194.35897422, 4182.56410243, 4148.97435877, 4176.28205115, 4170.38461525, 4184.10256397, 4186.66666653, 4189.99999986, 4184.61538448, 4183.84615371, 4130.38461511,12.0
4171.15384602, 4161.15384595, 4184.74358961, 4190.76923063, 4170.12820499, 4141.66666646, 4162.69230749, 4142.94871774, 4162.43589723, 4172.69230756, 4176.28205115, 4175.51282038, 4171.28205115, 4128.46153819,12.0
4162.43589723, 4153.33333313, 4175.76923063, 4179.23076910, 4162.69230749, 4127.69230742, 4141.53846133, 4119.35897408, 4135.89743569, 4152.05128185, 4159.23076903, 4166.28205108, 4156.53846133, 4130.89743562,12.0
4162.56410236, 4158.07692287, 4172.43589730, 4177.43589730, 4163.58974339, 4131.53846126, 4146.02564082, 4133.71794844, 4143.84615364, 4154.87179467, 4162.69230749, 4170.51282038, 4162.94871774, 4125.64102537,12.0
4160.51282031, 4157.17948697, 4171.28205115, 4175.76923063, 4160.51282031, 4139.35897415, 4153.58974339, 4143.71794851, 4149.87179467, 4157.56410236, 4162.94871774, 4164.74358954, 4159.99999980, 4126.41025614,12.0
4152.82051262, 4151.28205108, 4164.23076903, 4168.33333320, 4152.30769210, 4126.79487152, 4139.99999980, 4129.35897408, 4134.74358947, 4142.69230749, 4147.69230749, 4149.48717928, 4143.33333313, 4131.41025614,12.0
4154.99999980, 4156.66666646, 4161.53846133, 4171.02564089, 4148.20512800, 4118.20512793, 4133.46153819, 4127.05128178, 4141.28205108, 4145.89743569, 4153.07692287, 4153.46153826, 4146.15384595, 4126.41025614,12.0
4154.35897415, 4153.97435877, 4156.41025621, 4171.28205115, 4142.56410236, 4126.66666639, 4141.53846133, 4137.05128185, 4151.92307672, 4154.99999980, 4159.87179467, 4156.92307672, 4152.56410236, 4124.74358947,12.0
4144.61538441, 4145.76923056, 4148.58974339, 4162.17948697, 4142.05128185, 4130.76923050, 4145.76923056, 4139.48717928, 4145.25641005, 4147.94871774, 4149.48717928, 4148.07692287, 4148.07692287, 4128.33333306,12.0
4147.69230749, 4150.25641005, 4152.82051262, 4161.02564082, 4156.41025621, 4124.10256383, 4143.20512800, 4139.48717928, 4148.58974339, 4145.25641005, 4150.64102544, 4148.84615364, 4148.84615364, 4132.05128178,12.0
4156.92307672, 4151.41025621, 4155.51282031, 4162.43589723, 4157.17948697, 4119.35897408, 4138.97435877, 4138.07692287, 4152.43589723, 4148.46153826, 4157.82051262, 4153.58974339, 4152.69230749, 4129.48717921,12.0
4156.66666646, 4147.94871774, 4153.46153826, 4163.97435877, 4147.05128185, 4124.87179460, 4141.53846133, 4143.33333313, 4150.38461518, 4151.92307672, 4158.84615364, 4154.23076903, 4155.51282031, 4124.99999973,12.0
4159.74358954, 4153.07692287, 4162.05128185, 4170.64102551, 4150.64102544, 4130.51282024, 4142.94871774, 4152.56410236, 4159.35897415, 4161.15384595, 4165.76923056, 4163.33333313, 4163.33333313, 4129.35897408,12.0
4163.84615364, 4155.51282031, 4170.38461525, 4170.25641012, 4150.25641005, 4123.71794844, 4131.15384588, 4140.64102544, 4152.43589723, 4162.05128185, 4172.17948704, 4170.12820499, 4166.02564082, 4130.64102537,12.0
4168.20512807, 4158.33333313, 4175.64102551, 4170.12820499, 4149.35897415, 4128.71794844, 4144.48717928, 4134.10256383, 4142.30769210, 4164.35897415, 4179.35897422, 4175.25641012, 4168.97435884, 4130.38461511,12.0
4175.12820499, 4167.30769210, 4187.30769217, 4181.28205115, 4165.12820492, 4148.71794851, 4178.33333320, 4156.92307672, 4164.99999980, 4185.25641012, 4194.87179474, 4186.15384602, 4178.58974345, 4131.66666639,12.0
4170.64102551, 4159.35897415, 4184.99999986, 4182.05128192, 4169.23076910, 4141.28205108, 4158.97435877, 4154.10256390, 4164.61538441, 4179.61538448, 4190.51282038, 4179.23076910, 4169.99999986, 4127.43589716,12.0
4164.99999980, 4150.51282031, 4171.28205115, 4170.76923063, 4149.99999980, 4116.15384588, 4118.07692280, 4127.43589716, 4128.33333306, 4143.97435877, 4170.12820499, 4163.46153826, 4155.76923056, 4129.23076896,12.0
4165.51282031, 4156.53846133, 4169.74358961, 4167.82051262, 4140.12820492, 4120.25640998, 4143.33333313, 4132.17948691, 4123.07692280, 4133.97435870, 4163.33333313, 4167.43589723, 4156.41025621, 4130.38461511,12.0
4164.35897415, 4155.25641005, 4171.92307679, 4168.20512807, 4150.89743569, 4138.71794851, 4176.41025628, 4149.87179467, 4144.61538441, 4151.66666646, 4164.23076903, 4174.48717935, 4160.38461518, 4127.69230742,12.0
4171.79487166, 4155.38461518, 4171.92307679, 4172.43589730, 4166.15384595, 4137.56410236, 4157.94871774, 4151.15384595, 4155.38461518, 4164.87179467, 4166.92307672, 4170.38461525, 4161.79487159, 4131.79487152,12.0
4177.82051269, 4165.76923056, 4174.10256397, 4179.87179474, 4168.58974345, 4129.10256383, 4145.89743569, 4150.64102544, 4159.48717928, 4164.23076903, 4167.17948697, 4164.61538441, 4163.33333313, 4129.99999973,12.0
4166.66666646, 4162.43589723, 4169.10256397, 4174.35897422, 4154.48717928, 4130.12820485, 4153.33333313, 4146.41025621, 4152.43589723, 4156.41025621, 4157.56410236, 4155.38461518, 4158.20512800, 4127.43589716,12.0
4158.97435877, 4154.10256390, 4163.07692287, 4165.76923056, 4151.28205108, 4132.69230742, 4147.05128185, 4134.99999973, 4138.20512800, 4153.58974339, 4154.61538441, 4148.46153826, 4152.69230749, 4130.76923050,12.0
4167.82051262, 4162.56410236, 4171.79487166, 4174.35897422, 4170.25641012, 4138.20512800, 4151.41025621, 4138.71794851, 4150.89743569, 4166.53846133, 4167.69230749, 4157.30769210, 4162.30769210, 4133.46153819,12.0
4167.05128185, 4163.58974339, 4172.56410243, 4177.17948704, 4170.25641012, 4140.64102544, 4157.69230749, 4141.28205108, 4159.48717928, 4168.84615371, 4165.89743569, 4160.64102544, 4165.76923056, 4133.84615357,12.0
4154.10256390, 4149.74358954, 4154.48717928, 4161.92307672, 4148.20512800, 4131.02564075, 4139.48717928, 4125.76923050, 4139.99999980, 4153.58974339, 4151.28205108, 4146.41025621, 4152.17948697, 4127.82051255,12.0
4159.23076903, 4151.41025621, 4154.87179467, 4159.48717928, 4149.87179467, 4129.87179460, 4139.99999980, 4127.82051255, 4136.41025621, 4153.46153826, 4157.94871774, 4146.15384595, 4152.94871774, 4128.20512793,12.0
4172.17948704, 4164.23076903, 4172.17948704, 4171.79487166, 4160.25641005, 4139.87179467, 4160.25641005, 4144.10256390, 4152.56410236, 4164.87179467, 4173.46153833, 4162.30769210, 4169.48717935, 4131.28205101,12.0
4162.17948697, 4157.30769210, 4167.94871774, 4167.94871774, 4142.69230749, 4131.92307665, 4151.53846133, 4144.87179467, 4155.76923056, 4167.30769210, 4169.99999986, 4161.53846133, 4168.07692287, 4125.12820485,12.0
4153.33333313, 4145.51282031, 4156.41025621, 4161.15384595, 4136.66666646, 4125.64102537, 4147.43589723, 4151.53846133, 4157.82051262, 4170.89743576, 4166.28205108, 4151.53846133, 4163.20512800, 4127.94871767,12.0
4157.94871774, 4146.66666646, 4155.64102544, 4163.84615364, 4154.61538441, 4131.02564075, 4154.35897415, 4154.61538441, 4162.94871774, 4174.10256397, 4171.79487166, 4149.48717928, 4169.48717935, 4131.79487152,12.0
4143.71794851, 4142.05128185, 4143.71794851, 4153.97435877, 4148.97435877, 4116.92307665, 4130.12820485, 4126.79487152, 4138.20512800, 4151.53846133, 4157.43589723, 4137.56410236, 4155.64102544, 4127.94871767,12.0
4125.38461511, 4133.84615357, 4131.66666639, 4143.33333313, 4133.46153819, 4102.94871767, 4110.89743562, 4109.23076896, 4112.05128178, 4126.53846126, 4135.51282031, 4122.56410229, 4136.53846133, 4126.79487152,12.0
4129.35897408, 4135.51282031, 4134.48717921, 4145.64102544, 4140.51282031, 4114.35897408, 4125.76923050, 4122.05128178, 4123.20512793, 4131.15384588, 4136.53846133, 4124.87179460, 4139.48717928, 4126.79487152,12.0
4134.35897408, 4139.74358954, 4135.12820485, 4149.10256390, 4146.28205108, 4117.94871767, 4123.84615357, 4119.10256383, 4131.28205101, 4138.46153826, 4144.10256390, 4131.41025614, 4145.38461518, 4132.94871767,12.0
4134.48717921, 4145.38461518, 4140.51282031, 4154.99999980, 4145.76923056, 4112.94871767, 4121.15384588, 4109.35897408, 4125.89743562, 4138.20512800, 4146.15384595, 4138.33333313, 4144.23076903, 4129.61538434,12.0
4141.41025621, 4152.17948697, 4150.12820492, 4159.35897415, 4150.89743569, 4121.79487152, 4137.94871774, 4120.89743562, 4130.76923050, 4140.89743569, 4152.17948697, 4146.53846133, 4144.10256390, 4124.48717921,12.0
4138.07692287, 4144.87179467, 4135.89743569, 4152.94871774, 4144.35897415, 4129.87179460, 4133.71794844, 4127.43589716, 4136.53846133, 4138.07692287, 4127.82051255, 4132.30769203, 4131.79487152, 4130.89743562,12.0
4140.12820492, 4153.46153826, 4141.92307672, 4159.48717928, 4156.15384595, 4135.38461518, 4141.15384595, 4135.64102544, 4149.48717928, 4143.71794851, 4129.61538434, 4138.84615364, 4135.89743569, 4128.20512793,12.0
4132.69230742, 4150.12820492, 4134.48717921, 4152.94871774, 4156.53846133, 4141.28205108, 4149.10256390, 4130.64102537, 4143.33333313, 4134.23076896, 4121.41025614, 4125.25640998, 4131.92307665, 4125.89743562,12.0
4125.64102537, 4140.76923056, 4124.23076896, 4149.10256390, 4145.12820492, 4136.41025621, 4148.33333313, 4120.89743562, 4125.64102537, 4118.71794844, 4111.41025614, 4107.30769203, 4124.48717921, 4126.02564075,12.0
4145.89743569, 4152.82051262, 4144.48717928, 4164.23076903, 4154.87179467, 4130.89743562, 4149.48717928, 4132.43589716, 4136.53846133, 4128.46153819, 4128.07692280, 4129.74358947, 4138.97435877, 4130.89743562,12.0
4163.33333313, 4165.51282031, 4161.92307672, 4171.92307679, 4158.46153826, 4126.02564075, 4139.87179467, 4143.33333313, 4155.12820492, 4145.38461518, 4150.51282031, 4151.79487159, 4153.84615364, 4125.38461511,12.0
4154.48717928, 4157.69230749, 4150.64102544, 4162.82051262, 4145.76923056, 4119.23076896, 4126.53846126, 4130.89743562, 4149.99999980, 4143.71794851, 4151.15384595, 4139.87179467, 4149.87179467, 4124.23076896,12.0
4140.89743569, 4147.69230749, 4134.48717921, 4156.28205108, 4145.64102544, 4120.89743562, 4131.92307665, 4121.53846126, 4136.53846133, 4134.35897408, 4137.82051262, 4128.71794844, 4141.66666646, 4129.35897408,12.0
4136.79487159, 4147.17948697, 4135.89743569, 4155.51282031, 4148.58974339, 4131.02564075, 4147.05128185, 4136.28205108, 4145.89743569, 4139.35897415, 4138.71794851, 4137.05128185, 4143.84615364, 4124.61538434,12.0
4144.10256390, 4151.92307672, 4148.71794851, 4155.64102544, 4136.15384595, 4132.94871767, 4145.51282031, 4147.17948697, 4162.17948697, 4152.94871774, 4157.94871774, 4150.25641005, 4155.89743569, 4127.69230742,12.0
4153.33333313, 4157.43589723, 4157.82051262, 4162.82051262, 4133.71794844, 4126.92307665, 4128.84615357, 4132.82051255, 4156.66666646, 4156.28205108, 4168.20512807, 4156.15384595, 4161.79487159, 4130.51282024,12.0
4153.84615364, 4158.33333313, 4156.66666646, 4166.53846133, 4151.15384595, 4127.82051255, 4127.43589716, 4120.89743562, 4143.07692287, 4157.69230749, 4164.10256390, 4153.84615364, 4159.10256390, 4125.76923050,12.0
4151.02564082, 4159.74358954, 4152.43589723, 4163.84615364, 4163.84615364, 4135.89743569, 4140.12820492, 4127.94871767, 4146.53846133, 4162.17948697, 4163.84615364, 4150.76923056, 4160.38461518, 4127.05128178,12.0
4148.07692287, 4163.07692287, 4156.15384595, 4165.64102544, 4161.53846133, 4136.53846133, 4140.25641005, 4131.79487152, 4156.28205108, 4166.15384595, 4164.87179467, 4152.17948697, 4161.79487159, 4128.07692280,12.0
4150.38461518, 4164.23076903, 4166.92307672, 4173.33333320, 4160.25641005, 4140.38461518, 4153.84615364, 4136.79487159, 4158.46153826, 4169.87179474, 4163.20512800, 4163.71794851, 4163.71794851, 4129.23076896,12.0
4156.79487159, 4165.12820492, 4173.20512807, 4177.30769217, 4167.30769210, 4150.76923056, 4179.61538448, 4151.66666646, 4162.43589723, 4169.74358961, 4166.02564082, 4172.43589730, 4169.48717935, 4127.43589716,12.0
4153.20512800, 4161.41025621, 4166.28205108, 4171.66666653, 4167.56410236, 4139.87179467, 4161.28205108, 4147.56410236, 4158.33333313, 4162.82051262, 4165.12820492, 4162.94871774, 4165.76923056, 4125.38461511,12.0
4148.07692287, 4157.94871774, 4162.69230749, 4172.17948704, 4162.17948697, 4128.71794844, 4139.35897415, 4136.79487159, 4152.82051262, 4159.23076903, 4165.51282031, 4158.84615364, 4160.38461518, 4129.23076896,12.0
4156.41025621, 4161.15384595, 4173.46153833, 4180.76923063, 4164.87179467, 4141.66666646, 4159.23076903, 4149.87179467, 4164.35897415, 4165.25641005, 4176.02564089, 4168.71794858, 4168.97435884, 4127.94871767,12.0
4159.10256390, 4158.46153826, 4170.76923063, 4176.41025628, 4164.61538441, 4141.53846133, 4162.56410236, 4152.05128185, 4161.02564082, 4163.46153826, 4174.74358961, 4164.48717928, 4169.99999986, 4126.79487152,12.0
4132.30769203, 4137.05128185, 4142.43589723, 4150.76923056, 4138.84615364, 4113.20512793, 4124.10256383, 4116.79487152, 4125.12820485, 4136.66666646, 4145.12820492, 4134.35897408, 4143.46153826, 4127.82051255,12.0
4109.35897408, 4122.30769203, 4122.82051255, 4132.30769203, 4119.74358947, 4106.41025614, 4106.15384588, 4098.84615350, 4107.43589716, 4114.61538434, 4124.74358947, 4113.58974332, 4125.89743562, 4127.17948691,12.0
4123.97435870, 4134.23076896, 4134.48717921, 4141.15384595, 4139.87179467, 4128.58974332, 4123.97435870, 4123.33333306, 4127.69230742, 4128.71794844, 4141.02564082, 4124.23076896, 4142.17948697, 4129.99999973,12.0
4143.20512800, 4151.28205108, 4147.43589723, 4153.46153826, 4163.71794851, 4140.64102544, 4143.07692287, 4137.30769210, 4137.30769210, 4148.20512800, 4152.56410236, 4135.76923056, 4152.82051262, 4127.56410229,12.0
4141.92307672, 4155.38461518, 4142.69230749, 4151.66666646, 4160.51282031, 4137.30769210, 4147.56410236, 4127.17948691, 4127.30769203, 4145.51282031, 4141.41025621, 4129.35897408, 4144.99999980, 4127.05128178,12.0
4140.25641005, 4152.56410236, 4141.28205108, 4146.92307672, 4150.64102544, 4129.23076896, 4137.17948697, 4127.94871767, 4127.05128178, 4148.46153826, 4145.89743569, 4127.05128178, 4149.87179467, 4129.35897408,12.0
4153.46153826, 4160.89743569, 4159.74358954, 4156.66666646, 4157.69230749, 4130.25640998, 4139.10256390, 4141.41025621, 4142.43589723, 4162.17948697, 4168.20512807, 4145.89743569, 4165.12820492, 4124.10256383,12.0
4162.94871774, 4171.92307679, 4172.82051269, 4164.61538441, 4165.38461518, 4142.94871774, 4160.89743569, 4144.48717928, 4146.92307672, 4159.61538441, 4169.74358961, 4158.58974339, 4167.69230749, 4125.12820485,12.0
4156.92307672, 4164.61538441, 4159.87179467, 4155.25641005, 4163.07692287, 4144.87179467, 4164.99999980, 4138.46153826, 4134.99999973, 4147.17948697, 4155.38461518, 4147.56410236, 4159.99999980, 4129.10256383,12.0
4153.46153826, 4154.35897415, 4149.87179467, 4150.76923056, 4158.07692287, 4133.97435870, 4148.33333313, 4139.99999980, 4135.64102544, 4145.76923056, 4151.92307672, 4138.46153826, 4152.94871774, 4129.87179460,12.0
4158.97435877, 4159.74358954, 4162.69230749, 4158.46153826, 4146.41025621, 4129.61538434, 4140.76923056, 4142.05128185, 4143.07692287, 4150.76923056, 4155.89743569, 4145.25641005, 4154.23076903, 4129.10256383,12.0
4154.48717928, 4156.92307672, 4167.56410236, 4154.10256390, 4137.30769210, 4129.35897408, 4138.84615364, 4131.66666639, 4136.02564082, 4147.94871774, 4152.56410236, 4152.17948697, 4155.51282031, 4124.48717921,12.0
4141.28205108, 4145.38461518, 4154.23076903, 4143.46153826, 4145.89743569, 4133.33333306, 4141.28205108, 4129.48717921, 4130.76923050, 4139.99999980, 4143.07692287, 4148.20512800, 4149.61538441, 4127.05128178,12.0
4141.28205108, 4150.89743569, 4153.20512800, 4147.05128185, 4158.97435877, 4145.12820492, 4151.92307672, 4143.07692287, 4143.58974339, 4149.23076903, 4148.33333313, 4148.97435877, 4152.69230749, 4130.51282024,12.0
4144.74358954, 4153.58974339, 4157.69230749, 4149.99999980, 4154.99999980, 4142.69230749, 4143.33333313, 4139.87179467, 4144.74358954, 4160.12820492, 4156.92307672, 4148.46153826, 4160.12820492, 4129.87179460,12.0
4139.99999980, 4142.94871774, 4147.05128185, 4140.64102544, 4151.66666646, 4137.17948697, 4133.97435870, 4126.79487152, 4133.07692280, 4147.56410236, 4142.94871774, 4135.89743569, 4152.30769210, 4128.07692280,12.0
4137.17948697, 4142.17948697, 4136.66666646, 4137.56410236, 4155.38461518, 4148.71794851, 4156.28205108, 4129.23076896, 4131.28205101, 4135.12820485, 4127.56410229, 4125.38461511, 4139.61538441, 4122.69230742,12.0
4135.89743569, 4147.05128185, 4135.51282031, 4138.58974339, 4146.15384595, 4144.99999980, 4158.07692287, 4135.38461518, 4130.25640998, 4138.58974339, 4127.30769203, 4120.38461511, 4138.46153826, 4127.69230742,12.0
4131.79487152, 4145.64102544, 4135.51282031, 4136.41025621, 4141.15384595, 4127.94871767, 4132.05128178, 4137.30769210, 4134.23076896, 4142.30769210, 4131.53846126, 4121.15384588, 4144.10256390, 4129.99999973,12.0
4128.58974332, 4141.79487159, 4130.64102537, 4132.94871767, 4147.17948697, 4136.53846133, 4136.53846133, 4138.58974339, 4138.46153826, 4136.92307672, 4129.87179460, 4121.15384588, 4141.41025621, 4124.23076896,12.0
4132.05128178, 4139.74358954, 4126.15384588, 4130.76923050, 4142.30769210, 4145.64102544, 4147.43589723, 4140.25641005, 4133.97435870, 4131.92307665, 4127.69230742, 4116.66666639, 4134.74358947, 4129.35897408,12.0
4136.79487159, 4143.33333313, 4131.02564075, 4135.89743569, 4135.89743569, 4129.74358947, 4131.79487152, 4138.84615364, 4134.10256383, 4136.53846133, 4133.97435870, 4122.43589716, 4137.82051262, 4131.41025614,12.0
4146.41025621, 4154.10256390, 4144.48717928, 4147.82051262, 4148.84615364, 4131.02564075, 4135.12820485, 4139.61538441, 4141.41025621, 4146.41025621, 4146.79487159, 4140.25641005, 4152.05128185, 4127.94871767,12.0
4157.56410236, 4163.07692287, 4154.10256390, 4152.82051262, 4167.05128185, 4151.79487159, 4158.46153826, 4145.12820492, 4145.38461518, 4154.61538441, 4155.89743569, 4150.38461518, 4160.38461518, 4128.07692280,12.0
4164.10256390, 4166.53846133, 4158.58974339, 4152.56410236, 4164.23076903, 4155.38461518, 4163.07692287, 4152.82051262, 4153.84615364, 4163.20512800, 4163.20512800, 4152.56410236, 4162.69230749, 4127.43589716,12.0
4177.17948704, 4174.61538448, 4172.82051269, 4160.64102544, 4164.48717928, 4163.71794851, 4174.87179474, 4164.35897415, 4167.82051262, 4174.23076910, 4176.41025628, 4162.94871774, 4170.64102551, 4130.51282024,12.0
4185.64102551, 4183.46153833, 4186.92307679, 4169.23076910, 4183.84615371, 4179.74358961, 4193.97435884, 4169.99999986, 4168.84615371, 4175.12820499, 4179.74358961, 4172.05128192, 4173.07692294, 4129.35897408,12.0
4188.58974345, 4191.28205115, 4192.94871781, 4174.10256397, 4198.46153833, 4171.92307679, 4186.79487166, 4165.25641005, 4166.02564082, 4171.66666653, 4177.82051269, 4178.84615371, 4172.43589730, 4129.61538434,12.0
4190.76923063, 4193.33333320, 4194.35897422, 4177.17948704, 4189.99999986, 4160.38461518, 4168.97435884, 4156.79487159, 4164.23076903, 4174.48717935, 4181.02564089, 4180.76923063, 4176.28205115, 4131.79487152,12.0
4185.12820499, 4185.76923063, 4188.20512807, 4171.41025628, 4179.35897422, 4165.89743569, 4167.17948697, 4157.05128185, 4164.99999980, 4175.38461525, 4179.35897422, 4171.41025628, 4174.48717935, 4126.66666639,12.0
4187.05128192, 4187.56410243, 4187.05128192, 4171.28205115, 4189.10256397, 4173.97435884, 4182.43589730, 4169.99999986, 4175.12820499, 4181.66666653, 4184.23076910, 4175.51282038, 4177.94871781, 4124.74358947,12.0
4190.89743576, 4186.79487166, 4188.07692294, 4171.66666653, 4190.89743576, 4169.99999986, 4183.20512807, 4171.41025628, 4174.74358961, 4186.92307679, 4185.12820499, 4179.99999986, 4180.89743576, 4125.76923050,12.0
4177.17948704, 4166.02564082, 4170.89743576, 4156.79487159, 4171.15384602, 4160.51282031, 4162.69230749, 4155.76923056, 4154.61538441, 4170.25641012, 4162.56410236, 4159.74358954, 4164.74358954, 4130.12820485,12.0
4170.12820499, 4162.30769210, 4165.25641005, 4153.46153826, 4161.02564082, 4160.64102544, 4156.79487159, 4150.12820492, 4151.02564082, 4160.38461518, 4152.94871774, 4152.30769210, 4157.17948697, 4132.56410229,12.0
4183.07692294, 4178.84615371, 4182.17948704, 4167.69230749, 4161.66666646, 4158.07692287, 4161.15384595, 4155.38461518, 4166.66666646, 4172.17948704, 4169.10256397, 4167.94871774, 4169.99999986, 4126.53846126,12.0
4180.12820499, 4169.23076910, 4173.84615371, 4162.30769210, 4158.71794851, 4144.99999980, 4150.51282031, 4146.15384595, 4155.64102544, 4164.61538441, 4162.82051262, 4161.02564082, 4166.66666646, 4129.23076896,12.0
4159.87179467, 4148.84615364, 4149.87179467, 4145.76923056, 4159.87179467, 4140.38461518, 4144.74358954, 4138.58974339, 4136.28205108, 4146.79487159, 4140.25641005, 4142.05128185, 4151.41025621, 4131.15384588,12.0
4160.76923056, 4154.99999980, 4156.15384595, 4150.76923056, 4163.20512800, 4150.89743569, 4155.25641005, 4151.15384595, 4147.56410236, 4157.17948697, 4147.05128185, 4143.58974339, 4155.64102544, 4126.15384588,12.0
4176.66666653, 4171.15384602, 4172.43589730, 4165.25641005, 4164.10256390, 4158.20512800, 4167.69230749, 4161.79487159, 4162.43589723, 4173.20512807, 4165.76923056, 4152.56410236, 4169.99999986, 4127.17948691,12.0
4181.28205115, 4177.05128192, 4175.51282038, 4169.48717935, 4174.61538448, 4160.89743569, 4179.35897422, 4165.12820492, 4162.69230749, 4175.51282038, 4167.82051262, 4156.41025621, 4170.89743576, 4128.07692280,12.0
4174.10256397, 4170.51282038, 4171.92307679, 4162.94871774, 4178.71794858, 4161.41025621, 4178.84615371, 4167.43589723, 4163.07692287, 4173.58974345, 4160.38461518, 4153.84615364, 4161.79487159, 4127.82051255,12.0
4168.46153833, 4158.58974339, 4165.76923056, 4157.56410236, 4166.41025621, 4155.89743569, 4166.41025621, 4159.23076903, 4160.38461518, 4168.58974345, 4156.53846133, 4144.99999980, 4157.56410236, 4125.25640998,12.0
4176.92307679, 4160.12820492, 4169.23076910, 4168.20512807, 4167.17948697, 4158.46153826, 4176.66666653, 4164.23076903, 4163.20512800, 4174.61538448, 4164.10256390, 4152.69230749, 4169.74358961, 4123.84615357,12.0
4180.38461525, 4163.33333313, 4174.87179474, 4173.71794858, 4174.61538448, 4156.15384595, 4180.76923063, 4180.38461525, 4179.61538448, 4184.48717935, 4173.20512807, 4167.17948697, 4179.61538448, 4131.28205101,12.0
4157.56410236, 4149.35897415, 4158.58974339, 4157.56410236, 4157.69230749, 4139.99999980, 4144.61538441, 4161.41025621, 4173.07692294, 4174.87179474, 4164.74358954, 4152.94871774, 4164.61538441, 4130.12820485,12.0
4135.64102544, 4136.41025621, 4138.20512800, 4144.35897415, 4127.69230742, 4135.89743569, 4121.41025614, 4131.28205101, 4140.89743569, 4154.10256390, 4146.02564082, 4127.94871767, 4145.76923056, 4124.10256383,12.0
4139.74358954, 4137.94871774, 4141.66666646, 4148.46153826, 4125.64102537, 4140.76923056, 4133.58974332, 4132.56410229, 4125.38461511, 4146.53846133, 4143.97435877, 4128.20512793, 4149.74358954, 4124.23076896,12.0
4150.12820492, 4143.33333313, 4152.94871774, 4151.92307672, 4149.74358954, 4138.71794851, 4144.74358954, 4143.97435877, 4136.15384595, 4158.20512800, 4158.07692287, 4142.17948697, 4163.33333313, 4125.25640998,12.0
4152.94871774, 4146.79487159, 4153.58974339, 4149.23076903, 4156.66666646, 4140.38461518, 4147.94871774, 4148.20512800, 4146.15384595, 4169.87179474, 4166.53846133, 4144.74358954, 4168.07692287, 4128.07692280,12.0
4157.05128185, 4151.02564082, 4154.99999980, 4153.58974339, 4147.43589723, 4148.84615364, 4160.64102544, 4149.61538441, 4145.38461518, 4166.41025621, 4167.43589723, 4143.07692287, 4167.17948697, 4125.89743562,12.0
4157.05128185, 4151.02564082, 4154.99999980, 4153.58974339, 4147.43589723, 4148.84615364, 4160.64102544, 4149.61538441, 4145.38461518, 4166.41025621, 4167.43589723, 4143.07692287, 4167.17948697, 4125.89743562,12.0
4161.02564082, 4152.05128185, 4158.46153826, 4154.74358954, 4145.38461518, 4150.25641005, 4171.15384602, 4154.87179467, 4144.99999980, 4161.66666646, 4165.38461518, 4140.38461518, 4159.87179467, 4126.79487152,12.0
4157.05128185, 4147.56410236, 4153.97435877, 4148.46153826, 4146.15384595, 4143.33333313, 4157.82051262, 4159.74358954, 4149.99999980, 4165.89743569, 4162.05128185, 4136.53846133, 4154.35897415, 4131.02564075,12.0
4149.99999980, 4141.15384595, 4146.79487159, 4142.30769210, 4135.51282031, 4133.33333306, 4135.12820485, 4152.17948697, 4150.12820492, 4164.23076903, 4161.15384595, 4136.41025621, 4159.10256390, 4125.25640998,12.0
4152.43589723, 4140.25641005, 4148.97435877, 4141.53846133, 4123.46153819, 4129.48717921, 4129.35897408, 4144.74358954, 4144.74358954, 4158.46153826, 4160.64102544, 4135.76923056, 4161.66666646, 4127.56410229,12.0
4157.56410236, 4147.82051262, 4156.28205108, 4149.23076903, 4134.74358947, 4140.25641005, 4140.51282031, 4147.69230749, 4145.25641005, 4160.76923056, 4158.46153826, 4137.43589723, 4158.20512800, 4132.30769203,12.0
4154.48717928, 4153.71794851, 4156.92307672, 4153.84615364, 4155.25641005, 4146.92307672, 4148.33333313, 4154.35897415, 4153.20512800, 4166.79487159, 4160.12820492, 4137.94871774, 4158.46153826, 4128.46153819,12.0
4150.51282031, 4148.71794851, 4154.35897415, 4147.43589723, 4151.41025621, 4137.82051262, 4144.87179467, 4154.99999980, 4155.51282031, 4167.05128185, 4162.56410236, 4136.79487159, 4160.12820492, 4126.41025614,12.0
4158.71794851, 4151.66666646, 4164.35897415, 4148.71794851, 4145.25641005, 4143.46153826, 4154.23076903, 4147.82051262, 4142.94871774, 4159.23076903, 4166.41025621, 4147.82051262, 4160.51282031, 4124.87179460,12.0
4168.84615371, 4164.35897415, 4175.51282038, 4162.05128185, 4157.82051262, 4158.84615364, 4164.48717928, 4141.79487159, 4131.28205101, 4152.69230749, 4168.07692287, 4160.12820492, 4161.41025621, 4130.12820485,12.0
4165.76923056, 4163.97435877, 4167.43589723, 4165.64102544, 4159.87179467, 4144.35897415, 4145.12820492, 4147.17948697, 4137.17948697, 4156.53846133, 4162.69230749, 4153.20512800, 4158.07692287, 4131.28205101,12.0
4158.84615364, 4156.92307672, 4154.74358954, 4159.48717928, 4150.89743569, 4121.02564075, 4122.30769203, 4147.17948697, 4139.35897415, 4157.43589723, 4158.20512800, 4139.74358954, 4154.10256390, 4123.84615357,12.0
4160.25641005, 4154.99999980, 4154.48717928, 4155.64102544, 4145.89743569, 4126.15384588, 4132.17948691, 4141.15384595, 4133.07692280, 4150.25641005, 4156.53846133, 4136.41025621, 4155.89743569, 4127.43589716,12.0
4162.82051262, 4156.41025621, 4159.23076903, 4157.30769210, 4140.89743569, 4139.74358954, 4151.53846133, 4152.43589723, 4144.10256390, 4153.33333313, 4157.56410236, 4141.15384595, 4159.48717928, 4130.38461511,12.0
4163.71794851, 4161.66666646, 4160.64102544, 4162.05128185, 4152.56410236, 4142.17948697, 4154.87179467, 4158.58974339, 4154.61538441, 4163.71794851, 4162.17948697, 4146.41025621, 4160.38461518, 4127.94871767,12.0
4161.92307672, 4161.15384595, 4157.43589723, 4159.10256390, 4170.38461525, 4143.84615364, 4156.02564082, 4147.05128185, 4147.69230749, 4164.35897415, 4162.30769210, 4144.35897415, 4158.46153826, 4126.53846126,12.0
4150.76923056, 4144.87179467, 4147.05128185, 4145.76923056, 4155.76923056, 4138.07692287, 4146.02564082, 4144.48717928, 4145.51282031, 4153.46153826, 4150.89743569, 4135.51282031, 4149.23076903, 4126.02564075,12.0
4147.94871774, 4139.35897415, 4142.69230749, 4141.53846133, 4137.17948697, 4137.94871774, 4147.30769210, 4150.89743569, 4146.53846133, 4145.38461518, 4145.38461518, 4134.87179460, 4144.99999980, 4131.28205101,12.0
4160.12820492, 4157.17948697, 4157.56410236, 4157.30769210, 4154.61538441, 4155.76923056, 4181.92307679, 4161.79487159, 4153.33333313, 4156.66666646, 4161.28205108, 4147.56410236, 4158.71794851, 4128.58974332,12.0
4159.35897415, 4154.87179467, 4161.79487159, 4161.02564082, 4158.46153826, 4150.76923056, 4182.30769217, 4168.33333320, 4158.07692287, 4163.58974339, 4166.41025621, 4149.99999980, 4164.10256390, 4126.28205101,12.0
4141.66666646, 4128.33333306, 4138.58974339, 4136.41025621, 4119.74358947, 4116.66666639, 4129.74358947, 4146.92307672, 4133.71794844, 4136.02564082, 4143.20512800, 4127.94871767, 4145.25641005, 4131.66666639,12.0
4140.76923056, 4128.07692280, 4132.17948691, 4130.38461511, 4109.87179460, 4107.82051255, 4103.46153819, 4123.20512793, 4114.74358947, 4119.87179460, 4135.25640998, 4119.61538434, 4137.17948697, 4127.82051255,12.0
4160.76923056, 4155.89743569, 4154.99999980, 4155.51282031, 4149.87179467, 4131.15384588, 4128.58974332, 4133.20512793, 4137.17948697, 4146.66666646, 4159.74358954, 4144.10256390, 4156.66666646, 4127.17948691,12.0
4161.79487159, 4158.71794851, 4159.10256390, 4159.10256390, 4163.58974339, 4135.89743569, 4140.64102544, 4145.76923056, 4155.25641005, 4159.99999980, 4169.99999986, 4153.97435877, 4162.17948697, 4130.89743562,12.0
4142.43589723, 4138.58974339, 4138.46153826, 4136.41025621, 4134.61538434, 4124.74358947, 4126.53846126, 4135.64102544, 4136.79487159, 4139.87179467, 4150.12820492, 4131.92307665, 4143.84615364, 4130.25640998,12.0
4136.53846133, 4135.25640998, 4131.79487152, 4131.66666639, 4125.51282024, 4124.87179460, 4122.56410229, 4125.76923050, 4116.28205101, 4124.23076896, 4137.82051262, 4121.66666639, 4139.35897415, 4129.74358947,12.0
4145.38461518, 4144.61538441, 4141.79487159, 4142.82051262, 4142.82051262, 4134.23076896, 4135.25640998, 4131.15384588, 4119.99999973, 4128.84615357, 4147.05128185, 4129.99999973, 4146.15384595, 4125.51282024,12.0
4154.35897415, 4150.89743569, 4151.53846133, 4149.23076903, 4151.92307672, 4138.33333313, 4139.74358954, 4143.20512800, 4141.41025621, 4142.56410236, 4156.92307672, 4137.17948697, 4149.48717928, 4126.41025614,12.0
4161.02564082, 4156.15384595, 4161.02564082, 4154.48717928, 4148.97435877, 4135.38461518, 4142.05128185, 4151.02564082, 4156.02564082, 4152.05128185, 4161.15384595, 4147.05128185, 4156.28205108, 4131.15384588,12.0
4166.15384595, 4158.58974339, 4165.12820492, 4158.58974339, 4143.07692287, 4146.28205108, 4172.05128192, 4164.87179467, 4162.56410236, 4155.64102544, 4166.41025621, 4158.20512800, 4166.28205108, 4131.41025614,12.0
4163.46153826, 4147.94871774, 4155.64102544, 4153.07692287, 4140.25641005, 4147.69230749, 4172.69230756, 4164.87179467, 4160.64102544, 4150.25641005, 4161.15384595, 4153.97435877, 4160.64102544, 4129.74358947,12.0
4160.64102544, 4143.97435877, 4153.46153826, 4148.84615364, 4147.56410236, 4129.23076896, 4131.92307665, 4138.84615364, 4144.23076903, 4142.05128185, 4150.51282031, 4147.17948697, 4152.43589723, 4128.07692280,12.0
4163.71794851, 4155.25641005, 4162.82051262, 4152.82051262, 4153.20512800, 4126.28205101, 4124.99999973, 4132.56410229, 4134.10256383, 4141.15384595, 4153.07692287, 4150.12820492, 4157.17948697, 4131.02564075,12.0
4164.48717928, 4158.84615364, 4163.07692287, 4161.28205108, 4148.33333313, 4140.89743569, 4146.15384595, 4152.17948697, 4146.92307672, 4146.53846133, 4162.82051262, 4154.48717928, 4163.58974339, 4127.94871767,12.0
4163.33333313, 4156.66666646, 4158.33333313, 4165.64102544, 4153.07692287, 4144.61538441, 4143.97435877, 4153.71794851, 4159.87179467, 4151.41025621, 4166.79487159, 4155.76923056, 4163.84615364, 4123.07692280,12.0
4165.25641005, 4160.12820492, 4160.38461518, 4159.87179467, 4158.07692287, 4141.79487159, 4141.28205108, 4147.30769210, 4152.56410236, 4148.07692287, 4159.74358954, 4150.12820492, 4158.84615364, 4130.76923050,12.0
4158.07692287, 4153.71794851, 4154.35897415, 4150.51282031, 4145.89743569, 4144.48717928, 4146.79487159, 4145.25641005, 4142.69230749, 4135.12820485, 4145.12820492, 4138.07692287, 4147.94871774, 4131.02564075,12.0
4153.46153826, 4151.15384595, 4150.64102544, 4158.71794851, 4149.35897415, 4146.79487159, 4145.38461518, 4143.58974339, 4146.41025621, 4135.12820485, 4146.92307672, 4139.87179467, 4150.64102544, 4126.41025614,12.0
4170.76923063, 4171.53846140, 4166.41025621, 4180.25641012, 4173.97435884, 4157.69230749, 4170.12820499, 4162.17948697, 4163.84615364, 4161.41025621, 4170.51282038, 4158.07692287, 4174.35897422, 4129.87179460,12.0
4173.33333320, 4171.66666653, 4169.23076910, 4176.79487166, 4176.02564089, 4162.82051262, 4188.84615371, 4173.20512807, 4165.25641005, 4164.23076903, 4169.87179474, 4154.74358954, 4172.82051269, 4131.53846126,12.0
4152.82051262, 4150.89743569, 4150.89743569, 4158.71794851, 4156.53846133, 4154.74358954, 4163.07692287, 4152.17948697, 4138.20512800, 4134.10256383, 4142.30769210, 4133.97435870, 4145.89743569, 4131.53846126,12.0
4149.74358954, 4151.66666646, 4146.28205108, 4161.79487159, 4151.15384595, 4143.71794851, 4133.71794844, 4139.10256390, 4127.43589716, 4133.84615357, 4143.71794851, 4137.56410236, 4148.71794851, 4128.97435870,12.0
4151.66666646, 4151.41025621, 4143.84615364, 4165.25641005, 4149.23076903, 4129.87179460, 4123.33333306, 4139.61538441, 4131.92307665, 4145.89743569, 4155.38461518, 4142.17948697, 4158.33333313, 4130.12820485,12.0
4135.89743569, 4134.35897408, 4124.48717921, 4149.10256390, 4138.84615364, 4125.89743562, 4118.58974332, 4131.41025614, 4119.35897408, 4127.30769203, 4137.43589723, 4122.69230742, 4138.20512800, 4132.43589716,12.0
4133.97435870, 4136.41025621, 4122.82051255, 4149.10256390, 4131.15384588, 4134.23076896, 4126.02564075, 4130.89743562, 4118.97435870, 4127.69230742, 4133.46153819, 4118.84615357, 4130.51282024, 4126.02564075,12.0
4155.51282031, 4156.02564082, 4142.82051262, 4167.82051262, 4141.15384595, 4145.25641005, 4153.33333313, 4155.25641005, 4152.94871774, 4159.35897415, 4156.28205108, 4139.48717928, 4154.48717928, 4126.53846126,12.0
4160.12820492, 4163.58974339, 4146.28205108, 4170.89743576, 4164.35897415, 4152.56410236, 4169.48717935, 4168.46153833, 4165.38461518, 4162.43589723, 4155.12820492, 4146.02564082, 4161.28205108, 4129.35897408,12.0
4155.51282031, 4168.33333320, 4144.74358954, 4169.23076910, 4172.94871781, 4148.07692287, 4162.69230749, 4156.41025621, 4145.25641005, 4142.69230749, 4142.17948697, 4143.46153826, 4150.64102544, 4127.69230742,12.0
4159.74358954, 4169.48717935, 4150.51282031, 4172.69230756, 4160.64102544, 4135.89743569, 4144.23076903, 4144.35897415, 4134.74358947, 4137.69230749, 4147.82051262, 4146.02564082, 4152.43589723, 4130.51282024,12.0
4162.56410236, 4164.87179467, 4154.23076903, 4171.53846140, 4160.12820492, 4147.56410236, 4153.07692287, 4160.25641005, 4147.43589723, 4147.05128185, 4153.20512800, 4149.87179467, 4162.05128185, 4128.46153819,12.0
4169.87179474, 4171.41025628, 4160.38461518, 4173.84615371, 4179.35897422, 4171.15384602, 4180.89743576, 4178.58974345, 4162.94871774, 4159.23076903, 4152.82051262, 4156.28205108, 4167.56410236, 4129.10256383,12.0
4166.28205108, 4164.87179467, 4157.17948697, 4173.20512807, 4169.35897422, 4151.15384595, 4159.23076903, 4153.84615364, 4149.99999980, 4153.33333313, 4147.05128185, 4150.89743569, 4156.79487159, 4129.87179460,12.0
4141.02564082, 4138.97435877, 4135.64102544, 4155.76923056, 4126.53846126, 4117.82051255, 4116.28205101, 4121.02564075, 4121.28205101, 4128.20512793, 4130.76923050, 4132.17948691, 4136.28205108, 4126.15384588,12.0
4140.51282031, 4142.94871774, 4134.48717921, 4151.92307672, 4129.10256383, 4130.12820485, 4128.58974332, 4132.94871767, 4124.87179460, 4131.15384588, 4132.43589716, 4136.79487159, 4140.51282031, 4129.87179460,12.0
4165.89743569, 4169.48717935, 4156.02564082, 4172.56410243, 4171.66666653, 4154.35897415, 4159.74358954, 4157.43589723, 4147.69230749, 4157.82051262, 4153.20512800, 4157.05128185, 4159.48717928, 4130.25640998,12.0
4167.94871774, 4168.58974345, 4153.97435877, 4177.94871781, 4172.69230756, 4151.53846133, 4159.23076903, 4159.74358954, 4148.46153826, 4156.79487159, 4155.76923056, 4154.74358954, 4156.79487159, 4129.74358947,12.0
4152.05128185, 4148.84615364, 4135.89743569, 4163.97435877, 4147.56410236, 4145.76923056, 4156.66666646, 4160.89743569, 4145.12820492, 4143.71794851, 4142.17948697, 4145.12820492, 4148.46153826, 4129.99999973,12.0
4154.23076903, 4153.20512800, 4142.56410236, 4163.58974339, 4156.15384595, 4152.56410236, 4168.33333320, 4165.89743569, 4156.15384595, 4151.41025621, 4144.23076903, 4150.38461518, 4157.30769210, 4125.76923050,12.0
4172.56410243, 4178.33333320, 4165.89743569, 4182.56410243, 4176.66666653, 4167.05128185, 4187.17948704, 4173.71794858, 4170.38461525, 4168.58974345, 4162.17948697, 4160.51282031, 4170.89743576, 4130.12820485,12.0
4170.89743576, 4175.51282038, 4164.48717928, 4184.61538448, 4177.94871781, 4173.58974345, 4190.51282038, 4183.46153833, 4176.66666653, 4169.10256397, 4159.61538441, 4155.51282031, 4167.69230749, 4131.02564075,12.0
4147.43589723, 4144.23076903, 4140.51282031, 4163.46153826, 4161.41025621, 4160.76923056, 4164.99999980, 4170.76923063, 4160.38461518, 4147.05128185, 4133.97435870, 4138.20512800, 4149.87179467, 4124.99999973,12.0
4138.84615364, 4138.33333313, 4131.41025614, 4156.53846133, 4144.48717928, 4149.61538441, 4149.23076903, 4147.30769210, 4139.10256390, 4130.12820485, 4129.61538434, 4130.51282024, 4139.61538441, 4126.53846126,12.0
4151.02564082, 4157.82051262, 4144.61538441, 4167.69230749, 4153.46153826, 4153.46153826, 4159.23076903, 4151.41025621, 4147.56410236, 4141.79487159, 4148.58974339, 4137.56410236, 4146.28205108, 4128.97435870,12.0
4159.61538441, 4163.97435877, 4154.35897415, 4173.71794858, 4173.84615371, 4158.07692287, 4167.05128185, 4171.66666653, 4165.38461518, 4158.20512800, 4153.84615364, 4148.07692287, 4160.12820492, 4129.99999973,12.0
4161.02564082, 4166.28205108, 4157.05128185, 4178.97435884, 4172.56410243, 4158.84615364, 4163.84615364, 4169.48717935, 4158.84615364, 4161.53846133, 4153.84615364, 4155.25641005, 4167.69230749, 4127.69230742,12.0
4165.38461518, 4174.10256397, 4158.07692287, 4183.71794858, 4166.66666646, 4157.17948697, 4160.25641005, 4157.43589723, 4152.43589723, 4165.25641005, 4164.87179467, 4155.89743569, 4165.25641005, 4128.71794844,12.0
4163.46153826, 4173.07692294, 4154.99999980, 4177.43589730, 4167.82051262, 4148.58974339, 4155.38461518, 4153.71794851, 4156.66666646, 4164.74358954, 4160.76923056, 4154.35897415, 4161.41025621, 4133.20512793,12.0
4163.97435877, 4177.43589730, 4159.87179467, 4179.35897422, 4168.07692287, 4149.61538441, 4154.74358954, 4153.20512800, 4157.17948697, 4162.69230749, 4155.25641005, 4163.07692287, 4167.05128185, 4126.66666639,12.0
4176.92307679, 4189.61538448, 4171.28205115, 4191.79487166, 4176.41025628, 4165.51282031, 4167.05128185, 4157.05128185, 4159.48717928, 4167.17948697, 4171.02564089, 4174.23076910, 4174.99999986, 4127.69230742,12.0
4180.51282038, 4188.71794858, 4173.46153833, 4190.64102551, 4177.05128192, 4165.38461518, 4171.41025628, 4156.15384595, 4159.87179467, 4162.05128185, 4175.51282038, 4172.17948704, 4169.87179474, 4133.97435870,12.0
4172.82051269, 4182.30769217, 4169.99999986, 4183.33333320, 4161.66666646, 4149.61538441, 4158.84615364, 4150.76923056, 4154.48717928, 4151.28205108, 4160.89743569, 4167.69230749, 4161.02564082, 4129.61538434,12.0
4171.28205115, 4179.87179474, 4167.43589723, 4184.61538448, 4159.48717928, 4151.53846133, 4158.20512800, 4153.33333313, 4152.82051262, 4149.48717928, 4154.87179467, 4164.74358954, 4160.38461518, 4127.30769203,12.0
4169.87179474, 4175.89743576, 4160.51282031, 4188.07692294, 4172.30769217, 4155.89743569, 4164.99999980, 4154.87179467, 4153.71794851, 4150.51282031, 4159.10256390, 4157.94871774, 4161.02564082, 4126.15384588,12.0
4164.48717928, 4177.17948704, 4154.61538441, 4188.33333320, 4171.66666653, 4140.51282031, 4152.05128185, 4150.51282031, 4152.94871774, 4149.74358954, 4161.02564082, 4161.15384595, 4161.28205108, 4128.71794844,12.0
4159.23076903, 4178.33333320, 4154.87179467, 4185.51282038, 4161.15384595, 4136.53846133, 4144.10256390, 4149.74358954, 4152.30769210, 4149.35897415, 4156.92307672, 4164.99999980, 4161.66666646, 4130.51282024,12.0
4151.92307672, 4169.35897422, 4152.69230749, 4184.10256397, 4165.64102544, 4154.99999980, 4159.87179467, 4153.33333313, 4146.79487159, 4145.12820492, 4151.66666646, 4157.17948697, 4157.82051262, 4127.17948691,12.0
4151.92307672, 4167.43589723, 4153.97435877, 4187.82051269, 4166.53846133, 4158.46153826, 4159.23076903, 4155.76923056, 4141.28205108, 4144.61538441, 4154.74358954, 4156.02564082, 4159.10256390, 4129.48717921,12.0
4156.79487159, 4173.84615371, 4157.69230749, 4187.94871781, 4153.46153826, 4144.35897415, 4139.48717928, 4152.94871774, 4144.35897415, 4148.84615364, 4160.76923056, 4161.92307672, 4163.46153826, 4129.99999973,12.0
4149.61538441, 4162.56410236, 4147.69230749, 4179.87179474, 4149.74358954, 4144.10256390, 4137.05128185, 4145.89743569, 4140.89743569, 4144.87179467, 4147.56410236, 4153.07692287, 4158.20512800, 4127.69230742,12.0
4147.30769210, 4153.97435877, 4140.38461518, 4183.07692294, 4163.20512800, 4152.94871774, 4148.33333313, 4147.43589723, 4138.71794851, 4142.82051262, 4140.25641005, 4143.46153826, 4154.61538441, 4128.58974332,12.0
4167.43589723, 4178.33333320, 4162.43589723, 4198.58974345, 4180.89743576, 4158.46153826, 4160.51282031, 4160.25641005, 4158.58974339, 4161.02564082, 4166.15384595, 4161.53846133, 4167.30769210, 4129.48717921,12.0
4182.94871781, 4195.25641012, 4182.17948704, 4206.53846147, 4182.43589730, 4160.89743569, 4165.12820492, 4166.41025621, 4171.28205115, 4176.66666653, 4186.53846140, 4183.46153833, 4180.89743576, 4132.82051255,12.0
4182.43589730, 4183.71794858, 4177.82051269, 4207.94871788, 4177.69230756, 4166.02564082, 4169.35897422, 4169.87179474, 4172.56410243, 4179.61538448, 4181.28205115, 4186.92307679, 4183.46153833, 4130.64102537,12.0
4184.99999986, 4180.89743576, 4177.69230756, 4208.97435891, 4186.28205115, 4179.61538448, 4190.76923063, 4178.58974345, 4181.41025628, 4182.69230756, 4179.61538448, 4182.69230756, 4182.94871781, 4130.51282024,12.0
4190.25641012, 4196.28205115, 4186.92307679, 4210.76923070, 4192.17948704, 4183.71794858, 4199.23076910, 4183.97435884, 4181.28205115, 4181.02564089, 4187.05128192, 4185.51282038, 4183.07692294, 4135.38461518,12.0
4185.12820499, 4196.66666653, 4184.87179474, 4207.69230763, 4180.64102551, 4168.07692287, 4175.25641012, 4178.46153833, 4167.05128185, 4171.66666653, 4182.17948704, 4187.56410243, 4178.33333320, 4129.99999973,12.0
4183.46153833, 4186.28205115, 4180.25641012, 4205.38461532, 4183.84615371, 4163.97435877, 4173.84615371, 4180.25641012, 4170.89743576, 4168.46153833, 4172.82051269, 4181.41025628, 4174.74358961, 4126.66666639,12.0
4193.33333320, 4192.05128192, 4185.64102551, 4213.33333327, 4204.61538455, 4179.74358961, 4196.53846140, 4191.66666653, 4189.35897422, 4179.23076910, 4179.87179474, 4183.46153833, 4181.15384602, 4128.84615357,12.0
4187.05128192, 4190.51282038, 4177.69230756, 4212.43589737, 4191.92307679, 4176.28205115, 4175.51282038, 4177.17948704, 4176.92307679, 4180.64102551, 4183.07692294, 4182.30769217, 4178.84615371, 4130.12820485,12.0
4165.25641005, 4164.87179467, 4154.61538441, 4192.56410243, 4162.94871774, 4158.46153826, 4144.61538441, 4149.48717928, 4148.71794851, 4161.41025621, 4165.76923056, 4161.53846133, 4164.87179467, 4132.30769203,12.0
4165.25641005, 4153.71794851, 4156.92307672, 4189.48717935, 4171.28205115, 4160.64102544, 4161.53846133, 4148.84615364, 4152.56410236, 4156.15384595, 4158.58974339, 4154.48717928, 4163.07692287, 4128.97435870,12.0
4182.82051269, 4175.38461525, 4175.64102551, 4217.17948711, 4190.76923063, 4171.66666653, 4176.79487166, 4165.76923056, 4171.28205115, 4174.74358961, 4177.30769217, 4173.84615371, 4171.41025628, 4128.71794844,12.0
4171.79487166, 4178.33333320, 4162.69230749, 4219.23076917, 4176.79487166, 4158.46153826, 4154.87179467, 4164.48717928, 4166.66666646, 4175.51282038, 4176.79487166, 4166.53846133, 4167.30769210, 4130.64102537,12.0
4147.56410236, 4153.97435877, 4136.92307672, 4185.76923063, 4159.23076903, 4141.53846133, 4147.30769210, 4155.89743569, 4153.46153826, 4156.53846133, 4155.89743569, 4136.28205108, 4159.61538441, 4129.35897408,12.0
4154.61538441, 4151.41025621, 4146.02564082, 4178.97435884, 4169.87179474, 4153.58974339, 4168.97435884, 4164.48717928, 4158.20512800, 4161.28205108, 4162.82051262, 4142.82051262, 4165.25641005, 4130.76923050,12.0
4167.82051262, 4160.89743569, 4161.66666646, 4197.17948704, 4178.97435884, 4166.41025621, 4174.87179474, 4171.53846140, 4164.74358954, 4174.87179474, 4174.99999986, 4161.79487159, 4167.05128185, 4128.46153819,12.0
4166.28205108, 4158.71794851, 4156.79487159, 4192.69230756, 4169.99999986, 4157.17948697, 4163.33333313, 4167.17948697, 4164.87179467, 4170.38461525, 4164.87179467, 4153.97435877, 4161.92307672, 4129.99999973,12.0
4167.43589723, 4156.92307672, 4155.51282031, 4178.84615371, 4167.94871774, 4152.82051262, 4161.66666646, 4166.28205108, 4166.28205108, 4166.53846133, 4163.20512800, 4150.38461518, 4164.74358954, 4132.94871767,12.0
4166.53846133, 4153.07692287, 4157.69230749, 4185.12820499, 4173.20512807, 4159.99999980, 4162.17948697, 4166.41025621, 4163.71794851, 4164.10256390, 4166.02564082, 4152.82051262, 4162.05128185, 4127.82051255,12.0
4160.76923056, 4146.53846133, 4152.69230749, 4186.92307679, 4162.82051262, 4155.25641005, 4154.61538441, 4157.56410236, 4156.66666646, 4156.92307672, 4156.92307672, 4147.56410236, 4156.79487159, 4130.38461511,12.0
4162.94871774, 4153.97435877, 4151.79487159, 4182.17948704, 4157.05128185, 4148.58974339, 4146.66666646, 4153.58974339, 4159.87179467, 4166.28205108, 4163.58974339, 4149.74358954, 4164.87179467, 4130.89743562,12.0
4170.76923063, 4163.33333313, 4158.97435877, 4186.53846140, 4172.30769217, 4160.38461518, 4152.69230749, 4166.92307672, 4176.02564089, 4183.33333320, 4179.74358961, 4158.84615364, 4170.76923063, 4127.56410229,12.0
4173.58974345, 4158.07692287, 4163.33333313, 4187.05128192, 4185.89743576, 4173.84615371, 4167.94871774, 4172.82051269, 4179.35897422, 4177.05128192, 4178.46153833, 4161.92307672, 4163.84615364, 4130.25640998,12.0
4168.33333320, 4150.89743569, 4161.66666646, 4182.82051269, 4183.07692294, 4163.33333313, 4160.51282031, 4157.82051262, 4160.12820492, 4164.48717928, 4172.69230756, 4159.99999980, 4158.71794851, 4130.51282024,12.0
4169.23076910, 4156.92307672, 4164.99999980, 4186.92307679, 4183.84615371, 4154.99999980, 4161.53846133, 4158.58974339, 4157.56410236, 4170.25641012, 4176.53846140, 4163.07692287, 4166.28205108, 4131.15384588,12.0
4179.74358961, 4170.51282038, 4173.58974345, 4192.30769217, 4195.12820499, 4174.61538448, 4202.17948711, 4182.43589730, 4181.79487166, 4182.94871781, 4182.56410243, 4168.97435884, 4177.82051269, 4129.35897408,12.0
4175.38461525, 4163.71794851, 4168.07692287, 4184.35897422, 4183.33333320, 4172.43589730, 4189.87179474, 4173.20512807, 4180.25641012, 4177.56410243, 4177.30769217, 4161.02564082, 4172.69230756, 4128.58974332,12.0
4154.35897415, 4144.74358954, 4151.53846133, 4173.71794858, 4161.79487159, 4139.10256390, 4123.58974332, 4139.10256390, 4150.51282031, 4156.41025621, 4162.82051262, 4140.76923056, 4154.74358954, 4132.30769203,12.0
4144.35897415, 4138.84615364, 4142.05128185, 4167.82051262, 4163.58974339, 4133.71794844, 4124.10256383, 4137.94871774, 4142.69230749, 4146.92307672, 4152.69230749, 4128.97435870, 4148.07692287, 4129.99999973,12.0
4149.74358954, 4140.25641005, 4138.71794851, 4161.53846133, 4160.64102544, 4150.89743569, 4164.35897415, 4151.66666646, 4147.69230749, 4150.51282031, 4149.74358954, 4128.84615357, 4150.12820492, 4128.46153819,12.0
4155.64102544, 4145.12820492, 4144.35897415, 4164.61538441, 4146.92307672, 4151.79487159, 4155.12820492, 4148.84615364, 4145.51282031, 4151.41025621, 4153.46153826, 4132.94871767, 4153.20512800, 4129.99999973,12.0
4161.79487159, 4150.64102544, 4155.64102544, 4172.17948704, 4160.76923056, 4145.12820492, 4136.53846133, 4152.43589723, 4151.79487159, 4150.25641005, 4158.58974339, 4142.94871774, 4160.51282031, 4130.89743562,12.0
4161.02564082, 4145.76923056, 4150.76923056, 4163.46153826, 4179.61538448, 4145.12820492, 4142.69230749, 4153.07692287, 4148.71794851, 4146.28205108, 4152.43589723, 4143.07692287, 4157.05128185, 4131.41025614,12.0
4152.30769210, 4142.43589723, 4138.58974339, 4152.17948697, 4167.82051262, 4149.35897415, 4147.94871774, 4142.69230749, 4138.07692287, 4138.84615364, 4141.92307672, 4132.17948691, 4143.71794851, 4126.92307665,12.0
4154.23076903, 4151.41025621, 4138.33333313, 4162.05128185, 4157.30769210, 4158.97435877, 4157.69230749, 4147.82051262, 4145.76923056, 4143.07692287, 4141.92307672, 4131.41025614, 4145.51282031, 4129.61538434,12.0
4153.84615364, 4148.07692287, 4138.46153826, 4168.84615371, 4166.66666646, 4156.53846133, 4159.99999980, 4153.58974339, 4152.30769210, 4151.15384595, 4143.84615364, 4136.41025621, 4151.41025621, 4134.23076896,12.0
4144.74358954, 4140.64102544, 4138.97435877, 4162.82051262, 4168.46153833, 4146.41025621, 4150.89743569, 4145.51282031, 4146.15384595, 4147.56410236, 4143.84615364, 4135.64102544, 4148.84615364, 4129.23076896,12.0
4140.25641005, 4143.33333313, 4139.35897415, 4160.38461518, 4149.61538441, 4143.71794851, 4142.05128185, 4143.07692287, 4142.43589723, 4140.51282031, 4141.41025621, 4129.99999973, 4147.05128185, 4131.02564075,12.0
4132.30769203, 4135.38461518, 4126.15384588, 4154.48717928, 4134.87179460, 4138.33333313, 4133.20512793, 4143.20512800, 4141.15384595, 4141.28205108, 4133.07692280, 4121.92307665, 4143.20512800, 4133.33333306,12.0
4131.15384588, 4135.76923056, 4122.43589716, 4152.94871774, 4151.66666646, 4141.53846133, 4139.48717928, 4146.41025621, 4147.82051262, 4148.71794851, 4135.38461518, 4121.92307665, 4143.84615364, 4131.28205101,12.0
4148.97435877, 4151.92307672, 4138.71794851, 4165.38461518, 4174.61538448, 4152.56410236, 4156.02564082, 4152.43589723, 4158.20512800, 4152.82051262, 4144.61538441, 4134.10256383, 4150.25641005, 4129.99999973,12.0
4154.74358954, 4148.20512800, 4144.99999980, 4168.84615371, 4166.41025621, 4148.07692287, 4154.35897415, 4152.05128185, 4156.92307672, 4149.74358954, 4144.35897415, 4141.92307672, 4148.84615364, 4128.71794844,12.0
4143.97435877, 4135.76923056, 4140.25641005, 4156.66666646, 4150.89743569, 4142.82051262, 4140.25641005, 4151.41025621, 4157.43589723, 4148.58974339, 4141.02564082, 4137.56410236, 4146.15384595, 4131.28205101,12.0
4137.69230749, 4138.84615364, 4139.48717928, 4150.64102544, 4143.97435877, 4151.41025621, 4139.35897415, 4141.41025621, 4156.28205108, 4144.87179467, 4137.17948697, 4135.38461518, 4144.10256390, 4132.17948691,12.0
4138.07692287, 4140.76923056, 4138.58974339, 4154.99999980, 4143.46153826, 4155.89743569, 4151.66666646, 4132.94871767, 4143.71794851, 4136.53846133, 4133.71794844, 4137.94871774, 4136.02564082, 4130.12820485,12.0
4144.61538441, 4143.33333313, 4139.61538441, 4157.30769210, 4153.84615364, 4148.58974339, 4152.56410236, 4151.02564082, 4151.66666646, 4142.56410236, 4138.58974339, 4138.71794851, 4137.56410236, 4128.20512793,12.0
4145.76923056, 4148.46153826, 4135.64102544, 4152.30769210, 4156.79487159, 4138.46153826, 4133.46153819, 4156.15384595, 4164.48717928, 4148.07692287, 4139.35897415, 4133.20512793, 4142.30769210, 4127.43589716,12.0
4128.84615357, 4128.58974332, 4117.05128178, 4139.99999980, 4142.05128185, 4126.66666639, 4114.23076896, 4125.38461511, 4138.58974339, 4123.97435870, 4119.35897408, 4117.94871767, 4129.74358947, 4131.79487152,12.0
4116.02564075, 4115.25640998, 4107.69230742, 4132.30769203, 4134.99999973, 4126.28205101, 4122.17948691, 4113.58974332, 4112.94871767, 4106.92307665, 4104.87179460, 4102.69230742, 4121.02564075, 4130.12820485,12.0
4127.82051255, 4140.25641005, 4119.35897408, 4139.74358954, 4149.61538441, 4142.30769210, 4145.64102544, 4139.35897415, 4130.51282024, 4124.87179460, 4115.51282024, 4106.28205101, 4129.61538434, 4128.20512793,12.0
4139.10256390, 4151.28205108, 4124.48717921, 4144.48717928, 4159.87179467, 4148.33333313, 4147.43589723, 4152.56410236, 4149.99999980, 4141.79487159, 4125.89743562, 4117.94871767, 4135.51282031, 4134.74358947,12.0
4128.46153819, 4126.53846126, 4112.56410229, 4131.92307665, 4148.20512800, 4134.48717921, 4124.99999973, 4137.05128185, 4140.25641005, 4133.58974332, 4121.02564075, 4113.33333306, 4132.17948691, 4131.28205101,12.0
4120.64102537, 4114.99999973, 4108.07692280, 4126.79487152, 4126.66666639, 4130.12820485, 4123.20512793, 4128.71794844, 4130.12820485, 4125.76923050, 4116.28205101, 4105.76923050, 4131.15384588, 4131.53846126,12.0
4135.51282031, 4133.84615357, 4121.02564075, 4142.05128185, 4131.92307665, 4145.51282031, 4152.05128185, 4151.02564082, 4149.23076903, 4142.94871774, 4125.89743562, 4116.92307665, 4139.74358954, 4138.20512800,12.0
4148.84615364, 4146.53846133, 4131.41025614, 4148.07692287, 4161.79487159, 4156.28205108, 4164.74358954, 4169.74358961, 4174.10256397, 4165.38461518, 4138.07692287, 4127.94871767, 4150.76923056, 4134.61538434,12.0
4143.33333313, 4143.46153826, 4129.10256383, 4143.46153826, 4165.64102544, 4152.56410236, 4150.64102544, 4158.84615364, 4168.58974345, 4157.94871774, 4137.17948697, 4123.97435870, 4149.74358954, 4130.51282024,12.0
4137.17948697, 4136.79487159, 4123.71794844, 4146.92307672, 4152.82051262, 4148.71794851, 4144.74358954, 4141.15384595, 4146.02564082, 4136.15384595, 4132.17948691, 4121.53846126, 4139.23076903, 4128.07692280,12.0
4133.07692280, 4130.76923050, 4117.56410229, 4144.48717928, 4149.35897415, 4147.69230749, 4152.05128185, 4141.02564082, 4138.97435877, 4129.61538434, 4127.69230742, 4117.30769203, 4131.02564075, 4131.02564075,12.0
4129.74358947, 4131.92307665, 4114.35897408, 4138.58974339, 4142.69230749, 4143.07692287, 4150.25641005, 4151.28205108, 4146.15384595, 4130.38461511, 4123.20512793, 4110.64102537, 4129.48717921, 4134.23076896,12.0
4138.33333313, 4140.64102544, 4123.71794844, 4151.41025621, 4144.74358954, 4139.61538441, 4139.87179467, 4150.89743569, 4150.64102544, 4132.05128178, 4129.35897408, 4118.07692280, 4135.38461518, 4130.38461511,12.0
4138.33333313, 4140.64102544, 4123.71794844, 4151.41025621, 4144.74358954, 4139.61538441, 4139.87179467, 4150.89743569, 4150.64102544, 4132.05128178, 4129.35897408, 4118.07692280, 4135.38461518, 4130.38461511,12.0
4149.23076903, 4147.43589723, 4132.17948691, 4163.20512800, 4163.84615364, 4142.30769210, 4142.94871774, 4142.17948697, 4152.56410236, 4137.69230749, 4140.76923056, 4130.12820485, 4141.79487159, 4129.99999973,12.0
4136.41025621, 4138.84615364, 4122.94871767, 4151.79487159, 4151.66666646, 4143.46153826, 4145.12820492, 4132.43589716, 4143.97435877, 4133.33333306, 4133.33333306, 4122.82051255, 4136.02564082, 4131.28205101,12.0
4126.15384588, 4135.12820485, 4116.92307665, 4143.97435877, 4136.28205108, 4144.74358954, 4139.99999980, 4132.43589716, 4131.53846126, 4124.48717921, 4120.76923050, 4114.74358947, 4127.94871767, 4132.30769203,12.0
4142.43589723, 4147.05128185, 4135.25640998, 4155.38461518, 4164.35897415, 4154.74358954, 4148.58974339, 4147.56410236, 4143.33333313, 4132.69230742, 4134.23076896, 4131.15384588, 4137.94871774, 4133.46153819,12.0
4148.84615364, 4144.87179467, 4141.66666646, 4157.43589723, 4165.38461518, 4149.10256390, 4144.35897415, 4145.64102544, 4150.89743569, 4138.71794851, 4144.74358954, 4141.92307672, 4146.28205108, 4131.92307665,12.0
4135.12820485, 4130.25640998, 4123.97435870, 4143.84615364, 4129.48717921, 4124.48717921, 4113.20512793, 4123.46153819, 4127.56410229, 4126.66666639, 4131.15384588, 4127.30769203, 4136.28205108, 4134.74358947,12.0
4131.79487152, 4136.02564082, 4123.97435870, 4147.69230749, 4135.76923056, 4121.66666639, 4108.58974332, 4116.28205101, 4111.66666639, 4121.53846126, 4128.07692280, 4120.89743562, 4131.53846126, 4131.53846126,12.0
4143.33333313, 4153.71794851, 4138.84615364, 4162.30769210, 4156.15384595, 4138.58974339, 4136.28205108, 4137.17948697, 4132.69230742, 4132.17948691, 4143.46153826, 4135.38461518, 4144.10256390, 4126.92307665,12.0
4147.82051262, 4148.46153826, 4134.61538434, 4157.69230749, 4139.87179467, 4143.46153826, 4146.53846133, 4151.66666646, 4149.10256390, 4137.94871774, 4147.69230749, 4138.71794851, 4149.48717928, 4132.30769203,12.0
4140.64102544, 4131.79487152, 4119.87179460, 4146.15384595, 4130.89743562, 4138.58974339, 4136.79487159, 4138.71794851, 4133.07692280, 4126.41025614, 4135.38461518, 4126.28205101, 4133.84615357, 4133.33333306,12.0
4141.41025621, 4135.38461518, 4123.46153819, 4150.12820492, 4141.02564082, 4143.33333313, 4138.71794851, 4130.38461511, 4125.51282024, 4120.12820485, 4132.82051255, 4122.82051255, 4132.30769203, 4130.51282024,12.0
4147.43589723, 4146.28205108, 4132.69230742, 4158.33333313, 4143.84615364, 4148.20512800, 4147.82051262, 4139.99999980, 4139.10256390, 4126.92307665, 4140.25641005, 4125.38461511, 4142.82051262, 4127.94871767,12.0
4148.58974339, 4147.69230749, 4134.48717921, 4158.84615364, 4151.02564082, 4149.99999980, 4155.12820492, 4154.99999980, 4154.99999980, 4135.64102544, 4146.28205108, 4126.15384588, 4144.35897415, 4128.84615357,12.0
4142.69230749, 4141.53846133, 4130.12820485, 4154.23076903, 4158.71794851, 4152.43589723, 4154.74358954, 4151.53846133, 4151.15384595, 4138.97435877, 4146.02564082, 4126.66666639, 4143.84615364, 4135.89743569,12.0
4138.84615364, 4136.41025621, 4121.53846126, 4151.15384595, 4154.61538441, 4150.64102544, 4149.23076903, 4139.87179467, 4136.66666646, 4131.28205101, 4139.99999980, 4124.35897408, 4145.51282031, 4132.69230742,12.0
4147.05128185, 4144.87179467, 4124.48717921, 4153.33333313, 4148.46153826, 4143.58974339, 4142.30769210, 4152.69230749, 4143.33333313, 4127.94871767, 4139.99999980, 4120.76923050, 4145.38461518, 4128.71794844,12.0
4153.71794851, 4158.07692287, 4136.53846133, 4157.82051262, 4148.71794851, 4136.66666646, 4137.17948697, 4163.46153826, 4158.97435877, 4141.41025621, 4149.35897415, 4124.10256383, 4146.02564082, 4133.97435870,12.0
4146.28205108, 4152.05128185, 4136.28205108, 4156.53846133, 4147.17948697, 4134.61538434, 4134.61538434, 4146.41025621, 4154.87179467, 4152.94871774, 4152.30769210, 4128.58974332, 4148.33333313, 4134.87179460,12.0
4130.89743562, 4128.71794844, 4117.30769203, 4144.23076903, 4137.82051262, 4127.82051255, 4117.17948691, 4127.43589716, 4133.97435870, 4137.69230749, 4137.17948697, 4118.46153819, 4137.82051262, 4131.41025614,12.0
4117.94871767, 4111.53846126, 4100.51282017, 4129.35897408, 4114.23076896, 4116.28205101, 4095.89743555, 4123.20512793, 4123.46153819, 4115.76923050, 4119.99999973, 4101.92307658, 4122.69230742, 4127.82051255,12.0
4126.92307665, 4119.10256383, 4107.56410229, 4133.20512793, 4103.46153819, 4117.43589716, 4108.71794844, 4127.69230742, 4131.41025614, 4119.35897408, 4122.56410229, 4105.51282024, 4128.33333306, 4130.25640998,12.0
4151.41025621, 4141.15384595, 4126.15384588, 4151.02564082, 4129.74358947, 4135.25640998, 4143.20512800, 4144.87179467, 4150.51282031, 4134.48717921, 4135.38461518, 4124.48717921, 4142.17948697, 4133.20512793,12.0
4153.97435877, 4142.82051262, 4126.53846126, 4149.23076903, 4147.43589723, 4144.48717928, 4147.94871774, 4155.89743569, 4160.25641005, 4132.82051255, 4128.07692280, 4124.23076896, 4136.66666646, 4129.61538434,12.0
4143.20512800, 4134.99999973, 4118.20512793, 4138.33333313, 4141.92307672, 4145.51282031, 4143.07692287, 4149.61538441, 4153.46153826, 4126.41025614, 4116.02564075, 4112.30769203, 4132.05128178, 4131.15384588,12.0
4156.41025621, 4151.79487159, 4133.71794844, 4150.64102544, 4153.58974339, 4161.66666646, 4168.71794858, 4156.15384595, 4160.76923056, 4140.25641005, 4134.87179460, 4122.82051255, 4149.99999980, 4132.30769203,12.0
4166.28205108, 4160.38461518, 4143.20512800, 4161.41025621, 4164.61538441, 4169.61538448, 4176.66666653, 4168.84615371, 4170.76923063, 4147.94871774, 4149.74358954, 4136.41025621, 4154.87179467, 4132.30769203,12.0
4146.79487159, 4138.58974339, 4120.64102537, 4149.74358954, 4147.17948697, 4151.15384595, 4145.89743569, 4152.43589723, 4148.20512800, 4125.38461511, 4126.28205101, 4120.25640998, 4134.23076896, 4133.71794844,12.0
4133.84615357, 4130.64102537, 4110.64102537, 4140.64102544, 4139.23076903, 4136.79487159, 4130.25640998, 4131.79487152, 4126.02564075, 4108.33333306, 4109.48717921, 4107.05128178, 4124.23076896, 4132.56410229,12.0
4148.58974339, 4145.76923056, 4129.74358947, 4150.89743569, 4147.94871774, 4143.58974339, 4141.28205108, 4140.89743569, 4139.87179467, 4124.99999973, 4132.94871767, 4128.71794844, 4141.28205108, 4133.58974332,12.0
4154.87179467, 4147.94871774, 4137.69230749, 4157.05128185, 4135.51282031, 4142.30769210, 4133.07692280, 4143.84615364, 4145.25641005, 4137.56410236, 4148.71794851, 4139.99999980, 4148.58974339, 4129.35897408,12.0
4145.89743569, 4142.69230749, 4134.99999973, 4148.07692287, 4131.15384588, 4137.56410236, 4126.28205101, 4131.92307665, 4131.41025614, 4124.48717921, 4135.38461518, 4124.99999973, 4137.05128185, 4129.10256383,12.0
4147.94871774, 4145.25641005, 4138.46153826, 4146.92307672, 4150.25641005, 4146.28205108, 4145.38461518, 4143.58974339, 4142.94871774, 4125.89743562, 4130.76923050, 4124.61538434, 4140.89743569, 4133.84615357,12.0
4147.43589723, 4136.92307672, 4130.51282024, 4147.05128185, 4149.35897415, 4142.94871774, 4145.89743569, 4153.97435877, 4156.02564082, 4141.41025621, 4142.05128185, 4130.89743562, 4151.41025621, 4127.82051255,12.0
4137.43589723, 4129.48717921, 4115.25640998, 4135.89743569, 4131.41025614, 4133.84615357, 4126.02564075, 4139.35897415, 4142.82051262, 4134.35897408, 4137.82051262, 4119.99999973, 4141.66666646, 4127.05128178,12.0
4139.74358954, 4139.35897415, 4115.64102537, 4133.58974332, 4135.12820485, 4150.38461518, 4136.53846133, 4136.66666646, 4137.17948697, 4120.76923050, 4122.43589716, 4112.82051255, 4132.69230742, 4129.99999973,12.0
4155.12820492, 4150.12820492, 4129.10256383, 4147.17948697, 4154.99999980, 4169.99999986, 4163.84615364, 4149.61538441, 4146.41025621, 4131.92307665, 4131.92307665, 4127.17948691, 4143.71794851, 4127.56410229,12.0
4164.61538441, 4153.58974339, 4139.61538441, 4155.89743569, 4162.43589723, 4161.28205108, 4161.66666646, 4156.53846133, 4150.76923056, 4147.43589723, 4147.82051262, 4140.12820492, 4154.87179467, 4128.46153819,12.0
4155.38461518, 4149.99999980, 4139.48717928, 4145.89743569, 4151.79487159, 4150.38461518, 4147.43589723, 4156.28205108, 4153.58974339, 4147.05128185, 4137.17948697, 4130.51282024, 4152.30769210, 4127.69230742,12.0
4149.87179467, 4151.28205108, 4137.17948697, 4143.07692287, 4144.74358954, 4158.71794851, 4152.05128185, 4155.25641005, 4158.33333313, 4147.69230749, 4130.76923050, 4123.58974332, 4152.69230749, 4130.12820485,12.0
4155.38461518, 4156.15384595, 4138.84615364, 4157.94871774, 4149.99999980, 4157.82051262, 4153.58974339, 4154.23076903, 4154.99999980, 4152.43589723, 4147.17948697, 4136.53846133, 4157.94871774, 4131.28205101,12.0
4152.56410236, 4148.07692287, 4135.38461518, 4162.43589723, 4144.35897415, 4147.82051262, 4150.12820492, 4158.07692287, 4145.38461518, 4146.28205108, 4149.61538441, 4141.66666646, 4153.46153826, 4125.64102537,12.0
4144.74358954, 4138.84615364, 4127.69230742, 4149.99999980, 4135.51282031, 4149.99999980, 4156.41025621, 4166.53846133, 4142.82051262, 4137.30769210, 4136.28205108, 4128.71794844, 4145.76923056, 4128.97435870,12.0
4140.76923056, 4136.15384595, 4122.82051255, 4145.12820492, 4141.79487159, 4148.33333313, 4140.76923056, 4155.64102544, 4142.05128185, 4135.38461518, 4136.28205108, 4121.53846126, 4144.61538441, 4133.20512793,12.0
4140.12820492, 4139.10256390, 4127.17948691, 4158.33333313, 4149.10256390, 4144.35897415, 4126.28205101, 4139.35897415, 4137.17948697, 4139.35897415, 4144.48717928, 4128.46153819, 4148.71794851, 4130.38461511,12.0
4142.82051262, 4145.25641005, 4138.71794851, 4161.79487159, 4149.35897415, 4152.05128185, 4147.43589723, 4144.35897415, 4141.53846133, 4146.41025621, 4148.33333313, 4137.94871774, 4153.46153826, 4129.48717921,12.0
4146.53846133, 4145.51282031, 4141.79487159, 4150.38461518, 4145.38461518, 4152.17948697, 4148.33333313, 4150.12820492, 4151.79487159, 4149.87179467, 4146.66666646, 4136.15384595, 4154.35897415, 4130.64102537,12.0
4152.30769210, 4147.30769210, 4141.92307672, 4148.46153826, 4145.89743569, 4151.15384595, 4137.82051262, 4143.84615364, 4150.64102544, 4150.38461518, 4143.71794851, 4130.64102537, 4153.33333313, 4131.53846126,12.0
4166.15384595, 4163.33333313, 4157.94871774, 4163.71794851, 4161.66666646, 4172.56410243, 4169.99999986, 4157.94871774, 4159.87179467, 4164.99999980, 4152.94871774, 4144.35897415, 4162.56410236, 4131.41025614,12.0
4175.51282038, 4174.61538448, 4174.35897422, 4176.66666653, 4172.94871781, 4184.87179474, 4191.28205115, 4184.87179474, 4187.82051269, 4186.02564089, 4167.94871774, 4163.46153826, 4177.94871781, 4132.05128178,12.0
4176.15384602, 4171.15384602, 4171.28205115, 4171.28205115, 4165.89743569, 4171.41025628, 4168.33333320, 4178.33333320, 4188.33333320, 4184.48717935, 4171.02564089, 4161.92307672, 4176.02564089, 4129.23076896,12.0
4173.58974345, 4165.76923056, 4157.82051262, 4157.82051262, 4162.56410236, 4160.25641005, 4148.84615364, 4149.23076903, 4152.30769210, 4159.87179467, 4158.46153826, 4146.66666646, 4154.35897415, 4126.53846126,12.0
4162.05128185, 4152.43589723, 4145.89743569, 4144.10256390, 4151.53846133, 4153.07692287, 4143.58974339, 4134.10256383, 4127.82051255, 4138.97435877, 4140.38461518, 4132.43589716, 4142.69230749, 4133.07692280,12.0
4154.10256390, 4143.46153826, 4145.12820492, 4141.53846133, 4134.87179460, 4150.25641005, 4145.25641005, 4140.89743569, 4136.28205108, 4139.87179467, 4138.33333313, 4131.41025614, 4151.28205108, 4132.17948691,12.0
4158.58974339, 4149.48717928, 4153.33333313, 4147.82051262, 4144.61538441, 4152.56410236, 4142.82051262, 4146.28205108, 4142.94871774, 4144.23076903, 4148.46153826, 4137.30769210, 4152.82051262, 4126.79487152,12.0
4166.66666646, 4156.79487159, 4159.74358954, 4155.38461518, 4164.87179467, 4155.76923056, 4139.48717928, 4148.71794851, 4142.30769210, 4143.58974339, 4153.84615364, 4137.82051262, 4149.61538441, 4130.38461511,12.0
4170.38461525, 4160.76923056, 4163.07692287, 4162.94871774, 4168.84615371, 4168.97435884, 4164.10256390, 4163.71794851, 4157.17948697, 4153.71794851, 4159.87179467, 4140.25641005, 4158.58974339, 4128.71794844,12.0
4166.41025621, 4153.33333313, 4156.41025621, 4156.28205108, 4159.61538441, 4169.61538448, 4172.82051269, 4160.25641005, 4159.10256390, 4155.12820492, 4161.66666646, 4141.02564082, 4158.58974339, 4128.33333306,12.0
4165.51282031, 4146.41025621, 4151.28205108, 4148.46153826, 4157.94871774, 4150.51282031, 4149.74358954, 4152.05128185, 4152.69230749, 4149.87179467, 4154.61538441, 4137.17948697, 4150.38461518, 4134.61538434,12.0
4168.97435884, 4151.92307672, 4153.58974339, 4152.94871774, 4161.41025621, 4156.92307672, 4157.05128185, 4170.64102551, 4167.05128185, 4156.15384595, 4146.92307672, 4134.23076896, 4152.69230749, 4133.97435870,12.0
4161.79487159, 4149.10256390, 4144.61538441, 4146.53846133, 4153.97435877, 4172.43589730, 4165.89743569, 4166.28205108, 4159.74358954, 4147.56410236, 4137.17948697, 4126.79487152, 4148.84615364, 4130.51282024,12.0
4153.46153826, 4139.99999980, 4137.56410236, 4135.38461518, 4149.48717928, 4160.12820492, 4142.30769210, 4140.51282031, 4133.58974332, 4134.87179460, 4131.92307665, 4122.82051255, 4137.82051262, 4128.33333306,12.0
4154.74358954, 4137.17948697, 4138.97435877, 4138.33333313, 4148.71794851, 4147.56410236, 4136.41025621, 4146.66666646, 4137.56410236, 4145.25641005, 4132.94871767, 4126.28205101, 4137.82051262, 4130.12820485,12.0
4148.58974339, 4132.43589716, 4127.43589716, 4137.30769210, 4140.12820492, 4150.51282031, 4145.25641005, 4150.64102544, 4140.51282031, 4141.92307672, 4124.61538434, 4120.51282024, 4133.97435870, 4131.15384588,12.0
4144.23076903, 4132.69230742, 4121.66666639, 4132.82051255, 4139.23076903, 4152.17948697, 4143.33333313, 4134.10256383, 4123.33333306, 4126.02564075, 4118.71794844, 4114.87179460, 4125.64102537, 4129.99999973,12.0
4152.17948697, 4141.28205108, 4136.92307672, 4140.25641005, 4153.97435877, 4156.66666646, 4149.35897415, 4142.82051262, 4129.23076896, 4138.58974339, 4132.30769203, 4128.71794844, 4133.07692280, 4130.76923050,12.0
4153.58974339, 4142.30769210, 4147.17948697, 4143.20512800, 4158.07692287, 4161.66666646, 4156.92307672, 4155.38461518, 4141.15384595, 4150.25641005, 4142.05128185, 4138.97435877, 4139.87179467, 4128.20512793,12.0
4142.69230749, 4130.38461511, 4136.02564082, 4131.53846126, 4141.53846133, 4149.74358954, 4135.25640998, 4136.66666646, 4122.43589716, 4131.15384588, 4130.89743562, 4127.69230742, 4130.51282024, 4130.51282024,12.0
4134.61538434, 4120.25640998, 4124.35897408, 4125.12820485, 4127.05128178, 4133.58974332, 4113.71794844, 4128.20512793, 4109.74358947, 4126.41025614, 4120.64102537, 4116.92307665, 4126.28205101, 4135.38461518,12.0
4137.43589723, 4124.87179460, 4128.97435870, 4135.51282031, 4131.28205101, 4137.43589723, 4127.69230742, 4148.71794851, 4131.66666639, 4147.05128185, 4130.25640998, 4122.94871767, 4134.61538434, 4130.12820485,12.0
4143.71794851, 4130.64102537, 4136.66666646, 4144.87179467, 4138.97435877, 4149.99999980, 4149.99999980, 4159.74358954, 4144.10256390, 4148.46153826, 4137.56410236, 4129.35897408, 4136.92307672, 4129.87179460,12.0
4139.23076903, 4122.17948691, 4126.66666639, 4134.74358947, 4134.99999973, 4147.05128185, 4144.99999980, 4143.33333313, 4124.87179460, 4124.99999973, 4123.71794844, 4119.61538434, 4127.30769203, 4132.17948691,12.0
4131.79487152, 4114.99999973, 4110.51282024, 4122.94871767, 4127.56410229, 4140.64102544, 4135.89743569, 4132.82051255, 4112.17948691, 4113.46153819, 4109.74358947, 4105.89743562, 4114.48717921, 4131.79487152,12.0
4134.74358947, 4118.07692280, 4111.02564075, 4127.30769203, 4120.51282024, 4144.61538441, 4143.33333313, 4143.84615364, 4124.87179460, 4119.48717921, 4111.66666639, 4101.53846119, 4116.41025614, 4131.66666639,12.0
4140.64102544, 4121.66666639, 4120.38461511, 4135.25640998, 4123.46153819, 4146.15384595, 4147.17948697, 4149.10256390, 4138.58974339, 4131.41025614, 4127.17948691, 4107.05128178, 4132.94871767, 4127.17948691,12.0
4146.92307672, 4127.30769203, 4124.61538434, 4136.15384595, 4144.23076903, 4150.89743569, 4152.43589723, 4148.97435877, 4143.84615364, 4145.25641005, 4139.99999980, 4116.28205101, 4140.38461518, 4127.69230742,12.0
4149.99999980, 4134.10256383, 4125.64102537, 4132.69230742, 4144.87179467, 4151.02564082, 4152.43589723, 4148.58974339, 4145.12820492, 4142.56410236, 4134.99999973, 4118.07692280, 4133.07692280, 4129.99999973,12.0
4156.41025621, 4142.30769210, 4132.94871767, 4137.56410236, 4133.46153819, 4144.87179467, 4141.92307672, 4146.28205108, 4144.35897415, 4134.10256383, 4132.94871767, 4120.64102537, 4134.48717921, 4129.74358947,12.0
4166.15384595, 4146.02564082, 4143.84615364, 4146.41025621, 4142.94871774, 4149.61538441, 4142.69230749, 4145.76923056, 4148.33333313, 4144.74358954, 4147.82051262, 4133.20512793, 4146.02564082, 4132.82051255,12.0
4155.12820492, 4132.56410229, 4137.94871774, 4141.79487159, 4139.61538441, 4148.20512800, 4141.79487159, 4142.05128185, 4145.64102544, 4148.58974339, 4151.15384595, 4135.38461518, 4143.20512800, 4130.76923050,12.0
4142.17948697, 4121.53846126, 4124.99999973, 4127.56410229, 4117.56410229, 4134.99999973, 4133.33333306, 4143.20512800, 4138.07692287, 4133.20512793, 4136.92307672, 4123.71794844, 4132.05128178, 4127.30769203,12.0
4150.51282031, 4130.64102537, 4125.12820485, 4124.99999973, 4117.17948691, 4138.33333313, 4137.94871774, 4150.64102544, 4135.51282031, 4130.38461511, 4132.17948691, 4123.07692280, 4131.53846126, 4130.51282024,12.0
4154.10256390, 4131.41025614, 4127.82051255, 4131.28205101, 4126.92307665, 4142.05128185, 4137.82051262, 4141.92307672, 4122.82051255, 4132.56410229, 4132.94871767, 4129.61538434, 4132.56410229, 4134.87179460,12.0
4138.46153826, 4113.71794844, 4118.07692280, 4123.46153819, 4118.97435870, 4128.33333306, 4123.33333306, 4128.97435870, 4111.66666639, 4115.38461511, 4122.56410229, 4120.64102537, 4124.87179460, 4132.69230742,12.0
4136.53846133, 4113.46153819, 4113.71794844, 4117.05128178, 4109.99999973, 4130.51282024, 4130.64102537, 4138.07692287, 4122.69230742, 4113.33333306, 4121.79487152, 4115.12820485, 4122.43589716, 4125.51282024,12.0
4136.53846133, 4113.46153819, 4113.71794844, 4117.05128178, 4109.99999973, 4130.51282024, 4130.64102537, 4138.07692287, 4122.69230742, 4113.33333306, 4121.79487152, 4115.12820485, 4122.43589716, 4125.51282024,12.0
4156.02564082, 4137.43589723, 4131.41025614, 4131.92307665, 4120.38461511, 4146.79487159, 4151.02564082, 4154.23076903, 4137.56410236, 4135.76923056, 4142.43589723, 4132.30769203, 4136.02564082, 4130.89743562,12.0
4159.61538441, 4143.97435877, 4142.56410236, 4142.05128185, 4135.76923056, 4139.10256390, 4139.48717928, 4147.94871774, 4132.56410229, 4139.35897415, 4145.38461518, 4139.10256390, 4140.76923056, 4135.64102544,12.0
4149.87179467, 4134.87179460, 4137.30769210, 4136.02564082, 4137.69230749, 4128.46153819, 4125.25640998, 4139.99999980, 4132.30769203, 4128.71794844, 4133.84615357, 4130.38461511, 4133.71794844, 4127.69230742,12.0
4150.51282031, 4136.41025621, 4140.25641005, 4135.38461518, 4129.87179460, 4140.12820492, 4139.99999980, 4146.28205108, 4141.28205108, 4132.94871767, 4139.10256390, 4133.71794844, 4138.07692287, 4128.71794844,12.0
4150.12820492, 4135.12820485, 4141.79487159, 4138.20512800, 4128.84615357, 4139.99999980, 4140.51282031, 4143.71794851, 4136.02564082, 4136.41025621, 4143.20512800, 4137.94871774, 4142.43589723, 4128.07692280,12.0
4142.69230749, 4127.17948691, 4128.33333306, 4131.02564075, 4129.99999973, 4124.10256383, 4119.87179460, 4132.94871767, 4126.41025614, 4126.53846126, 4128.33333306, 4122.05128178, 4130.12820485, 4124.35897408,12.0
