AF3,F7,F3,FC5,T7,P7,O1,O2,P8,T8,FC6,F4,F8,AF4,Label
4128.46153819, 4131.28205101, 4126.15384588, 4124.87179460, 4132.05128178, 4111.92307665, 4134.48717921, 4169.35897422, 4137.05128185, 4132.82051255, 4140.25641005, 4127.69230742, 4138.84615364, 4129.99999973,10.0
4140.64102544, 4144.99999980, 4147.82051262, 4139.23076903, 4146.41025621, 4126.79487152, 4154.99999980, 4181.41025628, 4153.58974339, 4148.97435877, 4154.99999980, 4143.84615364, 4152.30769210, 4130.51282024,10.0
4164.35897415, 4167.43589723, 4178.46153833, 4170.12820499, 4167.43589723, 4153.84615364, 4181.28205115, 4202.82051275, 4183.07692294, 4178.71794858, 4175.25641012, 4170.51282038, 4163.84615364, 4130.25640998,10.0
4147.30769210, 4155.76923056, 4160.38461518, 4160.76923056, 4149.35897415, 4137.30769210, 4158.84615364, 4186.02564089, 4160.12820492, 4154.74358954, 4157.94871774, 4153.84615364, 4139.61538441, 4130.76923050,10.0
4123.71794844, 4135.51282031, 4134.10256383, 4135.12820485, 4131.66666639, 4108.07692280, 4125.38461511, 4157.05128185, 4120.76923050, 4124.10256383, 4135.89743569, 4129.23076896, 4123.71794844, 4128.20512793,10.0
4139.23076903, 4145.38461518, 4143.33333313, 4141.28205108, 4143.33333313, 4118.58974332, 4131.53846126, 4161.66666646, 4129.61538434, 4136.15384595, 4143.97435877, 4138.58974339, 4134.10256383, 4126.66666639,10.0
4143.46153826, 4147.82051262, 4143.07692287, 4145.25641005, 4138.97435877, 4124.87179460, 4129.74358947, 4161.28205108, 4131.15384588, 4127.82051255, 4140.89743569, 4137.94871774, 4123.97435870, 4128.71794844,10.0
4126.79487152, 4130.89743562, 4127.94871767, 4133.33333306, 4126.66666639, 4107.82051255, 4115.89743562, 4145.64102544, 4101.66666632, 4093.97435863, 4122.82051255, 4122.05128178, 4107.05128178, 4128.84615357,10.0
4139.48717928, 4138.71794851, 4138.84615364, 4142.82051262, 4137.82051262, 4115.12820485, 4133.20512793, 4156.15384595, 4110.25640998, 4110.51282024, 4136.79487159, 4136.79487159, 4127.94871767, 4131.15384588,10.0
4165.76923056, 4163.58974339, 4166.15384595, 4167.30769210, 4147.56410236, 4136.79487159, 4152.69230749, 4176.92307679, 4147.56410236, 4153.07692287, 4167.43589723, 4167.82051262, 4156.02564082, 4131.92307665,10.0
4180.12820499, 4178.58974345, 4187.30769217, 4181.92307679, 4160.64102544, 4145.12820492, 4157.94871774, 4174.99999986, 4159.48717928, 4165.51282031, 4182.43589730, 4183.58974345, 4163.33333313, 4129.99999973,10.0
4189.48717935, 4182.82051269, 4195.64102551, 4185.38461525, 4179.87179474, 4149.23076903, 4171.02564089, 4170.25641012, 4156.53846133, 4167.69230749, 4188.07692294, 4186.41025628, 4169.61538448, 4132.56410229,10.0
4193.97435884, 4181.92307679, 4194.61538448, 4185.12820499, 4179.23076910, 4155.12820492, 4183.84615371, 4186.66666653, 4171.02564089, 4185.38461525, 4195.12820499, 4193.71794858, 4178.97435884, 4131.41025614,10.0
4181.92307679, 4175.51282038, 4185.51282038, 4180.25641012, 4164.48717928, 4146.66666646, 4164.48717928, 4184.10256397, 4162.82051262, 4184.99999986, 4191.02564089, 4196.53846140, 4170.89743576, 4132.17948691,10.0
4156.28205108, 4160.64102544, 4162.94871774, 4167.82051262, 4149.35897415, 4119.35897408, 4122.05128178, 4145.12820492, 4119.87179460, 4138.58974339, 4161.92307672, 4171.28205115, 4141.92307672, 4132.43589716,10.0
4142.56410236, 4149.35897415, 4152.69230749, 4155.64102544, 4139.74358954, 4107.69230742, 4108.20512793, 4129.48717921, 4104.61538434, 4103.71794844, 4139.48717928, 4147.94871774, 4125.64102537, 4127.56410229,10.0
4148.20512800, 4149.35897415, 4163.07692287, 4154.61538441, 4144.23076903, 4117.56410229, 4125.51282024, 4147.56410236, 4122.43589716, 4120.89743562, 4149.10256390, 4155.51282031, 4136.53846133, 4132.05128178,10.0
4143.71794851, 4144.99999980, 4154.48717928, 4153.20512800, 4143.20512800, 4112.30769203, 4121.02564075, 4140.76923056, 4118.97435870, 4129.99999973, 4153.33333313, 4154.35897415, 4139.87179467, 4132.69230742,10.0
4133.71794844, 4141.66666646, 4141.66666646, 4149.74358954, 4133.97435870, 4107.94871767, 4114.87179460, 4126.41025614, 4111.02564075, 4120.76923050, 4149.87179467, 4139.74358954, 4134.99999973, 4129.99999973,10.0
4141.15384595, 4153.46153826, 4154.61538441, 4158.46153826, 4141.92307672, 4125.89743562, 4139.10256390, 4139.10256390, 4129.61538434, 4135.64102544, 4161.28205108, 4147.17948697, 4143.07692287, 4129.99999973,10.0
4153.20512800, 4168.07692287, 4169.74358961, 4171.53846140, 4156.41025621, 4134.61538434, 4151.53846133, 4150.89743569, 4145.38461518, 4156.92307672, 4169.87179474, 4167.30769210, 4155.76923056, 4128.20512793,10.0
4153.20512800, 4168.07692287, 4169.74358961, 4171.53846140, 4156.41025621, 4134.61538434, 4151.53846133, 4150.89743569, 4145.38461518, 4156.92307672, 4169.87179474, 4167.30769210, 4155.76923056, 4128.20512793,10.0
4154.87179467, 4167.82051262, 4169.99999986, 4172.43589730, 4150.89743569, 4128.33333306, 4144.35897415, 4151.02564082, 4142.94871774, 4154.99999980, 4166.92307672, 4168.20512807, 4161.02564082, 4131.15384588,10.0
4156.15384595, 4163.33333313, 4172.82051269, 4169.61538448, 4147.30769210, 4138.46153826, 4154.48717928, 4155.76923056, 4139.48717928, 4152.05128185, 4166.92307672, 4160.25641005, 4161.02564082, 4132.05128178,10.0
4154.87179467, 4159.10256390, 4174.23076910, 4164.35897415, 4154.99999980, 4138.58974339, 4151.28205108, 4151.41025621, 4133.71794844, 4145.38461518, 4161.66666646, 4158.71794851, 4149.99999980, 4131.53846126,10.0
4142.82051262, 4147.56410236, 4163.97435877, 4153.97435877, 4146.92307672, 4108.33333306, 4114.48717921, 4127.69230742, 4116.02564075, 4125.38461511, 4148.71794851, 4154.87179467, 4138.71794851, 4129.99999973,10.0
4133.46153819, 4137.30769210, 4152.69230749, 4148.33333313, 4127.56410229, 4090.89743555, 4099.48717914, 4113.33333306, 4094.10256376, 4114.23076896, 4142.17948697, 4146.79487159, 4138.20512800, 4128.97435870,10.0
4136.15384595, 4135.64102544, 4146.15384595, 4148.20512800, 4123.46153819, 4101.92307658, 4118.20512793, 4122.82051255, 4089.10256376, 4110.64102537, 4134.23076896, 4141.15384595, 4133.07692280, 4134.23076896,10.0
4144.61538441, 4143.20512800, 4153.58974339, 4154.74358954, 4139.23076903, 4121.15384588, 4136.66666646, 4140.64102544, 4115.64102537, 4117.69230742, 4136.92307672, 4145.64102544, 4130.25640998, 4133.07692280,10.0
4154.61538441, 4151.92307672, 4167.17948697, 4166.02564082, 4154.87179467, 4133.84615357, 4148.46153826, 4149.48717928, 4136.66666646, 4141.02564082, 4155.51282031, 4156.66666646, 4145.51282031, 4129.87179460,10.0
4176.15384602, 4169.10256397, 4185.38461525, 4179.74358961, 4172.82051269, 4145.12820492, 4171.53846140, 4161.28205108, 4146.41025621, 4169.99999986, 4178.07692294, 4180.38461525, 4171.53846140, 4132.94871767,10.0
4187.94871781, 4184.35897422, 4192.82051269, 4188.84615371, 4188.84615371, 4153.33333313, 4188.20512807, 4172.82051269, 4166.15384595, 4187.30769217, 4186.28205115, 4195.12820499, 4175.38461525, 4132.94871767,10.0
4168.97435884, 4175.89743576, 4172.82051269, 4184.23076910, 4182.56410243, 4149.61538441, 4174.61538448, 4160.25641005, 4162.43589723, 4172.82051269, 4163.20512800, 4171.79487166, 4149.23076903, 4132.17948691,10.0
4143.46153826, 4155.25641005, 4143.71794851, 4160.25641005, 4163.07692287, 4130.89743562, 4147.43589723, 4126.41025614, 4120.12820485, 4134.35897408, 4133.33333306, 4140.25641005, 4125.12820485, 4131.92307665,10.0
4136.66666646, 4145.89743569, 4132.94871767, 4140.25641005, 4155.25641005, 4117.69230742, 4134.10256383, 4109.35897408, 4098.46153812, 4113.97435870, 4127.69230742, 4135.25640998, 4123.20512793, 4128.58974332,10.0
4152.69230749, 4160.76923056, 4156.66666646, 4158.84615364, 4169.35897422, 4136.15384595, 4151.02564082, 4136.53846133, 4135.38461518, 4147.69230749, 4153.71794851, 4163.97435877, 4147.56410236, 4128.33333306,10.0
4178.46153833, 4185.89743576, 4192.82051269, 4191.92307679, 4189.61538448, 4164.61538441, 4176.02564089, 4162.43589723, 4169.74358961, 4189.61538448, 4187.30769217, 4205.89743583, 4178.07692294, 4131.15384588,10.0
4187.56410243, 4190.64102551, 4199.35897422, 4189.99999986, 4191.41025628, 4165.89743569, 4172.56410243, 4152.05128185, 4163.71794851, 4190.25641012, 4197.30769217, 4216.53846147, 4185.12820499, 4130.89743562,10.0
4180.12820499, 4177.05128192, 4184.99999986, 4169.99999986, 4181.02564089, 4152.94871774, 4154.87179467, 4144.48717928, 4158.71794851, 4180.38461525, 4188.46153833, 4199.48717935, 4176.53846140, 4128.84615357,10.0
4170.51282038, 4162.82051262, 4171.02564089, 4161.02564082, 4172.94871781, 4144.87179467, 4144.74358954, 4144.87179467, 4154.23076903, 4172.30769217, 4170.89743576, 4184.23076910, 4165.76923056, 4130.76923050,10.0
4148.97435877, 4147.82051262, 4147.17948697, 4144.48717928, 4158.97435877, 4133.20512793, 4128.71794844, 4127.17948691, 4130.89743562, 4146.92307672, 4144.74358954, 4158.97435877, 4145.12820492, 4132.69230742,10.0
4151.02564082, 4154.87179467, 4155.76923056, 4141.66666646, 4158.58974339, 4143.07692287, 4143.20512800, 4147.17948697, 4161.15384595, 4166.41025621, 4156.92307672, 4162.56410236, 4157.43589723, 4131.15384588,10.0
4180.76923063, 4176.66666653, 4191.41025628, 4161.92307672, 4176.79487166, 4163.84615364, 4172.05128192, 4187.43589730, 4214.99999993, 4219.23076917, 4194.61538448, 4198.71794858, 4193.20512807, 4130.76923050,10.0
4171.41025628, 4163.58974339, 4175.76923063, 4154.61538441, 4171.02564089, 4148.46153826, 4142.69230749, 4152.56410236, 4173.33333320, 4198.97435884, 4171.79487166, 4183.20512807, 4172.30769217, 4132.56410229,10.0
4141.66666646, 4139.10256390, 4144.74358954, 4135.89743569, 4152.69230749, 4134.23076896, 4114.48717921, 4108.84615357, 4118.33333306, 4155.64102544, 4134.74358947, 4141.66666646, 4135.38461518, 4132.30769203,10.0
4140.89743569, 4133.58974332, 4143.84615364, 4136.15384595, 4153.46153826, 4148.46153826, 4137.30769210, 4127.17948691, 4135.12820485, 4156.66666646, 4144.99999980, 4142.56410236, 4141.41025621, 4131.53846126,10.0
4151.92307672, 4133.97435870, 4144.61538441, 4133.58974332, 4159.10256390, 4151.92307672, 4149.48717928, 4145.76923056, 4148.71794851, 4156.41025621, 4155.76923056, 4154.35897415, 4147.43589723, 4131.02564075,10.0
4146.53846133, 4132.17948691, 4137.43589723, 4126.79487152, 4146.92307672, 4141.02564082, 4134.35897408, 4136.41025621, 4132.17948691, 4143.97435877, 4142.43589723, 4139.99999980, 4134.48717921, 4129.23076896,10.0
4142.17948697, 4133.71794844, 4137.43589723, 4131.28205101, 4142.94871774, 4150.51282031, 4143.58974339, 4142.30769210, 4137.43589723, 4151.15384595, 4140.51282031, 4130.38461511, 4132.82051255, 4130.25640998,10.0
4148.07692287, 4136.66666646, 4141.66666646, 4132.82051255, 4158.71794851, 4159.48717928, 4155.51282031, 4159.99999980, 4158.97435877, 4162.56410236, 4149.99999980, 4138.84615364, 4140.51282031, 4132.82051255,10.0
4141.28205108, 4127.56410229, 4135.89743569, 4117.43589716, 4156.02564082, 4144.61538441, 4138.58974339, 4159.61538441, 4161.28205108, 4164.23076903, 4145.89743569, 4136.28205108, 4139.23076903, 4131.79487152,10.0
4126.53846126, 4116.66666639, 4124.23076896, 4110.38461511, 4139.99999980, 4141.15384595, 4135.38461518, 4147.05128185, 4147.69230749, 4160.25641005, 4132.56410229, 4121.41025614, 4131.79487152, 4128.20512793,10.0
4115.64102537, 4111.66666639, 4108.97435870, 4111.28205101, 4133.97435870, 4149.23076903, 4144.10256390, 4132.17948691, 4126.66666639, 4139.48717928, 4115.12820485, 4104.35897408, 4117.94871767, 4128.58974332,10.0
4106.28205101, 4104.35897408, 4093.58974325, 4101.79487145, 4131.79487152, 4140.12820492, 4130.64102537, 4129.87179460, 4122.56410229, 4125.38461511, 4105.38461511, 4092.05128171, 4108.46153819, 4130.89743562,10.0
4099.61538427, 4094.87179453, 4088.20512786, 4094.61538427, 4131.41025614, 4131.15384588, 4121.66666639, 4139.74358954, 4141.15384595, 4130.12820485, 4103.71794844, 4087.17948684, 4107.69230742, 4130.51282024,10.0
4098.07692273, 4091.66666632, 4086.28205094, 4092.69230735, 4133.33333306, 4138.20512800, 4139.99999980, 4146.92307672, 4152.17948697, 4133.20512793, 4099.87179453, 4084.23076889, 4109.10256383, 4131.53846126,10.0
4076.92307658, 4074.87179453, 4060.89743548, 4071.28205094, 4110.89743562, 4117.82051255, 4118.58974332, 4124.87179460, 4119.35897408, 4107.69230742, 4083.33333299, 4063.97435856, 4092.69230735, 4133.97435870,10.0
4063.84615343, 4060.25640984, 4046.66666625, 4056.53846113, 4090.89743555, 4096.79487145, 4089.35897402, 4117.56410229, 4104.87179460, 4094.74358940, 4085.76923043, 4056.41025600, 4084.35897402, 4134.23076896,10.0
4085.51282017, 4071.79487145, 4072.17948684, 4071.79487145, 4104.99999973, 4115.25640998, 4110.76923050, 4134.99999973, 4129.48717921, 4128.20512793, 4114.35897408, 4082.69230735, 4106.53846126, 4133.33333306,10.0
4082.94871761, 4068.20512779, 4076.53846119, 4063.46153805, 4100.12820478, 4116.15384588, 4110.64102537, 4117.56410229, 4114.35897408, 4139.23076903, 4109.35897408, 4090.64102530, 4110.64102537, 4131.66666639,10.0
4065.51282010, 4051.41025600, 4061.66666625, 4034.99999952, 4081.53846119, 4093.07692273, 4085.51282017, 4106.79487152, 4094.23076889, 4118.07692280, 4093.20512786, 4081.15384581, 4095.64102530, 4131.41025614,10.0
4074.23076889, 4058.07692266, 4071.53846119, 4036.53846106, 4090.12820478, 4088.97435863, 4087.05128171, 4124.99999973, 4103.97435870, 4111.15384588, 4107.17948691, 4079.99999966, 4094.74358940, 4133.46153819,10.0
4073.20512786, 4067.82051241, 4075.25640991, 4046.66666625, 4088.58974325, 4089.35897402, 4086.15384581, 4114.48717921, 4085.51282017, 4103.58974332, 4110.76923050, 4071.53846119, 4088.97435863, 4132.56410229,10.0
4048.33333292, 4058.71794830, 4053.33333292, 4038.71794830, 4068.46153805, 4074.10256376, 4060.25640984, 4088.20512786, 4056.66666625, 4078.71794837, 4090.89743555, 4059.99999959, 4067.30769189, 4130.64102537,10.0
4052.30769189, 4059.23076882, 4052.94871754, 4037.94871754, 4079.87179453, 4076.02564068, 4065.76923036, 4105.38461511, 4081.15384581, 4089.74358940, 4098.97435863, 4070.89743555, 4073.84615350, 4134.74358947,10.0
4097.69230735, 4090.25640991, 4094.99999966, 4066.02564061, 4121.41025614, 4113.33333306, 4122.43589716, 4147.17948697, 4135.51282031, 4144.23076903, 4136.53846133, 4105.64102537, 4115.51282024, 4137.94871774,10.0
4122.82051255, 4114.35897408, 4124.99999973, 4087.82051248, 4137.30769210, 4138.97435877, 4157.05128185, 4159.23076903, 4157.30769210, 4173.46153833, 4155.51282031, 4129.74358947, 4137.69230749, 4132.94871767,10.0
4110.38461511, 4106.02564075, 4112.30769203, 4078.84615350, 4125.64102537, 4125.38461511, 4133.97435870, 4135.51282031, 4118.46153819, 4156.53846133, 4143.58974339, 4124.61538434, 4125.89743562, 4131.02564075,10.0
4092.43589709, 4086.92307658, 4087.30769196, 4059.87179446, 4109.74358947, 4097.94871761, 4102.30769196, 4105.89743562, 4066.66666625, 4120.76923050, 4116.28205101, 4103.71794844, 4102.43589709, 4130.89743562,10.0
4077.82051248, 4075.38461504, 4070.76923043, 4044.10256369, 4090.12820478, 4086.79487145, 4097.69230735, 4104.48717921, 4074.10256376, 4091.66666632, 4094.61538427, 4084.61538427, 4086.41025607, 4131.92307665,10.0
4059.23076882, 4065.38461497, 4052.56410215, 4029.48717900, 4071.53846119, 4081.02564068, 4088.33333299, 4109.23076896, 4094.87179453, 4074.23076889, 4082.43589709, 4068.33333292, 4077.30769196, 4134.48717921,10.0
4057.05128164, 4066.53846113, 4048.97435856, 4032.30769183, 4066.28205087, 4074.99999966, 4077.17948684, 4108.20512793, 4091.02564068, 4083.84615350, 4090.89743555, 4072.69230735, 4081.15384581, 4130.76923050,10.0
4066.66666625, 4073.58974325, 4058.58974318, 4044.35897395, 4072.69230735, 4073.97435863, 4078.46153812, 4103.33333306, 4084.35897402, 4101.02564068, 4101.79487145, 4083.07692273, 4085.51282017, 4131.28205101,10.0
4064.35897395, 4068.20512779, 4053.71794830, 4040.76923036, 4079.99999966, 4078.20512786, 4085.76923043, 4101.02564068, 4090.64102530, 4101.79487145, 4087.05128171, 4068.33333292, 4077.30769196, 4132.43589716,10.0
4069.74358940, 4069.87179453, 4057.94871754, 4039.99999959, 4092.30769196, 4096.53846119, 4112.17948691, 4127.05128178, 4133.33333306, 4125.76923050, 4090.64102530, 4068.58974318, 4091.28205094, 4133.84615357,10.0
4079.10256376, 4078.33333299, 4070.89743555, 4046.02564061, 4096.15384581, 4102.94871767, 4120.12820485, 4137.05128185, 4157.43589723, 4148.20512800, 4119.35897408, 4091.66666632, 4114.48717921, 4137.69230749,10.0
4080.38461504, 4078.20512786, 4072.17948684, 4049.48717907, 4085.64102530, 4090.12820478, 4096.53846119, 4108.84615357, 4119.87179460, 4129.10256383, 4124.35897408, 4098.58974325, 4115.25640998, 4130.64102537,10.0
4086.41025607, 4080.38461504, 4077.30769196, 4052.30769189, 4079.35897402, 4084.35897402, 4089.61538427, 4104.87179460, 4103.84615357, 4118.71794844, 4123.20512793, 4100.25640991, 4110.38461511, 4130.25640998,10.0
4097.17948684, 4092.94871761, 4095.38461504, 4062.17948677, 4077.82051248, 4077.82051248, 4093.97435863, 4122.56410229, 4126.53846126, 4127.94871767, 4141.53846133, 4113.84615357, 4119.74358947, 4132.82051255,10.0
4108.46153819, 4109.35897408, 4115.25640998, 4087.82051248, 4081.66666632, 4072.17948684, 4090.89743555, 4123.07692280, 4118.46153819, 4113.84615357, 4140.89743569, 4125.38461511, 4130.64102537, 4131.02564075,10.0
4117.43589716, 4117.30769203, 4129.99999973, 4112.30769203, 4086.66666632, 4078.33333299, 4093.20512786, 4121.79487152, 4100.76923043, 4096.79487145, 4125.89743562, 4131.92307665, 4126.28205101, 4133.58974332,10.0
4115.64102537, 4113.20512793, 4135.76923056, 4110.76923050, 4082.17948684, 4076.66666632, 4086.92307658, 4115.76923050, 4101.02564068, 4095.64102530, 4121.92307665, 4132.30769203, 4107.05128178, 4127.82051255,10.0
4104.74358947, 4105.64102537, 4126.41025614, 4094.99999966, 4075.51282017, 4060.12820472, 4067.30769189, 4094.99999966, 4088.20512786, 4087.30769196, 4115.38461511, 4121.28205101, 4094.87179453, 4127.30769203,10.0
4098.20512786, 4103.46153819, 4114.87179460, 4091.41025607, 4072.17948684, 4059.35897395, 4072.30769196, 4098.46153812, 4082.43589709, 4080.51282017, 4107.05128178, 4112.17948691, 4102.05128171, 4131.15384588,10.0
4096.15384581, 4106.28205101, 4113.71794844, 4092.17948684, 4072.56410222, 4079.87179453, 4101.15384581, 4119.61538434, 4103.71794844, 4084.35897402, 4109.48717921, 4113.58974332, 4104.87179460, 4128.71794844,10.0
4093.58974325, 4106.02564075, 4108.07692280, 4084.61538427, 4075.25640991, 4084.87179453, 4104.99999973, 4115.51282024, 4110.51282024, 4089.74358940, 4113.07692280, 4113.97435870, 4097.82051248, 4131.28205101,10.0
4079.61538427, 4092.94871761, 4084.10256376, 4072.05128171, 4068.07692266, 4062.82051241, 4070.25640991, 4095.89743555, 4092.94871761, 4089.87179453, 4091.28205094, 4094.74358940, 4082.82051248, 4127.94871767,10.0
4051.02564061, 4071.28205094, 4056.02564061, 4054.61538420, 4049.23076882, 4037.05128164, 4038.07692266, 4086.41025607, 4070.12820478, 4067.56410215, 4056.15384574, 4061.53846113, 4060.51282010, 4126.15384588,10.0
4040.12820472, 4066.53846113, 4050.89743548, 4046.15384574, 4038.33333292, 4035.51282003, 4047.30769189, 4089.35897402, 4057.94871754, 4044.99999959, 4048.46153805, 4049.61538420, 4059.87179446, 4130.76923050,10.0
4050.38461497, 4075.51282017, 4059.74358933, 4051.02564061, 4038.07692266, 4047.56410215, 4067.43589702, 4095.51282017, 4066.15384574, 4052.69230728, 4064.61538420, 4061.92307651, 4072.56410222, 4128.33333306,10.0
4052.82051241, 4072.17948684, 4059.35897395, 4052.94871754, 4041.41025600, 4048.58974318, 4065.12820472, 4100.64102530, 4071.92307658, 4062.69230728, 4070.12820478, 4067.17948677, 4060.89743548, 4131.41025614,10.0
4039.35897395, 4055.89743548, 4047.30769189, 4044.99999959, 4043.97435856, 4041.66666625, 4059.61538420, 4102.30769196, 4057.94871754, 4054.48717907, 4052.17948677, 4050.12820472, 4036.66666618, 4132.69230742,10.0
4032.05128157, 4049.61538420, 4044.87179446, 4042.43589702, 4044.23076882, 4044.61538420, 4071.79487145, 4107.17948691, 4063.71794830, 4058.46153805, 4046.92307651, 4042.05128164, 4050.38461497, 4128.58974332,10.0
4043.46153805, 4061.02564061, 4052.56410215, 4047.94871754, 4045.89743548, 4061.28205087, 4090.64102530, 4117.05128178, 4092.05128171, 4076.53846119, 4067.94871754, 4052.05128164, 4073.46153812, 4129.10256383,10.0
4047.56410215, 4069.61538420, 4048.84615343, 4043.84615343, 4046.15384574, 4062.69230728, 4082.69230735, 4114.35897408, 4089.35897402, 4073.97435863, 4074.48717914, 4049.61538420, 4060.89743548, 4129.48717921,10.0
4037.69230728, 4066.28205087, 4038.20512779, 4035.76923029, 4043.07692266, 4054.10256369, 4064.35897395, 4106.79487152, 4069.61538420, 4058.97435856, 4051.66666625, 4040.64102523, 4047.43589702, 4130.89743562,10.0
4031.53846106, 4056.66666625, 4032.43589695, 4035.89743541, 4038.58974318, 4049.10256369, 4054.35897395, 4102.69230742, 4071.28205094, 4054.10256369, 4034.23076875, 4036.66666618, 4046.79487138, 4128.58974332,10.0
4021.53846106, 4042.05128164, 4020.76923029, 4026.02564054, 4031.15384567, 4036.66666618, 4035.12820465, 4083.33333299, 4057.17948677, 4044.99999959, 4035.38461490, 4025.38461490, 4032.17948670, 4127.30769203,10.0
4003.71794817, 4033.58974311, 4007.17948670, 4011.02564054, 4026.28205080, 4028.33333285, 4021.02564054, 4063.07692266, 4024.74358926, 4024.99999952, 4025.89743541, 4011.53846106, 4010.25640977, 4132.69230742,10.0
4002.43589688, 4038.20512779, 4006.41025593, 4021.28205080, 4027.56410208, 4023.58974311, 4019.99999952, 4063.84615343, 4023.58974311, 4017.05128157, 4003.84615329, 4009.10256362, 4009.99999952, 4130.64102537,10.0
4007.69230721, 4041.02564061, 4010.12820465, 4038.46153805, 4032.17948670, 4016.79487131, 4018.71794824, 4067.69230728, 4041.53846113, 4030.64102516, 4005.12820465, 4015.76923029, 4027.69230721, 4130.89743562,10.0
3998.71794817, 4042.43589702, 4013.20512772, 4038.84615343, 4036.28205080, 4026.15384567, 4025.64102516, 4067.17948677, 4052.05128164, 4052.43589702, 4024.23076875, 4024.87179439, 4033.20512772, 4135.38461518,10.0
3985.89743535, 4045.76923036, 4012.05128157, 4034.10256362, 4021.92307644, 4032.30769183, 4029.87179439, 4066.92307651, 4054.74358933, 4058.84615343, 4024.35897388, 4031.02564054, 4027.17948670, 4132.82051255,10.0
3978.97435842, 4039.61538420, 4001.41025586, 4027.82051234, 4002.43589688, 4015.51282003, 4018.71794824, 4068.58974318, 4049.99999959, 4048.07692266, 4012.69230721, 4028.46153798, 4034.10256362, 4130.51282024,10.0
3981.41025586, 4035.38461490, 3998.33333278, 4026.28205080, 4015.51282003, 4017.17948670, 4025.38461490, 4080.12820478, 4061.53846113, 4047.56410215, 4018.84615336, 4028.58974311, 4047.69230728, 4127.82051255,10.0
3987.43589688, 4041.79487138, 4002.05128150, 4031.41025593, 4030.51282003, 4032.82051234, 4038.58974318, 4088.58974325, 4079.10256376, 4057.69230728, 4028.97435849, 4036.79487131, 4052.82051241, 4127.82051255,10.0
3987.82051227, 4042.82051241, 3999.99999945, 4038.97435856, 4016.92307644, 4029.61538413, 4032.43589695, 4078.33333299, 4060.89743548, 4051.53846113, 4016.28205080, 4038.33333292, 4057.17948677, 4132.17948691,10.0
3974.35897381, 4029.23076875, 3986.92307637, 4040.25640984, 4001.02564047, 4018.97435849, 4022.30769183, 4063.97435856, 4031.53846106, 4023.97435849, 3993.33333278, 4013.84615336, 4035.12820465, 4131.66666639,10.0
3958.46153784, 4016.92307644, 3973.46153791, 4028.33333285, 3996.92307637, 4009.61538413, 4013.71794824, 4064.10256369, 4037.56410215, 4007.82051234, 3982.94871740, 3987.94871740, 4004.48717900, 4130.76923050,10.0
3959.87179425, 4020.64102516, 3976.53846099, 4021.15384567, 3999.99999945, 4011.28205080, 4013.58974311, 4071.02564068, 4052.69230728, 4020.64102516, 3987.56410201, 3994.99999945, 4019.48717900, 4132.05128178,10.0
3967.30769169, 4027.82051234, 3985.12820458, 4029.87179439, 4006.66666618, 4025.51282003, 4032.56410208, 4079.48717914, 4054.87179446, 4040.64102523, 3998.58974304, 4007.43589695, 4040.38461497, 4132.17948691,10.0
3963.84615322, 4021.79487131, 3981.41025586, 4034.23076875, 4003.33333278, 4023.07692259, 4039.87179446, 4078.71794837, 4050.89743548, 4038.07692266, 3999.48717894, 3999.74358919, 4025.38461490, 4128.97435870,10.0
3958.33333271, 4018.97435849, 3974.35897381, 4031.15384567, 3998.58974304, 4007.82051234, 4023.07692259, 4072.05128171, 4047.69230728, 4027.69230721, 3988.07692252, 3993.58974304, 4014.99999952, 4126.92307665,10.0
3962.69230707, 4034.10256362, 3979.10256355, 4038.71794830, 4008.33333285, 4014.10256362, 4029.48717900, 4081.02564068, 4061.15384574, 4034.48717900, 3983.07692252, 3996.15384560, 4020.51282003, 4130.12820485,10.0
3964.99999938, 4036.28205080, 3981.02564047, 4044.23076882, 4009.48717900, 4024.74358926, 4043.71794830, 4078.33333299, 4056.53846113, 4034.74358926, 3987.17948663, 3992.94871740, 4015.38461490, 4130.12820485,10.0
3962.69230707, 4022.43589695, 3979.99999945, 4040.38461497, 4006.41025593, 4017.82051234, 4025.51282003, 4058.58974318, 4029.87179439, 4025.64102516, 3989.74358919, 3993.58974304, 4016.15384567, 4125.76923050,10.0
3968.97435835, 4030.51282003, 3986.92307637, 4045.89743548, 4021.28205080, 4015.38461490, 4016.41025593, 4060.89743548, 4034.10256362, 4038.07692266, 3991.92307637, 4002.30769176, 4028.20512772, 4128.71794844,10.0
3986.53846099, 4056.41025600, 4001.79487124, 4061.41025600, 4040.38461497, 4036.41025593, 4047.56410215, 4088.84615350, 4070.12820478, 4069.74358940, 4006.92307644, 4017.30769183, 4040.25640984, 4135.25640998,10.0
4010.89743541, 4076.41025607, 4025.25640977, 4082.82051248, 4058.46153805, 4070.12820478, 4081.92307658, 4112.30769203, 4093.84615350, 4089.23076889, 4032.56410208, 4046.66666625, 4062.17948677, 4133.07692280,10.0
4018.71794824, 4079.99999966, 4035.51282003, 4095.12820478, 4068.84615343, 4083.58974325, 4080.51282017, 4110.64102537, 4085.89743555, 4082.56410222, 4035.51282003, 4059.23076882, 4069.61538420, 4128.33333306,10.0
4011.66666618, 4074.10256376, 4028.58974311, 4087.94871761, 4064.35897395, 4076.15384581, 4068.58974318, 4107.69230742, 4084.10256376, 4077.17948684, 4017.17948670, 4050.51282010, 4058.33333292, 4129.23076896,10.0
4025.51282003, 4080.12820478, 4036.66666618, 4087.56410222, 4068.58974318, 4080.76923043, 4081.79487145, 4125.25640998, 4108.84615357, 4095.89743555, 4026.41025593, 4065.12820472, 4068.07692266, 4131.79487152,10.0
4037.30769189, 4084.61538427, 4043.46153805, 4090.25640991, 4075.12820478, 4090.51282017, 4090.25640991, 4132.82051255, 4108.07692280, 4102.05128171, 4046.41025600, 4077.17948684, 4078.71794837, 4130.25640998,10.0
4013.71794824, 4069.61538420, 4023.46153798, 4073.71794837, 4058.84615343, 4071.53846119, 4063.33333292, 4109.61538434, 4069.23076882, 4073.71794837, 4026.28205080, 4051.41025600, 4057.94871754, 4127.94871767,10.0
4003.07692252, 4065.38461497, 4018.20512772, 4070.12820478, 4052.05128164, 4061.28205087, 4057.69230728, 4107.17948691, 4072.17948684, 4064.35897395, 4010.76923029, 4040.89743548, 4051.66666625, 4131.02564075,10.0
4019.74358926, 4076.53846119, 4038.58974318, 4089.35897402, 4064.48717907, 4082.17948684, 4082.43589709, 4120.51282024, 4095.64102530, 4083.97435863, 4027.94871747, 4063.33333292, 4065.12820472, 4133.71794844,10.0
4020.89743541, 4073.46153812, 4040.89743548, 4091.92307658, 4066.92307651, 4082.69230735, 4072.43589709, 4106.41025614, 4077.43589709, 4088.07692273, 4030.89743541, 4068.20512779, 4056.79487138, 4131.41025614,10.0
4015.89743541, 4069.99999966, 4033.58974311, 4084.87179453, 4064.23076882, 4069.10256369, 4056.15384574, 4101.79487145, 4074.74358940, 4081.79487145, 4022.17948670, 4058.07692266, 4048.97435856, 4129.74358947,10.0
4026.02564054, 4080.51282017, 4047.56410215, 4092.82051248, 4071.41025607, 4076.41025607, 4073.84615350, 4119.99999973, 4106.53846126, 4093.07692273, 4033.07692259, 4069.23076882, 4064.10256369, 4130.76923050,10.0
4035.25640977, 4085.51282017, 4061.79487138, 4098.84615350, 4082.69230735, 4086.41025607, 4086.53846119, 4125.89743562, 4120.38461511, 4113.58974332, 4044.99999959, 4081.53846119, 4075.51282017, 4131.79487152,10.0
4031.15384567, 4074.61538427, 4054.23076882, 4090.38461504, 4084.10256376, 4086.66666632, 4084.35897402, 4113.20512793, 4101.66666632, 4111.28205101, 4039.35897395, 4067.56410215, 4072.05128171, 4130.51282024,10.0
4017.43589695, 4057.82051241, 4038.46153805, 4079.23076889, 4065.38461497, 4082.17948684, 4075.12820478, 4105.51282024, 4083.97435863, 4089.99999966, 4028.71794824, 4046.92307651, 4062.82051241, 4131.02564075,10.0
4017.56410208, 4060.25640984, 4035.51282003, 4082.82051248, 4058.84615343, 4086.92307658, 4074.23076889, 4117.43589716, 4097.17948684, 4086.02564068, 4038.07692266, 4055.76923036, 4065.38461497, 4134.61538434,10.0
4028.46153798, 4070.76923043, 4043.58974318, 4089.10256376, 4077.56410222, 4097.17948684, 4087.43589709, 4123.33333306, 4110.38461511, 4092.30769196, 4054.61538420, 4073.71794837, 4073.07692273, 4131.79487152,10.0
4029.61538413, 4063.33333292, 4046.28205087, 4084.23076889, 4076.66666632, 4093.46153812, 4085.89743555, 4113.07692280, 4099.99999966, 4090.64102530, 4049.87179446, 4071.41025607, 4069.87179453, 4128.84615357,10.0
4033.84615336, 4063.84615343, 4050.51282010, 4086.15384581, 4064.23076882, 4083.84615350, 4073.71794837, 4114.35897408, 4097.56410222, 4098.84615350, 4050.76923036, 4076.66666632, 4075.25640991, 4130.25640998,10.0
4039.99999959, 4075.51282017, 4053.33333292, 4090.64102530, 4068.71794830, 4081.79487145, 4072.56410222, 4124.87179460, 4111.02564075, 4104.74358947, 4068.84615343, 4090.12820478, 4084.74358940, 4129.48717921,10.0
4037.05128164, 4073.20512786, 4048.71794830, 4086.92307658, 4073.20512786, 4082.43589709, 4073.84615350, 4126.53846126, 4113.33333306, 4098.20512786, 4073.46153812, 4088.97435863, 4079.35897402, 4131.53846126,10.0
4041.79487138, 4075.25640991, 4053.71794830, 4089.48717914, 4081.66666632, 4087.56410222, 4074.48717914, 4125.76923050, 4106.02564075, 4108.07692280, 4064.23076882, 4087.69230735, 4080.12820478, 4134.23076896,10.0
4049.61538420, 4082.94871761, 4059.35897395, 4095.25640991, 4091.41025607, 4086.41025607, 4072.05128171, 4118.20512793, 4089.23076889, 4114.35897408, 4058.07692266, 4089.10256376, 4082.43589709, 4133.33333306,10.0
4045.51282010, 4078.97435863, 4052.56410215, 4097.94871761, 4085.89743555, 4073.33333299, 4057.94871754, 4104.10256383, 4067.43589702, 4091.28205094, 4057.94871754, 4083.20512786, 4071.15384581, 4132.56410229,10.0
4047.94871754, 4084.74358940, 4056.28205087, 4105.25640998, 4089.23076889, 4076.41025607, 4057.43589702, 4104.10256383, 4069.35897395, 4084.23076889, 4066.53846113, 4087.17948684, 4071.41025607, 4131.53846126,10.0
4055.51282010, 4092.05128171, 4064.35897395, 4103.84615357, 4101.02564068, 4088.97435863, 4074.61538427, 4111.28205101, 4078.46153812, 4097.69230735, 4067.43589702, 4091.66666632, 4079.10256376, 4130.64102537,10.0
4050.38461497, 4076.92307658, 4056.66666625, 4089.48717914, 4090.12820478, 4084.35897402, 4076.28205094, 4110.51282024, 4074.74358940, 4092.94871761, 4054.35897395, 4078.84615350, 4073.07692273, 4132.69230742,10.0
4050.38461497, 4076.92307658, 4056.66666625, 4089.48717914, 4090.12820478, 4084.35897402, 4076.28205094, 4110.51282024, 4074.74358940, 4092.94871761, 4054.35897395, 4078.84615350, 4073.07692273, 4132.69230742,10.0
4045.12820472, 4067.43589702, 4050.25640984, 4085.25640991, 4077.69230735, 4082.82051248, 4072.82051248, 4112.82051255, 4077.17948684, 4083.33333299, 4051.15384574, 4074.10256376, 4071.66666632, 4134.74358947,10.0
4043.84615343, 4072.43589709, 4051.66666625, 4087.05128171, 4083.84615350, 4090.76923043, 4075.25640991, 4110.51282024, 4072.05128171, 4082.05128171, 4052.05128164, 4079.99999966, 4072.30769196, 4131.66666639,10.0
4043.33333292, 4068.46153805, 4056.66666625, 4081.66666632, 4083.84615350, 4089.87179453, 4070.25640991, 4102.82051255, 4059.10256369, 4083.20512786, 4052.69230728, 4086.28205094, 4070.89743555, 4127.69230742,10.0
4055.76923036, 4066.53846113, 4071.02564068, 4080.89743555, 4073.33333299, 4078.58974325, 4060.38461497, 4115.38461511, 4080.25640991, 4097.56410222, 4066.53846113, 4101.79487145, 4084.74358940, 4132.17948691,10.0
4064.74358933, 4072.94871761, 4078.07692273, 4085.89743555, 4068.71794830, 4071.15384581, 4057.05128164, 4123.97435870, 4095.12820478, 4103.58974332, 4072.56410222, 4105.25640998, 4091.41025607, 4135.76923056,10.0
4056.79487138, 4073.71794837, 4074.61538427, 4087.56410222, 4074.48717914, 4085.51282017, 4067.82051241, 4110.25640998, 4057.05128164, 4087.56410222, 4063.71794830, 4092.43589709, 4079.99999966, 4130.38461511,10.0
4057.05128164, 4074.74358940, 4080.25640991, 4090.51282017, 4081.41025607, 4103.20512793, 4083.46153812, 4107.69230742, 4038.20512779, 4086.28205094, 4064.74358933, 4094.87179453, 4081.66666632, 4129.23076896,10.0
4055.89743548, 4070.51282017, 4076.41025607, 4085.51282017, 4073.33333299, 4085.38461504, 4069.10256369, 4110.38461511, 4058.97435856, 4091.92307658, 4060.25640984, 4092.05128171, 4080.51282017, 4131.92307665,10.0
4038.84615343, 4060.12820472, 4058.20512779, 4073.20512786, 4059.48717907, 4060.12820472, 4040.64102523, 4094.74358940, 4050.51282010, 4074.99999966, 4046.79487138, 4072.05128171, 4060.89743548, 4132.30769203,10.0
4038.84615343, 4064.61538420, 4061.41025600, 4073.33333299, 4065.38461497, 4072.82051248, 4051.79487138, 4092.05128171, 4038.58974318, 4069.74358940, 4053.97435856, 4076.66666632, 4063.07692266, 4132.56410229,10.0
4053.97435856, 4072.94871761, 4072.94871761, 4079.23076889, 4075.38461504, 4091.02564068, 4074.61538427, 4107.56410229, 4058.71794830, 4080.38461504, 4062.94871754, 4089.35897402, 4079.35897402, 4134.10256383,10.0
4060.12820472, 4074.74358940, 4072.17948684, 4085.25640991, 4080.64102530, 4090.38461504, 4070.89743555, 4110.12820485, 4066.53846113, 4082.43589709, 4059.61538420, 4084.10256376, 4082.17948684, 4134.74358947,10.0
4064.10256369, 4079.61538427, 4075.51282017, 4094.74358940, 4088.97435863, 4088.20512786, 4067.30769189, 4113.97435870, 4067.17948677, 4092.82051248, 4068.07692266, 4087.82051248, 4086.15384581, 4130.64102537,10.0
4065.38461497, 4079.23076889, 4074.61538427, 4092.82051248, 4085.38461504, 4088.33333299, 4075.89743555, 4124.48717921, 4085.25640991, 4103.07692280, 4070.64102530, 4091.15384581, 4085.64102530, 4129.48717921,10.0
4050.64102523, 4067.69230728, 4053.84615343, 4076.15384581, 4074.35897402, 4083.20512786, 4073.58974325, 4110.76923050, 4069.10256369, 4088.58974325, 4052.17948677, 4076.92307658, 4071.28205094, 4133.71794844,10.0
4035.25640977, 4056.53846113, 4037.56410215, 4066.02564061, 4068.97435856, 4074.61538427, 4064.48717907, 4089.87179453, 4022.82051234, 4065.38461497, 4035.64102516, 4065.51282010, 4061.92307651, 4134.48717921,10.0
4035.12820465, 4055.76923036, 4038.71794830, 4067.82051241, 4061.79487138, 4069.35897395, 4061.53846113, 4096.41025607, 4020.38461490, 4057.69230728, 4024.23076875, 4059.61538420, 4063.07692266, 4133.84615357,10.0
4035.76923029, 4059.74358933, 4039.10256369, 4069.35897395, 4061.79487138, 4069.48717907, 4056.53846113, 4108.46153819, 4046.79487138, 4067.30769189, 4024.61538413, 4051.79487138, 4065.89743548, 4132.17948691,10.0
4029.23076875, 4055.76923036, 4034.23076875, 4061.53846113, 4066.92307651, 4065.12820472, 4047.56410215, 4103.07692280, 4039.10256369, 4067.56410215, 4035.89743541, 4044.61538420, 4063.07692266, 4131.92307665,10.0
4025.64102516, 4047.05128164, 4029.99999952, 4052.82051241, 4059.35897395, 4054.61538420, 4042.94871754, 4099.10256376, 4022.82051234, 4049.48717907, 4032.82051234, 4039.23076882, 4053.20512779, 4133.07692280,10.0
4026.28205080, 4046.66666625, 4026.15384567, 4051.41025600, 4053.07692266, 4057.05128164, 4049.61538420, 4103.20512793, 4033.71794824, 4047.30769189, 4021.41025593, 4039.87179446, 4055.76923036, 4131.15384588,10.0
4020.12820465, 4044.61538420, 4019.74358926, 4044.35897395, 4052.05128164, 4060.64102523, 4048.58974318, 4099.99999966, 4036.79487131, 4061.92307651, 4021.66666618, 4040.76923036, 4067.82051241, 4131.53846126,10.0
4015.12820465, 4038.71794830, 4019.61538413, 4040.12820472, 4044.87179446, 4051.92307651, 4034.48717900, 4095.76923043, 4025.51282003, 4062.30769189, 4028.33333285, 4040.76923036, 4062.94871754, 4133.97435870,10.0
4029.23076875, 4052.43589702, 4037.69230728, 4061.66666625, 4056.53846113, 4062.30769189, 4045.38461497, 4111.02564075, 4040.89743548, 4071.41025607, 4037.05128164, 4055.12820472, 4064.61538420, 4134.87179460,10.0
4049.87179446, 4075.89743555, 4059.23076882, 4084.61538427, 4079.87179453, 4086.41025607, 4079.35897402, 4130.64102537, 4068.46153805, 4097.17948684, 4052.94871754, 4075.25640991, 4086.79487145, 4134.10256383,10.0
4049.35897395, 4076.66666632, 4063.97435856, 4080.51282017, 4074.87179453, 4084.48717914, 4085.64102530, 4123.71794844, 4058.97435856, 4092.94871761, 4057.94871754, 4077.56410222, 4088.71794837, 4130.51282024,10.0
4029.48717900, 4054.99999959, 4049.61538420, 4064.61538420, 4049.10256369, 4053.58974318, 4047.82051241, 4096.79487145, 4014.74358926, 4059.99999959, 4040.76923036, 4063.20512779, 4061.92307651, 4130.76923050,10.0
4016.41025593, 4039.87179446, 4036.41025593, 4058.84615343, 4036.92307651, 4027.43589695, 4011.02564054, 4077.05128171, 3983.20512765, 4040.25640984, 4021.53846106, 4050.89743548, 4046.79487138, 4134.61538434,10.0
4023.71794824, 4050.12820472, 4043.20512779, 4064.35897395, 4044.87179446, 4033.20512772, 4015.12820465, 4077.43589709, 3989.48717894, 4045.76923036, 4026.02564054, 4057.17948677, 4058.84615343, 4134.61538434,10.0
4029.35897388, 4058.97435856, 4048.97435856, 4064.48717907, 4050.76923036, 4053.07692266, 4036.92307651, 4090.38461504, 4009.10256362, 4053.07692266, 4033.71794824, 4065.12820472, 4064.48717907, 4132.30769203,10.0
4021.66666618, 4054.10256369, 4039.74358933, 4059.23076882, 4050.64102523, 4058.84615343, 4044.61538420, 4095.76923043, 4013.20512772, 4051.66666625, 4023.84615336, 4056.53846113, 4053.58974318, 4130.64102537,10.0
4023.97435849, 4059.35897395, 4042.30769189, 4066.28205087, 4057.94871754, 4060.38461497, 4049.61538420, 4091.41025607, 4005.64102516, 4058.58974318, 4029.61538413, 4055.76923036, 4056.92307651, 4129.35897408,10.0
4032.05128157, 4065.76923036, 4053.84615343, 4074.48717914, 4063.46153805, 4063.07692266, 4051.66666625, 4091.79487145, 4006.02564054, 4066.92307651, 4046.53846113, 4065.12820472, 4070.12820478, 4131.15384588,10.0
4038.84615343, 4067.94871754, 4058.07692266, 4075.89743555, 4069.35897395, 4071.66666632, 4067.82051241, 4118.58974332, 4039.10256369, 4076.66666632, 4051.79487138, 4065.64102523, 4079.48717914, 4134.61538434,10.0
4048.33333292, 4078.84615350, 4063.58974318, 4084.48717914, 4081.92307658, 4086.53846119, 4094.61538427, 4143.33333313, 4064.23076882, 4090.76923043, 4057.17948677, 4071.53846119, 4089.23076889, 4135.25640998,10.0
4037.82051241, 4072.05128171, 4053.58974318, 4082.94871761, 4068.07692266, 4068.46153805, 4063.07692266, 4115.38461511, 4031.15384567, 4077.17948684, 4051.53846113, 4069.99999966, 4079.10256376, 4131.15384588,10.0
4012.43589695, 4047.30769189, 4026.92307644, 4062.43589702, 4034.74358926, 4038.33333292, 4011.02564054, 4079.99999966, 3990.25640970, 4037.43589702, 4029.87179439, 4048.33333292, 4048.84615343, 4129.48717921,10.0
4011.15384567, 4043.20512779, 4024.74358926, 4055.38461497, 4039.74358933, 4049.74358933, 4034.10256362, 4098.20512786, 4002.43589688, 4030.38461490, 4023.33333285, 4042.05128164, 4043.46153805, 4133.07692280,10.0
4014.10256362, 4044.23076882, 4030.76923029, 4056.28205087, 4055.25640984, 4054.10256369, 4058.84615343, 4111.28205101, 4014.23076875, 4042.69230728, 4023.58974311, 4047.30769189, 4050.12820472, 4133.46153819,10.0
4002.94871740, 4032.94871747, 4020.25640977, 4049.74358933, 4039.61538420, 4029.61538413, 4026.53846106, 4088.97435863, 3996.28205073, 4032.82051234, 4014.87179439, 4040.38461497, 4038.20512779, 4133.33333306,10.0
4004.10256362, 4034.48717900, 4021.79487131, 4049.23076882, 4029.10256362, 4031.28205080, 4017.30769183, 4085.51282017, 3996.79487124, 4032.94871747, 4023.58974311, 4034.99999952, 4037.94871754, 4133.46153819,10.0
4017.69230721, 4050.38461497, 4037.56410215, 4061.92307651, 4044.87179446, 4058.33333292, 4042.94871754, 4101.15384581, 4010.25640977, 4049.99999959, 4043.07692266, 4042.30769189, 4054.48717907, 4130.12820485,10.0
4031.66666618, 4067.05128164, 4050.51282010, 4079.48717914, 4057.94871754, 4070.51282017, 4053.97435856, 4113.20512793, 4022.82051234, 4059.61538420, 4052.94871754, 4061.15384574, 4067.30769189, 4129.87179460,10.0
4045.25640984, 4077.05128171, 4062.82051241, 4083.71794837, 4056.79487138, 4066.15384574, 4052.94871754, 4120.89743562, 4039.99999959, 4070.38461504, 4060.76923036, 4085.38461504, 4080.12820478, 4132.17948691,10.0
4058.58974318, 4081.02564068, 4077.05128171, 4077.94871761, 4064.99999959, 4074.61538427, 4070.51282017, 4119.87179460, 4044.23076882, 4083.84615350, 4069.23076882, 4099.48717914, 4089.10256376, 4133.58974332,10.0
4068.33333292, 4086.28205094, 4086.28205094, 4079.99999966, 4074.10256376, 4092.94871761, 4092.69230735, 4114.99999973, 4036.02564054, 4084.61538427, 4073.46153812, 4105.38461511, 4086.79487145, 4133.20512793,10.0
4071.28205094, 4087.05128171, 4088.33333299, 4087.30769196, 4062.82051241, 4082.05128171, 4079.48717914, 4111.66666639, 4035.51282003, 4078.33333299, 4072.94871761, 4113.97435870, 4085.12820478, 4130.89743562,10.0
4067.17948677, 4077.43589709, 4086.28205094, 4084.48717914, 4050.38461497, 4055.25640984, 4053.07692266, 4104.87179460, 4040.76923036, 4078.46153812, 4068.20512779, 4116.02564075, 4086.53846119, 4129.48717921,10.0
4058.84615343, 4063.33333292, 4078.33333299, 4070.51282017, 4047.30769189, 4049.35897395, 4044.87179446, 4092.94871761, 4026.02564054, 4068.71794830, 4054.61538420, 4102.30769196, 4072.94871761, 4130.51282024,10.0
4053.58974318, 4059.74358933, 4069.48717907, 4060.25640984, 4047.56410215, 4053.33333292, 4044.48717907, 4092.05128171, 4009.61538413, 4054.23076882, 4045.89743548, 4089.87179453, 4058.71794830, 4133.84615357,10.0
4053.46153805, 4066.92307651, 4070.51282017, 4062.94871754, 4049.48717907, 4050.38461497, 4048.20512779, 4101.41025607, 4015.38461490, 4054.48717907, 4054.23076882, 4095.38461504, 4064.48717907, 4133.46153819,10.0
4048.33333292, 4066.92307651, 4071.66666632, 4067.05128164, 4049.61538420, 4049.74358933, 4054.48717907, 4106.15384588, 4017.56410208, 4056.02564061, 4056.53846113, 4096.28205094, 4065.64102523, 4132.05128178,10.0
4036.66666618, 4060.76923036, 4056.28205087, 4055.51282010, 4050.25640984, 4061.53846113, 4054.48717907, 4108.71794844, 3998.71794817, 4046.28205087, 4039.61538420, 4074.23076889, 4049.35897395, 4135.12820485,10.0
4035.89743541, 4067.56410215, 4046.15384574, 4049.99999959, 4062.30769189, 4079.61538427, 4062.69230728, 4130.89743562, 4011.28205080, 4048.84615343, 4032.05128157, 4062.56410215, 4048.20512779, 4132.05128178,10.0
4051.66666625, 4086.92307658, 4061.66666625, 4070.76923043, 4079.99999966, 4084.87179453, 4079.99999966, 4152.82051262, 4049.10256369, 4073.58974325, 4051.79487138, 4083.71794837, 4074.99999966, 4127.05128178,10.0
4055.51282010, 4085.25640991, 4066.02564061, 4081.66666632, 4073.20512786, 4067.30769189, 4066.28205087, 4134.87179460, 4031.41025593, 4079.87179453, 4063.97435856, 4095.76923043, 4088.58974325, 4129.10256383,10.0
4031.15384567, 4055.38461497, 4040.25640984, 4055.12820472, 4044.87179446, 4042.82051241, 4029.74358926, 4101.92307658, 3981.41025586, 4045.64102523, 4046.92307651, 4073.97435863, 4065.89743548, 4130.64102537,10.0
4017.43589695, 4046.28205087, 4028.97435849, 4039.87179446, 4034.61538413, 4032.05128157, 4018.33333285, 4103.97435870, 3988.33333278, 4023.20512772, 4033.97435849, 4059.10256369, 4048.97435856, 4131.41025614,10.0
4034.87179439, 4072.43589709, 4050.51282010, 4063.20512779, 4051.15384574, 4042.69230728, 4035.38461490, 4121.79487152, 4023.84615336, 4046.66666625, 4045.64102523, 4076.28205094, 4064.99999959, 4130.12820485,10.0
4047.69230728, 4081.41025607, 4066.79487138, 4073.07692273, 4060.64102523, 4058.07692266, 4051.79487138, 4122.30769203, 4024.10256362, 4068.58974318, 4060.38461497, 4097.30769196, 4080.25640991, 4127.69230742,10.0
4037.94871754, 4062.05128164, 4059.74358933, 4054.87179446, 4051.66666625, 4056.79487138, 4047.69230728, 4116.15384588, 4013.84615336, 4060.89743548, 4060.64102523, 4097.69230735, 4073.33333299, 4131.92307665,10.0
4031.02564054, 4056.53846113, 4052.82051241, 4050.89743548, 4049.99999959, 4052.56410215, 4038.07692266, 4112.43589716, 4020.76923029, 4056.41025600, 4059.10256369, 4092.69230735, 4067.43589702, 4137.56410236,10.0
4041.79487138, 4067.30769189, 4059.48717907, 4062.94871754, 4057.17948677, 4063.20512779, 4050.38461497, 4117.82051255, 4035.25640977, 4063.97435856, 4059.10256369, 4097.17948684, 4071.28205094, 4133.20512793,10.0
4051.28205087, 4073.20512786, 4066.53846113, 4066.92307651, 4061.15384574, 4076.79487145, 4071.28205094, 4131.41025614, 4048.84615343, 4063.33333292, 4054.87179446, 4097.30769196, 4070.25640991, 4128.71794844,10.0
4050.38461497, 4076.28205094, 4063.58974318, 4065.12820472, 4064.87179446, 4088.33333299, 4080.89743555, 4135.51282031, 4042.69230728, 4056.53846113, 4050.51282010, 4090.76923043, 4066.41025600, 4133.07692280,10.0
4046.15384574, 4075.64102530, 4055.64102523, 4064.99999959, 4061.66666625, 4080.25640991, 4067.56410215, 4125.89743562, 4025.64102516, 4050.12820472, 4047.82051241, 4083.71794837, 4065.64102523, 4132.43589716,10.0
4048.20512779, 4073.46153812, 4058.46153805, 4068.07692266, 4054.74358933, 4060.64102523, 4049.23076882, 4118.07692280, 4025.12820465, 4047.30769189, 4050.64102523, 4082.05128171, 4065.76923036, 4127.17948691,10.0
4047.94871754, 4069.74358940, 4062.94871754, 4065.51282010, 4049.99999959, 4057.17948677, 4045.51282010, 4117.30769203, 4029.48717900, 4045.51282010, 4049.23076882, 4077.56410222, 4060.64102523, 4131.53846126,10.0
4045.76923036, 4068.20512779, 4064.74358933, 4061.41025600, 4054.10256369, 4062.69230728, 4051.79487138, 4118.07692280, 4027.30769183, 4042.82051241, 4048.46153805, 4077.94871761, 4058.58974318, 4135.64102544,10.0
4063.20512779, 4085.51282017, 4082.82051248, 4076.66666632, 4074.48717914, 4068.20512779, 4062.69230728, 4125.25640998, 4038.71794830, 4056.15384574, 4065.25640984, 4099.35897402, 4076.15384581, 4130.64102537,10.0
4084.10256376, 4103.33333306, 4104.23076896, 4095.76923043, 4092.05128171, 4081.28205094, 4069.87179453, 4124.74358947, 4051.28205087, 4078.71794837, 4083.20512786, 4119.74358947, 4095.76923043, 4126.79487152,10.0
4091.79487145, 4108.84615357, 4115.25640998, 4103.07692280, 4099.10256376, 4102.43589709, 4079.87179453, 4122.30769203, 4062.17948677, 4096.28205094, 4094.87179453, 4128.58974332, 4104.23076896, 4127.56410229,10.0
4105.64102537, 4122.43589716, 4129.10256383, 4112.56410229, 4112.56410229, 4117.30769203, 4097.17948684, 4142.69230749, 4094.99999966, 4116.41025614, 4110.25640998, 4142.94871774, 4113.97435870, 4131.28205101,10.0
4123.07692280, 4139.99999980, 4140.25641005, 4124.99999973, 4125.51282024, 4125.76923050, 4112.94871767, 4152.69230749, 4107.17948691, 4135.76923056, 4122.69230742, 4157.56410236, 4125.38461511, 4131.28205101,10.0
4121.53846126, 4142.43589723, 4139.35897415, 4127.56410229, 4125.25640998, 4132.05128178, 4120.64102537, 4143.84615364, 4095.64102530, 4138.20512800, 4121.28205101, 4159.99999980, 4130.64102537, 4126.28205101,10.0
4112.17948691, 4138.07692287, 4135.89743569, 4119.99999973, 4123.71794844, 4129.99999973, 4116.79487152, 4153.46153826, 4107.56410229, 4128.46153819, 4114.35897408, 4155.51282031, 4130.51282024, 4129.61538434,10.0
4120.12820485, 4143.33333313, 4139.23076903, 4121.28205101, 4135.25640998, 4141.28205108, 4127.30769203, 4168.46153833, 4119.23076896, 4128.07692280, 4117.56410229, 4157.05128185, 4131.41025614, 4133.84615357,10.0
4130.51282024, 4147.30769210, 4142.82051262, 4128.20512793, 4143.97435877, 4157.05128185, 4141.92307672, 4155.51282031, 4106.66666639, 4129.74358947, 4121.79487152, 4161.92307672, 4132.05128178, 4131.41025614,10.0
4125.25640998, 4140.12820492, 4141.79487159, 4125.89743562, 4139.35897415, 4146.15384595, 4127.30769203, 4140.12820492, 4101.28205094, 4125.64102537, 4116.41025614, 4164.23076903, 4131.92307665, 4132.17948691,10.0
4119.61538434, 4133.97435870, 4140.51282031, 4120.64102537, 4136.02564082, 4127.94871767, 4107.69230742, 4145.89743569, 4111.41025614, 4127.05128178, 4114.74358947, 4161.02564082, 4133.20512793, 4134.87179460,10.0
4124.35897408, 4135.38461518, 4141.92307672, 4121.53846126, 4135.51282031, 4131.02564075, 4114.99999973, 4148.84615364, 4108.58974332, 4126.02564075, 4116.02564075, 4156.15384595, 4131.28205101, 4133.71794844,10.0
4124.87179460, 4133.46153819, 4142.94871774, 4122.30769203, 4126.15384588, 4131.02564075, 4122.82051255, 4145.12820492, 4101.41025607, 4120.76923050, 4112.82051255, 4154.99999980, 4127.43589716, 4131.53846126,10.0
4122.56410229, 4127.69230742, 4142.94871774, 4120.89743562, 4122.43589716, 4128.46153819, 4118.71794844, 4149.35897415, 4106.92307665, 4132.82051255, 4121.02564075, 4159.99999980, 4133.46153819, 4133.20512793,10.0
4130.38461511, 4127.82051255, 4147.94871774, 4122.30769203, 4134.74358947, 4147.56410236, 4130.89743562, 4158.46153826, 4116.53846126, 4157.82051262, 4136.53846133, 4167.94871774, 4148.58974339, 4134.74358947,10.0
4131.28205101, 4127.69230742, 4147.30769210, 4120.64102537, 4138.46153826, 4148.71794851, 4135.38461518, 4156.79487159, 4117.94871767, 4158.33333313, 4130.51282024, 4164.35897415, 4148.58974339, 4132.17948691,10.0
4131.79487152, 4134.35897408, 4151.02564082, 4129.10256383, 4141.92307672, 4141.15384595, 4134.74358947, 4157.05128185, 4125.51282024, 4155.64102544, 4128.20512793, 4165.25641005, 4145.51282031, 4132.56410229,10.0
4145.64102544, 4147.82051262, 4169.48717935, 4146.53846133, 4157.82051262, 4163.84615364, 4149.61538441, 4163.84615364, 4135.64102544, 4172.82051269, 4147.56410236, 4181.02564089, 4158.33333313, 4136.28205108,10.0
4140.12820492, 4137.82051262, 4165.12820492, 4136.41025621, 4146.41025621, 4162.56410236, 4140.12820492, 4149.74358954, 4115.51282024, 4164.48717928, 4139.99999980, 4174.99999986, 4151.15384595, 4134.10256383,10.0
4117.82051255, 4114.10256383, 4138.20512800, 4113.33333306, 4120.25640998, 4131.02564075, 4112.17948691, 4134.10256383, 4092.56410222, 4132.82051255, 4108.58974332, 4148.46153826, 4123.20512793, 4128.71794844,10.0
4116.92307665, 4109.48717921, 4133.20512793, 4113.07692280, 4123.58974332, 4129.99999973, 4112.56410229, 4144.48717928, 4100.12820478, 4127.69230742, 4103.58974332, 4142.17948697, 4115.76923050, 4126.66666639,10.0
4123.58974332, 4114.99999973, 4141.41025621, 4119.61538434, 4128.07692280, 4142.05128185, 4120.64102537, 4149.61538441, 4102.43589709, 4128.33333306, 4111.53846126, 4144.99999980, 4119.35897408, 4129.23076896,10.0
4121.02564075, 4117.82051255, 4141.79487159, 4117.43589716, 4125.38461511, 4137.94871774, 4113.97435870, 4140.76923056, 4099.23076889, 4119.61538434, 4109.48717921, 4139.48717928, 4120.76923050, 4130.25640998,10.0
4131.15384588, 4122.94871767, 4150.25641005, 4121.66666639, 4144.99999980, 4140.64102544, 4124.35897408, 4148.97435877, 4117.82051255, 4136.28205108, 4117.17948691, 4146.41025621, 4134.35897408, 4129.48717921,10.0
4147.69230749, 4132.30769203, 4163.07692287, 4134.10256383, 4164.10256390, 4154.23076903, 4147.94871774, 4164.35897415, 4128.58974332, 4165.25641005, 4134.99999973, 4161.53846133, 4149.61538441, 4133.20512793,10.0
4146.92307672, 4136.15384595, 4160.25641005, 4136.79487159, 4161.79487159, 4161.15384595, 4150.51282031, 4165.12820492, 4122.82051255, 4168.33333320, 4139.23076903, 4159.99999980, 4145.76923056, 4133.33333306,10.0
4137.94871774, 4127.56410229, 4151.66666646, 4125.25640998, 4151.28205108, 4153.58974339, 4133.20512793, 4162.69230749, 4121.28205101, 4155.12820492, 4134.61538434, 4147.69230749, 4135.38461518, 4129.35897408,10.0
4130.25640998, 4119.74358947, 4147.69230749, 4116.66666639, 4142.69230749, 4139.48717928, 4119.35897408, 4158.71794851, 4115.76923050, 4148.33333313, 4132.43589716, 4145.64102544, 4133.84615357, 4129.35897408,10.0
4124.99999973, 4124.10256383, 4142.43589723, 4119.99999973, 4142.69230749, 4137.43589723, 4118.71794844, 4149.87179467, 4103.71794844, 4142.82051262, 4127.69230742, 4149.35897415, 4137.17948697, 4128.58974332,10.0
4120.89743562, 4121.53846126, 4136.15384595, 4118.97435870, 4137.69230749, 4135.76923056, 4111.41025614, 4144.10256390, 4097.43589709, 4130.38461511, 4117.30769203, 4143.07692287, 4128.46153819, 4129.87179460,10.0
4117.05128178, 4108.46153819, 4131.53846126, 4109.48717921, 4119.61538434, 4129.74358947, 4099.99999966, 4145.12820492, 4099.35897402, 4125.51282024, 4113.07692280, 4139.10256390, 4119.74358947, 4131.66666639,10.0
4114.10256383, 4105.89743562, 4125.64102537, 4105.76923050, 4112.56410229, 4127.94871767, 4095.64102530, 4136.15384595, 4093.20512786, 4127.43589716, 4114.61538434, 4145.25641005, 4123.71794844, 4129.35897408,10.0
4117.82051255, 4116.41025614, 4128.58974332, 4118.07692280, 4126.28205101, 4129.48717921, 4103.07692280, 4125.25640998, 4080.51282017, 4123.33333306, 4114.35897408, 4148.97435877, 4122.30769203, 4130.64102537,10.0
4127.17948691, 4129.61538434, 4142.43589723, 4132.82051255, 4136.41025621, 4138.97435877, 4121.41025614, 4137.82051262, 4093.58974325, 4127.17948691, 4113.71794844, 4152.82051262, 4118.33333306, 4134.48717921,10.0
4135.76923056, 4134.35897408, 4149.87179467, 4131.53846126, 4139.74358954, 4149.99999980, 4136.02564082, 4151.28205108, 4120.51282024, 4142.94871774, 4113.33333306, 4156.92307672, 4126.41025614, 4132.69230742,10.0
4143.20512800, 4133.20512793, 4153.58974339, 4124.74358947, 4148.07692287, 4147.56410236, 4133.33333306, 4139.99999980, 4116.66666639, 4147.05128185, 4115.25640998, 4157.17948697, 4133.33333306, 4128.84615357,10.0
4137.17948697, 4125.64102537, 4154.10256390, 4120.89743562, 4143.07692287, 4142.56410236, 4121.53846126, 4125.89743562, 4092.05128171, 4134.35897408, 4113.20512793, 4151.41025621, 4123.20512793, 4129.87179460,10.0
4114.35897408, 4109.99999973, 4135.51282031, 4112.17948691, 4122.69230742, 4143.33333313, 4116.15384588, 4122.82051255, 4085.89743555, 4120.76923050, 4099.48717914, 4137.94871774, 4110.25640998, 4130.51282024,10.0
4101.53846119, 4103.33333306, 4121.15384588, 4110.51282024, 4115.51282024, 4133.58974332, 4110.76923050, 4116.28205101, 4089.35897402, 4120.89743562, 4096.15384581, 4133.97435870, 4111.15384588, 4129.10256383,10.0
4109.74358947, 4111.41025614, 4129.23076896, 4119.10256383, 4124.99999973, 4121.66666639, 4102.17948684, 4112.17948691, 4085.76923043, 4126.02564075, 4108.20512793, 4142.05128185, 4117.17948691, 4131.53846126,10.0
4120.12820485, 4117.56410229, 4138.20512800, 4120.89743562, 4127.43589716, 4124.23076896, 4104.48717921, 4122.30769203, 4087.69230735, 4125.76923050, 4112.56410229, 4141.66666646, 4116.41025614, 4132.05128178,10.0
4119.48717921, 4115.64102537, 4140.51282031, 4118.20512793, 4128.97435870, 4129.10256383, 4116.41025614, 4132.30769203, 4101.02564068, 4136.02564082, 4110.25640998, 4136.15384595, 4111.92307665, 4128.84615357,10.0
4107.82051255, 4106.02564075, 4129.48717921, 4109.61538434, 4126.53846126, 4119.48717921, 4112.30769203, 4128.33333306, 4111.92307665, 4143.84615364, 4106.41025614, 4126.02564075, 4105.89743562, 4130.51282024,10.0
4098.46153812, 4099.10256376, 4113.20512793, 4098.84615350, 4106.02564075, 4110.76923050, 4098.71794837, 4115.64102537, 4106.02564075, 4130.76923050, 4100.51282017, 4116.41025614, 4100.25640991, 4130.25640998,10.0
4120.25640998, 4119.99999973, 4128.84615357, 4113.33333306, 4110.12820485, 4131.41025614, 4113.97435870, 4120.12820485, 4104.48717921, 4134.23076896, 4111.66666639, 4134.48717921, 4112.30769203, 4127.30769203,10.0
4142.17948697, 4138.71794851, 4150.51282031, 4132.05128178, 4138.84615364, 4150.89743569, 4136.02564082, 4130.76923050, 4112.94871767, 4144.99999980, 4121.41025614, 4150.76923056, 4122.94871767, 4129.23076896,10.0
4122.69230742, 4117.82051255, 4128.20512793, 4114.87179460, 4135.38461518, 4134.99999973, 4121.15384588, 4116.92307665, 4100.89743555, 4120.12820485, 4099.10256376, 4124.61538434, 4105.25640998, 4132.30769203,10.0
4105.51282024, 4098.97435863, 4110.51282024, 4098.84615350, 4114.61538434, 4116.15384588, 4098.97435863, 4108.97435870, 4093.46153812, 4104.61538434, 4087.43589709, 4110.25640998, 4093.58974325, 4133.58974332,10.0
4115.12820485, 4110.76923050, 4129.99999973, 4111.41025614, 4116.02564075, 4117.69230742, 4100.76923043, 4119.87179460, 4104.23076896, 4125.51282024, 4110.25640998, 4131.02564075, 4107.43589716, 4129.61538434,10.0
4115.25640998, 4116.28205101, 4137.69230749, 4119.35897408, 4117.43589716, 4120.51282024, 4103.84615357, 4121.15384588, 4100.38461504, 4131.15384588, 4118.84615357, 4137.05128185, 4111.66666639, 4126.28205101,10.0
4102.17948684, 4104.35897408, 4121.28205101, 4109.99999973, 4104.74358947, 4117.56410229, 4094.10256376, 4117.94871767, 4092.56410222, 4119.48717921, 4109.10256383, 4124.10256383, 4102.30769196, 4131.92307665,10.0
4103.07692280, 4103.84615357, 4119.10256383, 4106.66666639, 4104.23076896, 4112.30769203, 4087.30769196, 4120.25640998, 4102.56410229, 4127.43589716, 4113.07692280, 4118.07692280, 4105.76923050, 4133.97435870,10.0
4112.17948691, 4113.20512793, 4128.84615357, 4115.51282024, 4111.79487152, 4106.15384588, 4094.48717914, 4122.30769203, 4113.97435870, 4137.43589723, 4119.48717921, 4119.35897408, 4111.15384588, 4130.51282024,10.0
4104.23076896, 4109.35897408, 4121.28205101, 4114.74358947, 4108.33333306, 4109.99999973, 4098.97435863, 4120.64102537, 4110.89743562, 4123.07692280, 4108.97435870, 4117.30769203, 4096.79487145, 4131.92307665,10.0
4094.74358940, 4105.89743562, 4109.35897408, 4106.53846126, 4100.12820478, 4116.92307665, 4092.30769196, 4116.15384588, 4097.94871761, 4108.07692280, 4103.07692280, 4112.43589716, 4087.17948684, 4134.61538434,10.0
4104.35897408, 4120.12820485, 4117.94871767, 4113.20512793, 4107.69230742, 4123.97435870, 4098.84615350, 4112.30769203, 4084.23076889, 4111.53846126, 4113.58974332, 4110.64102537, 4096.02564068, 4131.41025614,10.0
4101.41025607, 4119.48717921, 4117.56410229, 4114.35897408, 4112.69230742, 4124.10256383, 4098.33333299, 4104.99999973, 4072.05128171, 4103.97435870, 4103.33333306, 4102.94871767, 4084.87179453, 4126.92307665,10.0
4079.48717914, 4099.74358940, 4095.12820478, 4097.56410222, 4094.10256376, 4109.23076896, 4077.82051248, 4102.56410229, 4068.33333292, 4085.64102530, 4077.17948684, 4087.69230735, 4064.48717907, 4129.99999973,10.0
4079.99999966, 4099.99999966, 4091.79487145, 4096.66666632, 4094.48717914, 4109.10256383, 4084.99999966, 4116.92307665, 4085.64102530, 4097.05128171, 4081.02564068, 4090.64102530, 4076.66666632, 4133.97435870,10.0
4097.43589709, 4114.10256383, 4110.25640998, 4112.56410229, 4122.05128178, 4124.87179460, 4115.89743562, 4128.97435870, 4106.92307665, 4117.30769203, 4104.10256383, 4105.51282024, 4098.58974325, 4132.82051255,10.0
4102.69230742, 4115.89743562, 4119.23076896, 4115.51282024, 4131.66666639, 4125.38461511, 4117.05128178, 4124.87179460, 4108.84615357, 4116.66666639, 4111.15384588, 4110.64102537, 4105.38461511, 4130.89743562,10.0
4107.05128178, 4114.61538434, 4121.79487152, 4113.58974332, 4124.35897408, 4120.25640998, 4104.99999973, 4117.82051255, 4104.35897408, 4120.76923050, 4108.97435870, 4118.20512793, 4111.92307665, 4129.61538434,10.0
4114.99999973, 4118.20512793, 4122.82051255, 4117.17948691, 4120.51282024, 4118.46153819, 4101.92307658, 4114.48717921, 4105.38461511, 4130.76923050, 4111.92307665, 4124.87179460, 4112.17948691, 4131.02564075,10.0
4116.79487152, 4122.94871767, 4121.15384588, 4118.07692280, 4122.30769203, 4125.89743562, 4110.89743562, 4116.53846126, 4105.38461511, 4126.15384588, 4114.87179460, 4121.02564075, 4100.89743555, 4133.20512793,10.0
4112.05128178, 4120.51282024, 4113.20512793, 4111.02564075, 4122.56410229, 4141.41025621, 4127.05128178, 4121.92307665, 4098.58974325, 4115.76923050, 4110.38461511, 4110.89743562, 4091.79487145, 4131.79487152,10.0
4097.30769196, 4104.10256383, 4095.25640991, 4096.28205094, 4111.66666639, 4127.82051255, 4111.28205101, 4110.25640998, 4082.43589709, 4108.20512793, 4100.12820478, 4094.74358940, 4084.48717914, 4129.99999973,10.0
4087.43589709, 4098.71794837, 4092.56410222, 4095.76923043, 4099.61538427, 4101.15384581, 4082.69230735, 4092.94871761, 4076.79487145, 4103.71794844, 4100.38461504, 4090.25640991, 4081.92307658, 4130.89743562,10.0
4100.76923043, 4114.99999973, 4111.41025614, 4110.64102537, 4107.69230742, 4114.10256383, 4093.71794837, 4100.64102530, 4091.28205094, 4111.28205101, 4113.07692280, 4107.17948691, 4087.56410222, 4131.79487152,10.0
4107.94871767, 4117.94871767, 4114.87179460, 4109.74358947, 4112.05128178, 4125.64102537, 4104.99999973, 4107.56410229, 4092.69230735, 4116.02564075, 4112.30769203, 4112.69230742, 4085.64102530, 4130.38461511,10.0
4097.05128171, 4104.74358947, 4103.33333306, 4098.07692273, 4100.64102530, 4115.51282024, 4095.64102530, 4103.97435870, 4085.76923043, 4111.15384588, 4102.82051255, 4100.12820478, 4081.02564068, 4131.28205101,10.0
4098.71794837, 4102.17948684, 4103.71794844, 4100.64102530, 4104.10256383, 4129.48717921, 4108.58974332, 4112.56410229, 4094.74358940, 4110.38461511, 4101.28205094, 4099.61538427, 4082.05128171, 4135.51282031,10.0
4107.56410229, 4109.87179460, 4112.69230742, 4109.10256383, 4117.30769203, 4139.35897415, 4118.33333306, 4113.46153819, 4100.25640991, 4110.25640998, 4109.61538434, 4108.58974332, 4084.74358940, 4131.41025614,10.0
4112.43589716, 4118.58974332, 4122.82051255, 4115.89743562, 4120.25640998, 4128.46153819, 4114.99999973, 4113.33333306, 4114.48717921, 4123.84615357, 4128.71794844, 4118.97435870, 4099.48717914, 4126.79487152,10.0
4114.23076896, 4119.61538434, 4126.79487152, 4115.51282024, 4116.15384588, 4134.10256383, 4120.76923050, 4118.58974332, 4129.99999973, 4136.92307672, 4130.89743562, 4122.17948691, 4104.87179460, 4130.12820485,10.0
4114.48717921, 4117.30769203, 4122.94871767, 4111.53846126, 4119.23076896, 4146.28205108, 4119.99999973, 4107.56410229, 4112.82051255, 4120.12820485, 4112.56410229, 4114.23076896, 4086.53846119, 4129.99999973,10.0
4110.89743562, 4120.12820485, 4116.66666639, 4116.02564075, 4124.87179460, 4139.35897415, 4110.12820485, 4088.33333299, 4081.02564068, 4094.87179453, 4103.71794844, 4105.76923050, 4074.10256376, 4127.17948691,10.0
4095.12820478, 4113.20512793, 4104.61538434, 4112.69230742, 4108.33333306, 4118.07692280, 4092.43589709, 4081.92307658, 4071.53846119, 4084.99999966, 4094.35897402, 4093.84615350, 4072.82051248, 4129.48717921,10.0
4085.25640991, 4099.10256376, 4099.99999966, 4100.51282017, 4093.46153812, 4107.30769203, 4081.79487145, 4086.53846119, 4079.23076889, 4089.74358940, 4084.87179453, 4086.41025607, 4069.99999966, 4132.56410229,10.0
4093.58974325, 4100.76923043, 4106.79487152, 4099.74358940, 4106.28205101, 4112.43589716, 4087.82051248, 4088.71794837, 4084.23076889, 4096.53846119, 4094.99999966, 4094.48717914, 4069.35897395, 4132.94871767,10.0
4099.23076889, 4110.25640998, 4107.43589716, 4104.48717921, 4114.10256383, 4122.94871767, 4097.43589709, 4088.84615350, 4090.51282017, 4101.79487145, 4104.74358947, 4099.87179453, 4074.99999966, 4132.56410229,10.0
4094.61538427, 4108.97435870, 4106.41025614, 4103.97435870, 4108.33333306, 4132.82051255, 4100.64102530, 4087.05128171, 4087.69230735, 4103.46153819, 4098.07692273, 4095.25640991, 4080.76923043, 4132.94871767,10.0
4098.20512786, 4108.58974332, 4115.25640998, 4105.89743562, 4112.30769203, 4141.79487159, 4109.87179460, 4098.97435863, 4092.82051248, 4113.07692280, 4106.15384588, 4096.92307658, 4084.99999966, 4131.66666639,10.0
4103.33333306, 4111.66666639, 4120.64102537, 4107.94871767, 4116.15384588, 4146.28205108, 4118.33333306, 4111.66666639, 4112.69230742, 4126.02564075, 4120.51282024, 4099.74358940, 4087.82051248, 4130.76923050,10.0
4093.84615350, 4107.69230742, 4113.33333306, 4102.43589709, 4108.97435870, 4147.05128185, 4106.53846126, 4096.66666632, 4098.20512786, 4109.87179460, 4110.12820485, 4091.02564068, 4082.94871761, 4132.05128178,10.0
4085.38461504, 4101.41025607, 4101.66666632, 4097.17948684, 4105.89743562, 4146.15384595, 4099.61538427, 4089.87179453, 4074.74358940, 4085.51282017, 4097.69230735, 4080.76923043, 4067.69230728, 4129.99999973,10.0
4088.71794837, 4099.61538427, 4097.17948684, 4094.61538427, 4101.66666632, 4138.97435877, 4101.53846119, 4097.69230735, 4081.02564068, 4083.07692273, 4096.41025607, 4074.99999966, 4055.25640984, 4128.97435870,10.0
4098.20512786, 4105.76923050, 4105.89743562, 4101.15384581, 4101.66666632, 4137.17948697, 4102.43589709, 4093.58974325, 4087.30769196, 4094.99999966, 4099.48717914, 4079.99999966, 4066.02564061, 4130.38461511,10.0
4093.07692273, 4108.07692280, 4102.69230742, 4104.48717921, 4106.02564075, 4133.46153819, 4094.61538427, 4082.17948684, 4071.66666632, 4091.15384581, 4091.15384581, 4075.12820478, 4069.10256369, 4127.69230742,10.0
4076.66666632, 4101.02564068, 4081.53846119, 4093.07692273, 4096.28205094, 4115.38461511, 4080.38461504, 4081.41025607, 4059.61538420, 4073.97435863, 4071.79487145, 4054.10256369, 4051.15384574, 4129.61538434,10.0
4083.33333299, 4103.20512793, 4088.46153812, 4096.53846119, 4091.41025607, 4115.89743562, 4088.20512786, 4092.94871761, 4070.64102530, 4081.92307658, 4078.58974325, 4059.99999959, 4059.35897395, 4131.66666639,10.0
4104.23076896, 4115.25640998, 4114.99999973, 4114.74358947, 4108.07692280, 4135.64102544, 4113.97435870, 4112.94871767, 4100.89743555, 4115.38461511, 4103.20512793, 4086.92307658, 4087.43589709, 4128.97435870,10.0
4102.30769196, 4109.23076896, 4109.48717921, 4108.33333306, 4112.30769203, 4128.97435870, 4114.35897408, 4118.33333306, 4113.07692280, 4132.43589716, 4105.64102537, 4087.94871761, 4089.87179453, 4129.74358947,10.0
4083.71794837, 4092.82051248, 4088.71794837, 4084.61538427, 4093.84615350, 4107.82051255, 4091.53846119, 4092.43589709, 4078.46153812, 4108.97435870, 4091.79487145, 4076.53846119, 4072.94871761, 4129.87179460,10.0
4083.20512786, 4095.76923043, 4094.35897402, 4083.58974325, 4084.74358940, 4116.41025614, 4103.20512793, 4088.84615350, 4073.07692273, 4093.20512786, 4092.30769196, 4084.35897402, 4070.25640991, 4128.46153819,10.0
4093.20512786, 4102.69230742, 4107.69230742, 4094.99999966, 4088.33333299, 4130.89743562, 4125.89743562, 4108.20512793, 4110.12820485, 4107.05128178, 4100.38461504, 4092.82051248, 4077.05128171, 4129.48717921,10.0
4092.56410222, 4098.20512786, 4107.69230742, 4094.99999966, 4089.74358940, 4121.15384588, 4107.69230742, 4093.20512786, 4102.56410229, 4105.76923050, 4102.43589709, 4091.66666632, 4074.10256376, 4129.61538434,10.0
4093.20512786, 4099.23076889, 4110.64102537, 4097.17948684, 4091.92307658, 4110.51282024, 4093.33333299, 4070.25640991, 4075.51282017, 4094.48717914, 4104.99999973, 4100.25640991, 4073.58974325, 4127.43589716,10.0
4096.15384581, 4100.76923043, 4111.02564075, 4099.10256376, 4091.53846119, 4109.74358947, 4100.89743555, 4077.69230735, 4083.46153812, 4095.64102530, 4100.51282017, 4101.92307658, 4074.87179453, 4128.58974332,10.0
4081.02564068, 4084.35897402, 4089.35897402, 4080.76923043, 4078.46153812, 4094.87179453, 4083.58974325, 4078.33333299, 4082.69230735, 4083.33333299, 4080.51282017, 4076.66666632, 4058.97435856, 4132.56410229,10.0
4066.41025600, 4073.84615350, 4080.25640991, 4071.66666632, 4070.38461504, 4077.17948684, 4063.33333292, 4059.48717907, 4061.02564061, 4060.64102523, 4065.89743548, 4061.15384574, 4046.28205087, 4132.30769203,10.0
4087.43589709, 4094.35897402, 4108.71794844, 4098.58974325, 4084.99999966, 4092.43589709, 4090.12820478, 4062.30769189, 4064.87179446, 4073.07692273, 4087.94871761, 4089.23076889, 4065.89743548, 4131.02564075,10.0
4118.20512793, 4118.07692280, 4135.25640998, 4121.66666639, 4101.41025607, 4115.38461511, 4120.12820485, 4085.89743555, 4098.84615350, 4105.51282024, 4124.10256383, 4122.94871767, 4093.33333299, 4132.30769203,10.0
4124.23076896, 4120.89743562, 4137.94871774, 4119.74358947, 4105.76923050, 4107.56410229, 4113.71794844, 4096.66666632, 4128.20512793, 4115.64102537, 4135.12820485, 4130.89743562, 4101.79487145, 4131.28205101,10.0
4132.94871767, 4130.12820485, 4148.84615364, 4133.97435870, 4118.84615357, 4115.12820485, 4121.53846126, 4095.64102530, 4135.89743569, 4124.10256383, 4140.76923056, 4137.43589723, 4112.05128178, 4131.79487152,10.0
4150.38461518, 4153.07692287, 4167.05128185, 4159.23076903, 4142.82051262, 4147.17948697, 4147.56410236, 4095.38461504, 4131.41025614, 4143.33333313, 4159.23076903, 4149.99999980, 4128.20512793, 4134.10256383,10.0
4153.20512800, 4163.46153826, 4171.41025628, 4163.07692287, 4155.25641005, 4157.05128185, 4155.12820492, 4102.82051255, 4143.07692287, 4156.66666646, 4171.02564089, 4154.74358954, 4133.84615357, 4131.28205101,10.0
4151.02564082, 4163.46153826, 4171.79487166, 4160.89743569, 4155.51282031, 4150.51282031, 4148.71794851, 4113.33333306, 4166.41025621, 4158.58974339, 4168.71794858, 4153.33333313, 4132.43589716, 4128.58974332,10.0
4151.66666646, 4161.41025621, 4169.87179474, 4160.38461518, 4150.89743569, 4144.87179467, 4138.20512800, 4111.92307665, 4169.35897422, 4154.99999980, 4163.07692287, 4154.10256390, 4130.89743562, 4128.46153819,10.0
4148.71794851, 4156.02564082, 4165.51282031, 4154.87179467, 4148.58974339, 4138.97435877, 4135.38461518, 4103.84615357, 4157.94871774, 4152.82051262, 4159.35897415, 4152.94871774, 4126.02564075, 4128.46153819,10.0
4142.94871774, 4151.79487159, 4160.64102544, 4148.71794851, 4153.07692287, 4142.43589723, 4147.05128185, 4105.76923050, 4152.82051262, 4150.64102544, 4148.20512800, 4140.76923056, 4118.33333306, 4128.97435870,10.0
4136.66666646, 4152.94871774, 4152.05128185, 4143.71794851, 4152.56410236, 4142.05128185, 4144.23076903, 4109.87179460, 4156.41025621, 4144.74358954, 4136.79487159, 4132.05128178, 4117.05128178, 4129.23076896,10.0
4144.35897415, 4156.28205108, 4157.94871774, 4148.46153826, 4151.66666646, 4138.46153826, 4135.64102544, 4115.25640998, 4166.79487159, 4148.58974339, 4151.02564082, 4147.05128185, 4130.38461511, 4130.51282024,10.0
4162.17948697, 4159.23076903, 4179.61538448, 4162.43589723, 4162.56410236, 4151.92307672, 4154.23076903, 4132.05128178, 4180.12820499, 4173.33333320, 4173.20512807, 4167.05128185, 4151.28205108, 4130.76923050,10.0
4166.66666646, 4163.33333313, 4185.89743576, 4165.89743569, 4167.69230749, 4162.94871774, 4168.58974345, 4138.33333313, 4185.89743576, 4190.25641012, 4175.25641012, 4173.33333320, 4159.35897415, 4128.97435870,10.0
4163.07692287, 4163.84615364, 4179.74358961, 4161.02564082, 4160.76923056, 4154.74358954, 4155.64102544, 4125.89743562, 4186.53846140, 4181.66666653, 4171.15384602, 4174.99999986, 4153.58974339, 4129.48717921,10.0
4167.69230749, 4162.69230749, 4185.51282038, 4165.76923056, 4161.02564082, 4155.76923056, 4154.48717928, 4119.23076896, 4184.87179474, 4169.87179474, 4174.35897422, 4174.48717935, 4151.02564082, 4131.28205101,10.0
4162.30769210, 4158.71794851, 4185.38461525, 4166.41025621, 4158.71794851, 4162.05128185, 4159.48717928, 4112.69230742, 4161.66666646, 4161.79487159, 4167.94871774, 4167.94871774, 4145.89743569, 4131.15384588,10.0
4150.64102544, 4156.53846133, 4174.87179474, 4159.23076903, 4153.33333313, 4153.20512800, 4150.64102544, 4106.79487152, 4151.41025621, 4155.25641005, 4158.58974339, 4163.20512800, 4138.33333313, 4128.97435870,10.0
4158.07692287, 4157.30769210, 4175.12820499, 4159.99999980, 4159.23076903, 4148.07692287, 4151.53846133, 4115.25640998, 4171.28205115, 4156.41025621, 4161.66666646, 4160.25641005, 4137.82051262, 4129.48717921,10.0
4162.69230749, 4153.97435877, 4177.17948704, 4160.89743569, 4162.17948697, 4147.30769210, 4153.71794851, 4116.53846126, 4168.97435884, 4157.17948697, 4157.43589723, 4155.25641005, 4133.46153819, 4132.94871767,10.0
4146.92307672, 4146.92307672, 4168.33333320, 4154.87179467, 4149.10256390, 4134.48717921, 4136.28205108, 4102.17948684, 4146.15384595, 4149.99999980, 4144.48717928, 4146.28205108, 4119.61538434, 4131.53846126,10.0
4137.43589723, 4139.35897415, 4156.28205108, 4147.56410236, 4137.82051262, 4117.17948691, 4118.84615357, 4101.28205094, 4144.87179467, 4143.71794851, 4142.05128185, 4131.66666639, 4115.76923050, 4129.87179460,10.0
4144.99999980, 4137.94871774, 4157.43589723, 4147.56410236, 4142.30769210, 4122.69230742, 4126.02564075, 4113.71794844, 4157.94871774, 4145.89743569, 4158.07692287, 4129.23076896, 4123.84615357, 4131.79487152,10.0
4155.89743569, 4144.87179467, 4169.23076910, 4153.46153826, 4157.30769210, 4148.84615364, 4145.89743569, 4119.61538434, 4164.23076903, 4152.69230749, 4168.97435884, 4141.92307672, 4129.87179460, 4131.02564075,10.0
4163.58974339, 4151.66666646, 4174.23076910, 4159.35897415, 4160.89743569, 4151.66666646, 4150.38461518, 4122.94871767, 4168.07692287, 4163.33333313, 4168.33333320, 4149.61538441, 4137.43589723, 4129.99999973,10.0
4164.87179467, 4151.41025621, 4172.94871781, 4163.07692287, 4153.07692287, 4140.76923056, 4148.84615364, 4126.79487152, 4172.69230756, 4174.61538448, 4173.58974345, 4152.30769210, 4141.79487159, 4130.51282024,10.0
4159.10256390, 4150.89743569, 4174.48717935, 4161.15384595, 4162.30769210, 4155.12820492, 4158.97435877, 4126.92307665, 4173.71794858, 4170.89743576, 4168.58974345, 4150.76923056, 4137.94871774, 4131.41025614,10.0
4151.92307672, 4149.35897415, 4167.94871774, 4155.76923056, 4172.17948704, 4166.92307672, 4158.07692287, 4117.69230742, 4164.35897415, 4154.10256390, 4152.05128185, 4143.97435877, 4132.94871767, 4130.76923050,10.0
4144.74358954, 4140.51282031, 4154.35897415, 4149.74358954, 4158.33333313, 4141.28205108, 4130.38461511, 4104.48717921, 4147.43589723, 4146.02564082, 4148.33333313, 4134.74358947, 4126.41025614, 4127.82051255,10.0
4142.56410236, 4131.92307665, 4151.92307672, 4141.53846133, 4149.23076903, 4120.25640998, 4118.97435870, 4104.23076896, 4139.35897415, 4148.46153826, 4151.15384595, 4126.41025614, 4119.87179460, 4128.84615357,10.0
4142.82051262, 4132.69230742, 4156.41025621, 4137.17948697, 4157.17948697, 4131.53846126, 4135.64102544, 4108.71794844, 4140.25641005, 4143.58974339, 4142.94871774, 4121.53846126, 4116.41025614, 4130.25640998,10.0
4130.89743562, 4126.79487152, 4148.20512800, 4131.41025614, 4147.82051262, 4130.38461511, 4129.87179460, 4102.43589709, 4140.51282031, 4123.46153819, 4132.69230742, 4108.97435870, 4108.71794844, 4128.84615357,10.0
4113.20512793, 4107.30769203, 4130.51282024, 4121.28205101, 4122.05128178, 4112.82051255, 4102.17948684, 4093.97435863, 4130.89743562, 4106.92307665, 4125.38461511, 4089.61538427, 4095.38461504, 4128.33333306,10.0
4119.23076896, 4111.28205101, 4133.07692280, 4127.17948691, 4125.25640998, 4126.28205101, 4116.92307665, 4109.35897408, 4136.53846133, 4127.30769203, 4130.38461511, 4097.43589709, 4104.87179460, 4128.84615357,10.0
4147.30769210, 4142.17948697, 4158.58974339, 4151.53846133, 4155.51282031, 4159.23076903, 4166.79487159, 4144.87179467, 4174.10256397, 4169.10256397, 4154.48717928, 4130.51282024, 4134.23076896, 4131.28205101,10.0
4148.84615364, 4141.02564082, 4159.61538441, 4150.38461518, 4154.99999980, 4149.74358954, 4154.10256390, 4137.17948697, 4171.15384602, 4162.05128185, 4153.46153826, 4128.84615357, 4130.64102537, 4130.89743562,10.0
4121.28205101, 4109.74358947, 4129.23076896, 4122.82051255, 4118.84615357, 4115.12820485, 4095.38461504, 4091.15384581, 4120.25640998, 4121.53846126, 4123.84615357, 4097.82051248, 4099.10256376, 4128.46153819,10.0
4116.53846126, 4107.17948691, 4125.25640998, 4119.87179460, 4109.61538434, 4123.97435870, 4096.53846119, 4090.64102530, 4114.87179460, 4122.82051255, 4120.38461511, 4098.07692273, 4095.64102530, 4128.58974332,10.0
4136.15384595, 4126.41025614, 4147.69230749, 4138.07692287, 4132.17948691, 4154.10256390, 4132.56410229, 4122.05128178, 4141.15384595, 4141.79487159, 4137.94871774, 4115.89743562, 4112.05128178, 4130.12820485,10.0
4146.79487159, 4137.82051262, 4157.05128185, 4147.17948697, 4143.58974339, 4154.99999980, 4129.99999973, 4118.97435870, 4132.56410229, 4134.23076896, 4145.89743569, 4121.92307665, 4117.30769203, 4132.56410229,10.0
4141.28205108, 4135.76923056, 4149.99999980, 4140.76923056, 4135.12820485, 4140.76923056, 4111.53846126, 4099.87179453, 4117.56410229, 4121.79487152, 4141.66666646, 4119.74358947, 4116.15384588, 4131.92307665,10.0
4130.51282024, 4121.15384588, 4132.69230742, 4124.48717921, 4124.87179460, 4134.23076896, 4113.58974332, 4101.66666632, 4116.15384588, 4111.02564075, 4123.20512793, 4107.17948691, 4103.46153819, 4127.30769203,10.0
4128.46153819, 4119.23076896, 4126.53846126, 4122.43589716, 4124.48717921, 4134.61538434, 4119.48717921, 4104.10256383, 4108.71794844, 4103.46153819, 4109.35897408, 4096.79487145, 4089.48717914, 4127.43589716,10.0
4137.56410236, 4134.99999973, 4142.94871774, 4136.53846133, 4131.15384588, 4143.97435877, 4126.92307665, 4107.17948691, 4124.23076896, 4123.71794844, 4123.71794844, 4106.53846126, 4104.99999973, 4130.25640998,10.0
4140.38461518, 4131.92307665, 4146.79487159, 4133.97435870, 4128.58974332, 4155.64102544, 4138.07692287, 4118.84615357, 4146.28205108, 4138.33333313, 4133.46153819, 4113.20512793, 4118.20512793, 4131.66666639,10.0
4139.74358954, 4119.10256383, 4138.58974339, 4125.12820485, 4123.84615357, 4158.71794851, 4146.53846133, 4132.56410229, 4150.38461518, 4129.61538434, 4129.87179460, 4112.05128178, 4110.76923050, 4132.43589716,10.0
4141.79487159, 4123.97435870, 4143.84615364, 4129.48717921, 4122.43589716, 4145.64102544, 4137.43589723, 4127.69230742, 4145.25641005, 4128.97435870, 4135.64102544, 4115.76923050, 4107.17948691, 4132.43589716,10.0
4134.48717921, 4124.35897408, 4140.51282031, 4128.20512793, 4112.43589716, 4124.35897408, 4108.84615357, 4104.87179460, 4131.66666639, 4129.87179460, 4135.38461518, 4109.61538434, 4103.46153819, 4130.89743562,10.0
4120.64102537, 4111.28205101, 4119.74358947, 4116.28205101, 4105.51282024, 4116.41025614, 4097.43589709, 4100.89743555, 4121.41025614, 4114.99999973, 4118.58974332, 4092.05128171, 4094.87179453, 4127.30769203,10.0
4108.20512793, 4099.74358940, 4105.12820485, 4103.71794844, 4104.23076896, 4118.33333306, 4098.07692273, 4108.07692280, 4116.79487152, 4095.89743555, 4100.25640991, 4079.74358940, 4088.71794837, 4128.84615357,10.0
4104.35897408, 4098.58974325, 4108.58974332, 4102.43589709, 4102.05128171, 4119.23076896, 4087.94871761, 4102.94871767, 4109.23076896, 4096.66666632, 4100.76923043, 4084.61538427, 4087.43589709, 4133.33333306,10.0
4118.71794844, 4118.20512793, 4131.92307665, 4121.66666639, 4115.38461511, 4126.53846126, 4090.76923043, 4101.28205094, 4114.23076896, 4115.12820485, 4123.33333306, 4107.05128178, 4095.89743555, 4130.38461511,10.0
4133.33333306, 4133.20512793, 4144.10256390, 4132.69230742, 4129.35897408, 4130.76923050, 4107.05128178, 4108.58974332, 4127.05128178, 4117.82051255, 4132.43589716, 4116.53846126, 4099.99999966, 4127.56410229,10.0
4134.48717921, 4129.74358947, 4137.43589723, 4126.53846126, 4121.53846126, 4122.30769203, 4108.71794844, 4109.74358947, 4121.28205101, 4117.56410229, 4127.05128178, 4114.35897408, 4098.84615350, 4128.46153819,10.0
4144.35897415, 4139.48717928, 4149.61538441, 4139.35897415, 4119.87179460, 4132.82051255, 4117.56410229, 4117.56410229, 4125.38461511, 4140.12820492, 4140.76923056, 4136.92307672, 4115.76923050, 4128.46153819,10.0
4153.46153826, 4153.46153826, 4163.46153826, 4157.17948697, 4133.33333306, 4154.87179467, 4138.20512800, 4129.74358947, 4144.61538441, 4143.20512800, 4154.99999980, 4151.92307672, 4127.82051255, 4128.58974332,10.0
4131.15384588, 4134.87179460, 4140.76923056, 4139.10256390, 4120.25640998, 4137.05128185, 4118.97435870, 4117.05128178, 4127.82051255, 4109.87179460, 4130.25640998, 4120.89743562, 4107.17948691, 4129.61538434,10.0
4113.20512793, 4113.58974332, 4122.05128178, 4118.71794844, 4099.10256376, 4109.48717921, 4093.07692273, 4106.79487152, 4108.07692280, 4102.56410229, 4108.46153819, 4101.53846119, 4095.38461504, 4129.99999973,10.0
4115.38461511, 4113.20512793, 4123.97435870, 4119.87179460, 4097.82051248, 4108.33333306, 4099.35897402, 4107.56410229, 4108.58974332, 4110.89743562, 4113.71794844, 4111.02564075, 4102.94871767, 4128.20512793,10.0
4105.12820485, 4106.79487152, 4113.84615357, 4113.46153819, 4094.74358940, 4101.79487145, 4090.64102530, 4096.53846119, 4096.15384581, 4093.71794837, 4110.51282024, 4107.05128178, 4097.43589709, 4128.20512793,10.0
4098.58974325, 4103.97435870, 4109.35897408, 4108.46153819, 4087.94871761, 4087.69230735, 4074.35897402, 4089.35897402, 4089.10256376, 4087.17948684, 4104.74358947, 4101.28205094, 4091.53846119, 4130.64102537,10.0
4120.38461511, 4123.71794844, 4131.53846126, 4127.69230742, 4104.35897408, 4102.30769196, 4097.05128171, 4104.87179460, 4111.79487152, 4107.82051255, 4119.10256383, 4116.41025614, 4102.82051255, 4131.02564075,10.0
4134.61538434, 4134.35897408, 4141.66666646, 4136.41025621, 4118.07692280, 4119.10256383, 4120.51282024, 4115.89743562, 4121.53846126, 4117.69230742, 4127.56410229, 4124.35897408, 4108.20512793, 4131.53846126,10.0
4123.97435870, 4124.61538434, 4125.76923050, 4119.23076896, 4099.61538427, 4102.56410229, 4100.89743555, 4101.53846119, 4102.30769196, 4103.20512793, 4114.74358947, 4115.25640998, 4099.10256376, 4131.53846126,10.0
4120.76923050, 4123.84615357, 4125.51282024, 4117.82051255, 4093.58974325, 4093.97435863, 4086.92307658, 4087.43589709, 4090.64102530, 4093.20512786, 4112.94871767, 4116.28205101, 4095.38461504, 4129.74358947,10.0
4140.12820492, 4142.30769210, 4151.53846133, 4141.53846133, 4126.92307665, 4130.51282024, 4124.48717921, 4103.33333306, 4109.48717921, 4117.82051255, 4134.35897408, 4134.87179460, 4111.28205101, 4129.87179460,10.0
4152.94871774, 4149.48717928, 4159.35897415, 4149.74358954, 4139.10256390, 4147.30769210, 4151.79487159, 4130.25640998, 4138.07692287, 4141.15384595, 4142.17948697, 4139.10256390, 4122.30769203, 4130.51282024,10.0
4140.64102544, 4136.15384595, 4142.82051262, 4131.53846126, 4109.74358947, 4109.61538434, 4119.74358947, 4119.10256383, 4124.99999973, 4118.71794844, 4125.25640998, 4121.28205101, 4109.87179460, 4129.87179460,10.0
4131.15384588, 4131.15384588, 4139.99999980, 4124.61538434, 4097.05128171, 4093.97435863, 4091.79487145, 4088.46153812, 4089.87179453, 4094.87179453, 4121.41025614, 4122.05128178, 4100.64102530, 4129.10256383,10.0
4134.87179460, 4132.94871767, 4144.35897415, 4133.58974332, 4109.10256383, 4112.82051255, 4100.51282017, 4092.69230735, 4091.53846119, 4104.99999973, 4132.56410229, 4136.79487159, 4104.74358947, 4127.56410229,10.0
4129.48717921, 4125.64102537, 4136.41025621, 4131.79487152, 4106.92307665, 4112.05128178, 4105.12820485, 4115.51282024, 4108.97435870, 4108.20512793, 4125.51282024, 4126.28205101, 4104.35897408, 4129.74358947,10.0
4121.02564075, 4122.56410229, 4133.20512793, 4125.12820485, 4101.79487145, 4104.87179460, 4104.74358947, 4119.87179460, 4107.30769203, 4101.15384581, 4116.66666639, 4116.15384588, 4102.82051255, 4132.05128178,10.0
4124.23076896, 4123.33333306, 4136.79487159, 4126.66666639, 4106.92307665, 4112.30769203, 4110.51282024, 4114.35897408, 4102.69230742, 4102.05128171, 4121.79487152, 4123.97435870, 4102.30769196, 4131.28205101,10.0
4130.76923050, 4124.99999973, 4139.10256390, 4135.38461518, 4111.41025614, 4113.07692280, 4109.35897408, 4110.51282024, 4102.43589709, 4106.28205101, 4124.74358947, 4123.84615357, 4099.87179453, 4133.97435870,10.0
4140.64102544, 4137.69230749, 4149.61538441, 4149.87179467, 4120.38461511, 4120.12820485, 4125.38461511, 4119.87179460, 4121.66666639, 4127.17948691, 4130.12820485, 4121.79487152, 4108.20512793, 4133.84615357,10.0
4145.12820492, 4147.43589723, 4155.12820492, 4155.12820492, 4132.43589716, 4133.46153819, 4148.71794851, 4141.66666646, 4157.69230749, 4140.64102544, 4135.38461518, 4122.94871767, 4117.30769203, 4130.76923050,10.0
4122.05128178, 4131.79487152, 4134.10256383, 4136.66666646, 4122.82051255, 4122.05128178, 4129.99999973, 4131.28205101, 4144.23076903, 4116.02564075, 4114.10256383, 4105.12820485, 4099.48717914, 4129.74358947,10.0
4100.38461504, 4114.74358947, 4111.28205101, 4118.33333306, 4102.05128171, 4108.84615357, 4102.82051255, 4101.79487145, 4093.97435863, 4099.10256376, 4090.89743555, 4085.51282017, 4078.20512786, 4129.23076896,10.0
4109.48717921, 4117.43589716, 4112.56410229, 4118.46153819, 4103.20512793, 4107.94871767, 4105.89743562, 4103.33333306, 4087.30769196, 4108.20512793, 4101.92307658, 4092.43589709, 4086.02564068, 4129.23076896,10.0
4119.10256383, 4121.15384588, 4122.05128178, 4121.41025614, 4109.10256383, 4109.61538434, 4112.69230742, 4113.58974332, 4108.33333306, 4107.43589716, 4116.66666639, 4104.61538434, 4101.41025607, 4130.25640998,10.0
4110.12820485, 4114.48717921, 4114.99999973, 4114.35897408, 4093.84615350, 4110.89743562, 4105.25640998, 4106.41025614, 4103.33333306, 4102.30769196, 4109.74358947, 4098.84615350, 4098.07692273, 4131.53846126,10.0
4109.35897408, 4113.71794844, 4109.87179460, 4113.97435870, 4091.79487145, 4115.12820485, 4111.28205101, 4111.41025614, 4105.76923050, 4116.02564075, 4110.12820485, 4098.58974325, 4100.25640991, 4130.89743562,10.0
4121.79487152, 4121.66666639, 4122.05128178, 4126.02564075, 4111.28205101, 4120.25640998, 4129.99999973, 4124.99999973, 4122.56410229, 4122.69230742, 4122.05128178, 4112.69230742, 4111.28205101, 4130.25640998,10.0
4123.58974332, 4119.74358947, 4126.53846126, 4126.79487152, 4108.46153819, 4114.10256383, 4121.79487152, 4113.84615357, 4110.76923050, 4108.58974332, 4117.30769203, 4111.15384588, 4104.87179460, 4130.89743562,10.0
4129.10256383, 4123.07692280, 4130.25640998, 4126.53846126, 4103.97435870, 4113.46153819, 4114.74358947, 4110.12820485, 4113.84615357, 4111.41025614, 4113.20512793, 4108.84615357, 4103.07692280, 4129.23076896,10.0
4146.28205108, 4139.35897415, 4144.48717928, 4140.25641005, 4123.33333306, 4131.41025614, 4139.99999980, 4125.51282024, 4135.76923056, 4125.38461511, 4123.33333306, 4125.12820485, 4117.69230742, 4129.74358947,10.0
4146.28205108, 4139.35897415, 4144.48717928, 4140.25641005, 4123.33333306, 4131.41025614, 4139.99999980, 4125.51282024, 4135.76923056, 4125.38461511, 4123.33333306, 4125.12820485, 4117.69230742, 4129.74358947,10.0
4142.69230749, 4137.17948697, 4139.99999980, 4138.97435877, 4122.17948691, 4132.43589716, 4138.58974339, 4117.30769203, 4112.17948691, 4112.43589716, 4118.33333306, 4122.30769203, 4113.84615357, 4131.41025614,10.0
4123.84615357, 4122.30769203, 4122.05128178, 4123.20512793, 4107.43589716, 4109.23076896, 4108.20512793, 4097.17948684, 4080.89743555, 4094.61538427, 4102.82051255, 4101.66666632, 4097.43589709, 4131.92307665,10.0
4116.28205101, 4116.66666639, 4114.23076896, 4118.71794844, 4107.30769203, 4098.20512786, 4103.71794844, 4099.48717914, 4090.38461504, 4090.51282017, 4098.84615350, 4099.35897402, 4092.30769196, 4132.56410229,10.0
4108.97435870, 4110.25640998, 4106.02564075, 4113.46153819, 4096.53846119, 4091.92307658, 4096.28205094, 4095.89743555, 4087.69230735, 4079.35897402, 4094.35897402, 4099.10256376, 4087.05128171, 4131.15384588,10.0
4105.89743562, 4107.56410229, 4102.43589709, 4106.28205101, 4084.74358940, 4085.64102530, 4077.17948684, 4080.25640991, 4070.64102530, 4076.92307658, 4095.38461504, 4092.30769196, 4085.51282017, 4131.28205101,10.0
4115.25640998, 4118.58974332, 4117.17948691, 4115.89743562, 4099.48717914, 4100.51282017, 4091.66666632, 4093.33333299, 4095.76923043, 4100.38461504, 4113.97435870, 4099.74358940, 4099.35897402, 4133.58974332,10.0
4114.74358947, 4118.84615357, 4124.35897408, 4121.79487152, 4106.92307665, 4109.74358947, 4114.10256383, 4112.05128178, 4118.20512793, 4116.41025614, 4124.35897408, 4105.38461511, 4106.79487152, 4130.89743562,10.0
4108.07692280, 4112.30769203, 4120.89743562, 4119.35897408, 4094.74358940, 4097.94871761, 4110.51282024, 4107.69230742, 4109.23076896, 4114.87179460, 4119.74358947, 4100.51282017, 4107.17948691, 4128.71794844,10.0
4119.99999973, 4124.87179460, 4130.64102537, 4128.71794844, 4102.69230742, 4106.79487152, 4123.20512793, 4114.23076896, 4115.25640998, 4120.76923050, 4123.84615357, 4106.92307665, 4115.64102537, 4133.07692280,10.0
4126.66666639, 4130.38461511, 4130.51282024, 4129.99999973, 4118.71794844, 4124.61538434, 4142.56410236, 4122.43589716, 4115.64102537, 4122.05128178, 4122.82051255, 4104.99999973, 4111.53846126, 4130.38461511,10.0
4102.56410229, 4104.23076896, 4103.20512793, 4107.82051255, 4100.12820478, 4105.12820485, 4117.69230742, 4103.07692280, 4085.38461504, 4094.99999966, 4098.07692273, 4069.99999966, 4085.38461504, 4125.38461511,10.0
4083.97435863, 4089.35897402, 4089.99999966, 4099.87179453, 4076.28205094, 4084.48717914, 4096.79487145, 4091.79487145, 4077.82051248, 4071.28205094, 4082.69230735, 4047.05128164, 4073.84615350, 4136.02564082,10.0
4093.97435863, 4103.97435870, 4099.74358940, 4112.43589716, 4086.15384581, 4089.87179453, 4105.38461511, 4106.79487152, 4095.51282017, 4078.20512786, 4084.74358940, 4058.97435856, 4079.35897402, 4135.89743569,10.0
4095.76923043, 4103.46153819, 4091.28205094, 4106.02564075, 4095.38461504, 4085.38461504, 4095.51282017, 4103.84615357, 4082.69230735, 4076.02564068, 4073.58974325, 4059.48717907, 4072.43589709, 4123.33333306,10.0
4085.76923043, 4091.41025607, 4082.43589709, 4098.58974325, 4087.43589709, 4078.71794837, 4077.94871761, 4088.20512786, 4068.84615343, 4065.89743548, 4067.94871754, 4046.53846113, 4070.76923043, 4128.20512793,10.0
4100.76923043, 4106.15384588, 4108.07692280, 4124.23076896, 4101.02564068, 4099.48717914, 4097.17948684, 4102.05128171, 4098.84615350, 4092.30769196, 4095.38461504, 4059.61538420, 4095.64102530, 4131.66666639,10.0
4118.46153819, 4121.92307665, 4125.51282024, 4146.66666646, 4119.99999973, 4115.12820485, 4115.64102537, 4112.69230742, 4115.89743562, 4117.17948691, 4119.35897408, 4079.61538427, 4112.43589716, 4125.89743562,10.0
4116.92307665, 4119.99999973, 4121.02564075, 4143.33333313, 4115.51282024, 4112.56410229, 4119.87179460, 4104.61538434, 4107.69230742, 4113.33333306, 4118.33333306, 4083.07692273, 4109.48717921, 4130.51282024,10.0
4117.94871767, 4116.79487152, 4122.94871767, 4134.99999973, 4110.12820485, 4109.87179460, 4122.69230742, 4099.10256376, 4117.82051255, 4117.43589716, 4114.74358947, 4086.41025607, 4110.25640998, 4134.35897408,10.0
4123.33333306, 4117.56410229, 4127.94871767, 4132.05128178, 4114.23076896, 4106.15384588, 4112.17948691, 4098.20512786, 4128.07692280, 4127.05128178, 4119.87179460, 4091.92307658, 4114.35897408, 4129.23076896,10.0
4119.99999973, 4117.17948691, 4126.53846126, 4131.02564075, 4111.02564075, 4101.92307658, 4098.46153812, 4089.35897402, 4103.58974332, 4111.53846126, 4125.25640998, 4087.69230735, 4111.15384588, 4129.87179460,10.0
4103.33333306, 4105.51282024, 4116.28205101, 4121.79487152, 4094.61538427, 4090.89743555, 4088.97435863, 4072.69230735, 4073.33333299, 4082.05128171, 4111.66666639, 4072.69230735, 4094.74358940, 4131.53846126,10.0
4103.20512793, 4104.99999973, 4118.20512793, 4121.53846126, 4093.58974325, 4091.92307658, 4097.94871761, 4079.87179453, 4088.33333299, 4086.92307658, 4104.23076896, 4074.74358940, 4094.35897402, 4130.38461511,10.0
4124.87179460, 4126.41025614, 4142.43589723, 4143.46153826, 4116.79487152, 4118.58974332, 4123.46153819, 4104.99999973, 4120.89743562, 4118.46153819, 4129.61538434, 4098.20512786, 4123.58974332, 4132.56410229,10.0
4131.15384588, 4133.58974332, 4149.35897415, 4151.66666646, 4122.56410229, 4128.33333306, 4126.79487152, 4107.30769203, 4116.41025614, 4122.05128178, 4138.71794851, 4106.15384588, 4131.15384588, 4129.87179460,10.0
4134.74358947, 4133.33333306, 4145.64102544, 4146.53846133, 4124.35897408, 4124.10256383, 4128.71794844, 4111.15384588, 4123.58974332, 4125.38461511, 4134.35897408, 4111.02564075, 4125.12820485, 4128.71794844,10.0
4167.17948697, 4159.99999980, 4173.46153833, 4166.02564082, 4163.20512800, 4153.46153826, 4167.17948697, 4135.64102544, 4171.79487166, 4169.61538448, 4170.12820499, 4148.46153826, 4157.56410236, 4130.51282024,10.0
4197.82051269, 4186.92307679, 4201.66666660, 4188.20512807, 4198.07692294, 4183.46153833, 4198.71794858, 4147.43589723, 4193.71794858, 4194.99999986, 4194.87179474, 4179.74358961, 4183.71794858, 4129.35897408,10.0
4193.20512807, 4183.84615371, 4196.79487166, 4182.82051269, 4189.99999986, 4174.61538448, 4191.92307679, 4155.76923056, 4203.46153840, 4181.02564089, 4173.71794858, 4172.17948704, 4168.58974345, 4131.41025614,10.0
4180.64102551, 4178.07692294, 4193.58974345, 4176.41025628, 4180.12820499, 4166.66666646, 4182.69230756, 4161.53846133, 4223.71794865, 4176.53846140, 4173.07692294, 4166.02564082, 4166.15384595, 4131.02564075,10.0
4186.66666653, 4184.87179474, 4207.17948711, 4183.07692294, 4188.71794858, 4179.87179474, 4185.38461525, 4142.94871774, 4207.43589737, 4176.28205115, 4191.15384602, 4178.07692294, 4175.64102551, 4126.41025614,10.0
4194.35897422, 4189.61538448, 4213.84615378, 4185.51282038, 4191.79487166, 4181.79487166, 4183.20512807, 4133.58974332, 4179.87179474, 4178.84615371, 4186.41025628, 4184.23076910, 4170.76923063, 4127.30769203,10.0
4178.46153833, 4177.82051269, 4200.89743576, 4177.17948704, 4179.99999986, 4157.94871774, 4159.87179467, 4139.48717928, 4181.92307679, 4184.10256397, 4172.30769217, 4169.74358961, 4164.10256390, 4130.38461511,10.0
4160.25641005, 4164.23076903, 4182.69230756, 4168.20512807, 4172.17948704, 4142.17948697, 4143.33333313, 4131.28205101, 4177.94871781, 4165.51282031, 4159.61538441, 4151.92307672, 4153.71794851, 4125.64102537,10.0
4171.28205115, 4171.79487166, 4184.10256397, 4169.61538448, 4181.53846140, 4153.33333313, 4158.07692287, 4134.74358947, 4172.82051269, 4156.92307672, 4158.46153826, 4153.46153826, 4150.76923056, 4126.66666639,10.0
4186.28205115, 4181.53846140, 4193.07692294, 4176.15384602, 4188.46153833, 4168.33333320, 4179.48717935, 4158.71794851, 4196.53846140, 4183.97435884, 4175.89743576, 4161.02564082, 4163.84615364, 4133.97435870,10.0
4184.10256397, 4176.41025628, 4188.84615371, 4177.82051269, 4185.76923063, 4170.25641012, 4182.30769217, 4155.25641005, 4203.20512814, 4194.61538448, 4182.17948704, 4157.43589723, 4166.79487159, 4130.25640998,10.0
4176.79487166, 4165.38461518, 4178.33333320, 4172.69230756, 4181.02564089, 4162.30769210, 4173.84615371, 4136.79487159, 4183.07692294, 4174.74358961, 4169.10256397, 4145.64102544, 4154.99999980, 4127.82051255,10.0
4178.84615371, 4169.23076910, 4179.99999986, 4171.92307679, 4186.66666653, 4169.74358961, 4185.12820499, 4152.05128185, 4192.82051269, 4180.64102551, 4168.07692287, 4146.53846133, 4160.38461518, 4130.76923050,10.0
4188.84615371, 4184.48717935, 4193.20512807, 4181.53846140, 4206.02564096, 4192.17948704, 4206.28205122, 4174.10256397, 4220.76923070, 4207.82051275, 4182.69230756, 4159.23076903, 4177.05128192, 4129.99999973,10.0
4191.92307679, 4183.33333320, 4196.41025628, 4182.43589730, 4207.82051275, 4185.51282038, 4188.97435884, 4156.28205108, 4209.99999993, 4207.30769224, 4186.66666653, 4159.61538441, 4176.92307679, 4130.64102537,10.0
4180.89743576, 4167.43589723, 4182.43589730, 4169.23076910, 4184.74358961, 4157.05128185, 4151.41025621, 4120.51282024, 4167.05128185, 4182.94871781, 4171.15384602, 4146.41025621, 4161.02564082, 4131.53846126,10.0
4170.51282038, 4162.82051262, 4173.33333320, 4162.56410236, 4178.07692294, 4156.02564082, 4148.58974339, 4116.15384588, 4153.07692287, 4162.82051262, 4154.23076903, 4137.30769210, 4146.53846133, 4131.15384588,10.0
4169.99999986, 4169.61538448, 4181.92307679, 4169.35897422, 4190.12820499, 4161.79487159, 4154.61538441, 4127.69230742, 4168.84615371, 4155.64102544, 4154.74358954, 4138.33333313, 4147.43589723, 4131.41025614,10.0
4162.56410236, 4163.33333313, 4179.99999986, 4166.15384595, 4179.48717935, 4145.64102544, 4135.51282031, 4121.15384588, 4165.76923056, 4146.66666646, 4155.76923056, 4134.35897408, 4146.53846133, 4129.61538434,10.0
4150.12820492, 4144.99999980, 4161.92307672, 4148.07692287, 4157.56410236, 4134.61538434, 4125.76923050, 4113.46153819, 4148.84615364, 4135.51282031, 4143.58974339, 4124.74358947, 4132.69230742, 4129.99999973,10.0
4164.74358954, 4154.48717928, 4172.82051269, 4156.15384595, 4171.02564089, 4148.58974339, 4148.71794851, 4126.53846126, 4159.23076903, 4152.69230749, 4153.07692287, 4140.76923056, 4142.30769210, 4131.79487152,10.0
4194.48717935, 4184.10256397, 4201.79487173, 4184.99999986, 4199.61538448, 4169.87179474, 4177.94871781, 4144.48717928, 4195.12820499, 4190.25641012, 4187.17948704, 4174.99999986, 4170.25641012, 4129.35897408,10.0
4196.66666653, 4185.12820499, 4199.61538448, 4188.46153833, 4199.23076910, 4172.30769217, 4181.41025628, 4145.64102544, 4205.38461532, 4196.66666653, 4196.79487166, 4176.92307679, 4172.05128192, 4127.82051255,10.0
4192.69230756, 4176.53846140, 4196.02564089, 4185.25641012, 4192.05128192, 4176.28205115, 4188.33333320, 4152.56410236, 4203.33333327, 4196.02564089, 4197.17948704, 4168.46153833, 4170.76923063, 4128.71794844,10.0
4216.02564096, 4194.23076910, 4220.76923070, 4202.17948711, 4205.64102558, 4202.82051275, 4220.89743583, 4172.30769217, 4226.53846147, 4226.66666660, 4214.48717942, 4197.30769217, 4194.35897422, 4130.76923050,10.0
4208.71794865, 4188.07692294, 4208.07692301, 4191.28205115, 4195.51282038, 4193.20512807, 4200.12820499, 4148.46153826, 4210.51282045, 4200.89743576, 4193.97435884, 4193.46153833, 4178.71794858, 4129.99999973,10.0
4164.35897415, 4155.64102544, 4163.58974339, 4154.74358954, 4167.17948697, 4152.56410236, 4142.43589723, 4110.64102537, 4163.97435877, 4132.82051255, 4144.35897415, 4142.56410236, 4131.66666639, 4126.53846126,10.0
4152.05128185, 4151.92307672, 4153.71794851, 4148.71794851, 4164.99999980, 4146.15384595, 4134.23076896, 4114.87179460, 4163.20512800, 4136.92307672, 4141.15384595, 4133.58974332, 4132.82051255, 4130.76923050,10.0
4159.61538441, 4157.94871774, 4159.23076903, 4158.46153826, 4167.30769210, 4147.69230749, 4136.92307672, 4114.35897408, 4173.33333320, 4159.87179467, 4160.38461518, 4149.48717928, 4150.64102544, 4131.79487152,10.0
4156.92307672, 4157.94871774, 4159.23076903, 4158.20512800, 4163.07692287, 4137.43589723, 4122.94871767, 4099.99999966, 4161.66666646, 4138.97435877, 4155.12820492, 4139.10256390, 4139.48717928, 4125.25640998,10.0
4166.66666646, 4171.92307679, 4170.89743576, 4164.87179467, 4174.99999986, 4156.41025621, 4143.33333313, 4119.35897408, 4171.92307679, 4149.99999980, 4159.99999980, 4142.30769210, 4143.71794851, 4130.76923050,10.0
4186.41025628, 4186.92307679, 4185.25641012, 4179.74358961, 4187.56410243, 4175.12820499, 4170.12820499, 4141.41025621, 4190.76923063, 4191.66666653, 4182.69230756, 4164.10256390, 4170.76923063, 4131.79487152,10.0
4196.53846140, 4193.46153833, 4190.89743576, 4190.51282038, 4192.30769217, 4172.30769217, 4173.07692294, 4141.41025621, 4186.41025628, 4193.20512807, 4193.07692294, 4168.84615371, 4181.02564089, 4127.69230742,10.0
4193.46153833, 4192.05128192, 4190.12820499, 4190.25641012, 4196.79487166, 4186.53846140, 4187.82051269, 4145.38461518, 4185.12820499, 4176.79487166, 4190.12820499, 4164.10256390, 4171.15384602, 4130.64102537,10.0
4183.97435884, 4179.23076910, 4184.35897422, 4182.82051269, 4186.79487166, 4190.38461525, 4185.89743576, 4140.89743569, 4184.10256397, 4173.46153833, 4179.87179474, 4161.02564082, 4156.53846133, 4127.94871767,10.0
4179.48717935, 4169.10256397, 4182.05128192, 4178.20512807, 4172.43589730, 4162.43589723, 4153.58974339, 4129.87179460, 4176.02564089, 4167.69230749, 4166.66666646, 4157.05128185, 4146.28205108, 4130.76923050,10.0
4170.38461525, 4164.35897415, 4175.89743576, 4171.79487166, 4166.79487159, 4143.71794851, 4138.07692287, 4127.69230742, 4169.87179474, 4153.07692287, 4157.56410236, 4149.61538441, 4140.12820492, 4132.05128178,10.0
4152.69230749, 4151.66666646, 4162.17948697, 4160.89743569, 4148.07692287, 4141.79487159, 4135.89743569, 4122.82051255, 4162.69230749, 4143.33333313, 4156.02564082, 4141.02564082, 4136.53846133, 4127.43589716,10.0
4152.30769210, 4148.97435877, 4162.43589723, 4160.76923056, 4140.51282031, 4149.35897415, 4138.58974339, 4125.25640998, 4161.28205108, 4144.23076903, 4157.94871774, 4144.10256390, 4139.10256390, 4130.12820485,10.0
4165.89743569, 4159.48717928, 4171.53846140, 4168.58974345, 4160.89743569, 4163.33333313, 4147.94871774, 4136.41025621, 4167.17948697, 4143.71794851, 4153.97435877, 4149.23076903, 4139.87179467, 4132.82051255,10.0
4159.87179467, 4156.41025621, 4161.53846133, 4164.61538441, 4167.05128185, 4160.51282031, 4146.28205108, 4131.41025614, 4162.05128185, 4134.35897408, 4146.92307672, 4142.82051262, 4131.66666639, 4131.92307665,10.0
4147.94871774, 4151.41025621, 4150.76923056, 4159.48717928, 4160.25641005, 4155.76923056, 4144.48717928, 4122.56410229, 4156.53846133, 4138.71794851, 4153.20512800, 4141.02564082, 4132.69230742, 4129.87179460,10.0
4153.33333313, 4160.12820492, 4155.51282031, 4164.74358954, 4169.99999986, 4168.71794858, 4157.69230749, 4131.92307665, 4167.17948697, 4163.20512800, 4164.35897415, 4145.12820492, 4146.28205108, 4131.15384588,10.0
4163.58974339, 4166.02564082, 4163.71794851, 4168.58974345, 4175.89743576, 4174.74358961, 4164.99999980, 4147.30769210, 4182.43589730, 4171.92307679, 4162.82051262, 4145.76923056, 4149.99999980, 4132.30769203,10.0
4174.35897422, 4171.79487166, 4179.48717935, 4175.38461525, 4168.84615371, 4171.92307679, 4166.41025621, 4153.46153826, 4192.17948704, 4172.43589730, 4173.97435884, 4159.35897415, 4153.33333313, 4128.97435870,10.0
4173.97435884, 4175.25641012, 4187.17948704, 4180.64102551, 4163.58974339, 4168.20512807, 4161.28205108, 4136.92307672, 4178.07692294, 4171.53846140, 4185.89743576, 4170.76923063, 4156.92307672, 4130.64102537,10.0
4148.07692287, 4152.56410236, 4163.20512800, 4163.20512800, 4149.35897415, 4140.51282031, 4130.25640998, 4103.58974332, 4144.48717928, 4142.56410236, 4156.53846133, 4146.41025621, 4135.38461518, 4134.61538434,10.0
4129.10256383, 4131.28205101, 4140.25641005, 4137.82051262, 4133.84615357, 4119.35897408, 4108.84615357, 4092.82051248, 4136.79487159, 4113.97435870, 4126.53846126, 4121.41025614, 4112.94871767, 4131.41025614,10.0
4139.23076903, 4141.92307672, 4146.02564082, 4138.97435877, 4135.38461518, 4137.69230749, 4128.20512793, 4113.58974332, 4161.28205108, 4130.12820485, 4141.41025621, 4130.38461511, 4119.87179460, 4128.33333306,10.0
4149.35897415, 4152.82051262, 4158.58974339, 4151.28205108, 4142.82051262, 4153.07692287, 4148.71794851, 4128.71794844, 4172.43589730, 4153.58974339, 4156.92307672, 4140.76923056, 4128.07692280, 4128.97435870,10.0
4142.82051262, 4143.97435877, 4156.66666646, 4144.61538441, 4140.51282031, 4144.48717928, 4142.30769210, 4124.48717921, 4156.28205108, 4140.51282031, 4142.43589723, 4133.07692280, 4121.53846126, 4129.35897408,10.0
4139.61538441, 4143.71794851, 4149.10256390, 4139.48717928, 4140.12820492, 4144.87179467, 4139.61538441, 4124.48717921, 4156.53846133, 4135.64102544, 4135.89743569, 4125.89743562, 4123.71794844, 4129.61538434,10.0
4154.48717928, 4162.56410236, 4154.48717928, 4152.43589723, 4154.99999980, 4166.92307672, 4171.92307679, 4147.94871774, 4193.58974345, 4165.38461518, 4157.30769210, 4136.28205108, 4140.25641005, 4129.23076896,10.0
4169.61538448, 4173.33333320, 4168.84615371, 4162.69230749, 4162.56410236, 4180.64102551, 4195.38461525, 4162.56410236, 4211.92307686, 4181.92307679, 4175.25641012, 4153.58974339, 4153.71794851, 4132.05128178,10.0
4159.61538441, 4162.56410236, 4163.33333313, 4156.15384595, 4153.07692287, 4165.38461518, 4163.71794851, 4137.56410236, 4177.05128192, 4158.71794851, 4163.71794851, 4152.30769210, 4144.74358954, 4133.84615357,10.0
4130.25640998, 4138.97435877, 4132.05128178, 4135.38461518, 4137.05128185, 4136.02564082, 4112.82051255, 4102.69230742, 4132.56410229, 4118.97435870, 4130.64102537, 4123.46153819, 4111.79487152, 4129.87179460,10.0
4117.56410229, 4124.10256383, 4119.35897408, 4123.33333306, 4125.12820485, 4118.84615357, 4095.89743555, 4094.74358940, 4122.17948691, 4104.99999973, 4120.25640998, 4105.89743562, 4101.28205094, 4125.89743562,10.0
4133.33333306, 4133.71794844, 4136.15384595, 4135.25640998, 4127.56410229, 4125.38461511, 4111.02564075, 4106.41025614, 4133.46153819, 4122.17948691, 4135.89743569, 4122.05128178, 4123.97435870, 4128.71794844,10.0
4143.07692287, 4145.89743569, 4144.23076903, 4147.17948697, 4139.99999980, 4136.66666646, 4125.64102537, 4113.33333306, 4137.56410236, 4126.53846126, 4138.46153826, 4133.33333306, 4126.28205101, 4132.56410229,10.0
4142.43589723, 4147.05128185, 4144.48717928, 4145.51282031, 4144.61538441, 4146.02564082, 4138.33333313, 4119.99999973, 4148.07692287, 4129.61538434, 4140.25641005, 4134.99999973, 4119.74358947, 4130.64102537,10.0
4145.76923056, 4147.30769210, 4144.35897415, 4140.64102544, 4138.07692287, 4149.87179467, 4146.66666646, 4121.41025614, 4152.69230749, 4136.79487159, 4145.12820492, 4135.89743569, 4124.87179460, 4130.38461511,10.0
4148.33333313, 4152.56410236, 4140.64102544, 4142.17948697, 4143.71794851, 4150.25641005, 4151.92307672, 4121.41025614, 4147.56410236, 4128.20512793, 4133.58974332, 4131.79487152, 4121.92307665, 4133.33333306,10.0
4153.71794851, 4158.46153826, 4148.71794851, 4154.48717928, 4155.89743569, 4161.28205108, 4170.38461525, 4147.30769210, 4178.84615371, 4137.69230749, 4133.33333306, 4134.99999973, 4122.82051255, 4133.33333306,10.0
4157.94871774, 4156.92307672, 4160.12820492, 4158.71794851, 4149.87179467, 4166.66666646, 4172.82051269, 4162.05128185, 4199.61538448, 4158.33333313, 4148.97435877, 4137.56410236, 4132.17948691, 4132.43589716,10.0
4140.38461518, 4136.66666646, 4137.05128185, 4139.74358954, 4128.33333306, 4147.43589723, 4139.23076903, 4127.30769203, 4151.92307672, 4131.92307665, 4134.35897408, 4117.69230742, 4116.28205101, 4129.10256383,10.0
4114.35897408, 4109.87179460, 4100.25640991, 4117.69230742, 4109.10256383, 4118.58974332, 4108.07692280, 4096.79487145, 4114.35897408, 4087.69230735, 4099.87179453, 4088.20512786, 4087.56410222, 4128.07692280,10.0
4124.23076896, 4120.25640998, 4114.10256383, 4125.51282024, 4115.64102537, 4117.82051255, 4115.89743562, 4115.76923050, 4142.17948697, 4105.25640998, 4110.12820485, 4099.48717914, 4099.48717914, 4131.02564075,10.0
4142.69230749, 4145.38461518, 4146.15384595, 4142.82051262, 4128.46153819, 4131.79487152, 4129.10256383, 4128.33333306, 4151.15384595, 4139.23076903, 4140.38461518, 4132.30769203, 4121.41025614, 4129.74358947,10.0
4135.25640998, 4136.92307672, 4143.07692287, 4139.48717928, 4124.23076896, 4128.84615357, 4119.87179460, 4114.87179460, 4131.02564075, 4128.07692280, 4135.25640998, 4136.66666646, 4117.30769203, 4129.99999973,10.0
4141.92307672, 4133.58974332, 4143.71794851, 4142.05128185, 4134.61538434, 4135.89743569, 4130.38461511, 4126.92307665, 4154.23076903, 4128.46153819, 4136.02564082, 4141.53846133, 4124.48717921, 4131.92307665,10.0
4157.05128185, 4149.87179467, 4154.99999980, 4152.05128185, 4156.28205108, 4155.89743569, 4152.94871774, 4139.48717928, 4170.25641012, 4150.51282031, 4155.89743569, 4153.84615364, 4137.69230749, 4130.51282024,10.0
4145.51282031, 4147.69230749, 4142.05128185, 4144.10256390, 4147.94871774, 4150.51282031, 4146.41025621, 4128.58974332, 4148.20512800, 4146.15384595, 4150.51282031, 4140.38461518, 4126.02564075, 4128.97435870,10.0
4140.51282031, 4141.92307672, 4133.46153819, 4141.28205108, 4139.23076903, 4148.71794851, 4151.53846133, 4138.71794851, 4153.71794851, 4135.64102544, 4138.33333313, 4128.71794844, 4120.76923050, 4127.43589716,10.0
4144.61538441, 4140.51282031, 4134.10256383, 4145.89743569, 4146.02564082, 4161.92307672, 4171.79487166, 4151.66666646, 4165.89743569, 4132.82051255, 4143.07692287, 4133.33333306, 4127.56410229, 4127.69230742,10.0
4119.48717921, 4118.84615357, 4116.53846126, 4127.17948691, 4125.76923050, 4143.20512800, 4145.38461518, 4126.28205101, 4138.20512800, 4108.71794844, 4133.46153819, 4116.28205101, 4111.66666639, 4130.64102537,10.0
4104.10256383, 4110.25640998, 4111.15384588, 4116.53846126, 4106.53846126, 4113.97435870, 4106.02564075, 4106.28205101, 4119.10256383, 4093.97435863, 4119.35897408, 4099.48717914, 4103.71794844, 4132.56410229,10.0
4113.20512793, 4117.43589716, 4116.28205101, 4124.23076896, 4108.97435870, 4111.41025614, 4103.20512793, 4114.23076896, 4127.43589716, 4104.87179460, 4119.23076896, 4105.25640998, 4109.87179460, 4130.64102537,10.0
4101.41025607, 4105.89743562, 4100.38461504, 4116.15384588, 4101.15384581, 4110.76923050, 4105.64102537, 4115.38461511, 4124.10256383, 4100.12820478, 4112.30769203, 4100.89743555, 4096.79487145, 4126.28205101,10.0
4104.48717921, 4115.38461511, 4110.25640998, 4123.33333306, 4112.82051255, 4124.61538434, 4122.43589716, 4124.35897408, 4132.30769203, 4109.87179460, 4123.71794844, 4108.33333306, 4103.20512793, 4127.43589716,10.0
4126.79487152, 4136.66666646, 4140.25641005, 4144.48717928, 4131.53846126, 4136.66666646, 4139.10256390, 4131.15384588, 4146.66666646, 4134.61538434, 4147.56410236, 4132.94871767, 4126.41025614, 4132.17948691,10.0
4120.51282024, 4121.41025614, 4135.25640998, 4133.97435870, 4112.56410229, 4117.05128178, 4118.33333306, 4114.87179460, 4134.61538434, 4124.48717921, 4142.56410236, 4136.53846133, 4121.66666639, 4130.64102537,10.0
4122.05128178, 4118.07692280, 4132.43589716, 4128.33333306, 4109.61538434, 4127.30769203, 4126.41025614, 4124.35897408, 4142.56410236, 4123.84615357, 4144.87179467, 4142.69230749, 4122.30769203, 4127.69230742,10.0
4136.02564082, 4138.07692287, 4145.89743569, 4142.82051262, 4136.41025621, 4157.30769210, 4157.56410236, 4143.58974339, 4159.74358954, 4134.99999973, 4157.69230749, 4151.02564082, 4130.25640998, 4128.84615357,10.0
4113.84615357, 4119.48717921, 4124.10256383, 4127.82051255, 4122.05128178, 4130.38461511, 4126.66666639, 4123.46153819, 4134.23076896, 4100.76923043, 4130.38461511, 4122.43589716, 4102.17948684, 4129.99999973,10.0
4084.99999966, 4088.20512786, 4086.66666632, 4105.38461511, 4083.84615350, 4089.48717914, 4076.92307658, 4098.71794837, 4101.53846119, 4067.17948677, 4098.20512786, 4088.97435863, 4075.25640991, 4129.48717921,10.0
4088.33333299, 4093.84615350, 4084.87179453, 4117.17948691, 4087.17948684, 4094.10256376, 4083.58974325, 4102.56410229, 4103.97435870, 4084.23076889, 4106.92307665, 4089.35897402, 4086.79487145, 4129.35897408,10.0
4101.02564068, 4110.12820485, 4103.97435870, 4136.28205108, 4110.38461511, 4112.30769203, 4113.71794844, 4114.48717921, 4121.66666639, 4106.92307665, 4124.61538434, 4103.07692280, 4103.46153819, 4131.53846126,10.0
4101.53846119, 4109.74358947, 4105.64102537, 4133.46153819, 4110.38461511, 4108.33333306, 4110.89743562, 4111.79487152, 4122.56410229, 4101.53846119, 4122.82051255, 4105.38461511, 4100.76923043, 4130.76923050,10.0
4097.69230735, 4104.99999973, 4098.46153812, 4128.33333306, 4098.46153812, 4096.53846119, 4097.82051248, 4108.20512793, 4122.30769203, 4098.20512786, 4116.66666639, 4099.61538427, 4095.51282017, 4129.23076896,10.0
4104.74358947, 4113.97435870, 4108.33333306, 4141.53846133, 4104.99999973, 4102.69230742, 4110.25640998, 4116.15384588, 4137.43589723, 4115.64102537, 4122.17948691, 4103.58974332, 4105.51282024, 4131.66666639,10.0
4114.48717921, 4124.99999973, 4120.76923050, 4151.28205108, 4116.53846126, 4119.48717921, 4125.12820485, 4114.99999973, 4133.97435870, 4117.17948691, 4127.94871767, 4112.05128178, 4112.69230742, 4131.53846126,10.0
4126.53846126, 4132.82051255, 4129.61538434, 4155.89743569, 4125.12820485, 4135.12820485, 4138.20512800, 4126.53846126, 4138.46153826, 4113.71794844, 4137.94871774, 4121.15384588, 4113.71794844, 4129.35897408,10.0
4138.84615364, 4139.10256390, 4140.25641005, 4161.79487159, 4137.43589723, 4142.30769210, 4150.38461518, 4146.79487159, 4159.87179467, 4129.99999973, 4146.79487159, 4128.71794844, 4119.10256383, 4129.61538434,10.0
4128.58974332, 4130.25640998, 4129.87179460, 4149.10256390, 4128.71794844, 4131.66666639, 4136.15384595, 4121.02564075, 4133.46153819, 4117.43589716, 4134.23076896, 4117.82051255, 4107.82051255, 4130.12820485,10.0
4110.38461511, 4116.92307665, 4111.15384588, 4130.64102537, 4108.71794844, 4119.48717921, 4113.97435870, 4092.82051248, 4096.79487145, 4085.51282017, 4122.30769203, 4097.82051248, 4091.92307658, 4129.61538434,10.0
4114.35897408, 4116.53846126, 4120.12820485, 4134.99999973, 4110.89743562, 4118.71794844, 4111.15384588, 4109.23076896, 4111.53846126, 4095.38461504, 4127.56410229, 4098.84615350, 4102.69230742, 4128.07692280,10.0
4117.82051255, 4114.74358947, 4123.58974332, 4138.58974339, 4117.30769203, 4107.94871767, 4100.76923043, 4110.51282024, 4118.46153819, 4108.20512793, 4121.53846126, 4102.56410229, 4110.89743562, 4129.74358947,10.0
4101.66666632, 4102.56410229, 4103.33333306, 4124.48717921, 4101.53846119, 4095.25640991, 4083.84615350, 4084.48717914, 4095.25640991, 4082.56410222, 4104.10256383, 4090.25640991, 4095.89743555, 4132.43589716,10.0
4103.71794844, 4107.82051255, 4109.99999973, 4127.43589716, 4099.99999966, 4110.76923050, 4103.20512793, 4098.71794837, 4114.35897408, 4092.17948684, 4116.79487152, 4103.97435870, 4102.05128171, 4131.02564075,10.0
4121.41025614, 4122.82051255, 4131.15384588, 4142.05128185, 4121.28205101, 4125.89743562, 4133.58974332, 4128.46153819, 4149.61538441, 4131.02564075, 4139.87179467, 4132.56410229, 4124.35897408, 4128.84615357,10.0
4113.58974332, 4117.69230742, 4122.05128178, 4135.64102544, 4117.69230742, 4114.48717921, 4127.94871767, 4114.35897408, 4132.05128178, 4116.92307665, 4133.33333306, 4122.82051255, 4115.25640998, 4128.07692280,10.0
4102.94871767, 4110.38461511, 4114.35897408, 4127.69230742, 4101.66666632, 4114.48717921, 4121.15384588, 4104.74358947, 4116.92307665, 4098.07692273, 4119.74358947, 4105.64102537, 4100.25640991, 4130.25640998,10.0
4118.07692280, 4121.41025614, 4130.76923050, 4140.51282031, 4114.23076896, 4138.97435877, 4150.38461518, 4134.61538434, 4153.07692287, 4127.82051255, 4129.35897408, 4121.28205101, 4114.48717921, 4131.02564075,10.0
4124.61538434, 4125.89743562, 4130.12820485, 4147.94871774, 4124.10256383, 4140.25641005, 4157.82051262, 4144.61538441, 4171.92307679, 4138.46153826, 4141.92307672, 4129.87179460, 4120.12820485, 4129.61538434,10.0
4108.84615357, 4117.94871767, 4114.87179460, 4139.10256390, 4109.87179460, 4112.30769203, 4121.92307665, 4116.02564075, 4136.92307672, 4105.25640998, 4129.10256383, 4111.02564075, 4103.33333306, 4132.17948691,10.0
4118.46153819, 4133.97435870, 4134.10256383, 4153.46153826, 4125.64102537, 4123.58974332, 4127.05128178, 4114.10256383, 4135.25640998, 4112.69230742, 4130.76923050, 4121.15384588, 4115.38461511, 4131.66666639,10.0
4146.92307672, 4157.82051262, 4164.10256390, 4177.82051269, 4157.17948697, 4163.58974339, 4165.25641005, 4136.41025621, 4174.48717935, 4156.28205108, 4159.99999980, 4154.61538441, 4146.15384595, 4128.97435870,10.0
4146.41025621, 4153.20512800, 4162.94871774, 4173.33333320, 4152.43589723, 4162.94871774, 4158.71794851, 4135.38461518, 4184.10256397, 4163.46153826, 4170.12820499, 4162.17948697, 4150.38461518, 4130.64102537,10.0
4134.61538434, 4144.48717928, 4154.99999980, 4161.92307672, 4139.61538441, 4141.53846133, 4136.79487159, 4130.51282024, 4176.28205115, 4148.97435877, 4160.64102544, 4155.51282031, 4144.61538441, 4129.99999973,10.0
4156.66666646, 4165.25641005, 4175.25641012, 4177.69230756, 4159.87179467, 4159.48717928, 4166.53846133, 4151.28205108, 4195.12820499, 4168.07692287, 4177.69230756, 4174.35897422, 4161.66666646, 4127.82051255,10.0
4190.12820499, 4191.53846140, 4203.58974352, 4199.23076910, 4195.25641012, 4195.12820499, 4213.97435891, 4172.05128192, 4224.87179481, 4210.64102558, 4208.33333327, 4206.41025634, 4184.35897422, 4130.64102537,10.0
4192.82051269, 4188.46153833, 4205.12820506, 4194.10256397, 4206.66666660, 4197.94871781, 4218.71794865, 4169.10256397, 4222.56410250, 4204.10256404, 4198.84615371, 4204.35897429, 4178.07692294, 4132.56410229,10.0
4171.28205115, 4163.84615364, 4184.61538448, 4172.69230756, 4185.64102551, 4173.97435884, 4188.97435884, 4153.58974339, 4198.58974345, 4156.66666646, 4163.84615364, 4171.79487166, 4150.64102544, 4129.23076896,10.0
4157.30769210, 4150.38461518, 4171.41025628, 4158.71794851, 4162.82051262, 4159.23076903, 4167.43589723, 4142.30769210, 4192.43589730, 4147.30769210, 4156.53846133, 4156.92307672, 4141.79487159, 4127.05128178,10.0
4166.28205108, 4159.61538441, 4177.69230756, 4164.48717928, 4170.38461525, 4173.84615371, 4178.33333320, 4144.74358954, 4199.23076910, 4169.99999986, 4173.07692294, 4169.87179474, 4155.25641005, 4131.41025614,10.0
4169.99999986, 4162.30769210, 4178.07692294, 4167.82051262, 4178.20512807, 4182.17948704, 4184.87179474, 4151.79487159, 4197.17948704, 4165.38461518, 4171.53846140, 4170.51282038, 4153.58974339, 4133.71794844,10.0
4143.97435877, 4139.48717928, 4153.46153826, 4146.28205108, 4152.82051262, 4155.12820492, 4155.38461518, 4142.05128185, 4181.92307679, 4136.66666646, 4148.84615364, 4143.33333313, 4129.23076896, 4128.97435870,10.0
4134.87179460, 4134.87179460, 4144.61538441, 4140.38461518, 4142.94871774, 4144.23076903, 4142.05128185, 4136.53846133, 4177.43589730, 4144.10256390, 4156.15384595, 4136.15384595, 4127.30769203, 4127.30769203,10.0
4169.35897422, 4165.25641005, 4177.30769217, 4169.61538448, 4175.64102551, 4180.25641012, 4179.48717935, 4160.76923056, 4208.97435891, 4188.46153833, 4194.61538448, 4168.07692287, 4161.15384595, 4129.10256383,10.0
4192.82051269, 4180.51282038, 4200.51282038, 4185.38461525, 4196.53846140, 4202.56410250, 4210.12820506, 4174.87179474, 4236.66666667, 4208.58974352, 4207.43589737, 4191.66666653, 4182.05128192, 4129.61538434,10.0
4181.53846140, 4166.15384595, 4186.53846140, 4171.02564089, 4179.48717935, 4181.66666653, 4193.33333320, 4153.07692287, 4214.99999993, 4185.64102551, 4190.38461525, 4181.02564089, 4172.69230756, 4129.87179460,10.0
4180.89743576, 4161.53846133, 4182.56410243, 4168.84615371, 4166.53846133, 4162.17948697, 4166.15384595, 4139.99999980, 4192.56410243, 4175.76923063, 4190.38461525, 4178.46153833, 4169.35897422, 4129.48717921,10.0
4196.53846140, 4172.17948704, 4202.17948711, 4181.66666653, 4176.28205115, 4162.94871774, 4159.99999980, 4154.23076903, 4204.61538455, 4192.43589730, 4207.30769224, 4198.71794858, 4179.35897422, 4130.51282024,10.0
4196.28205115, 4173.20512807, 4205.12820506, 4186.15384602, 4184.74358961, 4167.17948697, 4170.51282038, 4160.38461518, 4202.82051275, 4186.41025628, 4206.79487173, 4203.33333327, 4180.12820499, 4129.10256383,10.0
4178.71794858, 4159.48717928, 4187.82051269, 4179.10256397, 4175.25641012, 4164.99999980, 4172.17948704, 4149.74358954, 4178.33333320, 4159.74358954, 4186.41025628, 4182.82051269, 4163.46153826, 4127.17948691,10.0
4164.48717928, 4145.38461518, 4178.07692294, 4167.30769210, 4157.82051262, 4160.89743569, 4160.64102544, 4145.76923056, 4169.61538448, 4146.66666646, 4172.56410243, 4167.30769210, 4147.43589723, 4131.02564075,10.0
4164.10256390, 4146.02564082, 4177.56410243, 4161.15384595, 4153.84615364, 4160.64102544, 4158.58974339, 4154.87179467, 4182.30769217, 4153.58974339, 4171.53846140, 4166.79487159, 4148.97435877, 4133.07692280,10.0
4167.69230749, 4147.82051262, 4168.58974345, 4158.46153826, 4157.82051262, 4161.41025621, 4166.53846133, 4160.64102544, 4187.43589730, 4157.05128185, 4168.97435884, 4160.76923056, 4156.15384595, 4131.41025614,10.0
4168.97435884, 4144.99999980, 4165.12820492, 4159.10256390, 4162.94871774, 4169.23076910, 4176.53846140, 4156.41025621, 4182.94871781, 4156.28205108, 4169.35897422, 4156.66666646, 4156.53846133, 4130.51282024,10.0
4173.46153833, 4148.97435877, 4174.99999986, 4159.61538441, 4165.12820492, 4167.43589723, 4177.69230756, 4153.58974339, 4192.69230756, 4169.61538448, 4178.33333320, 4166.41025621, 4159.61538441, 4131.15384588,10.0
4177.56410243, 4147.94871774, 4172.69230756, 4150.76923056, 4160.51282031, 4150.64102544, 4164.48717928, 4149.99999980, 4204.74358968, 4175.89743576, 4180.51282038, 4169.61538448, 4165.38461518, 4129.87179460,10.0
4178.58974345, 4144.35897415, 4165.89743569, 4149.87179467, 4164.61538441, 4156.02564082, 4166.92307672, 4144.35897415, 4198.20512807, 4172.43589730, 4181.41025628, 4166.53846133, 4167.30769210, 4126.79487152,10.0
4177.94871781, 4149.87179467, 4167.17948697, 4158.20512800, 4165.76923056, 4169.48717935, 4175.76923063, 4139.35897415, 4181.02564089, 4169.74358961, 4180.51282038, 4169.48717935, 4161.02564082, 4128.97435870,10.0
